Data from Uncirc_1992_H10_HRD10591_00030.txt Node
Date: Wed Jan 03 11:46:22 EST 2024
User: Yrep
Spectrometer: HR+D1059
Trigger mode: 1
Integration Time (sec): 1.000000E-1
Scans to average: 1
Electric dark correction enabled: true
Nonlinearity correction enabled: false
Boxcar width: 0
XAxis mode: Wavelengths
Number of Pixels in Spectrum: 2048
>>>>>Begin Spectral Data<<<<<
223.165	-32.25
223.4	-32.25
223.635	-32.25
223.869	-19.25
224.104	-21.25
224.338	-14.25
224.573	-10.25
224.808	-8.25
225.042	-2.25
225.277	-18.25
225.511	0.75
225.746	2.75
225.98	5.75
226.215	8.75
226.449	32.75
226.683	22.75
226.918	25.75
227.152	26.75
227.387	39.75
227.621	34.75
227.856	30.75
228.09	44.75
228.324	55.75
228.559	63.75
228.793	61.75
229.027	70.75
229.262	78.75
229.496	84.75
229.73	81.75
229.964	79.75
230.199	74.75
230.433	94.75
230.667	84.75
230.901	80.75
231.136	71.75
231.37	84.75
231.604	81.75
231.838	79.75
232.072	67.75
232.306	72.75
232.541	79.75
232.775	70.75
233.009	77.75
233.243	87.75
233.477	75.75
233.711	67.75
233.945	74.75
234.179	90.75
234.413	81.75
234.647	83.75
234.881	72.75
235.115	84.75
235.349	80.75
235.583	83.75
235.817	71.75
236.051	84.75
236.285	80.75
236.519	78.75
236.753	79.75
236.987	79.75
237.221	75.75
237.455	93.75
237.689	79.75
237.922	73.75
238.156	84.75
238.39	70.75
238.624	58.75
238.858	72.75
239.091	87.75
239.325	71.75
239.559	64.75
239.793	74.75
240.027	75.75
240.26	68.75
240.494	94.75
240.728	90.75
240.961	72.75
241.195	86.75
241.429	86.75
241.662	79.75
241.896	78.75
242.13	76.75
242.363	85.75
242.597	84.75
242.83	79.75
243.064	88.75
243.298	82.75
243.531	64.75
243.765	81.75
243.998	88.75
244.232	75.75
244.465	88.75
244.699	100.75
244.932	72.75
245.166	72.75
245.399	81.75
245.633	68.75
245.866	56.75
246.099	71.75
246.333	82.75
246.566	73.75
246.8	89.75
247.033	83.75
247.266	84.75
247.5	74.75
247.733	87.75
247.966	81.75
248.2	83.75
248.433	90.75
248.666	80.75
248.899	69.75
249.133	89.75
249.366	98.75
249.599	105.75
249.832	77.75
250.066	66.75
250.299	81.75
250.532	76.75
250.765	74.75
250.998	81.75
251.231	76.75
251.465	88.75
251.698	84.75
251.931	78.75
252.164	100.75
252.397	71.75
252.63	89.75
252.863	99.75
253.096	85.75
253.329	77.75
253.562	72.75
253.795	73.75
254.028	88.75
254.261	85.75
254.494	88.75
254.727	85.75
254.96	89.75
255.193	91.75
255.426	78.75
255.659	78.75
255.892	78.75
256.124	90.75
256.357	91.75
256.59	84.75
256.823	92.75
257.056	66.75
257.289	78.75
257.521	95.75
257.754	72.75
257.987	85.75
258.22	56.75
258.452	70.75
258.685	87.75
258.918	99.75
259.151	98.75
259.383	68.75
259.616	88.75
259.849	96.75
260.081	82.75
260.314	88.75
260.547	70.75
260.779	82.75
261.012	70.75
261.244	86.75
261.477	94.75
261.71	88.75
261.942	105.75
262.175	107.75
262.407	91.75
262.64	86.75
262.872	92.75
263.105	89.75
263.337	95.75
263.57	71.75
263.802	79.75
264.035	92.75
264.267	77.75
264.499	79.75
264.732	87.75
264.964	81.75
265.197	98.75
265.429	84.75
265.661	84.75
265.894	75.75
266.126	85.75
266.358	89.75
266.591	95.75
266.823	90.75
267.055	82.75
267.287	75.75
267.52	86.75
267.752	71.75
267.984	81.75
268.216	81.75
268.448	86.75
268.681	93.75
268.913	90.75
269.145	83.75
269.377	94.75
269.609	81.75
269.841	78.75
270.073	82.75
270.306	88.75
270.538	84.75
270.77	81.75
271.002	98.75
271.234	82.75
271.466	85.75
271.698	75.75
271.93	92.75
272.162	86.75
272.394	84.75
272.626	74.75
272.858	88.75
273.09	93.75
273.322	90.75
273.553	81.75
273.785	82.75
274.017	80.75
274.249	78.75
274.481	78.75
274.713	85.75
274.945	72.75
275.176	95.75
275.408	76.75
275.64	87.75
275.872	91.75
276.104	69.75
276.335	80.75
276.567	96.75
276.799	102.75
277.031	80.75
277.262	87.75
277.494	91.75
277.726	92.75
277.957	84.75
278.189	80.75
278.421	89.75
278.652	87.75
278.884	83.75
279.115	85.75
279.347	93.75
279.579	101.75
279.81	92.75
280.042	87.75
280.273	75.75
280.505	94.75
280.736	86.75
280.968	84.75
281.199	90.75
281.431	95.75
281.662	88.75
281.894	92.75
282.125	96.75
282.356	96.75
282.588	129.75
282.819	104.75
283.051	86.75
283.282	70.75
283.513	76.75
283.745	93.75
283.976	95.75
284.207	80.75
284.439	87.75
284.67	90.75
284.901	76.75
285.132	82.75
285.364	83.75
285.595	91.75
285.826	86.75
286.057	85.75
286.288	77.75
286.52	85.75
286.751	84.75
286.982	91.75
287.213	93.75
287.444	90.75
287.675	82.75
287.906	95.75
288.138	78.75
288.369	86.75
288.6	82.75
288.831	101.75
289.062	83.75
289.293	78.75
289.524	95.75
289.755	88.75
289.986	83.75
290.217	78.75
290.448	71.75
290.679	86.75
290.91	92.75
291.141	78.75
291.371	99.75
291.602	84.75
291.833	78.75
292.064	91.75
292.295	91.75
292.526	87.75
292.757	89.75
292.987	99.75
293.218	85.75
293.449	82.75
293.68	98.75
293.91	96.75
294.141	90.75
294.372	80.75
294.603	87.75
294.833	87.75
295.064	97.75
295.295	78.75
295.525	96.75
295.756	100.75
295.987	111.75
296.217	110.75
296.448	117.75
296.679	85.75
296.909	94.75
297.14	82.75
297.37	88.75
297.601	87.75
297.831	91.75
298.062	101.75
298.292	85.75
298.523	88.75
298.753	100.75
298.984	93.75
299.214	102.75
299.445	88.75
299.675	84.75
299.905	91.75
300.136	97.75
300.366	91.75
300.597	83.75
300.827	93.75
301.057	85.75
301.288	102.75
301.518	97.75
301.748	99.75
301.979	91.75
302.209	82.75
302.439	78.75
302.669	88.75
302.9	101.75
303.13	93.75
303.36	94.75
303.59	103.75
303.82	81.75
304.051	90.75
304.281	80.75
304.511	85.75
304.741	74.75
304.971	82.75
305.201	81.75
305.431	92.75
305.661	85.75
305.891	90.75
306.121	99.75
306.352	106.75
306.582	93.75
306.812	94.75
307.042	83.75
307.272	81.75
307.502	97.75
307.731	103.75
307.961	103.75
308.191	83.75
308.421	101.75
308.651	103.75
308.881	96.75
309.111	94.75
309.341	88.75
309.571	102.75
309.8	92.75
310.03	91.75
310.26	87.75
310.49	96.75
310.72	97.75
310.949	89.75
311.179	109.75
311.409	116.75
311.639	90.75
311.868	97.75
312.098	109.75
312.328	82.75
312.557	105.75
312.787	94.75
313.017	92.75
313.246	89.75
313.476	86.75
313.706	91.75
313.935	100.75
314.165	91.75
314.394	95.75
314.624	87.75
314.853	93.75
315.083	104.75
315.312	81.75
315.542	87.75
315.771	92.75
316.001	89.75
316.23	96.75
316.46	96.75
316.689	93.75
316.919	93.75
317.148	91.75
317.377	100.75
317.607	98.75
317.836	94.75
318.065	98.75
318.295	94.75
318.524	99.75
318.753	92.75
318.983	94.75
319.212	91.75
319.441	92.75
319.67	98.75
319.9	95.75
320.129	86.75
320.358	90.75
320.587	107.75
320.816	98.75
321.046	95.75
321.275	87.75
321.504	95.75
321.733	106.75
321.962	90.75
322.191	95.75
322.42	91.75
322.649	97.75
322.878	103.75
323.108	114.75
323.337	103.75
323.566	96.75
323.795	131.75
324.024	170.75
324.253	316.75
324.482	605.75
324.71	1252.75
324.939	1605.75
325.168	592.75
325.397	196.75
325.626	134.75
325.855	117.75
326.084	116.75
326.313	115.75
326.542	147.75
326.77	182.75
326.999	360.75
327.228	722.75
327.457	1256.75
327.686	975.75
327.914	289.75
328.143	162.75
328.372	114.75
328.6	123.75
328.829	105.75
329.058	105.75
329.287	113.75
329.515	99.75
329.744	103.75
329.972	96.75
330.201	100.75
330.43	85.75
330.658	104.75
330.887	103.75
331.115	114.75
331.344	96.75
331.572	98.75
331.801	93.75
332.03	100.75
332.258	85.75
332.486	85.75
332.715	90.75
332.943	100.75
333.172	93.75
333.4	86.75
333.629	99.75
333.857	114.75
334.085	108.75
334.314	106.75
334.542	81.75
334.771	99.75
334.999	85.75
335.227	99.75
335.455	99.75
335.684	98.75
335.912	101.75
336.14	99.75
336.369	92.75
336.597	79.75
336.825	86.75
337.053	106.75
337.281	99.75
337.51	84.75
337.738	108.75
337.966	82.75
338.194	107.75
338.422	94.75
338.65	93.75
338.878	101.75
339.106	87.75
339.334	82.75
339.562	88.75
339.79	97.75
340.018	78.75
340.246	90.75
340.474	91.75
340.702	78.75
340.93	77.75
341.158	98.75
341.386	87.75
341.614	100.75
341.842	95.75
342.07	82.75
342.298	97.75
342.526	91.75
342.754	86.75
342.981	96.75
343.209	91.75
343.437	113.75
343.665	84.75
343.893	95.75
344.12	93.75
344.348	89.75
344.576	96.75
344.804	98.75
345.031	93.75
345.259	82.75
345.487	105.75
345.714	100.75
345.942	107.75
346.17	94.75
346.397	91.75
346.625	87.75
346.853	90.75
347.08	100.75
347.308	100.75
347.535	100.75
347.763	90.75
347.99	95.75
348.218	93.75
348.445	101.75
348.673	92.75
348.9	99.75
349.128	90.75
349.355	97.75
349.583	88.75
349.81	101.75
350.037	86.75
350.265	86.75
350.492	95.75
350.72	102.75
350.947	102.75
351.174	109.75
351.402	94.75
351.629	104.75
351.856	95.75
352.083	113.75
352.311	102.75
352.538	90.75
352.765	99.75
352.992	107.75
353.22	107.75
353.447	104.75
353.674	105.75
353.901	107.75
354.128	108.75
354.355	95.75
354.583	91.75
354.81	83.75
355.037	104.75
355.264	93.75
355.491	97.75
355.718	103.75
355.945	92.75
356.172	99.75
356.399	101.75
356.626	74.75
356.853	93.75
357.08	77.75
357.307	93.75
357.534	91.75
357.761	103.75
357.988	91.75
358.215	99.75
358.441	82.75
358.668	78.75
358.895	92.75
359.122	99.75
359.349	85.75
359.576	83.75
359.802	94.75
360.029	104.75
360.256	93.75
360.483	103.75
360.709	105.75
360.936	103.75
361.163	86.75
361.39	78.75
361.616	88.75
361.843	97.75
362.07	93.75
362.296	101.75
362.523	104.75
362.749	108.75
362.976	95.75
363.203	84.75
363.429	96.75
363.656	90.75
363.882	81.75
364.109	97.75
364.335	88.75
364.562	99.75
364.788	100.75
365.015	98.75
365.241	100.75
365.468	104.75
365.694	95.75
365.92	98.75
366.147	100.75
366.373	107.75
366.599	90.75
366.826	84.75
367.052	91.75
367.278	98.75
367.505	87.75
367.731	92.75
367.957	90.75
368.184	85.75
368.41	98.75
368.636	104.75
368.862	109.75
369.089	94.75
369.315	98.75
369.541	104.75
369.767	89.75
369.993	81.75
370.219	90.75
370.445	92.75
370.672	85.75
370.898	90.75
371.124	86.75
371.35	81.75
371.576	82.75
371.802	85.75
372.028	83.75
372.254	82.75
372.48	76.75
372.706	83.75
372.932	96.75
373.158	92.75
373.384	104.75
373.61	81.75
373.835	86.75
374.061	102.75
374.287	89.75
374.513	77.75
374.739	91.75
374.965	93.75
375.191	77.75
375.416	97.75
375.642	94.75
375.868	95.75
376.094	82.75
376.319	90.75
376.545	89.75
376.771	98.75
376.997	86.75
377.222	96.75
377.448	93.75
377.674	99.75
377.899	92.75
378.125	82.75
378.35	83.75
378.576	82.75
378.802	92.75
379.027	99.75
379.253	93.75
379.478	92.75
379.704	91.75
379.929	92.75
380.155	95.75
380.38	100.75
380.606	94.75
380.831	81.75
381.057	97.75
381.282	104.75
381.507	98.75
381.733	100.75
381.958	94.75
382.184	90.75
382.409	93.75
382.634	78.75
382.86	95.75
383.085	102.75
383.31	109.75
383.535	110.75
383.761	95.75
383.986	99.75
384.211	92.75
384.436	88.75
384.662	97.75
384.887	95.75
385.112	102.75
385.337	114.75
385.562	97.75
385.787	112.75
386.013	113.75
386.238	107.75
386.463	113.75
386.688	94.75
386.913	113.75
387.138	101.75
387.363	110.75
387.588	113.75
387.813	109.75
388.038	106.75
388.263	110.75
388.488	102.75
388.713	85.75
388.938	97.75
389.163	101.75
389.387	94.75
389.612	98.75
389.837	94.75
390.062	82.75
390.287	93.75
390.512	104.75
390.736	96.75
390.961	102.75
391.186	95.75
391.411	104.75
391.636	96.75
391.86	97.75
392.085	90.75
392.31	107.75
392.534	83.75
392.759	94.75
392.984	91.75
393.208	93.75
393.433	109.75
393.658	90.75
393.882	84.75
394.107	98.75
394.331	79.75
394.556	93.75
394.78	84.75
395.005	98.75
395.229	84.75
395.454	101.75
395.678	86.75
395.903	85.75
396.127	85.75
396.352	79.75
396.576	95.75
396.801	87.75
397.025	95.75
397.249	95.75
397.474	91.75
397.698	85.75
397.922	88.75
398.147	89.75
398.371	88.75
398.595	93.75
398.82	90.75
399.044	97.75
399.268	103.75
399.492	101.75
399.717	100.75
399.941	95.75
400.165	90.75
400.389	97.75
400.613	92.75
400.837	93.75
401.062	84.75
401.286	87.75
401.51	72.75
401.734	87.75
401.958	81.75
402.182	126.75
402.406	135.75
402.63	113.75
402.854	92.75
403.078	96.75
403.302	100.75
403.526	88.75
403.75	93.75
403.974	82.75
404.198	91.75
404.422	97.75
404.645	91.75
404.869	78.75
405.093	113.75
405.317	86.75
405.541	98.75
405.765	92.75
405.988	113.75
406.212	163.75
406.436	190.75
406.66	124.75
406.883	96.75
407.107	102.75
407.331	93.75
407.555	106.75
407.778	92.75
408.002	87.75
408.226	90.75
408.449	88.75
408.673	96.75
408.896	99.75
409.12	111.75
409.344	82.75
409.567	87.75
409.791	84.75
410.014	100.75
410.238	83.75
410.461	106.75
410.685	103.75
410.908	100.75
411.132	112.75
411.355	92.75
411.578	87.75
411.802	112.75
412.025	95.75
412.249	83.75
412.472	90.75
412.695	88.75
412.919	88.75
413.142	94.75
413.365	99.75
413.589	94.75
413.812	79.75
414.035	74.75
414.258	95.75
414.482	81.75
414.705	86.75
414.928	84.75
415.151	99.75
415.374	101.75
415.597	101.75
415.821	91.75
416.044	94.75
416.267	87.75
416.49	88.75
416.713	83.75
416.936	103.75
417.159	90.75
417.382	82.75
417.605	90.75
417.828	88.75
418.051	94.75
418.274	92.75
418.497	88.75
418.72	105.75
418.943	94.75
419.166	78.75
419.389	91.75
419.611	91.75
419.834	82.75
420.057	92.75
420.28	78.75
420.503	101.75
420.726	87.75
420.948	92.75
421.171	88.75
421.394	98.75
421.617	86.75
421.839	97.75
422.062	88.75
422.285	86.75
422.507	99.75
422.73	102.75
422.953	90.75
423.175	95.75
423.398	86.75
423.621	89.75
423.843	71.75
424.066	83.75
424.288	81.75
424.511	89.75
424.733	92.75
424.956	97.75
425.178	110.75
425.401	99.75
425.623	92.75
425.846	85.75
426.068	82.75
426.291	96.75
426.513	97.75
426.735	85.75
426.958	84.75
427.18	91.75
427.402	106.75
427.625	125.75
427.847	111.75
428.069	92.75
428.292	87.75
428.514	93.75
428.736	88.75
428.958	87.75
429.181	90.75
429.403	79.75
429.625	94.75
429.847	99.75
430.069	104.75
430.292	92.75
430.514	91.75
430.736	96.75
430.958	92.75
431.18	84.75
431.402	95.75
431.624	104.75
431.846	94.75
432.068	71.75
432.29	92.75
432.512	90.75
432.734	81.75
432.956	99.75
433.178	104.75
433.4	90.75
433.622	94.75
433.844	93.75
434.066	97.75
434.287	106.75
434.509	101.75
434.731	83.75
434.953	99.75
435.175	82.75
435.397	92.75
435.618	80.75
435.84	99.75
436.062	108.75
436.284	112.75
436.505	94.75
436.727	98.75
436.949	94.75
437.17	110.75
437.392	91.75
437.614	96.75
437.835	87.75
438.057	104.75
438.278	98.75
438.5	104.75
438.721	124.75
438.943	101.75
439.165	94.75
439.386	80.75
439.608	103.75
439.829	107.75
440.05	112.75
440.272	118.75
440.493	95.75
440.715	94.75
440.936	95.75
441.158	78.75
441.379	80.75
441.6	96.75
441.822	101.75
442.043	88.75
442.264	106.75
442.486	85.75
442.707	93.75
442.928	94.75
443.149	101.75
443.371	124.75
443.592	104.75
443.813	99.75
444.034	111.75
444.255	103.75
444.476	89.75
444.698	88.75
444.919	91.75
445.14	135.75
445.361	117.75
445.582	123.75
445.803	124.75
446.024	106.75
446.245	119.75
446.466	119.75
446.687	86.75
446.908	86.75
447.129	78.75
447.35	85.75
447.571	88.75
447.792	95.75
448.013	106.75
448.234	96.75
448.455	89.75
448.675	95.75
448.896	97.75
449.117	91.75
449.338	101.75
449.559	115.75
449.779	107.75
450	95.75
450.221	83.75
450.442	87.75
450.662	85.75
450.883	104.75
451.104	97.75
451.324	89.75
451.545	90.75
451.766	95.75
451.986	96.75
452.207	70.75
452.428	81.75
452.648	82.75
452.869	102.75
453.089	108.75
453.31	107.75
453.53	84.75
453.751	98.75
453.971	103.75
454.192	101.75
454.412	84.75
454.633	94.75
454.853	94.75
455.073	87.75
455.294	86.75
455.514	93.75
455.734	102.75
455.955	93.75
456.175	88.75
456.395	87.75
456.616	88.75
456.836	78.75
457.056	83.75
457.276	86.75
457.497	96.75
457.717	87.75
457.937	90.75
458.157	84.75
458.377	91.75
458.598	83.75
458.818	116.75
459.038	125.75
459.258	100.75
459.478	87.75
459.698	82.75
459.918	91.75
460.138	101.75
460.358	88.75
460.578	90.75
460.798	79.75
461.018	92.75
461.238	93.75
461.458	91.75
461.678	92.75
461.898	83.75
462.118	95.75
462.338	65.75
462.558	78.75
462.777	82.75
462.997	84.75
463.217	84.75
463.437	88.75
463.657	95.75
463.876	86.75
464.096	88.75
464.316	86.75
464.536	91.75
464.755	95.75
464.975	119.75
465.195	140.75
465.414	143.75
465.634	92.75
465.854	82.75
466.073	79.75
466.293	102.75
466.512	80.75
466.732	80.75
466.951	90.75
467.171	88.75
467.391	84.75
467.61	84.75
467.829	88.75
468.049	77.75
468.268	90.75
468.488	88.75
468.707	76.75
468.927	82.75
469.146	97.75
469.365	90.75
469.585	91.75
469.804	97.75
470.023	81.75
470.243	89.75
470.462	97.75
470.681	109.75
470.901	80.75
471.12	86.75
471.339	87.75
471.558	91.75
471.777	95.75
471.997	91.75
472.216	89.75
472.435	94.75
472.654	81.75
472.873	88.75
473.092	88.75
473.311	92.75
473.53	80.75
473.749	87.75
473.968	104.75
474.187	110.75
474.406	96.75
474.625	84.75
474.844	86.75
475.063	87.75
475.282	83.75
475.501	89.75
475.72	75.75
475.939	91.75
476.158	87.75
476.377	85.75
476.596	89.75
476.814	92.75
477.033	99.75
477.252	94.75
477.471	96.75
477.69	100.75
477.908	89.75
478.127	89.75
478.346	82.75
478.564	77.75
478.783	87.75
479.002	92.75
479.22	82.75
479.439	93.75
479.658	85.75
479.876	98.75
480.095	91.75
480.313	101.75
480.532	86.75
480.751	76.75
480.969	92.75
481.188	94.75
481.406	96.75
481.624	79.75
481.843	81.75
482.061	84.75
482.28	86.75
482.498	89.75
482.717	86.75
482.935	97.75
483.153	98.75
483.372	87.75
483.59	102.75
483.808	74.75
484.027	93.75
484.245	96.75
484.463	94.75
484.681	86.75
484.9	95.75
485.118	93.75
485.336	91.75
485.554	103.75
485.772	113.75
485.99	86.75
486.209	104.75
486.427	108.75
486.645	107.75
486.863	114.75
487.081	86.75
487.299	79.75
487.517	107.75
487.735	102.75
487.953	93.75
488.171	90.75
488.389	98.75
488.607	94.75
488.825	103.75
489.043	98.75
489.261	96.75
489.479	99.75
489.696	83.75
489.914	94.75
490.132	94.75
490.35	96.75
490.568	107.75
490.786	110.75
491.003	99.75
491.221	88.75
491.439	93.75
491.657	94.75
491.874	91.75
492.092	92.75
492.31	83.75
492.527	98.75
492.745	96.75
492.963	81.75
493.18	80.75
493.398	106.75
493.615	101.75
493.833	90.75
494.05	84.75
494.268	78.75
494.485	90.75
494.703	87.75
494.92	96.75
495.138	74.75
495.355	89.75
495.573	85.75
495.79	84.75
496.008	97.75
496.225	110.75
496.442	87.75
496.66	96.75
496.877	92.75
497.094	94.75
497.312	85.75
497.529	98.75
497.746	96.75
497.963	81.75
498.181	100.75
498.398	98.75
498.615	108.75
498.832	100.75
499.049	86.75
499.267	98.75
499.484	96.75
499.701	94.75
499.918	105.75
500.135	102.75
500.352	101.75
500.569	86.75
500.786	89.75
501.003	86.75
501.22	84.75
501.437	89.75
501.654	102.75
501.871	102.75
502.088	93.75
502.305	87.75
502.522	89.75
502.739	74.75
502.956	93.75
503.172	90.75
503.389	102.75
503.606	91.75
503.823	103.75
504.04	91.75
504.256	84.75
504.473	87.75
504.69	105.75
504.907	95.75
505.123	94.75
505.34	99.75
505.557	94.75
505.773	79.75
505.99	90.75
506.207	84.75
506.423	84.75
506.64	77.75
506.856	79.75
507.073	91.75
507.289	91.75
507.506	103.75
507.722	108.75
507.939	92.75
508.155	99.75
508.372	108.75
508.588	92.75
508.805	97.75
509.021	105.75
509.238	110.75
509.454	102.75
509.67	96.75
509.887	102.75
510.103	111.75
510.319	181.75
510.536	625.75
510.752	1789.75
510.968	504.75
511.184	140.75
511.401	116.75
511.617	101.75
511.833	105.75
512.049	98.75
512.265	89.75
512.481	76.75
512.698	96.75
512.914	93.75
513.13	83.75
513.346	97.75
513.562	89.75
513.778	96.75
513.994	110.75
514.21	96.75
514.426	100.75
514.642	120.75
514.858	115.75
515.074	161.75
515.29	347.75
515.506	1086.75
515.721	399.75
515.937	138.75
