Data from Uncirc_1992_H10_HRD10591_00039.txt Node
Date: Wed Jan 03 11:46:24 EST 2024
User: Yrep
Spectrometer: HR+D1059
Trigger mode: 1
Integration Time (sec): 1.000000E-1
Scans to average: 1
Electric dark correction enabled: true
Nonlinearity correction enabled: false
Boxcar width: 0
XAxis mode: Wavelengths
Number of Pixels in Spectrum: 2048
>>>>>Begin Spectral Data<<<<<
223.165	-15.25
223.4	-15.25
223.635	-15.25
223.869	-16.25
224.104	-17.25
224.338	-9.25
224.573	-26.25
224.808	-11.25
225.042	-16.25
225.277	-10.25
225.511	3.75
225.746	-2.25
225.98	-3.25
226.215	22.75
226.449	15.75
226.683	23.75
226.918	25.75
227.152	35.75
227.387	35.75
227.621	38.75
227.856	46.75
228.09	43.75
228.324	53.75
228.559	46.75
228.793	57.75
229.027	56.75
229.262	52.75
229.496	61.75
229.73	77.75
229.964	85.75
230.199	77.75
230.433	66.75
230.667	89.75
230.901	58.75
231.136	79.75
231.37	87.75
231.604	84.75
231.838	74.75
232.072	87.75
232.306	70.75
232.541	59.75
232.775	80.75
233.009	67.75
233.243	71.75
233.477	89.75
233.711	70.75
233.945	80.75
234.179	83.75
234.413	74.75
234.647	70.75
234.881	87.75
235.115	73.75
235.349	82.75
235.583	67.75
235.817	81.75
236.051	67.75
236.285	85.75
236.519	62.75
236.753	81.75
236.987	87.75
237.221	98.75
237.455	84.75
237.689	84.75
237.922	73.75
238.156	64.75
238.39	77.75
238.624	69.75
238.858	80.75
239.091	69.75
239.325	62.75
239.559	99.75
239.793	81.75
240.027	77.75
240.26	84.75
240.494	92.75
240.728	81.75
240.961	79.75
241.195	91.75
241.429	73.75
241.662	81.75
241.896	69.75
242.13	78.75
242.363	82.75
242.597	82.75
242.83	65.75
243.064	91.75
243.298	70.75
243.531	85.75
243.765	81.75
243.998	81.75
244.232	73.75
244.465	80.75
244.699	88.75
244.932	75.75
245.166	69.75
245.399	79.75
245.633	72.75
245.866	86.75
246.099	89.75
246.333	83.75
246.566	69.75
246.8	89.75
247.033	85.75
247.266	74.75
247.5	69.75
247.733	77.75
247.966	81.75
248.2	86.75
248.433	83.75
248.666	79.75
248.899	93.75
249.133	89.75
249.366	87.75
249.599	83.75
249.832	82.75
250.066	80.75
250.299	82.75
250.532	73.75
250.765	68.75
250.998	83.75
251.231	85.75
251.465	90.75
251.698	86.75
251.931	82.75
252.164	85.75
252.397	87.75
252.63	74.75
252.863	70.75
253.096	77.75
253.329	94.75
253.562	79.75
253.795	86.75
254.028	94.75
254.261	73.75
254.494	77.75
254.727	81.75
254.96	74.75
255.193	78.75
255.426	101.75
255.659	78.75
255.892	77.75
256.124	80.75
256.357	83.75
256.59	76.75
256.823	87.75
257.056	85.75
257.289	83.75
257.521	71.75
257.754	74.75
257.987	60.75
258.22	73.75
258.452	59.75
258.685	70.75
258.918	90.75
259.151	80.75
259.383	85.75
259.616	87.75
259.849	95.75
260.081	95.75
260.314	84.75
260.547	75.75
260.779	83.75
261.012	90.75
261.244	79.75
261.477	85.75
261.71	93.75
261.942	88.75
262.175	104.75
262.407	97.75
262.64	73.75
262.872	76.75
263.105	104.75
263.337	68.75
263.57	78.75
263.802	86.75
264.035	101.75
264.267	98.75
264.499	89.75
264.732	93.75
264.964	87.75
265.197	77.75
265.429	100.75
265.661	81.75
265.894	90.75
266.126	90.75
266.358	82.75
266.591	75.75
266.823	75.75
267.055	77.75
267.287	83.75
267.52	88.75
267.752	79.75
267.984	89.75
268.216	77.75
268.448	76.75
268.681	96.75
268.913	85.75
269.145	91.75
269.377	85.75
269.609	80.75
269.841	89.75
270.073	89.75
270.306	95.75
270.538	86.75
270.77	93.75
271.002	88.75
271.234	92.75
271.466	98.75
271.698	74.75
271.93	81.75
272.162	93.75
272.394	86.75
272.626	101.75
272.858	68.75
273.09	79.75
273.322	83.75
273.553	98.75
273.785	97.75
274.017	85.75
274.249	94.75
274.481	86.75
274.713	76.75
274.945	81.75
275.176	85.75
275.408	77.75
275.64	93.75
275.872	83.75
276.104	96.75
276.335	89.75
276.567	95.75
276.799	92.75
277.031	110.75
277.262	86.75
277.494	90.75
277.726	98.75
277.957	85.75
278.189	76.75
278.421	76.75
278.652	82.75
278.884	77.75
279.115	89.75
279.347	71.75
279.579	85.75
279.81	82.75
280.042	84.75
280.273	96.75
280.505	97.75
280.736	73.75
280.968	81.75
281.199	78.75
281.431	94.75
281.662	99.75
281.894	96.75
282.125	103.75
282.356	107.75
282.588	112.75
282.819	108.75
283.051	91.75
283.282	74.75
283.513	78.75
283.745	79.75
283.976	76.75
284.207	78.75
284.439	79.75
284.67	79.75
284.901	100.75
285.132	79.75
285.364	81.75
285.595	84.75
285.826	70.75
286.057	85.75
286.288	98.75
286.52	88.75
286.751	93.75
286.982	99.75
287.213	83.75
287.444	79.75
287.675	87.75
287.906	98.75
288.138	77.75
288.369	102.75
288.6	86.75
288.831	81.75
289.062	78.75
289.293	84.75
289.524	83.75
289.755	85.75
289.986	78.75
290.217	97.75
290.448	94.75
290.679	83.75
290.91	96.75
291.141	81.75
291.371	90.75
291.602	95.75
291.833	80.75
292.064	88.75
292.295	97.75
292.526	89.75
292.757	85.75
292.987	94.75
293.218	84.75
293.449	74.75
293.68	83.75
293.91	73.75
294.141	97.75
294.372	85.75
294.603	92.75
294.833	86.75
295.064	98.75
295.295	92.75
295.525	93.75
295.756	99.75
295.987	100.75
296.217	110.75
296.448	107.75
296.679	95.75
296.909	99.75
297.14	83.75
297.37	96.75
297.601	101.75
297.831	92.75
298.062	90.75
298.292	102.75
298.523	86.75
298.753	82.75
298.984	96.75
299.214	93.75
299.445	94.75
299.675	99.75
299.905	100.75
300.136	86.75
300.366	90.75
300.597	90.75
300.827	86.75
301.057	98.75
301.288	98.75
301.518	81.75
301.748	79.75
301.979	91.75
302.209	90.75
302.439	94.75
302.669	93.75
302.9	83.75
303.13	93.75
303.36	101.75
303.59	101.75
303.82	107.75
304.051	97.75
304.281	89.75
304.511	89.75
304.741	94.75
304.971	94.75
305.201	85.75
305.431	107.75
305.661	73.75
305.891	89.75
306.121	89.75
306.352	97.75
306.582	94.75
306.812	95.75
307.042	81.75
307.272	91.75
307.502	99.75
307.731	86.75
307.961	98.75
308.191	97.75
308.421	80.75
308.651	83.75
308.881	94.75
309.111	93.75
309.341	97.75
309.571	91.75
309.8	94.75
310.03	102.75
310.26	94.75
310.49	83.75
310.72	98.75
310.949	108.75
311.179	101.75
311.409	86.75
311.639	92.75
311.868	91.75
312.098	86.75
312.328	96.75
312.557	99.75
312.787	103.75
313.017	107.75
313.246	87.75
313.476	85.75
313.706	87.75
313.935	83.75
314.165	85.75
314.394	89.75
314.624	96.75
314.853	97.75
315.083	107.75
315.312	90.75
315.542	93.75
315.771	111.75
316.001	98.75
316.23	77.75
316.46	86.75
316.689	88.75
316.919	89.75
317.148	106.75
317.377	98.75
317.607	78.75
317.836	91.75
318.065	90.75
318.295	87.75
318.524	99.75
318.753	100.75
318.983	82.75
319.212	103.75
319.441	94.75
319.67	106.75
319.9	87.75
320.129	91.75
320.358	86.75
320.587	95.75
320.816	87.75
321.046	99.75
321.275	93.75
321.504	84.75
321.733	94.75
321.962	92.75
322.191	107.75
322.42	102.75
322.649	89.75
322.878	117.75
323.108	107.75
323.337	120.75
323.566	119.75
323.795	121.75
324.024	159.75
324.253	314.75
324.482	620.75
324.71	1225.75
324.939	1619.75
325.168	624.75
325.397	198.75
325.626	134.75
325.855	124.75
326.084	125.75
326.313	119.75
326.542	145.75
326.77	181.75
326.999	359.75
327.228	729.75
327.457	1245.75
327.686	961.75
327.914	276.75
328.143	156.75
328.372	144.75
328.6	103.75
328.829	105.75
329.058	103.75
329.287	106.75
329.515	101.75
329.744	95.75
329.972	101.75
330.201	91.75
330.43	113.75
330.658	93.75
330.887	129.75
331.115	116.75
331.344	103.75
331.572	92.75
331.801	96.75
332.03	86.75
332.258	93.75
332.486	79.75
332.715	86.75
332.943	90.75
333.172	92.75
333.4	101.75
333.629	98.75
333.857	100.75
334.085	99.75
334.314	94.75
334.542	96.75
334.771	105.75
334.999	93.75
335.227	94.75
335.455	100.75
335.684	89.75
335.912	101.75
336.14	97.75
336.369	85.75
336.597	99.75
336.825	98.75
337.053	108.75
337.281	93.75
337.51	92.75
337.738	91.75
337.966	94.75
338.194	81.75
338.422	87.75
338.65	107.75
338.878	105.75
339.106	91.75
339.334	102.75
339.562	103.75
339.79	92.75
340.018	99.75
340.246	100.75
340.474	92.75
340.702	82.75
340.93	87.75
341.158	99.75
341.386	101.75
341.614	87.75
341.842	93.75
342.07	84.75
342.298	85.75
342.526	88.75
342.754	94.75
342.981	93.75
343.209	85.75
343.437	112.75
343.665	99.75
343.893	97.75
344.12	100.75
344.348	103.75
344.576	89.75
344.804	95.75
345.031	109.75
345.259	95.75
345.487	100.75
345.714	97.75
345.942	77.75
346.17	95.75
346.397	79.75
346.625	95.75
346.853	89.75
347.08	106.75
347.308	89.75
347.535	78.75
347.763	91.75
347.99	85.75
348.218	113.75
348.445	107.75
348.673	102.75
348.9	85.75
349.128	98.75
349.355	98.75
349.583	99.75
349.81	107.75
350.037	93.75
350.265	99.75
350.492	78.75
350.72	103.75
350.947	103.75
351.174	110.75
351.402	102.75
351.629	96.75
351.856	88.75
352.083	98.75
352.311	111.75
352.538	100.75
352.765	107.75
352.992	118.75
353.22	106.75
353.447	106.75
353.674	122.75
353.901	111.75
354.128	101.75
354.355	98.75
354.583	116.75
354.81	106.75
355.037	101.75
355.264	120.75
355.491	91.75
355.718	89.75
355.945	94.75
356.172	87.75
356.399	96.75
356.626	95.75
356.853	100.75
357.08	89.75
357.307	97.75
357.534	102.75
357.761	94.75
357.988	101.75
358.215	101.75
358.441	94.75
358.668	92.75
358.895	96.75
359.122	98.75
359.349	95.75
359.576	86.75
359.802	79.75
360.029	93.75
360.256	104.75
360.483	99.75
360.709	106.75
360.936	105.75
361.163	103.75
361.39	83.75
361.616	102.75
361.843	90.75
362.07	90.75
362.296	92.75
362.523	90.75
362.749	85.75
362.976	88.75
363.203	97.75
363.429	82.75
363.656	98.75
363.882	79.75
364.109	89.75
364.335	95.75
364.562	91.75
364.788	99.75
365.015	85.75
365.241	83.75
365.468	101.75
365.694	100.75
365.92	83.75
366.147	81.75
366.373	97.75
366.599	93.75
366.826	88.75
367.052	84.75
367.278	85.75
367.505	86.75
367.731	93.75
367.957	89.75
368.184	97.75
368.41	85.75
368.636	115.75
368.862	101.75
369.089	104.75
369.315	97.75
369.541	99.75
369.767	95.75
369.993	90.75
370.219	109.75
370.445	91.75
370.672	89.75
370.898	87.75
371.124	73.75
371.35	89.75
371.576	72.75
371.802	87.75
372.028	90.75
372.254	77.75
372.48	100.75
372.706	85.75
372.932	85.75
373.158	96.75
373.384	97.75
373.61	79.75
373.835	83.75
374.061	73.75
374.287	87.75
374.513	90.75
374.739	91.75
374.965	88.75
375.191	87.75
375.416	80.75
375.642	98.75
375.868	84.75
376.094	88.75
376.319	85.75
376.545	91.75
376.771	88.75
376.997	91.75
377.222	79.75
377.448	105.75
377.674	90.75
377.899	85.75
378.125	99.75
378.35	91.75
378.576	90.75
378.802	87.75
379.027	99.75
379.253	81.75
379.478	86.75
379.704	81.75
379.929	95.75
380.155	97.75
380.38	100.75
380.606	103.75
380.831	102.75
381.057	101.75
381.282	107.75
381.507	100.75
381.733	87.75
381.958	120.75
382.184	92.75
382.409	94.75
382.634	118.75
382.86	109.75
383.085	111.75
383.31	111.75
383.535	105.75
383.761	103.75
383.986	107.75
384.211	96.75
384.436	88.75
384.662	101.75
384.887	110.75
385.112	94.75
385.337	83.75
385.562	96.75
385.787	90.75
386.013	93.75
386.238	114.75
386.463	100.75
386.688	105.75
386.913	107.75
387.138	89.75
387.363	109.75
387.588	100.75
387.813	89.75
388.038	99.75
388.263	113.75
388.488	85.75
388.713	99.75
388.938	110.75
389.163	105.75
389.387	94.75
389.612	99.75
389.837	112.75
390.062	90.75
390.287	93.75
390.512	79.75
390.736	98.75
390.961	68.75
391.186	94.75
391.411	91.75
391.636	103.75
391.86	92.75
392.085	99.75
392.31	85.75
392.534	86.75
392.759	89.75
392.984	101.75
393.208	74.75
393.433	92.75
393.658	92.75
393.882	85.75
394.107	70.75
394.331	95.75
394.556	85.75
394.78	76.75
395.005	84.75
395.229	101.75
395.454	79.75
395.678	86.75
395.903	102.75
396.127	91.75
396.352	80.75
396.576	85.75
396.801	78.75
397.025	81.75
397.249	79.75
397.474	95.75
397.698	82.75
397.922	104.75
398.147	89.75
398.371	81.75
398.595	93.75
398.82	85.75
399.044	96.75
399.268	86.75
399.492	73.75
399.717	91.75
399.941	81.75
400.165	101.75
400.389	98.75
400.613	94.75
400.837	95.75
401.062	87.75
401.286	95.75
401.51	86.75
401.734	85.75
401.958	90.75
402.182	126.75
402.406	133.75
402.63	105.75
402.854	99.75
403.078	79.75
403.302	93.75
403.526	95.75
403.75	88.75
403.974	97.75
404.198	76.75
404.422	89.75
404.645	90.75
404.869	71.75
405.093	87.75
405.317	94.75
405.541	94.75
405.765	93.75
405.988	99.75
406.212	139.75
406.436	208.75
406.66	120.75
406.883	96.75
407.107	89.75
407.331	102.75
407.555	98.75
407.778	93.75
408.002	85.75
408.226	91.75
408.449	81.75
408.673	86.75
408.896	97.75
409.12	75.75
409.344	94.75
409.567	93.75
409.791	88.75
410.014	91.75
410.238	80.75
410.461	80.75
410.685	90.75
410.908	90.75
411.132	103.75
411.355	85.75
411.578	87.75
411.802	90.75
412.025	83.75
412.249	80.75
412.472	75.75
412.695	86.75
412.919	89.75
413.142	83.75
413.365	90.75
413.589	96.75
413.812	87.75
414.035	91.75
414.258	103.75
414.482	90.75
414.705	84.75
414.928	94.75
415.151	85.75
415.374	86.75
415.597	96.75
415.821	87.75
416.044	80.75
416.267	85.75
416.49	73.75
416.713	84.75
416.936	78.75
417.159	80.75
417.382	95.75
417.605	94.75
417.828	96.75
418.051	97.75
418.274	86.75
418.497	69.75
418.72	81.75
418.943	78.75
419.166	67.75
419.389	89.75
419.611	92.75
419.834	80.75
420.057	68.75
420.28	90.75
420.503	101.75
420.726	78.75
420.948	88.75
421.171	92.75
421.394	90.75
421.617	101.75
421.839	88.75
422.062	97.75
422.285	71.75
422.507	101.75
422.73	93.75
422.953	68.75
423.175	82.75
423.398	86.75
423.621	90.75
423.843	83.75
424.066	90.75
424.288	81.75
424.511	93.75
424.733	101.75
424.956	99.75
425.178	94.75
425.401	102.75
425.623	91.75
425.846	78.75
426.068	103.75
426.291	96.75
426.513	88.75
426.735	81.75
426.958	88.75
427.18	89.75
427.402	128.75
427.625	134.75
427.847	122.75
428.069	97.75
428.292	89.75
428.514	93.75
428.736	76.75
428.958	85.75
429.181	89.75
429.403	93.75
429.625	73.75
429.847	85.75
430.069	93.75
430.292	97.75
430.514	95.75
430.736	91.75
430.958	88.75
431.18	85.75
431.402	89.75
431.624	92.75
431.846	92.75
432.068	95.75
432.29	89.75
432.512	91.75
432.734	92.75
432.956	88.75
433.178	108.75
433.4	99.75
433.622	92.75
433.844	97.75
434.066	96.75
434.287	92.75
434.509	86.75
434.731	103.75
434.953	83.75
435.175	74.75
435.397	83.75
435.618	94.75
435.84	115.75
436.062	106.75
436.284	109.75
436.505	98.75
436.727	91.75
436.949	91.75
437.17	88.75
437.392	85.75
437.614	78.75
437.835	100.75
438.057	102.75
438.278	102.75
438.5	94.75
438.721	97.75
438.943	92.75
439.165	98.75
439.386	89.75
439.608	95.75
439.829	99.75
440.05	107.75
440.272	126.75
440.493	100.75
440.715	91.75
440.936	95.75
441.158	83.75
441.379	93.75
441.6	101.75
441.822	83.75
442.043	86.75
442.264	100.75
442.486	101.75
442.707	76.75
442.928	76.75
443.149	111.75
443.371	111.75
443.592	99.75
443.813	96.75
444.034	98.75
444.255	94.75
444.476	94.75
444.698	77.75
444.919	97.75
445.14	126.75
445.361	114.75
445.582	87.75
445.803	108.75
446.024	123.75
446.245	111.75
446.466	99.75
446.687	90.75
446.908	74.75
447.129	89.75
447.35	86.75
447.571	81.75
447.792	92.75
448.013	109.75
448.234	89.75
448.455	87.75
448.675	103.75
448.896	108.75
449.117	96.75
449.338	101.75
449.559	122.75
449.779	111.75
450	93.75
450.221	93.75
450.442	92.75
450.662	86.75
450.883	91.75
451.104	104.75
451.324	99.75
451.545	99.75
451.766	86.75
451.986	82.75
452.207	96.75
452.428	84.75
452.648	91.75
452.869	98.75
453.089	100.75
453.31	107.75
453.53	87.75
453.751	99.75
453.971	93.75
454.192	107.75
454.412	91.75
454.633	91.75
454.853	100.75
455.073	83.75
455.294	93.75
455.514	91.75
455.734	90.75
455.955	82.75
456.175	86.75
456.395	95.75
456.616	87.75
456.836	92.75
457.056	77.75
457.276	76.75
457.497	89.75
457.717	77.75
457.937	92.75
458.157	76.75
458.377	100.75
458.598	95.75
458.818	123.75
459.038	131.75
459.258	108.75
459.478	89.75
459.698	90.75
459.918	82.75
460.138	87.75
460.358	86.75
460.578	94.75
460.798	92.75
461.018	89.75
461.238	86.75
461.458	83.75
461.678	81.75
461.898	90.75
462.118	96.75
462.338	85.75
462.558	85.75
462.777	78.75
462.997	73.75
463.217	87.75
463.437	96.75
463.657	73.75
463.876	85.75
464.096	82.75
464.316	93.75
464.536	87.75
464.755	101.75
464.975	90.75
465.195	131.75
465.414	125.75
465.634	92.75
465.854	76.75
466.073	92.75
466.293	89.75
466.512	98.75
466.732	80.75
466.951	94.75
467.171	96.75
467.391	86.75
467.61	88.75
467.829	98.75
468.049	77.75
468.268	89.75
468.488	79.75
468.707	75.75
468.927	93.75
469.146	77.75
469.365	90.75
469.585	89.75
469.804	87.75
470.023	101.75
470.243	93.75
470.462	88.75
470.681	104.75
470.901	91.75
471.12	94.75
471.339	85.75
471.558	75.75
471.777	91.75
471.997	84.75
472.216	105.75
472.435	85.75
472.654	83.75
472.873	89.75
473.092	80.75
473.311	81.75
473.53	86.75
473.749	94.75
473.968	92.75
474.187	102.75
474.406	87.75
474.625	90.75
474.844	74.75
475.063	82.75
475.282	98.75
475.501	86.75
475.72	90.75
475.939	83.75
476.158	70.75
476.377	81.75
476.596	98.75
476.814	88.75
477.033	70.75
477.252	82.75
477.471	100.75
477.69	81.75
477.908	87.75
478.127	90.75
478.346	91.75
478.564	89.75
478.783	100.75
479.002	91.75
479.22	73.75
479.439	91.75
479.658	91.75
479.876	85.75
480.095	92.75
480.313	86.75
480.532	81.75
480.751	86.75
480.969	86.75
481.188	89.75
481.406	108.75
481.624	103.75
481.843	70.75
482.061	78.75
482.28	102.75
482.498	91.75
482.717	100.75
482.935	86.75
483.153	89.75
483.372	99.75
483.59	95.75
483.808	83.75
484.027	95.75
484.245	92.75
484.463	107.75
484.681	106.75
484.9	103.75
485.118	85.75
485.336	100.75
485.554	93.75
485.772	82.75
485.99	93.75
486.209	94.75
486.427	98.75
486.645	115.75
486.863	107.75
487.081	98.75
487.299	113.75
487.517	85.75
487.735	102.75
487.953	84.75
488.171	83.75
488.389	90.75
488.607	90.75
488.825	85.75
489.043	86.75
489.261	82.75
489.479	92.75
489.696	102.75
489.914	90.75
490.132	83.75
490.35	90.75
490.568	91.75
490.786	91.75
491.003	80.75
491.221	91.75
491.439	85.75
491.657	93.75
491.874	91.75
492.092	91.75
492.31	66.75
492.527	87.75
492.745	84.75
492.963	92.75
493.18	95.75
493.398	89.75
493.615	87.75
493.833	98.75
494.05	89.75
494.268	86.75
494.485	84.75
494.703	81.75
494.92	91.75
495.138	96.75
495.355	101.75
495.573	107.75
495.79	83.75
496.008	90.75
496.225	96.75
496.442	79.75
496.66	91.75
496.877	98.75
497.094	85.75
497.312	90.75
497.529	90.75
497.746	91.75
497.963	105.75
498.181	82.75
498.398	102.75
498.615	106.75
498.832	96.75
499.049	97.75
499.267	92.75
499.484	97.75
499.701	89.75
499.918	85.75
500.135	104.75
500.352	98.75
500.569	104.75
500.786	93.75
501.003	81.75
501.22	79.75
501.437	102.75
501.654	89.75
501.871	92.75
502.088	102.75
502.305	97.75
502.522	85.75
502.739	97.75
502.956	83.75
503.172	89.75
503.389	86.75
503.606	105.75
503.823	100.75
504.04	95.75
504.256	92.75
504.473	97.75
504.69	85.75
504.907	94.75
505.123	82.75
505.34	75.75
505.557	87.75
505.773	95.75
505.99	95.75
506.207	93.75
506.423	96.75
506.64	103.75
506.856	82.75
507.073	95.75
507.289	92.75
507.506	93.75
507.722	100.75
507.939	95.75
508.155	90.75
508.372	86.75
508.588	73.75
508.805	107.75
509.021	99.75
509.238	92.75
509.454	87.75
509.67	91.75
509.887	108.75
510.103	121.75
510.319	192.75
510.536	644.75
510.752	1852.75
510.968	525.75
511.184	128.75
511.401	109.75
511.617	101.75
511.833	90.75
512.049	97.75
512.265	86.75
512.481	97.75
512.698	88.75
512.914	83.75
513.13	90.75
513.346	86.75
513.562	82.75
513.778	98.75
513.994	88.75
514.21	101.75
514.426	117.75
514.642	129.75
514.858	111.75
515.074	149.75
515.29	377.75
515.506	1095.75
515.721	436.75
515.937	137.75
516.153	93.75
