Data from Uncirc_1992_H10_HRD10591_00070.txt Node
Date: Wed Jan 03 11:46:30 EST 2024
User: Yrep
Spectrometer: HR+D1059
Trigger mode: 1
Integration Time (sec): 1.000000E-1
Scans to average: 1
Electric dark correction enabled: true
Nonlinearity correction enabled: false
Boxcar width: 0
XAxis mode: Wavelengths
Number of Pixels in Spectrum: 2048
>>>>>Begin Spectral Data<<<<<
223.165	-9.31
223.4	-9.31
223.635	-9.31
223.869	-16.31
224.104	-18.31
224.338	-22.31
224.573	-11.31
224.808	-20.31
225.042	-3.31
225.277	-8.31
225.511	-2.31
225.746	-3.31
225.98	10.69
226.215	17.69
226.449	-3.31
226.683	12.69
226.918	45.69
227.152	31.69
227.387	39.69
227.621	23.69
227.856	47.69
228.09	54.69
228.324	42.69
228.559	55.69
228.793	62.69
229.027	71.69
229.262	69.69
229.496	78.69
229.73	82.69
229.964	76.69
230.199	59.69
230.433	86.69
230.667	55.69
230.901	92.69
231.136	79.69
231.37	74.69
231.604	85.69
231.838	100.69
232.072	82.69
232.306	82.69
232.541	87.69
232.775	82.69
233.009	77.69
233.243	78.69
233.477	79.69
233.711	78.69
233.945	69.69
234.179	78.69
234.413	88.69
234.647	77.69
234.881	90.69
235.115	67.69
235.349	68.69
235.583	74.69
235.817	77.69
236.051	83.69
236.285	73.69
236.519	80.69
236.753	82.69
236.987	85.69
237.221	99.69
237.455	86.69
237.689	80.69
237.922	70.69
238.156	74.69
238.39	82.69
238.624	77.69
238.858	84.69
239.091	85.69
239.325	79.69
239.559	82.69
239.793	83.69
240.027	83.69
240.26	66.69
240.494	78.69
240.728	77.69
240.961	72.69
241.195	92.69
241.429	90.69
241.662	88.69
241.896	83.69
242.13	83.69
242.363	66.69
242.597	74.69
242.83	81.69
243.064	74.69
243.298	82.69
243.531	93.69
243.765	74.69
243.998	76.69
244.232	78.69
244.465	70.69
244.699	78.69
244.932	74.69
245.166	82.69
245.399	76.69
245.633	78.69
245.866	68.69
246.099	93.69
246.333	75.69
246.566	91.69
246.8	74.69
247.033	64.69
247.266	86.69
247.5	78.69
247.733	76.69
247.966	82.69
248.2	60.69
248.433	74.69
248.666	63.69
248.899	90.69
249.133	91.69
249.366	91.69
249.599	94.69
249.832	89.69
250.066	92.69
250.299	92.69
250.532	96.69
250.765	67.69
250.998	87.69
251.231	78.69
251.465	88.69
251.698	87.69
251.931	86.69
252.164	96.69
252.397	77.69
252.63	82.69
252.863	76.69
253.096	92.69
253.329	89.69
253.562	87.69
253.795	72.69
254.028	68.69
254.261	73.69
254.494	98.69
254.727	81.69
254.96	87.69
255.193	90.69
255.426	83.69
255.659	91.69
255.892	88.69
256.124	78.69
256.357	93.69
256.59	58.69
256.823	74.69
257.056	92.69
257.289	69.69
257.521	81.69
257.754	95.69
257.987	86.69
258.22	77.69
258.452	76.69
258.685	77.69
258.918	93.69
259.151	92.69
259.383	89.69
259.616	71.69
259.849	78.69
260.081	92.69
260.314	84.69
260.547	97.69
260.779	79.69
261.012	76.69
261.244	88.69
261.477	102.69
261.71	107.69
261.942	109.69
262.175	125.69
262.407	90.69
262.64	85.69
262.872	96.69
263.105	61.69
263.337	86.69
263.57	76.69
263.802	89.69
264.035	92.69
264.267	96.69
264.499	91.69
264.732	87.69
264.964	79.69
265.197	95.69
265.429	87.69
265.661	88.69
265.894	73.69
266.126	97.69
266.358	86.69
266.591	79.69
266.823	68.69
267.055	78.69
267.287	91.69
267.52	83.69
267.752	90.69
267.984	76.69
268.216	75.69
268.448	78.69
268.681	101.69
268.913	84.69
269.145	87.69
269.377	92.69
269.609	83.69
269.841	92.69
270.073	85.69
270.306	91.69
270.538	91.69
270.77	82.69
271.002	83.69
271.234	84.69
271.466	98.69
271.698	86.69
271.93	86.69
272.162	100.69
272.394	101.69
272.626	83.69
272.858	89.69
273.09	85.69
273.322	70.69
273.553	79.69
273.785	72.69
274.017	78.69
274.249	84.69
274.481	94.69
274.713	84.69
274.945	76.69
275.176	95.69
275.408	81.69
275.64	91.69
275.872	101.69
276.104	99.69
276.335	84.69
276.567	87.69
276.799	100.69
277.031	95.69
277.262	74.69
277.494	77.69
277.726	85.69
277.957	93.69
278.189	92.69
278.421	77.69
278.652	100.69
278.884	86.69
279.115	98.69
279.347	90.69
279.579	79.69
279.81	90.69
280.042	83.69
280.273	79.69
280.505	82.69
280.736	83.69
280.968	86.69
281.199	83.69
281.431	98.69
281.662	70.69
281.894	84.69
282.125	104.69
282.356	116.69
282.588	126.69
282.819	102.69
283.051	88.69
283.282	90.69
283.513	84.69
283.745	105.69
283.976	88.69
284.207	96.69
284.439	86.69
284.67	80.69
284.901	95.69
285.132	93.69
285.364	84.69
285.595	88.69
285.826	94.69
286.057	100.69
286.288	86.69
286.52	90.69
286.751	93.69
286.982	74.69
287.213	92.69
287.444	72.69
287.675	77.69
287.906	104.69
288.138	98.69
288.369	81.69
288.6	79.69
288.831	83.69
289.062	71.69
289.293	80.69
289.524	90.69
289.755	103.69
289.986	86.69
290.217	82.69
290.448	63.69
290.679	86.69
290.91	98.69
291.141	90.69
291.371	80.69
291.602	80.69
291.833	97.69
292.064	91.69
292.295	87.69
292.526	81.69
292.757	82.69
292.987	86.69
293.218	92.69
293.449	80.69
293.68	100.69
293.91	83.69
294.141	100.69
294.372	95.69
294.603	101.69
294.833	84.69
295.064	97.69
295.295	87.69
295.525	99.69
295.756	108.69
295.987	103.69
296.217	124.69
296.448	110.69
296.679	94.69
296.909	92.69
297.14	101.69
297.37	91.69
297.601	93.69
297.831	82.69
298.062	91.69
298.292	94.69
298.523	90.69
298.753	102.69
298.984	97.69
299.214	92.69
299.445	87.69
299.675	107.69
299.905	94.69
300.136	102.69
300.366	88.69
300.597	74.69
300.827	90.69
301.057	98.69
301.288	86.69
301.518	110.69
301.748	79.69
301.979	87.69
302.209	75.69
302.439	91.69
302.669	100.69
302.9	89.69
303.13	92.69
303.36	99.69
303.59	90.69
303.82	90.69
304.051	84.69
304.281	76.69
304.511	91.69
304.741	85.69
304.971	89.69
305.201	94.69
305.431	93.69
305.661	80.69
305.891	101.69
306.121	96.69
306.352	97.69
306.582	116.69
306.812	86.69
307.042	86.69
307.272	79.69
307.502	94.69
307.731	95.69
307.961	98.69
308.191	92.69
308.421	94.69
308.651	98.69
308.881	83.69
309.111	84.69
309.341	106.69
309.571	96.69
309.8	104.69
310.03	102.69
310.26	106.69
310.49	92.69
310.72	96.69
310.949	91.69
311.179	102.69
311.409	96.69
311.639	90.69
311.868	90.69
312.098	87.69
312.328	92.69
312.557	94.69
312.787	87.69
313.017	108.69
313.246	105.69
313.476	99.69
313.706	83.69
313.935	97.69
314.165	98.69
314.394	90.69
314.624	93.69
314.853	101.69
315.083	88.69
315.312	98.69
315.542	86.69
315.771	87.69
316.001	90.69
316.23	86.69
316.46	110.69
316.689	103.69
316.919	81.69
317.148	97.69
317.377	91.69
317.607	95.69
317.836	94.69
318.065	92.69
318.295	90.69
318.524	86.69
318.753	103.69
318.983	100.69
319.212	95.69
319.441	114.69
319.67	104.69
319.9	87.69
320.129	91.69
320.358	94.69
320.587	113.69
320.816	93.69
321.046	86.69
321.275	94.69
321.504	98.69
321.733	96.69
321.962	103.69
322.191	97.69
322.42	95.69
322.649	101.69
322.878	98.69
323.108	118.69
323.337	122.69
323.566	124.69
323.795	137.69
324.024	194.69
324.253	353.69
324.482	701.69
324.71	1413.69
324.939	1802.69
325.168	678.69
325.397	214.69
325.626	138.69
325.855	110.69
326.084	115.69
326.313	126.69
326.542	145.69
326.77	202.69
326.999	430.69
327.228	790.69
327.457	1404.69
327.686	1094.69
327.914	308.69
328.143	166.69
328.372	123.69
328.6	104.69
328.829	122.69
329.058	117.69
329.287	117.69
329.515	99.69
329.744	111.69
329.972	93.69
330.201	106.69
330.43	106.69
330.658	109.69
330.887	129.69
331.115	110.69
331.344	94.69
331.572	95.69
331.801	91.69
332.03	104.69
332.258	76.69
332.486	85.69
332.715	96.69
332.943	95.69
333.172	86.69
333.4	95.69
333.629	93.69
333.857	109.69
334.085	97.69
334.314	92.69
334.542	99.69
334.771	92.69
334.999	96.69
335.227	102.69
335.455	99.69
335.684	86.69
335.912	107.69
336.14	101.69
336.369	103.69
336.597	94.69
336.825	91.69
337.053	105.69
337.281	103.69
337.51	82.69
337.738	84.69
337.966	86.69
338.194	101.69
338.422	93.69
338.65	101.69
338.878	84.69
339.106	96.69
339.334	99.69
339.562	102.69
339.79	92.69
340.018	99.69
340.246	89.69
340.474	95.69
340.702	90.69
340.93	96.69
341.158	87.69
341.386	83.69
341.614	88.69
341.842	92.69
342.07	84.69
342.298	79.69
342.526	101.69
342.754	86.69
342.981	86.69
343.209	89.69
343.437	103.69
343.665	88.69
343.893	92.69
344.12	92.69
344.348	94.69
344.576	95.69
344.804	90.69
345.031	87.69
345.259	74.69
345.487	88.69
345.714	99.69
345.942	101.69
346.17	100.69
346.397	109.69
346.625	87.69
346.853	103.69
347.08	82.69
347.308	92.69
347.535	108.69
347.763	87.69
347.99	102.69
348.218	99.69
348.445	107.69
348.673	103.69
348.9	88.69
349.128	90.69
349.355	89.69
349.583	90.69
349.81	108.69
350.037	92.69
350.265	95.69
350.492	94.69
350.72	100.69
350.947	121.69
351.174	110.69
351.402	114.69
351.629	108.69
351.856	99.69
352.083	95.69
352.311	103.69
352.538	95.69
352.765	101.69
352.992	104.69
353.22	112.69
353.447	107.69
353.674	100.69
353.901	98.69
354.128	96.69
354.355	93.69
354.583	114.69
354.81	102.69
355.037	91.69
355.264	89.69
355.491	78.69
355.718	78.69
355.945	92.69
356.172	104.69
356.399	82.69
356.626	91.69
356.853	97.69
357.08	102.69
357.307	95.69
357.534	90.69
357.761	93.69
357.988	100.69
358.215	92.69
358.441	103.69
358.668	86.69
358.895	94.69
359.122	88.69
359.349	86.69
359.576	98.69
359.802	113.69
360.029	112.69
360.256	104.69
360.483	95.69
360.709	96.69
360.936	99.69
361.163	84.69
361.39	84.69
361.616	96.69
361.843	82.69
362.07	99.69
362.296	91.69
362.523	88.69
362.749	95.69
362.976	91.69
363.203	94.69
363.429	76.69
363.656	86.69
363.882	78.69
364.109	93.69
364.335	91.69
364.562	98.69
364.788	87.69
365.015	92.69
365.241	100.69
365.468	106.69
365.694	100.69
365.92	93.69
366.147	82.69
366.373	95.69
366.599	88.69
366.826	91.69
367.052	94.69
367.278	94.69
367.505	90.69
367.731	88.69
367.957	86.69
368.184	86.69
368.41	112.69
368.636	104.69
368.862	108.69
369.089	108.69
369.315	102.69
369.541	91.69
369.767	88.69
369.993	95.69
370.219	92.69
370.445	107.69
370.672	88.69
370.898	88.69
371.124	72.69
371.35	87.69
371.576	93.69
371.802	84.69
372.028	78.69
372.254	74.69
372.48	85.69
372.706	95.69
372.932	82.69
373.158	95.69
373.384	84.69
373.61	98.69
373.835	90.69
374.061	84.69
374.287	85.69
374.513	77.69
374.739	89.69
374.965	91.69
375.191	75.69
375.416	96.69
375.642	91.69
375.868	104.69
376.094	90.69
376.319	92.69
376.545	82.69
376.771	80.69
376.997	80.69
377.222	72.69
377.448	99.69
377.674	94.69
377.899	91.69
378.125	93.69
378.35	91.69
378.576	82.69
378.802	88.69
379.027	76.69
379.253	77.69
379.478	89.69
379.704	85.69
379.929	89.69
380.155	87.69
380.38	101.69
380.606	81.69
380.831	96.69
381.057	89.69
381.282	103.69
381.507	91.69
381.733	112.69
381.958	91.69
382.184	94.69
382.409	106.69
382.634	96.69
382.86	93.69
383.085	101.69
383.31	110.69
383.535	96.69
383.761	96.69
383.986	95.69
384.211	103.69
384.436	108.69
384.662	96.69
384.887	96.69
385.112	103.69
385.337	108.69
385.562	111.69
385.787	101.69
386.013	111.69
386.238	91.69
386.463	106.69
386.688	114.69
386.913	105.69
387.138	101.69
387.363	99.69
387.588	102.69
387.813	103.69
388.038	99.69
388.263	107.69
388.488	113.69
388.713	94.69
388.938	84.69
389.163	97.69
389.387	96.69
389.612	97.69
389.837	94.69
390.062	100.69
390.287	101.69
390.512	99.69
390.736	98.69
390.961	81.69
391.186	87.69
391.411	100.69
391.636	95.69
391.86	90.69
392.085	86.69
392.31	87.69
392.534	74.69
392.759	92.69
392.984	97.69
393.208	89.69
393.433	86.69
393.658	89.69
393.882	89.69
394.107	80.69
394.331	92.69
394.556	78.69
394.78	93.69
395.005	82.69
395.229	96.69
395.454	82.69
395.678	84.69
395.903	78.69
396.127	80.69
396.352	91.69
396.576	81.69
396.801	87.69
397.025	102.69
397.249	92.69
397.474	87.69
397.698	83.69
397.922	83.69
398.147	97.69
398.371	84.69
398.595	101.69
398.82	101.69
399.044	95.69
399.268	91.69
399.492	86.69
399.717	91.69
399.941	98.69
400.165	100.69
400.389	91.69
400.613	85.69
400.837	87.69
401.062	84.69
401.286	91.69
401.51	89.69
401.734	99.69
401.958	101.69
402.182	129.69
402.406	155.69
402.63	97.69
402.854	96.69
403.078	88.69
403.302	87.69
403.526	91.69
403.75	91.69
403.974	85.69
404.198	81.69
404.422	95.69
404.645	99.69
404.869	89.69
405.093	89.69
405.317	97.69
405.541	97.69
405.765	104.69
405.988	121.69
406.212	159.69
406.436	204.69
406.66	125.69
406.883	104.69
407.107	92.69
407.331	86.69
407.555	103.69
407.778	99.69
408.002	76.69
408.226	89.69
408.449	80.69
408.673	84.69
408.896	80.69
409.12	81.69
409.344	93.69
409.567	103.69
409.791	92.69
410.014	88.69
410.238	88.69
410.461	95.69
410.685	104.69
410.908	94.69
411.132	103.69
411.355	98.69
411.578	82.69
411.802	87.69
412.025	76.69
412.249	76.69
412.472	103.69
412.695	89.69
412.919	88.69
413.142	93.69
413.365	99.69
413.589	90.69
413.812	82.69
414.035	97.69
414.258	89.69
414.482	89.69
414.705	81.69
414.928	82.69
415.151	86.69
415.374	88.69
415.597	90.69
415.821	94.69
416.044	86.69
416.267	84.69
416.49	92.69
416.713	94.69
416.936	92.69
417.159	92.69
417.382	90.69
417.605	81.69
417.828	94.69
418.051	103.69
418.274	76.69
418.497	100.69
418.72	87.69
418.943	96.69
419.166	91.69
419.389	92.69
419.611	95.69
419.834	89.69
420.057	88.69
420.28	95.69
420.503	102.69
420.726	76.69
420.948	94.69
421.171	98.69
421.394	97.69
421.617	94.69
421.839	92.69
422.062	95.69
422.285	94.69
422.507	91.69
422.73	82.69
422.953	86.69
423.175	100.69
423.398	101.69
423.621	95.69
423.843	87.69
424.066	87.69
424.288	82.69
424.511	95.69
424.733	95.69
424.956	91.69
425.178	102.69
425.401	102.69
425.623	98.69
425.846	107.69
426.068	92.69
426.291	89.69
426.513	102.69
426.735	78.69
426.958	78.69
427.18	100.69
427.402	123.69
427.625	157.69
427.847	108.69
428.069	105.69
428.292	87.69
428.514	97.69
428.736	72.69
428.958	84.69
429.181	83.69
429.403	86.69
429.625	90.69
429.847	87.69
430.069	92.69
430.292	85.69
430.514	93.69
430.736	82.69
430.958	90.69
431.18	95.69
431.402	91.69
431.624	78.69
431.846	82.69
432.068	82.69
432.29	85.69
432.512	93.69
432.734	86.69
432.956	94.69
433.178	90.69
433.4	91.69
433.622	95.69
433.844	95.69
434.066	100.69
434.287	92.69
434.509	91.69
434.731	98.69
434.953	80.69
435.175	95.69
435.397	92.69
435.618	88.69
435.84	98.69
436.062	107.69
436.284	107.69
436.505	103.69
436.727	96.69
436.949	81.69
437.17	98.69
437.392	99.69
437.614	88.69
437.835	98.69
438.057	111.69
438.278	115.69
438.5	100.69
438.721	100.69
438.943	104.69
439.165	89.69
439.386	78.69
439.608	99.69
439.829	87.69
440.05	105.69
440.272	123.69
440.493	104.69
440.715	79.69
440.936	93.69
441.158	94.69
441.379	94.69
441.6	99.69
441.822	86.69
442.043	86.69
442.264	86.69
442.486	86.69
442.707	114.69
442.928	106.69
443.149	114.69
443.371	126.69
443.592	107.69
443.813	110.69
444.034	108.69
444.255	92.69
444.476	83.69
444.698	90.69
444.919	95.69
445.14	120.69
445.361	115.69
445.582	107.69
445.803	118.69
446.024	111.69
446.245	124.69
446.466	94.69
446.687	90.69
446.908	108.69
447.129	84.69
447.35	80.69
447.571	80.69
447.792	87.69
448.013	91.69
448.234	95.69
448.455	100.69
448.675	106.69
448.896	112.69
449.117	96.69
449.338	99.69
449.559	126.69
449.779	123.69
450	97.69
450.221	106.69
450.442	102.69
450.662	101.69
450.883	104.69
451.104	107.69
451.324	93.69
451.545	99.69
451.766	95.69
451.986	101.69
452.207	90.69
452.428	94.69
452.648	95.69
452.869	101.69
453.089	111.69
453.31	125.69
453.53	95.69
453.751	99.69
453.971	88.69
454.192	107.69
454.412	103.69
454.633	83.69
454.853	91.69
455.073	78.69
455.294	80.69
455.514	93.69
455.734	77.69
455.955	74.69
456.175	78.69
456.395	78.69
456.616	82.69
456.836	86.69
457.056	96.69
457.276	90.69
457.497	94.69
457.717	95.69
457.937	88.69
458.157	86.69
458.377	98.69
458.598	104.69
458.818	144.69
459.038	145.69
459.258	102.69
459.478	97.69
459.698	87.69
459.918	84.69
460.138	80.69
460.358	92.69
460.578	82.69
460.798	84.69
461.018	104.69
461.238	82.69
461.458	87.69
461.678	82.69
461.898	91.69
462.118	71.69
462.338	90.69
462.558	76.69
462.777	90.69
462.997	81.69
463.217	78.69
463.437	91.69
463.657	78.69
463.876	87.69
464.096	101.69
464.316	98.69
464.536	85.69
464.755	99.69
464.975	115.69
465.195	133.69
465.414	142.69
465.634	89.69
465.854	78.69
466.073	84.69
466.293	90.69
466.512	84.69
466.732	71.69
466.951	81.69
467.171	87.69
467.391	75.69
467.61	99.69
467.829	90.69
468.049	83.69
468.268	86.69
468.488	93.69
468.707	92.69
468.927	90.69
469.146	83.69
469.365	101.69
469.585	102.69
469.804	96.69
470.023	94.69
470.243	86.69
470.462	92.69
470.681	95.69
470.901	89.69
471.12	100.69
471.339	83.69
471.558	84.69
471.777	78.69
471.997	79.69
472.216	77.69
472.435	87.69
472.654	66.69
472.873	86.69
473.092	92.69
473.311	84.69
473.53	97.69
473.749	107.69
473.968	88.69
474.187	114.69
474.406	88.69
474.625	90.69
474.844	90.69
475.063	83.69
475.282	85.69
475.501	93.69
475.72	79.69
475.939	100.69
476.158	76.69
476.377	97.69
476.596	88.69
476.814	85.69
477.033	87.69
477.252	80.69
477.471	95.69
477.69	105.69
477.908	89.69
478.127	82.69
478.346	85.69
478.564	89.69
478.783	96.69
479.002	78.69
479.22	99.69
479.439	96.69
479.658	102.69
479.876	102.69
480.095	104.69
480.313	87.69
480.532	107.69
480.751	99.69
480.969	90.69
481.188	86.69
481.406	94.69
481.624	94.69
481.843	86.69
482.061	95.69
482.28	80.69
482.498	86.69
482.717	91.69
482.935	84.69
483.153	99.69
483.372	85.69
483.59	96.69
483.808	101.69
484.027	89.69
484.245	86.69
484.463	94.69
484.681	88.69
484.9	91.69
485.118	84.69
485.336	102.69
485.554	102.69
485.772	95.69
485.99	98.69
486.209	95.69
486.427	113.69
486.645	98.69
486.863	102.69
487.081	97.69
487.299	110.69
487.517	98.69
487.735	92.69
487.953	102.69
488.171	92.69
488.389	97.69
488.607	104.69
488.825	92.69
489.043	90.69
489.261	86.69
489.479	85.69
489.696	83.69
489.914	74.69
490.132	79.69
490.35	85.69
490.568	87.69
490.786	80.69
491.003	95.69
491.221	96.69
491.439	87.69
491.657	86.69
491.874	96.69
492.092	103.69
492.31	103.69
492.527	94.69
492.745	90.69
492.963	78.69
493.18	88.69
493.398	89.69
493.615	102.69
493.833	90.69
494.05	95.69
494.268	82.69
494.485	85.69
494.703	88.69
494.92	88.69
495.138	96.69
495.355	99.69
495.573	96.69
495.79	100.69
496.008	84.69
496.225	86.69
496.442	95.69
496.66	102.69
496.877	97.69
497.094	108.69
497.312	94.69
497.529	91.69
497.746	75.69
497.963	101.69
498.181	87.69
498.398	100.69
498.615	97.69
498.832	99.69
499.049	81.69
499.267	90.69
499.484	76.69
499.701	94.69
499.918	80.69
500.135	82.69
500.352	90.69
500.569	87.69
500.786	92.69
501.003	94.69
501.22	98.69
501.437	102.69
501.654	98.69
501.871	90.69
502.088	104.69
502.305	91.69
502.522	91.69
502.739	104.69
502.956	94.69
503.172	89.69
503.389	93.69
503.606	100.69
503.823	94.69
504.04	87.69
504.256	84.69
504.473	81.69
504.69	91.69
504.907	97.69
505.123	89.69
505.34	83.69
505.557	84.69
505.773	92.69
505.99	87.69
506.207	102.69
506.423	93.69
506.64	98.69
506.856	95.69
507.073	88.69
507.289	89.69
507.506	98.69
507.722	105.69
507.939	111.69
508.155	80.69
508.372	98.69
508.588	86.69
508.805	91.69
509.021	99.69
509.238	100.69
509.454	87.69
509.67	104.69
509.887	93.69
510.103	140.69
510.319	188.69
510.536	667.69
510.752	2006.69
510.968	550.69
511.184	133.69
511.401	95.69
511.617	91.69
511.833	82.69
512.049	95.69
512.265	98.69
512.481	93.69
512.698	98.69
512.914	90.69
513.13	95.69
513.346	95.69
513.562	93.69
513.778	92.69
513.994	101.69
514.21	102.69
514.426	116.69
514.642	116.69
514.858	121.69
515.074	162.69
515.29	364.69
515.506	1196.69
515.721	465.69
515.937	147.69
