Data from Uncirc_1992_H10_HRD10591_00075.txt Node
Date: Wed Jan 03 11:46:31 EST 2024
User: Yrep
Spectrometer: HR+D1059
Trigger mode: 1
Integration Time (sec): 1.000000E-1
Scans to average: 1
Electric dark correction enabled: true
Nonlinearity correction enabled: false
Boxcar width: 0
XAxis mode: Wavelengths
Number of Pixels in Spectrum: 2048
>>>>>Begin Spectral Data<<<<<
223.165	-6.94
223.4	-6.94
223.635	-6.94
223.869	-20.94
224.104	-2.94
224.338	-0.94
224.573	-16.94
224.808	-18.94
225.042	-17.94
225.277	-10.94
225.511	10.06
225.746	5.06
225.98	7.06
226.215	13.06
226.449	12.06
226.683	3.06
226.918	25.06
227.152	21.06
227.387	32.06
227.621	37.06
227.856	36.06
228.09	35.06
228.324	62.06
228.559	58.06
228.793	56.06
229.027	55.06
229.262	70.06
229.496	66.06
229.73	67.06
229.964	70.06
230.199	85.06
230.433	89.06
230.667	80.06
230.901	69.06
231.136	81.06
231.37	81.06
231.604	79.06
231.838	89.06
232.072	78.06
232.306	55.06
232.541	77.06
232.775	67.06
233.009	82.06
233.243	79.06
233.477	86.06
233.711	73.06
233.945	79.06
234.179	79.06
234.413	87.06
234.647	66.06
234.881	84.06
235.115	78.06
235.349	87.06
235.583	72.06
235.817	74.06
236.051	78.06
236.285	78.06
236.519	77.06
236.753	69.06
236.987	68.06
237.221	78.06
237.455	78.06
237.689	90.06
237.922	80.06
238.156	84.06
238.39	82.06
238.624	91.06
238.858	78.06
239.091	61.06
239.325	86.06
239.559	75.06
239.793	67.06
240.027	80.06
240.26	87.06
240.494	90.06
240.728	73.06
240.961	87.06
241.195	77.06
241.429	79.06
241.662	73.06
241.896	85.06
242.13	90.06
242.363	83.06
242.597	65.06
242.83	83.06
243.064	75.06
243.298	82.06
243.531	84.06
243.765	84.06
243.998	67.06
244.232	92.06
244.465	78.06
244.699	86.06
244.932	85.06
245.166	71.06
245.399	77.06
245.633	69.06
245.866	70.06
246.099	78.06
246.333	82.06
246.566	77.06
246.8	87.06
247.033	79.06
247.266	81.06
247.5	76.06
247.733	76.06
247.966	65.06
248.2	67.06
248.433	73.06
248.666	78.06
248.899	77.06
249.133	78.06
249.366	86.06
249.599	97.06
249.832	85.06
250.066	70.06
250.299	63.06
250.532	85.06
250.765	85.06
250.998	86.06
251.231	74.06
251.465	70.06
251.698	68.06
251.931	86.06
252.164	77.06
252.397	93.06
252.63	77.06
252.863	73.06
253.096	84.06
253.329	81.06
253.562	92.06
253.795	84.06
254.028	94.06
254.261	90.06
254.494	86.06
254.727	91.06
254.96	79.06
255.193	79.06
255.426	86.06
255.659	82.06
255.892	71.06
256.124	89.06
256.357	85.06
256.59	83.06
256.823	84.06
257.056	87.06
257.289	77.06
257.521	86.06
257.754	75.06
257.987	69.06
258.22	80.06
258.452	91.06
258.685	77.06
258.918	86.06
259.151	82.06
259.383	87.06
259.616	82.06
259.849	71.06
260.081	80.06
260.314	77.06
260.547	85.06
260.779	95.06
261.012	84.06
261.244	77.06
261.477	85.06
261.71	92.06
261.942	93.06
262.175	108.06
262.407	90.06
262.64	92.06
262.872	85.06
263.105	82.06
263.337	91.06
263.57	78.06
263.802	79.06
264.035	86.06
264.267	82.06
264.499	90.06
264.732	85.06
264.964	77.06
265.197	100.06
265.429	85.06
265.661	77.06
265.894	71.06
266.126	94.06
266.358	81.06
266.591	74.06
266.823	77.06
267.055	81.06
267.287	82.06
267.52	82.06
267.752	80.06
267.984	78.06
268.216	79.06
268.448	88.06
268.681	83.06
268.913	71.06
269.145	82.06
269.377	79.06
269.609	88.06
269.841	79.06
270.073	79.06
270.306	79.06
270.538	79.06
270.77	86.06
271.002	78.06
271.234	75.06
271.466	84.06
271.698	86.06
271.93	74.06
272.162	100.06
272.394	94.06
272.626	74.06
272.858	97.06
273.09	87.06
273.322	71.06
273.553	94.06
273.785	86.06
274.017	89.06
274.249	79.06
274.481	66.06
274.713	95.06
274.945	106.06
275.176	88.06
275.408	91.06
275.64	84.06
275.872	79.06
276.104	75.06
276.335	90.06
276.567	94.06
276.799	108.06
277.031	103.06
277.262	90.06
277.494	86.06
277.726	74.06
277.957	81.06
278.189	74.06
278.421	88.06
278.652	89.06
278.884	86.06
279.115	91.06
279.347	94.06
279.579	93.06
279.81	83.06
280.042	89.06
280.273	98.06
280.505	77.06
280.736	90.06
280.968	62.06
281.199	89.06
281.431	86.06
281.662	82.06
281.894	81.06
282.125	82.06
282.356	94.06
282.588	132.06
282.819	97.06
283.051	90.06
283.282	85.06
283.513	74.06
283.745	84.06
283.976	83.06
284.207	83.06
284.439	92.06
284.67	88.06
284.901	96.06
285.132	84.06
285.364	84.06
285.595	87.06
285.826	81.06
286.057	93.06
286.288	91.06
286.52	98.06
286.751	89.06
286.982	81.06
287.213	86.06
287.444	81.06
287.675	81.06
287.906	83.06
288.138	87.06
288.369	102.06
288.6	94.06
288.831	68.06
289.062	85.06
289.293	79.06
289.524	81.06
289.755	85.06
289.986	90.06
290.217	91.06
290.448	87.06
290.679	93.06
290.91	96.06
291.141	101.06
291.371	97.06
291.602	89.06
291.833	83.06
292.064	73.06
292.295	87.06
292.526	94.06
292.757	72.06
292.987	79.06
293.218	99.06
293.449	101.06
293.68	84.06
293.91	77.06
294.141	89.06
294.372	83.06
294.603	88.06
294.833	81.06
295.064	95.06
295.295	85.06
295.525	77.06
295.756	100.06
295.987	108.06
296.217	109.06
296.448	111.06
296.679	92.06
296.909	93.06
297.14	93.06
297.37	95.06
297.601	82.06
297.831	83.06
298.062	85.06
298.292	76.06
298.523	92.06
298.753	93.06
298.984	94.06
299.214	98.06
299.445	77.06
299.675	87.06
299.905	85.06
300.136	95.06
300.366	89.06
300.597	94.06
300.827	85.06
301.057	95.06
301.288	86.06
301.518	89.06
301.748	102.06
301.979	78.06
302.209	80.06
302.439	87.06
302.669	92.06
302.9	86.06
303.13	83.06
303.36	84.06
303.59	97.06
303.82	105.06
304.051	89.06
304.281	85.06
304.511	77.06
304.741	92.06
304.971	97.06
305.201	84.06
305.431	85.06
305.661	93.06
305.891	99.06
306.121	103.06
306.352	107.06
306.582	93.06
306.812	95.06
307.042	97.06
307.272	95.06
307.502	99.06
307.731	93.06
307.961	91.06
308.191	96.06
308.421	85.06
308.651	81.06
308.881	89.06
309.111	82.06
309.341	92.06
309.571	99.06
309.8	92.06
310.03	99.06
310.26	92.06
310.49	113.06
310.72	87.06
310.949	99.06
311.179	90.06
311.409	90.06
311.639	91.06
311.868	96.06
312.098	102.06
312.328	85.06
312.557	86.06
312.787	81.06
313.017	105.06
313.246	103.06
313.476	94.06
313.706	93.06
313.935	101.06
314.165	110.06
314.394	101.06
314.624	91.06
314.853	86.06
315.083	102.06
315.312	93.06
315.542	87.06
315.771	79.06
316.001	87.06
316.23	91.06
316.46	71.06
316.689	82.06
316.919	74.06
317.148	94.06
317.377	94.06
317.607	93.06
317.836	84.06
318.065	95.06
318.295	98.06
318.524	100.06
318.753	81.06
318.983	92.06
319.212	98.06
319.441	110.06
319.67	95.06
319.9	107.06
320.129	79.06
320.358	87.06
320.587	87.06
320.816	106.06
321.046	101.06
321.275	108.06
321.504	83.06
321.733	93.06
321.962	102.06
322.191	96.06
322.42	100.06
322.649	95.06
322.878	97.06
323.108	107.06
323.337	106.06
323.566	119.06
323.795	148.06
324.024	195.06
324.253	348.06
324.482	723.06
324.71	1463.06
324.939	1904.06
325.168	710.06
325.397	211.06
325.626	151.06
325.855	118.06
326.084	126.06
326.313	115.06
326.542	152.06
326.77	224.06
326.999	405.06
327.228	817.06
327.457	1499.06
327.686	1169.06
327.914	342.06
328.143	180.06
328.372	128.06
328.6	116.06
328.829	109.06
329.058	111.06
329.287	124.06
329.515	106.06
329.744	108.06
329.972	85.06
330.201	96.06
330.43	116.06
330.658	113.06
330.887	140.06
331.115	112.06
331.344	89.06
331.572	104.06
331.801	109.06
332.03	116.06
332.258	94.06
332.486	98.06
332.715	82.06
332.943	88.06
333.172	96.06
333.4	97.06
333.629	109.06
333.857	104.06
334.085	99.06
334.314	91.06
334.542	85.06
334.771	100.06
334.999	89.06
335.227	106.06
335.455	86.06
335.684	95.06
335.912	83.06
336.14	88.06
336.369	93.06
336.597	78.06
336.825	90.06
337.053	89.06
337.281	93.06
337.51	87.06
337.738	81.06
337.966	91.06
338.194	102.06
338.422	109.06
338.65	89.06
338.878	99.06
339.106	99.06
339.334	103.06
339.562	89.06
339.79	99.06
340.018	98.06
340.246	76.06
340.474	89.06
340.702	82.06
340.93	86.06
341.158	97.06
341.386	89.06
341.614	98.06
341.842	95.06
342.07	85.06
342.298	82.06
342.526	85.06
342.754	84.06
342.981	96.06
343.209	93.06
343.437	93.06
343.665	93.06
343.893	94.06
344.12	86.06
344.348	104.06
344.576	97.06
344.804	92.06
345.031	92.06
345.259	102.06
345.487	97.06
345.714	92.06
345.942	94.06
346.17	92.06
346.397	101.06
346.625	96.06
346.853	87.06
347.08	89.06
347.308	95.06
347.535	98.06
347.763	106.06
347.99	92.06
348.218	102.06
348.445	102.06
348.673	102.06
348.9	92.06
349.128	77.06
349.355	107.06
349.583	101.06
349.81	90.06
350.037	100.06
350.265	94.06
350.492	94.06
350.72	95.06
350.947	100.06
351.174	107.06
351.402	108.06
351.629	103.06
351.856	105.06
352.083	108.06
352.311	89.06
352.538	102.06
352.765	111.06
352.992	107.06
353.22	111.06
353.447	109.06
353.674	95.06
353.901	97.06
354.128	108.06
354.355	97.06
354.583	96.06
354.81	99.06
355.037	93.06
355.264	105.06
355.491	103.06
355.718	91.06
355.945	85.06
356.172	87.06
356.399	90.06
356.626	83.06
356.853	95.06
357.08	94.06
357.307	89.06
357.534	87.06
357.761	94.06
357.988	96.06
358.215	99.06
358.441	98.06
358.668	85.06
358.895	83.06
359.122	75.06
359.349	102.06
359.576	95.06
359.802	95.06
360.029	124.06
360.256	89.06
360.483	90.06
360.709	86.06
360.936	90.06
361.163	88.06
361.39	91.06
361.616	97.06
361.843	92.06
362.07	101.06
362.296	92.06
362.523	103.06
362.749	97.06
362.976	89.06
363.203	89.06
363.429	84.06
363.656	92.06
363.882	80.06
364.109	100.06
364.335	86.06
364.562	93.06
364.788	85.06
365.015	87.06
365.241	107.06
365.468	116.06
365.694	106.06
365.92	99.06
366.147	94.06
366.373	73.06
366.599	96.06
366.826	84.06
367.052	94.06
367.278	91.06
367.505	84.06
367.731	82.06
367.957	103.06
368.184	83.06
368.41	78.06
368.636	99.06
368.862	131.06
369.089	103.06
369.315	85.06
369.541	87.06
369.767	94.06
369.993	97.06
370.219	92.06
370.445	89.06
370.672	93.06
370.898	93.06
371.124	89.06
371.35	90.06
371.576	102.06
371.802	84.06
372.028	74.06
372.254	87.06
372.48	93.06
372.706	95.06
372.932	99.06
373.158	90.06
373.384	85.06
373.61	94.06
373.835	88.06
374.061	107.06
374.287	92.06
374.513	103.06
374.739	97.06
374.965	100.06
375.191	91.06
375.416	86.06
375.642	92.06
375.868	97.06
376.094	81.06
376.319	94.06
376.545	97.06
376.771	86.06
376.997	89.06
377.222	96.06
377.448	85.06
377.674	82.06
377.899	72.06
378.125	79.06
378.35	99.06
378.576	101.06
378.802	106.06
379.027	93.06
379.253	96.06
379.478	82.06
379.704	101.06
379.929	85.06
380.155	82.06
380.38	98.06
380.606	92.06
380.831	98.06
381.057	83.06
381.282	106.06
381.507	85.06
381.733	87.06
381.958	93.06
382.184	94.06
382.409	101.06
382.634	117.06
382.86	92.06
383.085	98.06
383.31	93.06
383.535	94.06
383.761	103.06
383.986	118.06
384.211	92.06
384.436	96.06
384.662	84.06
384.887	102.06
385.112	97.06
385.337	107.06
385.562	93.06
385.787	91.06
386.013	97.06
386.238	111.06
386.463	108.06
386.688	116.06
386.913	101.06
387.138	95.06
387.363	95.06
387.588	98.06
387.813	92.06
388.038	92.06
388.263	98.06
388.488	107.06
388.713	87.06
388.938	90.06
389.163	97.06
389.387	110.06
389.612	89.06
389.837	92.06
390.062	89.06
390.287	96.06
390.512	90.06
390.736	91.06
390.961	112.06
391.186	104.06
391.411	101.06
391.636	88.06
391.86	92.06
392.085	73.06
392.31	91.06
392.534	84.06
392.759	79.06
392.984	100.06
393.208	90.06
393.433	88.06
393.658	86.06
393.882	73.06
394.107	95.06
394.331	87.06
394.556	96.06
394.78	97.06
395.005	82.06
395.229	86.06
395.454	76.06
395.678	81.06
395.903	83.06
396.127	87.06
396.352	82.06
396.576	81.06
396.801	88.06
397.025	95.06
397.249	82.06
397.474	113.06
397.698	82.06
397.922	77.06
398.147	81.06
398.371	90.06
398.595	91.06
398.82	82.06
399.044	93.06
399.268	88.06
399.492	83.06
399.717	87.06
399.941	77.06
400.165	80.06
400.389	82.06
400.613	82.06
400.837	80.06
401.062	87.06
401.286	98.06
401.51	76.06
401.734	79.06
401.958	79.06
402.182	129.06
402.406	156.06
402.63	111.06
402.854	89.06
403.078	88.06
403.302	95.06
403.526	80.06
403.75	99.06
403.974	94.06
404.198	101.06
404.422	85.06
404.645	86.06
404.869	76.06
405.093	89.06
405.317	101.06
405.541	100.06
405.765	95.06
405.988	110.06
406.212	163.06
406.436	192.06
406.66	123.06
406.883	103.06
407.107	102.06
407.331	114.06
407.555	93.06
407.778	105.06
408.002	76.06
408.226	84.06
408.449	88.06
408.673	85.06
408.896	88.06
409.12	103.06
409.344	102.06
409.567	90.06
409.791	81.06
410.014	106.06
410.238	94.06
410.461	103.06
410.685	99.06
410.908	105.06
411.132	109.06
411.355	101.06
411.578	81.06
411.802	83.06
412.025	91.06
412.249	101.06
412.472	92.06
412.695	93.06
412.919	84.06
413.142	82.06
413.365	86.06
413.589	82.06
413.812	92.06
414.035	94.06
414.258	105.06
414.482	103.06
414.705	97.06
414.928	94.06
415.151	92.06
415.374	90.06
415.597	90.06
415.821	73.06
416.044	76.06
416.267	90.06
416.49	83.06
416.713	90.06
416.936	73.06
417.159	87.06
417.382	94.06
417.605	81.06
417.828	95.06
418.051	96.06
418.274	84.06
418.497	98.06
418.72	85.06
418.943	89.06
419.166	90.06
419.389	80.06
419.611	77.06
419.834	95.06
420.057	90.06
420.28	91.06
420.503	81.06
420.726	83.06
420.948	82.06
421.171	95.06
421.394	93.06
421.617	79.06
421.839	85.06
422.062	87.06
422.285	76.06
422.507	92.06
422.73	107.06
422.953	73.06
423.175	81.06
423.398	91.06
423.621	86.06
423.843	98.06
424.066	91.06
424.288	93.06
424.511	96.06
424.733	88.06
424.956	106.06
425.178	91.06
425.401	94.06
425.623	101.06
425.846	93.06
426.068	87.06
426.291	85.06
426.513	83.06
426.735	90.06
426.958	90.06
427.18	114.06
427.402	135.06
427.625	146.06
427.847	117.06
428.069	111.06
428.292	83.06
428.514	86.06
428.736	94.06
428.958	87.06
429.181	85.06
429.403	80.06
429.625	85.06
429.847	101.06
430.069	86.06
430.292	89.06
430.514	89.06
430.736	89.06
430.958	95.06
431.18	87.06
431.402	77.06
431.624	84.06
431.846	74.06
432.068	94.06
432.29	84.06
432.512	90.06
432.734	65.06
432.956	81.06
433.178	93.06
433.4	96.06
433.622	99.06
433.844	100.06
434.066	102.06
434.287	85.06
434.509	108.06
434.731	91.06
434.953	97.06
435.175	81.06
435.397	96.06
435.618	85.06
435.84	103.06
436.062	95.06
436.284	110.06
436.505	90.06
436.727	96.06
436.949	93.06
437.17	95.06
437.392	81.06
437.614	103.06
437.835	106.06
438.057	110.06
438.278	96.06
438.5	99.06
438.721	114.06
438.943	93.06
439.165	101.06
439.386	94.06
439.608	93.06
439.829	86.06
440.05	117.06
440.272	134.06
440.493	93.06
440.715	85.06
440.936	83.06
441.158	85.06
441.379	102.06
441.6	94.06
441.822	99.06
442.043	87.06
442.264	86.06
442.486	99.06
442.707	91.06
442.928	105.06
443.149	118.06
443.371	105.06
443.592	83.06
443.813	90.06
444.034	91.06
444.255	99.06
444.476	85.06
444.698	92.06
444.919	90.06
445.14	132.06
445.361	119.06
445.582	116.06
445.803	143.06
446.024	125.06
446.245	119.06
446.466	93.06
446.687	90.06
446.908	89.06
447.129	86.06
447.35	98.06
447.571	99.06
447.792	96.06
448.013	90.06
448.234	107.06
448.455	95.06
448.675	100.06
448.896	121.06
449.117	98.06
449.338	90.06
449.559	107.06
449.779	114.06
450	91.06
450.221	82.06
450.442	86.06
450.662	68.06
450.883	87.06
451.104	90.06
451.324	107.06
451.545	90.06
451.766	84.06
451.986	83.06
452.207	93.06
452.428	96.06
452.648	106.06
452.869	86.06
453.089	102.06
453.31	110.06
453.53	86.06
453.751	96.06
453.971	97.06
454.192	114.06
454.412	100.06
454.633	79.06
454.853	95.06
455.073	83.06
455.294	90.06
455.514	90.06
455.734	86.06
455.955	75.06
456.175	96.06
456.395	99.06
456.616	93.06
456.836	82.06
457.056	92.06
457.276	85.06
457.497	91.06
457.717	78.06
457.937	94.06
458.157	87.06
458.377	85.06
458.598	87.06
458.818	144.06
459.038	134.06
459.258	101.06
459.478	92.06
459.698	86.06
459.918	86.06
460.138	98.06
460.358	81.06
460.578	99.06
460.798	102.06
461.018	88.06
461.238	82.06
461.458	87.06
461.678	93.06
461.898	96.06
462.118	79.06
462.338	92.06
462.558	80.06
462.777	86.06
462.997	89.06
463.217	80.06
463.437	66.06
463.657	82.06
463.876	90.06
464.096	76.06
464.316	89.06
464.536	77.06
464.755	99.06
464.975	120.06
465.195	139.06
465.414	132.06
465.634	92.06
465.854	100.06
466.073	93.06
466.293	83.06
466.512	84.06
466.732	84.06
466.951	91.06
467.171	102.06
467.391	109.06
467.61	109.06
467.829	107.06
468.049	84.06
468.268	78.06
468.488	100.06
468.707	73.06
468.927	85.06
469.146	89.06
469.365	88.06
469.585	95.06
469.804	83.06
470.023	84.06
470.243	103.06
470.462	92.06
470.681	111.06
470.901	86.06
471.12	82.06
471.339	95.06
471.558	75.06
471.777	77.06
471.997	80.06
472.216	75.06
472.435	92.06
472.654	89.06
472.873	87.06
473.092	89.06
473.311	95.06
473.53	87.06
473.749	100.06
473.968	94.06
474.187	116.06
474.406	107.06
474.625	90.06
474.844	77.06
475.063	92.06
475.282	81.06
475.501	73.06
475.72	86.06
475.939	89.06
476.158	94.06
476.377	82.06
476.596	87.06
476.814	85.06
477.033	101.06
477.252	78.06
477.471	76.06
477.69	97.06
477.908	94.06
478.127	81.06
478.346	96.06
478.564	92.06
478.783	88.06
479.002	94.06
479.22	90.06
479.439	90.06
479.658	99.06
479.876	91.06
480.095	91.06
480.313	80.06
480.532	76.06
480.751	74.06
480.969	81.06
481.188	93.06
481.406	78.06
481.624	94.06
481.843	93.06
482.061	89.06
482.28	93.06
482.498	92.06
482.717	92.06
482.935	103.06
483.153	80.06
483.372	91.06
483.59	93.06
483.808	92.06
484.027	104.06
484.245	84.06
484.463	91.06
484.681	102.06
484.9	96.06
485.118	88.06
485.336	100.06
485.554	109.06
485.772	101.06
485.99	93.06
486.209	110.06
486.427	99.06
486.645	98.06
486.863	116.06
487.081	95.06
487.299	94.06
487.517	84.06
487.735	110.06
487.953	89.06
488.171	100.06
488.389	113.06
488.607	89.06
488.825	89.06
489.043	92.06
489.261	84.06
489.479	97.06
489.696	99.06
489.914	95.06
490.132	95.06
490.35	105.06
490.568	80.06
490.786	90.06
491.003	99.06
491.221	87.06
491.439	92.06
491.657	98.06
491.874	90.06
492.092	78.06
492.31	82.06
492.527	70.06
492.745	94.06
492.963	94.06
493.18	98.06
493.398	100.06
493.615	94.06
493.833	99.06
494.05	86.06
494.268	90.06
494.485	77.06
494.703	87.06
494.92	79.06
495.138	83.06
495.355	87.06
495.573	81.06
495.79	77.06
496.008	97.06
496.225	97.06
496.442	85.06
496.66	95.06
496.877	85.06
497.094	84.06
497.312	106.06
497.529	106.06
497.746	91.06
497.963	101.06
498.181	94.06
498.398	107.06
498.615	82.06
498.832	94.06
499.049	86.06
499.267	86.06
499.484	87.06
499.701	88.06
499.918	81.06
500.135	74.06
500.352	75.06
500.569	94.06
500.786	94.06
501.003	111.06
501.22	79.06
501.437	94.06
501.654	107.06
501.871	111.06
502.088	100.06
502.305	95.06
502.522	76.06
502.739	90.06
502.956	104.06
503.172	85.06
503.389	86.06
503.606	100.06
503.823	98.06
504.04	94.06
504.256	97.06
504.473	75.06
504.69	82.06
504.907	85.06
505.123	96.06
505.34	101.06
505.557	93.06
505.773	99.06
505.99	99.06
506.207	87.06
506.423	87.06
506.64	92.06
506.856	98.06
507.073	86.06
507.289	79.06
507.506	100.06
507.722	111.06
507.939	118.06
508.155	84.06
508.372	95.06
508.588	83.06
508.805	96.06
509.021	110.06
509.238	110.06
509.454	100.06
509.67	99.06
509.887	113.06
510.103	130.06
510.319	189.06
510.536	665.06
510.752	1967.06
510.968	568.06
511.184	144.06
511.401	104.06
511.617	85.06
511.833	84.06
512.049	87.06
512.265	90.06
512.481	84.06
512.698	90.06
512.914	97.06
513.13	100.06
513.346	85.06
513.562	102.06
513.778	102.06
513.994	101.06
514.21	102.06
514.426	108.06
514.642	117.06
514.858	113.06
515.074	142.06
515.29	414.06
515.506	1202.06
515.721	449.06
515.937	143.06
516.153	106.06
