Data from Uncirc_1992_H10_HRD10591_00098.txt Node
Date: Wed Jan 03 11:46:35 EST 2024
User: Yrep
Spectrometer: HR+D1059
Trigger mode: 1
Integration Time (sec): 1.000000E-1
Scans to average: 1
Electric dark correction enabled: true
Nonlinearity correction enabled: false
Boxcar width: 0
XAxis mode: Wavelengths
Number of Pixels in Spectrum: 2048
>>>>>Begin Spectral Data<<<<<
223.165	-12.44
223.4	-12.44
223.635	-12.44
223.869	-18.44
224.104	-28.44
224.338	-19.44
224.573	-15.44
224.808	-18.44
225.042	-14.44
225.277	-5.44
225.511	-0.44
225.746	13.56
225.98	0.56
226.215	-2.44
226.449	30.56
226.683	18.56
226.918	26.56
227.152	45.56
227.387	39.56
227.621	49.56
227.856	45.56
228.09	40.56
228.324	54.56
228.559	56.56
228.793	53.56
229.027	55.56
229.262	56.56
229.496	66.56
229.73	72.56
229.964	85.56
230.199	80.56
230.433	86.56
230.667	71.56
230.901	91.56
231.136	91.56
231.37	70.56
231.604	80.56
231.838	93.56
232.072	93.56
232.306	91.56
232.541	84.56
232.775	86.56
233.009	74.56
233.243	79.56
233.477	83.56
233.711	92.56
233.945	84.56
234.179	87.56
234.413	76.56
234.647	79.56
234.881	76.56
235.115	78.56
235.349	77.56
235.583	86.56
235.817	75.56
236.051	90.56
236.285	86.56
236.519	82.56
236.753	90.56
236.987	89.56
237.221	99.56
237.455	95.56
237.689	83.56
237.922	81.56
238.156	70.56
238.39	78.56
238.624	68.56
238.858	90.56
239.091	70.56
239.325	94.56
239.559	76.56
239.793	74.56
240.027	59.56
240.26	95.56
240.494	84.56
240.728	77.56
240.961	71.56
241.195	91.56
241.429	74.56
241.662	87.56
241.896	81.56
242.13	92.56
242.363	84.56
242.597	80.56
242.83	75.56
243.064	82.56
243.298	84.56
243.531	74.56
243.765	80.56
243.998	79.56
244.232	74.56
244.465	84.56
244.699	84.56
244.932	68.56
245.166	78.56
245.399	70.56
245.633	76.56
245.866	93.56
246.099	71.56
246.333	80.56
246.566	87.56
246.8	84.56
247.033	80.56
247.266	83.56
247.5	82.56
247.733	84.56
247.966	64.56
248.2	86.56
248.433	71.56
248.666	89.56
248.899	70.56
249.133	88.56
249.366	84.56
249.599	94.56
249.832	88.56
250.066	79.56
250.299	90.56
250.532	74.56
250.765	86.56
250.998	85.56
251.231	79.56
251.465	74.56
251.698	78.56
251.931	81.56
252.164	68.56
252.397	76.56
252.63	81.56
252.863	86.56
253.096	91.56
253.329	63.56
253.562	83.56
253.795	80.56
254.028	82.56
254.261	100.56
254.494	66.56
254.727	84.56
254.96	97.56
255.193	84.56
255.426	85.56
255.659	75.56
255.892	84.56
256.124	83.56
256.357	90.56
256.59	90.56
256.823	93.56
257.056	83.56
257.289	94.56
257.521	67.56
257.754	82.56
257.987	85.56
258.22	80.56
258.452	83.56
258.685	82.56
258.918	97.56
259.151	80.56
259.383	89.56
259.616	90.56
259.849	75.56
260.081	78.56
260.314	66.56
260.547	88.56
260.779	94.56
261.012	103.56
261.244	105.56
261.477	87.56
261.71	98.56
261.942	96.56
262.175	122.56
262.407	103.56
262.64	74.56
262.872	92.56
263.105	94.56
263.337	71.56
263.57	76.56
263.802	71.56
264.035	84.56
264.267	77.56
264.499	87.56
264.732	84.56
264.964	81.56
265.197	86.56
265.429	77.56
265.661	92.56
265.894	76.56
266.126	74.56
266.358	77.56
266.591	83.56
266.823	97.56
267.055	84.56
267.287	75.56
267.52	72.56
267.752	88.56
267.984	106.56
268.216	83.56
268.448	91.56
268.681	72.56
268.913	86.56
269.145	90.56
269.377	90.56
269.609	88.56
269.841	83.56
270.073	105.56
270.306	72.56
270.538	74.56
270.77	84.56
271.002	86.56
271.234	82.56
271.466	77.56
271.698	82.56
271.93	80.56
272.162	76.56
272.394	91.56
272.626	94.56
272.858	93.56
273.09	89.56
273.322	80.56
273.553	95.56
273.785	96.56
274.017	83.56
274.249	81.56
274.481	103.56
274.713	94.56
274.945	89.56
275.176	81.56
275.408	87.56
275.64	93.56
275.872	85.56
276.104	92.56
276.335	88.56
276.567	92.56
276.799	106.56
277.031	109.56
277.262	91.56
277.494	93.56
277.726	94.56
277.957	90.56
278.189	81.56
278.421	85.56
278.652	76.56
278.884	101.56
279.115	74.56
279.347	91.56
279.579	72.56
279.81	74.56
280.042	97.56
280.273	79.56
280.505	95.56
280.736	88.56
280.968	82.56
281.199	86.56
281.431	85.56
281.662	72.56
281.894	86.56
282.125	108.56
282.356	116.56
282.588	154.56
282.819	112.56
283.051	89.56
283.282	99.56
283.513	93.56
283.745	74.56
283.976	94.56
284.207	82.56
284.439	90.56
284.67	93.56
284.901	94.56
285.132	85.56
285.364	94.56
285.595	95.56
285.826	87.56
286.057	88.56
286.288	92.56
286.52	90.56
286.751	77.56
286.982	87.56
287.213	85.56
287.444	88.56
287.675	110.56
287.906	101.56
288.138	86.56
288.369	100.56
288.6	93.56
288.831	80.56
289.062	105.56
289.293	83.56
289.524	78.56
289.755	96.56
289.986	85.56
290.217	88.56
290.448	96.56
290.679	75.56
290.91	88.56
291.141	97.56
291.371	78.56
291.602	100.56
291.833	90.56
292.064	81.56
292.295	101.56
292.526	96.56
292.757	96.56
292.987	78.56
293.218	94.56
293.449	81.56
293.68	97.56
293.91	91.56
294.141	91.56
294.372	82.56
294.603	103.56
294.833	85.56
295.064	91.56
295.295	92.56
295.525	93.56
295.756	118.56
295.987	123.56
296.217	140.56
296.448	119.56
296.679	77.56
296.909	87.56
297.14	84.56
297.37	107.56
297.601	89.56
297.831	85.56
298.062	92.56
298.292	85.56
298.523	96.56
298.753	99.56
298.984	99.56
299.214	88.56
299.445	102.56
299.675	92.56
299.905	94.56
300.136	96.56
300.366	101.56
300.597	103.56
300.827	98.56
301.057	95.56
301.288	115.56
301.518	110.56
301.748	88.56
301.979	105.56
302.209	87.56
302.439	98.56
302.669	78.56
302.9	92.56
303.13	103.56
303.36	86.56
303.59	95.56
303.82	89.56
304.051	96.56
304.281	90.56
304.511	80.56
304.741	86.56
304.971	94.56
305.201	90.56
305.431	88.56
305.661	86.56
305.891	99.56
306.121	82.56
306.352	97.56
306.582	98.56
306.812	93.56
307.042	98.56
307.272	102.56
307.502	92.56
307.731	104.56
307.961	107.56
308.191	74.56
308.421	97.56
308.651	78.56
308.881	92.56
309.111	94.56
309.341	101.56
309.571	97.56
309.8	96.56
310.03	91.56
310.26	80.56
310.49	97.56
310.72	102.56
310.949	96.56
311.179	106.56
311.409	107.56
311.639	94.56
311.868	90.56
312.098	99.56
312.328	84.56
312.557	86.56
312.787	103.56
313.017	98.56
313.246	100.56
313.476	87.56
313.706	103.56
313.935	102.56
314.165	96.56
314.394	85.56
314.624	87.56
314.853	108.56
315.083	104.56
315.312	96.56
315.542	94.56
315.771	108.56
316.001	85.56
316.23	90.56
316.46	100.56
316.689	84.56
316.919	95.56
317.148	96.56
317.377	93.56
317.607	103.56
317.836	92.56
318.065	87.56
318.295	106.56
318.524	107.56
318.753	95.56
318.983	90.56
319.212	108.56
319.441	106.56
319.67	109.56
319.9	92.56
320.129	95.56
320.358	100.56
320.587	97.56
320.816	105.56
321.046	110.56
321.275	88.56
321.504	93.56
321.733	92.56
321.962	92.56
322.191	99.56
322.42	112.56
322.649	106.56
322.878	115.56
323.108	107.56
323.337	115.56
323.566	135.56
323.795	146.56
324.024	180.56
324.253	355.56
324.482	757.56
324.71	1540.56
324.939	1989.56
325.168	762.56
325.397	234.56
325.626	146.56
325.855	117.56
326.084	116.56
326.313	125.56
326.542	166.56
326.77	212.56
326.999	431.56
327.228	856.56
327.457	1539.56
327.686	1211.56
327.914	337.56
328.143	186.56
328.372	142.56
328.6	123.56
328.829	99.56
329.058	130.56
329.287	109.56
329.515	101.56
329.744	104.56
329.972	110.56
330.201	94.56
330.43	114.56
330.658	133.56
330.887	133.56
331.115	115.56
331.344	109.56
331.572	103.56
331.801	103.56
332.03	103.56
332.258	90.56
332.486	88.56
332.715	81.56
332.943	91.56
333.172	91.56
333.4	91.56
333.629	117.56
333.857	124.56
334.085	98.56
334.314	94.56
334.542	108.56
334.771	105.56
334.999	108.56
335.227	106.56
335.455	92.56
335.684	106.56
335.912	100.56
336.14	101.56
336.369	93.56
336.597	101.56
336.825	82.56
337.053	88.56
337.281	92.56
337.51	95.56
337.738	96.56
337.966	101.56
338.194	101.56
338.422	96.56
338.65	87.56
338.878	99.56
339.106	86.56
339.334	92.56
339.562	98.56
339.79	97.56
340.018	94.56
340.246	99.56
340.474	77.56
340.702	82.56
340.93	93.56
341.158	93.56
341.386	109.56
341.614	98.56
341.842	108.56
342.07	94.56
342.298	87.56
342.526	96.56
342.754	91.56
342.981	92.56
343.209	86.56
343.437	101.56
343.665	98.56
343.893	82.56
344.12	94.56
344.348	99.56
344.576	104.56
344.804	94.56
345.031	92.56
345.259	87.56
345.487	91.56
345.714	92.56
345.942	101.56
346.17	98.56
346.397	97.56
346.625	82.56
346.853	80.56
347.08	87.56
347.308	99.56
347.535	104.56
347.763	98.56
347.99	97.56
348.218	92.56
348.445	115.56
348.673	104.56
348.9	99.56
349.128	92.56
349.355	102.56
349.583	85.56
349.81	102.56
350.037	94.56
350.265	97.56
350.492	94.56
350.72	92.56
350.947	99.56
351.174	103.56
351.402	108.56
351.629	102.56
351.856	95.56
352.083	106.56
352.311	114.56
352.538	102.56
352.765	110.56
352.992	109.56
353.22	123.56
353.447	93.56
353.674	98.56
353.901	97.56
354.128	99.56
354.355	102.56
354.583	93.56
354.81	104.56
355.037	96.56
355.264	99.56
355.491	97.56
355.718	103.56
355.945	95.56
356.172	91.56
356.399	92.56
356.626	102.56
356.853	104.56
357.08	90.56
357.307	96.56
357.534	105.56
357.761	91.56
357.988	98.56
358.215	96.56
358.441	94.56
358.668	81.56
358.895	76.56
359.122	91.56
359.349	98.56
359.576	93.56
359.802	106.56
360.029	117.56
360.256	111.56
360.483	96.56
360.709	86.56
360.936	92.56
361.163	95.56
361.39	108.56
361.616	115.56
361.843	94.56
362.07	91.56
362.296	100.56
362.523	93.56
362.749	84.56
362.976	108.56
363.203	80.56
363.429	95.56
363.656	99.56
363.882	100.56
364.109	93.56
364.335	101.56
364.562	86.56
364.788	96.56
365.015	79.56
365.241	96.56
365.468	96.56
365.694	106.56
365.92	92.56
366.147	111.56
366.373	87.56
366.599	104.56
366.826	91.56
367.052	93.56
367.278	85.56
367.505	84.56
367.731	102.56
367.957	92.56
368.184	84.56
368.41	118.56
368.636	107.56
368.862	120.56
369.089	112.56
369.315	95.56
369.541	99.56
369.767	103.56
369.993	93.56
370.219	103.56
370.445	84.56
370.672	80.56
370.898	92.56
371.124	87.56
371.35	76.56
371.576	83.56
371.802	95.56
372.028	86.56
372.254	92.56
372.48	104.56
372.706	80.56
372.932	88.56
373.158	87.56
373.384	92.56
373.61	91.56
373.835	106.56
374.061	92.56
374.287	80.56
374.513	87.56
374.739	94.56
374.965	96.56
375.191	88.56
375.416	94.56
375.642	105.56
375.868	101.56
376.094	96.56
376.319	100.56
376.545	93.56
376.771	92.56
376.997	84.56
377.222	101.56
377.448	98.56
377.674	95.56
377.899	97.56
378.125	87.56
378.35	100.56
378.576	78.56
378.802	85.56
379.027	87.56
379.253	104.56
379.478	77.56
379.704	91.56
379.929	105.56
380.155	86.56
380.38	100.56
380.606	97.56
380.831	99.56
381.057	90.56
381.282	94.56
381.507	94.56
381.733	90.56
381.958	97.56
382.184	96.56
382.409	104.56
382.634	95.56
382.86	96.56
383.085	104.56
383.31	100.56
383.535	99.56
383.761	103.56
383.986	100.56
384.211	86.56
384.436	104.56
384.662	102.56
384.887	105.56
385.112	100.56
385.337	91.56
385.562	96.56
385.787	94.56
386.013	102.56
386.238	116.56
386.463	87.56
386.688	114.56
386.913	96.56
387.138	100.56
387.363	101.56
387.588	108.56
387.813	101.56
388.038	104.56
388.263	105.56
388.488	94.56
388.713	86.56
388.938	110.56
389.163	97.56
389.387	112.56
389.612	99.56
389.837	98.56
390.062	96.56
390.287	84.56
390.512	90.56
390.736	98.56
390.961	95.56
391.186	84.56
391.411	95.56
391.636	100.56
391.86	90.56
392.085	83.56
392.31	93.56
392.534	86.56
392.759	86.56
392.984	90.56
393.208	86.56
393.433	86.56
393.658	84.56
393.882	100.56
394.107	75.56
394.331	91.56
394.556	80.56
394.78	102.56
395.005	93.56
395.229	84.56
395.454	84.56
395.678	100.56
395.903	94.56
396.127	79.56
396.352	78.56
396.576	75.56
396.801	94.56
397.025	94.56
397.249	86.56
397.474	67.56
397.698	92.56
397.922	101.56
398.147	86.56
398.371	78.56
398.595	94.56
398.82	90.56
399.044	86.56
399.268	92.56
399.492	102.56
399.717	100.56
399.941	87.56
400.165	95.56
400.389	87.56
400.613	76.56
400.837	85.56
401.062	75.56
401.286	99.56
401.51	96.56
401.734	96.56
401.958	101.56
402.182	124.56
402.406	159.56
402.63	111.56
402.854	86.56
403.078	86.56
403.302	96.56
403.526	87.56
403.75	103.56
403.974	60.56
404.198	89.56
404.422	86.56
404.645	99.56
404.869	87.56
405.093	95.56
405.317	97.56
405.541	99.56
405.765	93.56
405.988	126.56
406.212	165.56
406.436	219.56
406.66	149.56
406.883	106.56
407.107	98.56
407.331	94.56
407.555	98.56
407.778	87.56
408.002	99.56
408.226	82.56
408.449	93.56
408.673	92.56
408.896	105.56
409.12	103.56
409.344	97.56
409.567	99.56
409.791	84.56
410.014	92.56
410.238	94.56
410.461	92.56
410.685	87.56
410.908	90.56
411.132	109.56
411.355	116.56
411.578	100.56
411.802	79.56
412.025	96.56
412.249	77.56
412.472	93.56
412.695	94.56
412.919	84.56
413.142	86.56
413.365	98.56
413.589	94.56
413.812	74.56
414.035	91.56
414.258	92.56
414.482	96.56
414.705	94.56
414.928	74.56
415.151	91.56
415.374	83.56
415.597	89.56
415.821	66.56
416.044	95.56
416.267	79.56
416.49	97.56
416.713	98.56
416.936	91.56
417.159	93.56
417.382	83.56
417.605	81.56
417.828	88.56
418.051	100.56
418.274	84.56
418.497	83.56
418.72	76.56
418.943	98.56
419.166	86.56
419.389	93.56
419.611	91.56
419.834	99.56
420.057	94.56
420.28	81.56
420.503	91.56
420.726	86.56
420.948	101.56
421.171	103.56
421.394	103.56
421.617	85.56
421.839	80.56
422.062	83.56
422.285	90.56
422.507	100.56
422.73	103.56
422.953	90.56
423.175	99.56
423.398	84.56
423.621	87.56
423.843	84.56
424.066	74.56
424.288	92.56
424.511	102.56
424.733	95.56
424.956	109.56
425.178	99.56
425.401	89.56
425.623	93.56
425.846	85.56
426.068	92.56
426.291	92.56
426.513	92.56
426.735	87.56
426.958	90.56
427.18	104.56
427.402	127.56
427.625	150.56
427.847	116.56
428.069	112.56
428.292	84.56
428.514	97.56
428.736	91.56
428.958	99.56
429.181	98.56
429.403	67.56
429.625	91.56
429.847	98.56
430.069	104.56
430.292	84.56
430.514	89.56
430.736	88.56
430.958	86.56
431.18	76.56
431.402	81.56
431.624	86.56
431.846	86.56
432.068	85.56
432.29	83.56
432.512	103.56
432.734	87.56
432.956	97.56
433.178	101.56
433.4	95.56
433.622	97.56
433.844	100.56
434.066	93.56
434.287	93.56
434.509	94.56
434.731	91.56
434.953	91.56
435.175	91.56
435.397	89.56
435.618	98.56
435.84	89.56
436.062	125.56
436.284	122.56
436.505	85.56
436.727	86.56
436.949	91.56
437.17	88.56
437.392	90.56
437.614	97.56
437.835	111.56
438.057	112.56
438.278	112.56
438.5	91.56
438.721	124.56
438.943	110.56
439.165	83.56
439.386	82.56
439.608	104.56
439.829	103.56
440.05	125.56
440.272	119.56
440.493	106.56
440.715	77.56
440.936	79.56
441.158	89.56
441.379	90.56
441.6	101.56
441.822	87.56
442.043	95.56
442.264	91.56
442.486	99.56
442.707	96.56
442.928	108.56
443.149	138.56
443.371	116.56
443.592	107.56
443.813	112.56
444.034	118.56
444.255	79.56
444.476	98.56
444.698	88.56
444.919	74.56
445.14	128.56
445.361	131.56
445.582	112.56
445.803	117.56
446.024	125.56
446.245	127.56
446.466	107.56
446.687	97.56
446.908	97.56
447.129	95.56
447.35	88.56
447.571	91.56
447.792	100.56
448.013	112.56
448.234	102.56
448.455	77.56
448.675	105.56
448.896	108.56
449.117	94.56
449.338	110.56
449.559	121.56
449.779	116.56
450	90.56
450.221	86.56
450.442	87.56
450.662	101.56
450.883	102.56
451.104	99.56
451.324	95.56
451.545	89.56
451.766	86.56
451.986	96.56
452.207	81.56
452.428	98.56
452.648	93.56
452.869	105.56
453.089	110.56
453.31	103.56
453.53	92.56
453.751	83.56
453.971	100.56
454.192	94.56
454.412	87.56
454.633	85.56
454.853	90.56
455.073	92.56
455.294	89.56
455.514	98.56
455.734	97.56
455.955	93.56
456.175	101.56
456.395	98.56
456.616	101.56
456.836	79.56
457.056	79.56
457.276	87.56
457.497	83.56
457.717	92.56
457.937	88.56
458.157	84.56
458.377	92.56
458.598	110.56
458.818	150.56
459.038	152.56
459.258	101.56
459.478	88.56
459.698	88.56
459.918	87.56
460.138	97.56
460.358	74.56
460.578	84.56
460.798	90.56
461.018	97.56
461.238	87.56
461.458	74.56
461.678	82.56
461.898	76.56
462.118	78.56
462.338	87.56
462.558	76.56
462.777	69.56
462.997	88.56
463.217	86.56
463.437	87.56
463.657	84.56
463.876	89.56
464.096	86.56
464.316	86.56
464.536	101.56
464.755	91.56
464.975	94.56
465.195	158.56
465.414	151.56
465.634	96.56
465.854	93.56
466.073	89.56
466.293	71.56
466.512	91.56
466.732	86.56
466.951	90.56
467.171	93.56
467.391	90.56
467.61	99.56
467.829	97.56
468.049	76.56
468.268	89.56
468.488	97.56
468.707	90.56
468.927	69.56
469.146	84.56
469.365	82.56
469.585	98.56
469.804	91.56
470.023	81.56
470.243	85.56
470.462	104.56
470.681	99.56
470.901	82.56
471.12	82.56
471.339	94.56
471.558	87.56
471.777	82.56
471.997	87.56
472.216	82.56
472.435	92.56
472.654	83.56
472.873	80.56
473.092	77.56
473.311	87.56
473.53	79.56
473.749	88.56
473.968	93.56
474.187	93.56
474.406	93.56
474.625	83.56
474.844	79.56
475.063	82.56
475.282	92.56
475.501	78.56
475.72	75.56
475.939	70.56
476.158	88.56
476.377	99.56
476.596	90.56
476.814	95.56
477.033	96.56
477.252	83.56
477.471	99.56
477.69	104.56
477.908	97.56
478.127	94.56
478.346	74.56
478.564	90.56
478.783	100.56
479.002	78.56
479.22	90.56
479.439	107.56
479.658	96.56
479.876	93.56
480.095	88.56
480.313	99.56
480.532	81.56
480.751	84.56
480.969	88.56
481.188	103.56
481.406	97.56
481.624	77.56
481.843	83.56
482.061	91.56
482.28	79.56
482.498	93.56
482.717	95.56
482.935	86.56
483.153	98.56
483.372	72.56
483.59	68.56
483.808	70.56
484.027	97.56
484.245	91.56
484.463	74.56
484.681	104.56
484.9	96.56
485.118	94.56
485.336	97.56
485.554	81.56
485.772	107.56
485.99	108.56
486.209	91.56
486.427	99.56
486.645	118.56
486.863	113.56
487.081	109.56
487.299	98.56
487.517	92.56
487.735	105.56
487.953	97.56
488.171	98.56
488.389	85.56
488.607	89.56
488.825	84.56
489.043	93.56
489.261	90.56
489.479	87.56
489.696	109.56
489.914	103.56
490.132	97.56
490.35	92.56
490.568	100.56
490.786	93.56
491.003	92.56
491.221	101.56
491.439	95.56
491.657	87.56
491.874	104.56
492.092	77.56
492.31	95.56
492.527	103.56
492.745	91.56
492.963	93.56
493.18	94.56
493.398	102.56
493.615	85.56
493.833	78.56
494.05	86.56
494.268	100.56
494.485	94.56
494.703	75.56
494.92	93.56
495.138	94.56
495.355	89.56
495.573	93.56
495.79	107.56
496.008	91.56
496.225	95.56
496.442	91.56
496.66	83.56
496.877	82.56
497.094	93.56
497.312	92.56
497.529	103.56
497.746	93.56
497.963	88.56
498.181	81.56
498.398	98.56
498.615	115.56
498.832	98.56
499.049	94.56
499.267	104.56
499.484	90.56
499.701	83.56
499.918	99.56
500.135	84.56
500.352	96.56
500.569	96.56
500.786	87.56
501.003	88.56
501.22	97.56
501.437	89.56
501.654	92.56
501.871	103.56
502.088	93.56
502.305	99.56
502.522	95.56
502.739	94.56
502.956	96.56
503.172	103.56
503.389	97.56
503.606	103.56
503.823	98.56
504.04	84.56
504.256	94.56
504.473	94.56
504.69	107.56
504.907	102.56
505.123	91.56
505.34	87.56
505.557	84.56
505.773	103.56
505.99	99.56
506.207	95.56
506.423	97.56
506.64	82.56
506.856	91.56
507.073	99.56
507.289	110.56
507.506	98.56
507.722	104.56
507.939	99.56
508.155	94.56
508.372	103.56
508.588	89.56
508.805	92.56
509.021	85.56
509.238	92.56
509.454	105.56
509.67	104.56
509.887	119.56
510.103	126.56
510.319	219.56
510.536	761.56
510.752	2367.56
510.968	622.56
511.184	154.56
511.401	110.56
511.617	104.56
511.833	107.56
512.049	92.56
512.265	106.56
512.481	104.56
512.698	94.56
512.914	107.56
513.13	90.56
513.346	113.56
513.562	111.56
513.778	92.56
513.994	98.56
514.21	94.56
514.426	107.56
514.642	143.56
514.858	119.56
515.074	160.56
515.29	457.56
