Data from Uncirc_1992_H10_HRD10591_00088.txt Node
Date: Wed Jan 03 11:46:33 EST 2024
User: Yrep
Spectrometer: HR+D1059
Trigger mode: 1
Integration Time (sec): 1.000000E-1
Scans to average: 1
Electric dark correction enabled: true
Nonlinearity correction enabled: false
Boxcar width: 0
XAxis mode: Wavelengths
Number of Pixels in Spectrum: 2048
>>>>>Begin Spectral Data<<<<<
223.165	-13.25
223.4	-13.25
223.635	-13.25
223.869	-37.25
224.104	-15.25
224.338	-18.25
224.573	-18.25
224.808	-19.25
225.042	-4.25
225.277	-4.25
225.511	-12.25
225.746	3.75
225.98	21.75
226.215	16.75
226.449	4.75
226.683	34.75
226.918	23.75
227.152	36.75
227.387	39.75
227.621	50.75
227.856	40.75
228.09	35.75
228.324	43.75
228.559	56.75
228.793	66.75
229.027	64.75
229.262	75.75
229.496	71.75
229.73	95.75
229.964	74.75
230.199	77.75
230.433	65.75
230.667	96.75
230.901	84.75
231.136	72.75
231.37	67.75
231.604	91.75
231.838	72.75
232.072	76.75
232.306	79.75
232.541	101.75
232.775	83.75
233.009	85.75
233.243	101.75
233.477	92.75
233.711	92.75
233.945	75.75
234.179	61.75
234.413	66.75
234.647	75.75
234.881	84.75
235.115	69.75
235.349	86.75
235.583	73.75
235.817	81.75
236.051	71.75
236.285	79.75
236.519	82.75
236.753	78.75
236.987	91.75
237.221	84.75
237.455	80.75
237.689	86.75
237.922	58.75
238.156	82.75
238.39	58.75
238.624	70.75
238.858	80.75
239.091	76.75
239.325	72.75
239.559	75.75
239.793	74.75
240.027	78.75
240.26	68.75
240.494	71.75
240.728	72.75
240.961	80.75
241.195	79.75
241.429	80.75
241.662	89.75
241.896	77.75
242.13	87.75
242.363	86.75
242.597	69.75
242.83	65.75
243.064	77.75
243.298	85.75
243.531	95.75
243.765	84.75
243.998	84.75
244.232	80.75
244.465	98.75
244.699	76.75
244.932	76.75
245.166	71.75
245.399	88.75
245.633	71.75
245.866	82.75
246.099	84.75
246.333	92.75
246.566	79.75
246.8	84.75
247.033	85.75
247.266	80.75
247.5	76.75
247.733	80.75
247.966	86.75
248.2	87.75
248.433	96.75
248.666	81.75
248.899	80.75
249.133	88.75
249.366	93.75
249.599	95.75
249.832	92.75
250.066	83.75
250.299	80.75
250.532	87.75
250.765	90.75
250.998	81.75
251.231	79.75
251.465	80.75
251.698	76.75
251.931	82.75
252.164	67.75
252.397	84.75
252.63	79.75
252.863	84.75
253.096	80.75
253.329	95.75
253.562	78.75
253.795	78.75
254.028	86.75
254.261	80.75
254.494	76.75
254.727	85.75
254.96	79.75
255.193	77.75
255.426	94.75
255.659	90.75
255.892	70.75
256.124	90.75
256.357	64.75
256.59	76.75
256.823	76.75
257.056	73.75
257.289	82.75
257.521	76.75
257.754	87.75
257.987	83.75
258.22	92.75
258.452	77.75
258.685	92.75
258.918	80.75
259.151	80.75
259.383	80.75
259.616	83.75
259.849	96.75
260.081	89.75
260.314	96.75
260.547	68.75
260.779	84.75
261.012	83.75
261.244	92.75
261.477	82.75
261.71	85.75
261.942	107.75
262.175	114.75
262.407	93.75
262.64	80.75
262.872	86.75
263.105	84.75
263.337	86.75
263.57	90.75
263.802	83.75
264.035	93.75
264.267	93.75
264.499	82.75
264.732	86.75
264.964	93.75
265.197	93.75
265.429	100.75
265.661	104.75
265.894	84.75
266.126	90.75
266.358	85.75
266.591	94.75
266.823	71.75
267.055	90.75
267.287	90.75
267.52	78.75
267.752	66.75
267.984	95.75
268.216	77.75
268.448	95.75
268.681	84.75
268.913	98.75
269.145	84.75
269.377	94.75
269.609	83.75
269.841	92.75
270.073	84.75
270.306	87.75
270.538	90.75
270.77	87.75
271.002	88.75
271.234	85.75
271.466	90.75
271.698	90.75
271.93	82.75
272.162	82.75
272.394	91.75
272.626	82.75
272.858	70.75
273.09	91.75
273.322	89.75
273.553	83.75
273.785	80.75
274.017	90.75
274.249	88.75
274.481	80.75
274.713	84.75
274.945	98.75
275.176	95.75
275.408	94.75
275.64	80.75
275.872	90.75
276.104	92.75
276.335	86.75
276.567	110.75
276.799	106.75
277.031	103.75
277.262	82.75
277.494	82.75
277.726	84.75
277.957	96.75
278.189	100.75
278.421	90.75
278.652	83.75
278.884	85.75
279.115	80.75
279.347	89.75
279.579	83.75
279.81	80.75
280.042	81.75
280.273	96.75
280.505	100.75
280.736	98.75
280.968	91.75
281.199	93.75
281.431	91.75
281.662	97.75
281.894	98.75
282.125	101.75
282.356	124.75
282.588	155.75
282.819	107.75
283.051	83.75
283.282	97.75
283.513	90.75
283.745	91.75
283.976	92.75
284.207	74.75
284.439	84.75
284.67	93.75
284.901	93.75
285.132	81.75
285.364	72.75
285.595	88.75
285.826	99.75
286.057	88.75
286.288	86.75
286.52	103.75
286.751	89.75
286.982	89.75
287.213	83.75
287.444	93.75
287.675	94.75
287.906	92.75
288.138	102.75
288.369	91.75
288.6	88.75
288.831	72.75
289.062	93.75
289.293	95.75
289.524	97.75
289.755	87.75
289.986	83.75
290.217	77.75
290.448	95.75
290.679	91.75
290.91	100.75
291.141	99.75
291.371	100.75
291.602	89.75
291.833	77.75
292.064	91.75
292.295	91.75
292.526	88.75
292.757	91.75
292.987	91.75
293.218	105.75
293.449	88.75
293.68	92.75
293.91	92.75
294.141	98.75
294.372	90.75
294.603	84.75
294.833	95.75
295.064	82.75
295.295	82.75
295.525	92.75
295.756	100.75
295.987	117.75
296.217	141.75
296.448	126.75
296.679	94.75
296.909	99.75
297.14	95.75
297.37	91.75
297.601	86.75
297.831	90.75
298.062	96.75
298.292	98.75
298.523	84.75
298.753	77.75
298.984	90.75
299.214	100.75
299.445	100.75
299.675	99.75
299.905	96.75
300.136	78.75
300.366	89.75
300.597	86.75
300.827	70.75
301.057	93.75
301.288	97.75
301.518	106.75
301.748	86.75
301.979	98.75
302.209	78.75
302.439	90.75
302.669	94.75
302.9	102.75
303.13	94.75
303.36	92.75
303.59	102.75
303.82	109.75
304.051	96.75
304.281	99.75
304.511	86.75
304.741	83.75
304.971	84.75
305.201	101.75
305.431	88.75
305.661	79.75
305.891	92.75
306.121	110.75
306.352	95.75
306.582	101.75
306.812	95.75
307.042	87.75
307.272	102.75
307.502	103.75
307.731	114.75
307.961	90.75
308.191	103.75
308.421	89.75
308.651	85.75
308.881	106.75
309.111	91.75
309.341	97.75
309.571	88.75
309.8	91.75
310.03	91.75
310.26	110.75
310.49	103.75
310.72	97.75
310.949	107.75
311.179	96.75
311.409	114.75
311.639	100.75
311.868	106.75
312.098	90.75
312.328	113.75
312.557	101.75
312.787	100.75
313.017	108.75
313.246	91.75
313.476	88.75
313.706	97.75
313.935	95.75
314.165	100.75
314.394	107.75
314.624	109.75
314.853	98.75
315.083	104.75
315.312	99.75
315.542	104.75
315.771	104.75
316.001	86.75
316.23	99.75
316.46	99.75
316.689	94.75
316.919	95.75
317.148	94.75
317.377	94.75
317.607	84.75
317.836	96.75
318.065	104.75
318.295	96.75
318.524	103.75
318.753	98.75
318.983	92.75
319.212	104.75
319.441	100.75
319.67	100.75
319.9	104.75
320.129	100.75
320.358	100.75
320.587	108.75
320.816	99.75
321.046	94.75
321.275	91.75
321.504	84.75
321.733	94.75
321.962	99.75
322.191	113.75
322.42	106.75
322.649	112.75
322.878	105.75
323.108	121.75
323.337	118.75
323.566	127.75
323.795	160.75
324.024	214.75
324.253	399.75
324.482	846.75
324.71	1677.75
324.939	2179.75
325.168	796.75
325.397	244.75
325.626	152.75
325.855	124.75
326.084	131.75
326.313	136.75
326.542	147.75
326.77	219.75
326.999	469.75
327.228	947.75
327.457	1696.75
327.686	1319.75
327.914	371.75
328.143	188.75
328.372	140.75
328.6	133.75
328.829	112.75
329.058	134.75
329.287	119.75
329.515	110.75
329.744	95.75
329.972	114.75
330.201	94.75
330.43	116.75
330.658	122.75
330.887	131.75
331.115	120.75
331.344	96.75
331.572	97.75
331.801	110.75
332.03	108.75
332.258	100.75
332.486	88.75
332.715	98.75
332.943	92.75
333.172	86.75
333.4	85.75
333.629	97.75
333.857	116.75
334.085	121.75
334.314	101.75
334.542	99.75
334.771	93.75
334.999	87.75
335.227	111.75
335.455	98.75
335.684	103.75
335.912	98.75
336.14	96.75
336.369	91.75
336.597	100.75
336.825	98.75
337.053	90.75
337.281	94.75
337.51	102.75
337.738	99.75
337.966	104.75
338.194	92.75
338.422	94.75
338.65	95.75
338.878	99.75
339.106	75.75
339.334	92.75
339.562	95.75
339.79	91.75
340.018	104.75
340.246	99.75
340.474	98.75
340.702	87.75
340.93	96.75
341.158	96.75
341.386	101.75
341.614	108.75
341.842	103.75
342.07	90.75
342.298	100.75
342.526	86.75
342.754	84.75
342.981	87.75
343.209	93.75
343.437	95.75
343.665	85.75
343.893	94.75
344.12	98.75
344.348	104.75
344.576	90.75
344.804	93.75
345.031	96.75
345.259	100.75
345.487	104.75
345.714	103.75
345.942	96.75
346.17	92.75
346.397	96.75
346.625	87.75
346.853	99.75
347.08	91.75
347.308	87.75
347.535	87.75
347.763	93.75
347.99	104.75
348.218	105.75
348.445	92.75
348.673	105.75
348.9	99.75
349.128	94.75
349.355	100.75
349.583	84.75
349.81	88.75
350.037	93.75
350.265	91.75
350.492	100.75
350.72	93.75
350.947	89.75
351.174	112.75
351.402	119.75
351.629	108.75
351.856	100.75
352.083	91.75
352.311	102.75
352.538	118.75
352.765	109.75
352.992	115.75
353.22	122.75
353.447	108.75
353.674	105.75
353.901	109.75
354.128	104.75
354.355	101.75
354.583	109.75
354.81	108.75
355.037	96.75
355.264	86.75
355.491	102.75
355.718	101.75
355.945	105.75
356.172	104.75
356.399	114.75
356.626	110.75
356.853	91.75
357.08	94.75
357.307	98.75
357.534	111.75
357.761	100.75
357.988	99.75
358.215	99.75
358.441	99.75
358.668	90.75
358.895	101.75
359.122	95.75
359.349	104.75
359.576	97.75
359.802	104.75
360.029	107.75
360.256	99.75
360.483	92.75
360.709	85.75
360.936	104.75
361.163	86.75
361.39	89.75
361.616	88.75
361.843	75.75
362.07	92.75
362.296	96.75
362.523	89.75
362.749	92.75
362.976	98.75
363.203	117.75
363.429	86.75
363.656	92.75
363.882	81.75
364.109	82.75
364.335	91.75
364.562	93.75
364.788	87.75
365.015	89.75
365.241	107.75
365.468	95.75
365.694	102.75
365.92	98.75
366.147	81.75
366.373	81.75
366.599	82.75
366.826	93.75
367.052	100.75
367.278	98.75
367.505	79.75
367.731	89.75
367.957	85.75
368.184	104.75
368.41	88.75
368.636	112.75
368.862	124.75
369.089	117.75
369.315	94.75
369.541	98.75
369.767	95.75
369.993	84.75
370.219	94.75
370.445	97.75
370.672	88.75
370.898	88.75
371.124	88.75
371.35	90.75
371.576	85.75
371.802	91.75
372.028	96.75
372.254	88.75
372.48	85.75
372.706	104.75
372.932	89.75
373.158	88.75
373.384	92.75
373.61	90.75
373.835	85.75
374.061	99.75
374.287	88.75
374.513	87.75
374.739	93.75
374.965	77.75
375.191	102.75
375.416	93.75
375.642	97.75
375.868	96.75
376.094	102.75
376.319	76.75
376.545	78.75
376.771	99.75
376.997	88.75
377.222	96.75
377.448	87.75
377.674	90.75
377.899	90.75
378.125	87.75
378.35	93.75
378.576	95.75
378.802	91.75
379.027	93.75
379.253	93.75
379.478	103.75
379.704	86.75
379.929	104.75
380.155	110.75
380.38	95.75
380.606	100.75
380.831	93.75
381.057	76.75
381.282	99.75
381.507	98.75
381.733	104.75
381.958	86.75
382.184	100.75
382.409	95.75
382.634	99.75
382.86	102.75
383.085	103.75
383.31	106.75
383.535	96.75
383.761	94.75
383.986	95.75
384.211	94.75
384.436	87.75
384.662	103.75
384.887	118.75
385.112	89.75
385.337	101.75
385.562	107.75
385.787	108.75
386.013	117.75
386.238	100.75
386.463	98.75
386.688	107.75
386.913	101.75
387.138	106.75
387.363	103.75
387.588	108.75
387.813	103.75
388.038	115.75
388.263	104.75
388.488	100.75
388.713	99.75
388.938	101.75
389.163	93.75
389.387	103.75
389.612	99.75
389.837	97.75
390.062	99.75
390.287	106.75
390.512	89.75
390.736	94.75
390.961	101.75
391.186	82.75
391.411	102.75
391.636	91.75
391.86	93.75
392.085	82.75
392.31	84.75
392.534	90.75
392.759	74.75
392.984	93.75
393.208	97.75
393.433	94.75
393.658	93.75
393.882	85.75
394.107	94.75
394.331	79.75
394.556	78.75
394.78	87.75
395.005	96.75
395.229	98.75
395.454	94.75
395.678	80.75
395.903	102.75
396.127	82.75
396.352	95.75
396.576	87.75
396.801	88.75
397.025	77.75
397.249	94.75
397.474	86.75
397.698	96.75
397.922	84.75
398.147	85.75
398.371	84.75
398.595	94.75
398.82	76.75
399.044	82.75
399.268	91.75
399.492	90.75
399.717	103.75
399.941	76.75
400.165	92.75
400.389	88.75
400.613	101.75
400.837	91.75
401.062	85.75
401.286	95.75
401.51	91.75
401.734	98.75
401.958	100.75
402.182	119.75
402.406	166.75
402.63	112.75
402.854	95.75
403.078	89.75
403.302	88.75
403.526	85.75
403.75	86.75
403.974	83.75
404.198	89.75
404.422	87.75
404.645	91.75
404.869	98.75
405.093	90.75
405.317	94.75
405.541	96.75
405.765	95.75
405.988	130.75
406.212	172.75
406.436	241.75
406.66	143.75
406.883	93.75
407.107	98.75
407.331	98.75
407.555	103.75
407.778	85.75
408.002	102.75
408.226	86.75
408.449	99.75
408.673	90.75
408.896	98.75
409.12	101.75
409.344	93.75
409.567	91.75
409.791	96.75
410.014	87.75
410.238	98.75
410.461	99.75
410.685	101.75
410.908	98.75
411.132	95.75
411.355	100.75
411.578	94.75
411.802	86.75
412.025	84.75
412.249	88.75
412.472	87.75
412.695	87.75
412.919	87.75
413.142	103.75
413.365	98.75
413.589	90.75
413.812	95.75
414.035	92.75
414.258	82.75
414.482	82.75
414.705	100.75
414.928	84.75
415.151	85.75
415.374	99.75
415.597	92.75
415.821	90.75
416.044	96.75
416.267	80.75
416.49	83.75
416.713	84.75
416.936	97.75
417.159	97.75
417.382	97.75
417.605	95.75
417.828	96.75
418.051	90.75
418.274	90.75
418.497	77.75
418.72	86.75
418.943	91.75
419.166	88.75
419.389	97.75
419.611	100.75
419.834	83.75
420.057	100.75
420.28	88.75
420.503	79.75
420.726	97.75
420.948	82.75
421.171	95.75
421.394	94.75
421.617	96.75
421.839	95.75
422.062	94.75
422.285	96.75
422.507	103.75
422.73	99.75
422.953	91.75
423.175	85.75
423.398	91.75
423.621	83.75
423.843	80.75
424.066	80.75
424.288	86.75
424.511	70.75
424.733	110.75
424.956	112.75
425.178	95.75
425.401	85.75
425.623	105.75
425.846	79.75
426.068	101.75
426.291	90.75
426.513	91.75
426.735	81.75
426.958	82.75
427.18	90.75
427.402	129.75
427.625	152.75
427.847	113.75
428.069	105.75
428.292	87.75
428.514	91.75
428.736	95.75
428.958	80.75
429.181	88.75
429.403	85.75
429.625	74.75
429.847	104.75
430.069	90.75
430.292	77.75
430.514	94.75
430.736	86.75
430.958	74.75
431.18	79.75
431.402	88.75
431.624	88.75
431.846	81.75
432.068	84.75
432.29	98.75
432.512	102.75
432.734	85.75
432.956	97.75
433.178	99.75
433.4	99.75
433.622	95.75
433.844	84.75
434.066	95.75
434.287	83.75
434.509	78.75
434.731	90.75
434.953	105.75
435.175	96.75
435.397	89.75
435.618	83.75
435.84	99.75
436.062	111.75
436.284	110.75
436.505	118.75
436.727	106.75
436.949	93.75
437.17	92.75
437.392	78.75
437.614	99.75
437.835	107.75
438.057	115.75
438.278	98.75
438.5	101.75
438.721	119.75
438.943	86.75
439.165	90.75
439.386	87.75
439.608	96.75
439.829	99.75
440.05	116.75
440.272	123.75
440.493	95.75
440.715	96.75
440.936	102.75
441.158	78.75
441.379	79.75
441.6	97.75
441.822	106.75
442.043	94.75
442.264	108.75
442.486	94.75
442.707	94.75
442.928	108.75
443.149	138.75
443.371	125.75
443.592	110.75
443.813	108.75
444.034	110.75
444.255	102.75
444.476	90.75
444.698	88.75
444.919	79.75
445.14	116.75
445.361	130.75
445.582	117.75
445.803	135.75
446.024	120.75
446.245	132.75
446.466	97.75
446.687	88.75
446.908	82.75
447.129	85.75
447.35	86.75
447.571	85.75
447.792	89.75
448.013	92.75
448.234	106.75
448.455	98.75
448.675	123.75
448.896	126.75
449.117	104.75
449.338	96.75
449.559	134.75
449.779	135.75
450	106.75
450.221	93.75
450.442	92.75
450.662	93.75
450.883	92.75
451.104	108.75
451.324	98.75
451.545	91.75
451.766	74.75
451.986	107.75
452.207	97.75
452.428	93.75
452.648	101.75
452.869	96.75
453.089	112.75
453.31	117.75
453.53	93.75
453.751	85.75
453.971	101.75
454.192	98.75
454.412	100.75
454.633	102.75
454.853	84.75
455.073	80.75
455.294	86.75
455.514	104.75
455.734	91.75
455.955	74.75
456.175	97.75
456.395	90.75
456.616	88.75
456.836	87.75
457.056	90.75
457.276	94.75
457.497	92.75
457.717	74.75
457.937	100.75
458.157	82.75
458.377	95.75
458.598	102.75
458.818	140.75
459.038	174.75
459.258	111.75
459.478	89.75
459.698	85.75
459.918	81.75
460.138	81.75
460.358	87.75
460.578	87.75
460.798	87.75
461.018	88.75
461.238	92.75
461.458	98.75
461.678	95.75
461.898	99.75
462.118	70.75
462.338	96.75
462.558	89.75
462.777	87.75
462.997	78.75
463.217	84.75
463.437	88.75
463.657	86.75
463.876	90.75
464.096	90.75
464.316	86.75
464.536	87.75
464.755	98.75
464.975	115.75
465.195	166.75
465.414	156.75
465.634	104.75
465.854	88.75
466.073	97.75
466.293	87.75
466.512	83.75
466.732	77.75
466.951	88.75
467.171	75.75
467.391	100.75
467.61	109.75
467.829	98.75
468.049	95.75
468.268	79.75
468.488	81.75
468.707	83.75
468.927	72.75
469.146	80.75
469.365	81.75
469.585	101.75
469.804	97.75
470.023	95.75
470.243	83.75
470.462	87.75
470.681	112.75
470.901	95.75
471.12	83.75
471.339	82.75
471.558	83.75
471.777	97.75
471.997	89.75
472.216	92.75
472.435	84.75
472.654	92.75
472.873	85.75
473.092	85.75
473.311	90.75
473.53	82.75
473.749	84.75
473.968	107.75
474.187	102.75
474.406	96.75
474.625	99.75
474.844	90.75
475.063	95.75
475.282	97.75
475.501	92.75
475.72	103.75
475.939	85.75
476.158	100.75
476.377	85.75
476.596	84.75
476.814	98.75
477.033	89.75
477.252	96.75
477.471	80.75
477.69	88.75
477.908	92.75
478.127	100.75
478.346	86.75
478.564	90.75
478.783	101.75
479.002	97.75
479.22	97.75
479.439	101.75
479.658	91.75
479.876	84.75
480.095	94.75
480.313	93.75
480.532	86.75
480.751	99.75
480.969	98.75
481.188	109.75
481.406	104.75
481.624	75.75
481.843	77.75
482.061	88.75
482.28	93.75
482.498	92.75
482.717	90.75
482.935	84.75
483.153	84.75
483.372	87.75
483.59	98.75
483.808	95.75
484.027	95.75
484.245	96.75
484.463	101.75
484.681	117.75
484.9	108.75
485.118	106.75
485.336	100.75
485.554	103.75
485.772	97.75
485.99	120.75
486.209	101.75
486.427	95.75
486.645	117.75
486.863	118.75
487.081	110.75
487.299	116.75
487.517	94.75
487.735	86.75
487.953	99.75
488.171	107.75
488.389	110.75
488.607	117.75
488.825	84.75
489.043	82.75
489.261	84.75
489.479	89.75
489.696	84.75
489.914	88.75
490.132	96.75
490.35	100.75
490.568	99.75
490.786	97.75
491.003	91.75
491.221	94.75
491.439	88.75
491.657	89.75
491.874	99.75
492.092	94.75
492.31	92.75
492.527	92.75
492.745	105.75
492.963	92.75
493.18	101.75
493.398	101.75
493.615	98.75
493.833	90.75
494.05	98.75
494.268	102.75
494.485	87.75
494.703	84.75
494.92	83.75
495.138	86.75
495.355	88.75
495.573	103.75
495.79	85.75
496.008	90.75
496.225	91.75
496.442	101.75
496.66	82.75
496.877	91.75
497.094	98.75
497.312	85.75
497.529	90.75
497.746	104.75
497.963	89.75
498.181	105.75
498.398	107.75
498.615	119.75
498.832	109.75
499.049	90.75
499.267	98.75
499.484	86.75
499.701	103.75
499.918	90.75
500.135	108.75
500.352	84.75
500.569	87.75
500.786	93.75
501.003	84.75
501.22	90.75
501.437	99.75
501.654	95.75
501.871	111.75
502.088	95.75
502.305	95.75
502.522	105.75
502.739	86.75
502.956	92.75
503.172	80.75
503.389	95.75
503.606	113.75
503.823	108.75
504.04	115.75
504.256	97.75
504.473	103.75
504.69	87.75
504.907	83.75
505.123	99.75
505.34	90.75
505.557	87.75
505.773	98.75
505.99	88.75
506.207	86.75
506.423	93.75
506.64	94.75
506.856	90.75
507.073	91.75
507.289	102.75
507.506	92.75
507.722	120.75
507.939	110.75
508.155	94.75
508.372	90.75
508.588	91.75
508.805	106.75
509.021	87.75
509.238	102.75
509.454	100.75
509.67	107.75
509.887	114.75
510.103	132.75
510.319	222.75
510.536	831.75
510.752	2491.75
510.968	670.75
511.184	152.75
511.401	107.75
511.617	116.75
511.833	109.75
512.049	88.75
512.265	99.75
512.481	87.75
512.698	86.75
512.914	101.75
513.13	92.75
513.346	100.75
513.562	104.75
513.778	97.75
513.994	101.75
514.21	91.75
514.426	121.75
514.642	123.75
514.858	120.75
515.074	186.75
