Data from Uncirc_1992_H10_HRD10591_00076.txt Node
Date: Wed Jan 03 11:46:31 EST 2024
User: Yrep
Spectrometer: HR+D1059
Trigger mode: 1
Integration Time (sec): 1.000000E-1
Scans to average: 1
Electric dark correction enabled: true
Nonlinearity correction enabled: false
Boxcar width: 0
XAxis mode: Wavelengths
Number of Pixels in Spectrum: 2048
>>>>>Begin Spectral Data<<<<<
223.165	-14.69
223.4	-14.69
223.635	-14.69
223.869	-25.69
224.104	-13.69
224.338	-23.69
224.573	-9.69
224.808	-12.69
225.042	-15.69
225.277	-11.69
225.511	-5.69
225.746	-10.69
225.98	18.31
226.215	22.31
226.449	17.31
226.683	25.31
226.918	35.31
227.152	25.31
227.387	50.31
227.621	40.31
227.856	55.31
228.09	51.31
228.324	59.31
228.559	51.31
228.793	56.31
229.027	66.31
229.262	76.31
229.496	76.31
229.73	82.31
229.964	71.31
230.199	76.31
230.433	91.31
230.667	78.31
230.901	87.31
231.136	78.31
231.37	71.31
231.604	91.31
231.838	93.31
232.072	76.31
232.306	82.31
232.541	78.31
232.775	85.31
233.009	97.31
233.243	79.31
233.477	71.31
233.711	62.31
233.945	78.31
234.179	90.31
234.413	75.31
234.647	66.31
234.881	87.31
235.115	82.31
235.349	77.31
235.583	85.31
235.817	82.31
236.051	73.31
236.285	77.31
236.519	70.31
236.753	79.31
236.987	80.31
237.221	80.31
237.455	76.31
237.689	80.31
237.922	74.31
238.156	84.31
238.39	91.31
238.624	74.31
238.858	68.31
239.091	87.31
239.325	66.31
239.559	78.31
239.793	86.31
240.027	77.31
240.26	86.31
240.494	81.31
240.728	75.31
240.961	74.31
241.195	86.31
241.429	81.31
241.662	78.31
241.896	79.31
242.13	80.31
242.363	76.31
242.597	67.31
242.83	84.31
243.064	64.31
243.298	91.31
243.531	81.31
243.765	85.31
243.998	80.31
244.232	92.31
244.465	96.31
244.699	79.31
244.932	87.31
245.166	58.31
245.399	84.31
245.633	77.31
245.866	78.31
246.099	84.31
246.333	86.31
246.566	73.31
246.8	95.31
247.033	61.31
247.266	80.31
247.5	82.31
247.733	71.31
247.966	81.31
248.2	66.31
248.433	72.31
248.666	77.31
248.899	84.31
249.133	99.31
249.366	95.31
249.599	87.31
249.832	78.31
250.066	75.31
250.299	90.31
250.532	77.31
250.765	79.31
250.998	74.31
251.231	87.31
251.465	88.31
251.698	79.31
251.931	85.31
252.164	84.31
252.397	67.31
252.63	81.31
252.863	72.31
253.096	89.31
253.329	87.31
253.562	88.31
253.795	71.31
254.028	91.31
254.261	75.31
254.494	82.31
254.727	90.31
254.96	76.31
255.193	97.31
255.426	101.31
255.659	75.31
255.892	91.31
256.124	87.31
256.357	81.31
256.59	88.31
256.823	90.31
257.056	82.31
257.289	91.31
257.521	86.31
257.754	75.31
257.987	84.31
258.22	92.31
258.452	76.31
258.685	67.31
258.918	72.31
259.151	75.31
259.383	90.31
259.616	86.31
259.849	98.31
260.081	86.31
260.314	80.31
260.547	90.31
260.779	70.31
261.012	70.31
261.244	84.31
261.477	86.31
261.71	105.31
261.942	123.31
262.175	109.31
262.407	83.31
262.64	85.31
262.872	80.31
263.105	85.31
263.337	105.31
263.57	83.31
263.802	97.31
264.035	90.31
264.267	78.31
264.499	94.31
264.732	79.31
264.964	82.31
265.197	93.31
265.429	100.31
265.661	78.31
265.894	84.31
266.126	93.31
266.358	66.31
266.591	83.31
266.823	86.31
267.055	75.31
267.287	87.31
267.52	79.31
267.752	70.31
267.984	90.31
268.216	69.31
268.448	87.31
268.681	77.31
268.913	84.31
269.145	84.31
269.377	79.31
269.609	82.31
269.841	85.31
270.073	90.31
270.306	93.31
270.538	76.31
270.77	74.31
271.002	86.31
271.234	78.31
271.466	94.31
271.698	95.31
271.93	71.31
272.162	93.31
272.394	75.31
272.626	71.31
272.858	76.31
273.09	83.31
273.322	73.31
273.553	77.31
273.785	101.31
274.017	92.31
274.249	78.31
274.481	69.31
274.713	81.31
274.945	90.31
275.176	85.31
275.408	93.31
275.64	98.31
275.872	90.31
276.104	91.31
276.335	99.31
276.567	94.31
276.799	104.31
277.031	87.31
277.262	88.31
277.494	88.31
277.726	86.31
277.957	75.31
278.189	86.31
278.421	88.31
278.652	75.31
278.884	82.31
279.115	85.31
279.347	90.31
279.579	89.31
279.81	85.31
280.042	75.31
280.273	83.31
280.505	81.31
280.736	78.31
280.968	74.31
281.199	100.31
281.431	66.31
281.662	84.31
281.894	84.31
282.125	87.31
282.356	119.31
282.588	130.31
282.819	110.31
283.051	94.31
283.282	87.31
283.513	93.31
283.745	97.31
283.976	84.31
284.207	95.31
284.439	91.31
284.67	81.31
284.901	89.31
285.132	90.31
285.364	79.31
285.595	87.31
285.826	83.31
286.057	65.31
286.288	64.31
286.52	92.31
286.751	90.31
286.982	90.31
287.213	88.31
287.444	82.31
287.675	77.31
287.906	94.31
288.138	95.31
288.369	76.31
288.6	93.31
288.831	90.31
289.062	90.31
289.293	87.31
289.524	80.31
289.755	72.31
289.986	99.31
290.217	83.31
290.448	69.31
290.679	72.31
290.91	98.31
291.141	77.31
291.371	83.31
291.602	89.31
291.833	83.31
292.064	71.31
292.295	89.31
292.526	91.31
292.757	91.31
292.987	99.31
293.218	94.31
293.449	68.31
293.68	99.31
293.91	88.31
294.141	94.31
294.372	82.31
294.603	87.31
294.833	92.31
295.064	91.31
295.295	104.31
295.525	86.31
295.756	102.31
295.987	108.31
296.217	127.31
296.448	111.31
296.679	91.31
296.909	84.31
297.14	96.31
297.37	96.31
297.601	97.31
297.831	98.31
298.062	102.31
298.292	89.31
298.523	103.31
298.753	69.31
298.984	86.31
299.214	91.31
299.445	106.31
299.675	86.31
299.905	103.31
300.136	87.31
300.366	103.31
300.597	80.31
300.827	91.31
301.057	84.31
301.288	96.31
301.518	100.31
301.748	99.31
301.979	89.31
302.209	91.31
302.439	82.31
302.669	93.31
302.9	67.31
303.13	87.31
303.36	96.31
303.59	95.31
303.82	100.31
304.051	105.31
304.281	104.31
304.511	98.31
304.741	79.31
304.971	80.31
305.201	84.31
305.431	88.31
305.661	77.31
305.891	99.31
306.121	101.31
306.352	90.31
306.582	98.31
306.812	98.31
307.042	90.31
307.272	89.31
307.502	82.31
307.731	81.31
307.961	85.31
308.191	92.31
308.421	98.31
308.651	90.31
308.881	69.31
309.111	95.31
309.341	101.31
309.571	99.31
309.8	94.31
310.03	94.31
310.26	92.31
310.49	96.31
310.72	94.31
310.949	107.31
311.179	107.31
311.409	101.31
311.639	84.31
311.868	91.31
312.098	95.31
312.328	105.31
312.557	81.31
312.787	92.31
313.017	103.31
313.246	91.31
313.476	110.31
313.706	97.31
313.935	76.31
314.165	80.31
314.394	107.31
314.624	95.31
314.853	98.31
315.083	102.31
315.312	94.31
315.542	100.31
315.771	99.31
316.001	100.31
316.23	100.31
316.46	99.31
316.689	85.31
316.919	91.31
317.148	86.31
317.377	97.31
317.607	90.31
317.836	106.31
318.065	97.31
318.295	93.31
318.524	90.31
318.753	107.31
318.983	87.31
319.212	104.31
319.441	106.31
319.67	101.31
319.9	91.31
320.129	103.31
320.358	100.31
320.587	94.31
320.816	93.31
321.046	94.31
321.275	101.31
321.504	98.31
321.733	90.31
321.962	99.31
322.191	94.31
322.42	103.31
322.649	102.31
322.878	98.31
323.108	97.31
323.337	125.31
323.566	125.31
323.795	133.31
324.024	182.31
324.253	354.31
324.482	748.31
324.71	1476.31
324.939	1917.31
325.168	686.31
325.397	220.31
325.626	146.31
325.855	112.31
326.084	113.31
326.313	128.31
326.542	156.31
326.77	233.31
326.999	412.31
327.228	850.31
327.457	1480.31
327.686	1178.31
327.914	334.31
328.143	191.31
328.372	133.31
328.6	126.31
328.829	102.31
329.058	115.31
329.287	116.31
329.515	108.31
329.744	104.31
329.972	101.31
330.201	97.31
330.43	99.31
330.658	97.31
330.887	128.31
331.115	113.31
331.344	105.31
331.572	99.31
331.801	94.31
332.03	85.31
332.258	95.31
332.486	90.31
332.715	84.31
332.943	94.31
333.172	96.31
333.4	86.31
333.629	102.31
333.857	102.31
334.085	113.31
334.314	100.31
334.542	80.31
334.771	95.31
334.999	85.31
335.227	97.31
335.455	77.31
335.684	92.31
335.912	106.31
336.14	106.31
336.369	96.31
336.597	95.31
336.825	94.31
337.053	92.31
337.281	82.31
337.51	91.31
337.738	88.31
337.966	98.31
338.194	95.31
338.422	83.31
338.65	92.31
338.878	90.31
339.106	87.31
339.334	87.31
339.562	93.31
339.79	107.31
340.018	101.31
340.246	96.31
340.474	81.31
340.702	90.31
340.93	94.31
341.158	87.31
341.386	88.31
341.614	101.31
341.842	99.31
342.07	91.31
342.298	104.31
342.526	101.31
342.754	86.31
342.981	93.31
343.209	78.31
343.437	97.31
343.665	89.31
343.893	107.31
344.12	104.31
344.348	105.31
344.576	109.31
344.804	95.31
345.031	93.31
345.259	107.31
345.487	91.31
345.714	93.31
345.942	96.31
346.17	84.31
346.397	106.31
346.625	97.31
346.853	92.31
347.08	96.31
347.308	100.31
347.535	103.31
347.763	108.31
347.99	95.31
348.218	99.31
348.445	98.31
348.673	95.31
348.9	89.31
349.128	96.31
349.355	104.31
349.583	93.31
349.81	99.31
350.037	99.31
350.265	99.31
350.492	101.31
350.72	91.31
350.947	92.31
351.174	111.31
351.402	91.31
351.629	95.31
351.856	101.31
352.083	83.31
352.311	112.31
352.538	122.31
352.765	106.31
352.992	111.31
353.22	113.31
353.447	106.31
353.674	116.31
353.901	99.31
354.128	113.31
354.355	86.31
354.583	94.31
354.81	111.31
355.037	96.31
355.264	106.31
355.491	97.31
355.718	83.31
355.945	89.31
356.172	94.31
356.399	96.31
356.626	94.31
356.853	80.31
357.08	99.31
357.307	80.31
357.534	97.31
357.761	86.31
357.988	105.31
358.215	88.31
358.441	86.31
358.668	98.31
358.895	96.31
359.122	95.31
359.349	95.31
359.576	86.31
359.802	87.31
360.029	118.31
360.256	98.31
360.483	92.31
360.709	88.31
360.936	98.31
361.163	94.31
361.39	85.31
361.616	85.31
361.843	90.31
362.07	96.31
362.296	99.31
362.523	93.31
362.749	94.31
362.976	92.31
363.203	104.31
363.429	93.31
363.656	82.31
363.882	95.31
364.109	98.31
364.335	107.31
364.562	90.31
364.788	85.31
365.015	112.31
365.241	106.31
365.468	96.31
365.694	103.31
365.92	88.31
366.147	90.31
366.373	84.31
366.599	77.31
366.826	87.31
367.052	94.31
367.278	89.31
367.505	97.31
367.731	85.31
367.957	104.31
368.184	80.31
368.41	112.31
368.636	111.31
368.862	129.31
369.089	111.31
369.315	89.31
369.541	87.31
369.767	104.31
369.993	86.31
370.219	100.31
370.445	103.31
370.672	87.31
370.898	78.31
371.124	86.31
371.35	85.31
371.576	80.31
371.802	93.31
372.028	82.31
372.254	80.31
372.48	97.31
372.706	86.31
372.932	91.31
373.158	74.31
373.384	92.31
373.61	92.31
373.835	92.31
374.061	94.31
374.287	91.31
374.513	84.31
374.739	84.31
374.965	76.31
375.191	87.31
375.416	93.31
375.642	78.31
375.868	97.31
376.094	91.31
376.319	97.31
376.545	92.31
376.771	94.31
376.997	78.31
377.222	82.31
377.448	101.31
377.674	75.31
377.899	85.31
378.125	86.31
378.35	96.31
378.576	95.31
378.802	89.31
379.027	99.31
379.253	88.31
379.478	96.31
379.704	90.31
379.929	98.31
380.155	84.31
380.38	88.31
380.606	99.31
380.831	89.31
381.057	96.31
381.282	87.31
381.507	97.31
381.733	95.31
381.958	85.31
382.184	93.31
382.409	85.31
382.634	81.31
382.86	94.31
383.085	82.31
383.31	107.31
383.535	109.31
383.761	104.31
383.986	95.31
384.211	88.31
384.436	104.31
384.662	78.31
384.887	103.31
385.112	96.31
385.337	101.31
385.562	89.31
385.787	107.31
386.013	101.31
386.238	106.31
386.463	102.31
386.688	101.31
386.913	104.31
387.138	103.31
387.363	81.31
387.588	100.31
387.813	106.31
388.038	101.31
388.263	104.31
388.488	102.31
388.713	101.31
388.938	103.31
389.163	92.31
389.387	103.31
389.612	90.31
389.837	84.31
390.062	95.31
390.287	90.31
390.512	79.31
390.736	95.31
390.961	96.31
391.186	90.31
391.411	81.31
391.636	87.31
391.86	80.31
392.085	96.31
392.31	82.31
392.534	99.31
392.759	88.31
392.984	83.31
393.208	92.31
393.433	91.31
393.658	98.31
393.882	87.31
394.107	78.31
394.331	92.31
394.556	82.31
394.78	84.31
395.005	89.31
395.229	92.31
395.454	84.31
395.678	84.31
395.903	110.31
396.127	101.31
396.352	86.31
396.576	92.31
396.801	79.31
397.025	64.31
397.249	67.31
397.474	84.31
397.698	98.31
397.922	95.31
398.147	89.31
398.371	88.31
398.595	94.31
398.82	86.31
399.044	94.31
399.268	83.31
399.492	84.31
399.717	95.31
399.941	86.31
400.165	92.31
400.389	119.31
400.613	95.31
400.837	95.31
401.062	96.31
401.286	92.31
401.51	93.31
401.734	88.31
401.958	100.31
402.182	119.31
402.406	142.31
402.63	105.31
402.854	93.31
403.078	98.31
403.302	84.31
403.526	83.31
403.75	98.31
403.974	92.31
404.198	91.31
404.422	98.31
404.645	83.31
404.869	98.31
405.093	96.31
405.317	101.31
405.541	98.31
405.765	109.31
405.988	122.31
406.212	154.31
406.436	198.31
406.66	119.31
406.883	94.31
407.107	104.31
407.331	112.31
407.555	87.31
407.778	86.31
408.002	91.31
408.226	82.31
408.449	82.31
408.673	99.31
408.896	95.31
409.12	91.31
409.344	87.31
409.567	85.31
409.791	78.31
410.014	81.31
410.238	94.31
410.461	109.31
410.685	101.31
410.908	86.31
411.132	93.31
411.355	95.31
411.578	101.31
411.802	91.31
412.025	81.31
412.249	97.31
412.472	90.31
412.695	92.31
412.919	80.31
413.142	78.31
413.365	99.31
413.589	86.31
413.812	84.31
414.035	88.31
414.258	93.31
414.482	81.31
414.705	84.31
414.928	97.31
415.151	84.31
415.374	109.31
415.597	82.31
415.821	93.31
416.044	105.31
416.267	90.31
416.49	85.31
416.713	83.31
416.936	99.31
417.159	88.31
417.382	93.31
417.605	99.31
417.828	87.31
418.051	87.31
418.274	100.31
418.497	75.31
418.72	74.31
418.943	83.31
419.166	96.31
419.389	90.31
419.611	106.31
419.834	94.31
420.057	76.31
420.28	75.31
420.503	81.31
420.726	83.31
420.948	95.31
421.171	95.31
421.394	86.31
421.617	96.31
421.839	71.31
422.062	85.31
422.285	78.31
422.507	90.31
422.73	102.31
422.953	90.31
423.175	85.31
423.398	88.31
423.621	84.31
423.843	70.31
424.066	91.31
424.288	90.31
424.511	83.31
424.733	99.31
424.956	116.31
425.178	93.31
425.401	98.31
425.623	86.31
425.846	95.31
426.068	85.31
426.291	84.31
426.513	83.31
426.735	94.31
426.958	109.31
427.18	115.31
427.402	131.31
427.625	140.31
427.847	120.31
428.069	94.31
428.292	95.31
428.514	78.31
428.736	86.31
428.958	88.31
429.181	85.31
429.403	87.31
429.625	90.31
429.847	96.31
430.069	94.31
430.292	93.31
430.514	94.31
430.736	94.31
430.958	85.31
431.18	88.31
431.402	86.31
431.624	91.31
431.846	87.31
432.068	86.31
432.29	98.31
432.512	92.31
432.734	96.31
432.956	92.31
433.178	94.31
433.4	74.31
433.622	76.31
433.844	87.31
434.066	95.31
434.287	107.31
434.509	90.31
434.731	84.31
434.953	93.31
435.175	96.31
435.397	87.31
435.618	81.31
435.84	104.31
436.062	128.31
436.284	105.31
436.505	104.31
436.727	99.31
436.949	93.31
437.17	81.31
437.392	90.31
437.614	67.31
437.835	103.31
438.057	116.31
438.278	107.31
438.5	101.31
438.721	114.31
438.943	78.31
439.165	94.31
439.386	88.31
439.608	93.31
439.829	96.31
440.05	104.31
440.272	120.31
440.493	91.31
440.715	95.31
440.936	90.31
441.158	99.31
441.379	97.31
441.6	86.31
441.822	87.31
442.043	86.31
442.264	95.31
442.486	110.31
442.707	94.31
442.928	95.31
443.149	114.31
443.371	120.31
443.592	101.31
443.813	119.31
444.034	113.31
444.255	86.31
444.476	78.31
444.698	102.31
444.919	94.31
445.14	138.31
445.361	117.31
445.582	108.31
445.803	116.31
446.024	116.31
446.245	126.31
446.466	96.31
446.687	91.31
446.908	102.31
447.129	94.31
447.35	81.31
447.571	90.31
447.792	83.31
448.013	97.31
448.234	102.31
448.455	101.31
448.675	105.31
448.896	116.31
449.117	100.31
449.338	108.31
449.559	121.31
449.779	123.31
450	109.31
450.221	101.31
450.442	90.31
450.662	83.31
450.883	107.31
451.104	95.31
451.324	95.31
451.545	85.31
451.766	95.31
451.986	85.31
452.207	93.31
452.428	77.31
452.648	102.31
452.869	108.31
453.089	102.31
453.31	108.31
453.53	83.31
453.751	89.31
453.971	108.31
454.192	92.31
454.412	93.31
454.633	82.31
454.853	85.31
455.073	70.31
455.294	103.31
455.514	98.31
455.734	96.31
455.955	94.31
456.175	85.31
456.395	82.31
456.616	90.31
456.836	78.31
457.056	77.31
457.276	78.31
457.497	88.31
457.717	82.31
457.937	84.31
458.157	84.31
458.377	91.31
458.598	106.31
458.818	127.31
459.038	143.31
459.258	103.31
459.478	82.31
459.698	90.31
459.918	85.31
460.138	93.31
460.358	76.31
460.578	97.31
460.798	95.31
461.018	95.31
461.238	95.31
461.458	91.31
461.678	82.31
461.898	96.31
462.118	91.31
462.338	79.31
462.558	90.31
462.777	96.31
462.997	75.31
463.217	90.31
463.437	91.31
463.657	92.31
463.876	84.31
464.096	92.31
464.316	94.31
464.536	73.31
464.755	95.31
464.975	106.31
465.195	149.31
465.414	148.31
465.634	89.31
465.854	78.31
466.073	77.31
466.293	87.31
466.512	86.31
466.732	85.31
466.951	97.31
467.171	83.31
467.391	93.31
467.61	101.31
467.829	95.31
468.049	92.31
468.268	99.31
468.488	79.31
468.707	87.31
468.927	78.31
469.146	86.31
469.365	92.31
469.585	88.31
469.804	98.31
470.023	92.31
470.243	89.31
470.462	94.31
470.681	96.31
470.901	95.31
471.12	70.31
471.339	105.31
471.558	87.31
471.777	96.31
471.997	87.31
472.216	94.31
472.435	91.31
472.654	90.31
472.873	84.31
473.092	96.31
473.311	90.31
473.53	100.31
473.749	84.31
473.968	103.31
474.187	101.31
474.406	94.31
474.625	88.31
474.844	97.31
475.063	96.31
475.282	91.31
475.501	90.31
475.72	82.31
475.939	94.31
476.158	94.31
476.377	70.31
476.596	96.31
476.814	103.31
477.033	100.31
477.252	102.31
477.471	80.31
477.69	78.31
477.908	80.31
478.127	93.31
478.346	83.31
478.564	80.31
478.783	87.31
479.002	92.31
479.22	112.31
479.439	110.31
479.658	95.31
479.876	77.31
480.095	101.31
480.313	88.31
480.532	98.31
480.751	85.31
480.969	96.31
481.188	106.31
481.406	104.31
481.624	104.31
481.843	100.31
482.061	84.31
482.28	91.31
482.498	95.31
482.717	86.31
482.935	95.31
483.153	93.31
483.372	95.31
483.59	96.31
483.808	91.31
484.027	94.31
484.245	94.31
484.463	99.31
484.681	93.31
484.9	87.31
485.118	92.31
485.336	95.31
485.554	96.31
485.772	83.31
485.99	104.31
486.209	98.31
486.427	104.31
486.645	122.31
486.863	114.31
487.081	108.31
487.299	100.31
487.517	91.31
487.735	90.31
487.953	80.31
488.171	87.31
488.389	90.31
488.607	107.31
488.825	90.31
489.043	99.31
489.261	88.31
489.479	98.31
489.696	76.31
489.914	98.31
490.132	99.31
490.35	95.31
490.568	85.31
490.786	94.31
491.003	87.31
491.221	93.31
491.439	92.31
491.657	82.31
491.874	87.31
492.092	86.31
492.31	91.31
492.527	87.31
492.745	78.31
492.963	85.31
493.18	96.31
493.398	99.31
493.615	85.31
493.833	91.31
494.05	90.31
494.268	92.31
494.485	100.31
494.703	84.31
494.92	91.31
495.138	94.31
495.355	99.31
495.573	87.31
495.79	87.31
496.008	103.31
496.225	99.31
496.442	107.31
496.66	98.31
496.877	91.31
497.094	99.31
497.312	96.31
497.529	81.31
497.746	84.31
497.963	86.31
498.181	96.31
498.398	94.31
498.615	105.31
498.832	102.31
499.049	91.31
499.267	90.31
499.484	96.31
499.701	102.31
499.918	100.31
500.135	91.31
500.352	86.31
500.569	92.31
500.786	89.31
501.003	93.31
501.22	87.31
501.437	95.31
501.654	99.31
501.871	100.31
502.088	98.31
502.305	88.31
502.522	83.31
502.739	88.31
502.956	88.31
503.172	90.31
503.389	103.31
503.606	100.31
503.823	92.31
504.04	106.31
504.256	98.31
504.473	94.31
504.69	107.31
504.907	94.31
505.123	93.31
505.34	79.31
505.557	110.31
505.773	91.31
505.99	78.31
506.207	101.31
506.423	87.31
506.64	90.31
506.856	94.31
507.073	86.31
507.289	96.31
507.506	89.31
507.722	94.31
507.939	102.31
508.155	94.31
508.372	88.31
508.588	104.31
508.805	90.31
509.021	79.31
509.238	110.31
509.454	102.31
509.67	99.31
509.887	96.31
510.103	126.31
510.319	208.31
510.536	725.31
510.752	2121.31
510.968	592.31
511.184	143.31
511.401	110.31
511.617	95.31
511.833	100.31
512.049	104.31
512.265	97.31
512.481	99.31
512.698	90.31
512.914	78.31
513.13	89.31
513.346	90.31
513.562	85.31
513.778	102.31
513.994	96.31
514.21	114.31
514.426	111.31
514.642	136.31
514.858	120.31
515.074	168.31
515.29	411.31
515.506	1293.31
515.721	473.31
515.937	137.31
