Data from Uncirc_1992_H10_HRD10591_00089.txt Node
Date: Wed Jan 03 11:46:34 EST 2024
User: Yrep
Spectrometer: HR+D1059
Trigger mode: 1
Integration Time (sec): 1.000000E-1
Scans to average: 1
Electric dark correction enabled: true
Nonlinearity correction enabled: false
Boxcar width: 0
XAxis mode: Wavelengths
Number of Pixels in Spectrum: 2048
>>>>>Begin Spectral Data<<<<<
223.165	-15.56
223.4	-15.56
223.635	-15.56
223.869	-32.56
224.104	-31.56
224.338	-11.56
224.573	-10.56
224.808	-8.56
225.042	-18.56
225.277	5.44
225.511	-0.56
225.746	11.44
225.98	10.44
226.215	18.44
226.449	12.44
226.683	11.44
226.918	20.44
227.152	39.44
227.387	38.44
227.621	34.44
227.856	41.44
228.09	32.44
228.324	51.44
228.559	66.44
228.793	57.44
229.027	68.44
229.262	68.44
229.496	68.44
229.73	83.44
229.964	82.44
230.199	70.44
230.433	76.44
230.667	84.44
230.901	79.44
231.136	76.44
231.37	74.44
231.604	75.44
231.838	82.44
232.072	75.44
232.306	84.44
232.541	70.44
232.775	69.44
233.009	85.44
233.243	85.44
233.477	80.44
233.711	74.44
233.945	87.44
234.179	77.44
234.413	68.44
234.647	73.44
234.881	75.44
235.115	67.44
235.349	77.44
235.583	81.44
235.817	82.44
236.051	85.44
236.285	80.44
236.519	82.44
236.753	74.44
236.987	85.44
237.221	74.44
237.455	88.44
237.689	71.44
237.922	54.44
238.156	66.44
238.39	71.44
238.624	77.44
238.858	64.44
239.091	76.44
239.325	78.44
239.559	72.44
239.793	67.44
240.027	67.44
240.26	64.44
240.494	58.44
240.728	72.44
240.961	81.44
241.195	91.44
241.429	66.44
241.662	78.44
241.896	71.44
242.13	78.44
242.363	74.44
242.597	75.44
242.83	66.44
243.064	66.44
243.298	81.44
243.531	81.44
243.765	76.44
243.998	71.44
244.232	74.44
244.465	82.44
244.699	83.44
244.932	74.44
245.166	70.44
245.399	80.44
245.633	78.44
245.866	55.44
246.099	75.44
246.333	85.44
246.566	89.44
246.8	68.44
247.033	63.44
247.266	86.44
247.5	67.44
247.733	68.44
247.966	78.44
248.2	73.44
248.433	71.44
248.666	72.44
248.899	79.44
249.133	64.44
249.366	96.44
249.599	85.44
249.832	84.44
250.066	82.44
250.299	73.44
250.532	76.44
250.765	78.44
250.998	76.44
251.231	69.44
251.465	74.44
251.698	69.44
251.931	79.44
252.164	92.44
252.397	71.44
252.63	73.44
252.863	82.44
253.096	77.44
253.329	74.44
253.562	83.44
253.795	69.44
254.028	73.44
254.261	79.44
254.494	86.44
254.727	77.44
254.96	76.44
255.193	85.44
255.426	81.44
255.659	85.44
255.892	89.44
256.124	74.44
256.357	80.44
256.59	79.44
256.823	85.44
257.056	75.44
257.289	75.44
257.521	86.44
257.754	76.44
257.987	91.44
258.22	90.44
258.452	80.44
258.685	91.44
258.918	80.44
259.151	95.44
259.383	79.44
259.616	83.44
259.849	85.44
260.081	71.44
260.314	91.44
260.547	80.44
260.779	80.44
261.012	79.44
261.244	88.44
261.477	86.44
261.71	98.44
261.942	112.44
262.175	105.44
262.407	87.44
262.64	81.44
262.872	62.44
263.105	84.44
263.337	82.44
263.57	68.44
263.802	75.44
264.035	74.44
264.267	76.44
264.499	88.44
264.732	82.44
264.964	75.44
265.197	78.44
265.429	79.44
265.661	96.44
265.894	74.44
266.126	76.44
266.358	72.44
266.591	81.44
266.823	81.44
267.055	74.44
267.287	88.44
267.52	83.44
267.752	73.44
267.984	81.44
268.216	93.44
268.448	89.44
268.681	74.44
268.913	95.44
269.145	76.44
269.377	87.44
269.609	85.44
269.841	77.44
270.073	81.44
270.306	83.44
270.538	82.44
270.77	83.44
271.002	83.44
271.234	84.44
271.466	90.44
271.698	77.44
271.93	77.44
272.162	80.44
272.394	88.44
272.626	89.44
272.858	87.44
273.09	76.44
273.322	87.44
273.553	64.44
273.785	74.44
274.017	75.44
274.249	69.44
274.481	66.44
274.713	71.44
274.945	95.44
275.176	83.44
275.408	88.44
275.64	97.44
275.872	75.44
276.104	93.44
276.335	88.44
276.567	91.44
276.799	123.44
277.031	97.44
277.262	87.44
277.494	84.44
277.726	81.44
277.957	76.44
278.189	83.44
278.421	84.44
278.652	79.44
278.884	91.44
279.115	76.44
279.347	80.44
279.579	83.44
279.81	71.44
280.042	84.44
280.273	85.44
280.505	89.44
280.736	92.44
280.968	79.44
281.199	81.44
281.431	90.44
281.662	78.44
281.894	90.44
282.125	100.44
282.356	115.44
282.588	137.44
282.819	106.44
283.051	73.44
283.282	91.44
283.513	76.44
283.745	80.44
283.976	76.44
284.207	76.44
284.439	88.44
284.67	85.44
284.901	73.44
285.132	96.44
285.364	98.44
285.595	97.44
285.826	87.44
286.057	92.44
286.288	70.44
286.52	87.44
286.751	82.44
286.982	77.44
287.213	77.44
287.444	89.44
287.675	82.44
287.906	83.44
288.138	80.44
288.369	90.44
288.6	80.44
288.831	93.44
289.062	71.44
289.293	75.44
289.524	89.44
289.755	74.44
289.986	82.44
290.217	83.44
290.448	90.44
290.679	79.44
290.91	78.44
291.141	59.44
291.371	75.44
291.602	82.44
291.833	75.44
292.064	84.44
292.295	91.44
292.526	73.44
292.757	78.44
292.987	77.44
293.218	89.44
293.449	84.44
293.68	97.44
293.91	80.44
294.141	83.44
294.372	105.44
294.603	73.44
294.833	63.44
295.064	83.44
295.295	77.44
295.525	97.44
295.756	96.44
295.987	123.44
296.217	117.44
296.448	118.44
296.679	86.44
296.909	83.44
297.14	81.44
297.37	85.44
297.601	91.44
297.831	90.44
298.062	86.44
298.292	73.44
298.523	101.44
298.753	94.44
298.984	67.44
299.214	87.44
299.445	87.44
299.675	103.44
299.905	98.44
300.136	87.44
300.366	93.44
300.597	91.44
300.827	79.44
301.057	101.44
301.288	101.44
301.518	95.44
301.748	82.44
301.979	91.44
302.209	75.44
302.439	81.44
302.669	90.44
302.9	88.44
303.13	85.44
303.36	87.44
303.59	92.44
303.82	99.44
304.051	88.44
304.281	93.44
304.511	73.44
304.741	83.44
304.971	74.44
305.201	91.44
305.431	93.44
305.661	87.44
305.891	85.44
306.121	103.44
306.352	96.44
306.582	87.44
306.812	96.44
307.042	91.44
307.272	88.44
307.502	90.44
307.731	90.44
307.961	95.44
308.191	84.44
308.421	90.44
308.651	96.44
308.881	79.44
309.111	92.44
309.341	84.44
309.571	97.44
309.8	95.44
310.03	85.44
310.26	92.44
310.49	90.44
310.72	86.44
310.949	88.44
311.179	89.44
311.409	79.44
311.639	77.44
311.868	79.44
312.098	99.44
312.328	102.44
312.557	99.44
312.787	96.44
313.017	83.44
313.246	89.44
313.476	89.44
313.706	107.44
313.935	98.44
314.165	95.44
314.394	109.44
314.624	87.44
314.853	88.44
315.083	75.44
315.312	82.44
315.542	95.44
315.771	88.44
316.001	87.44
316.23	89.44
316.46	85.44
316.689	100.44
316.919	94.44
317.148	92.44
317.377	96.44
317.607	88.44
317.836	94.44
318.065	77.44
318.295	91.44
318.524	90.44
318.753	88.44
318.983	89.44
319.212	108.44
319.441	104.44
319.67	98.44
319.9	86.44
320.129	90.44
320.358	84.44
320.587	95.44
320.816	102.44
321.046	100.44
321.275	84.44
321.504	108.44
321.733	93.44
321.962	80.44
322.191	81.44
322.42	86.44
322.649	95.44
322.878	106.44
323.108	103.44
323.337	105.44
323.566	138.44
323.795	124.44
324.024	167.44
324.253	364.44
324.482	726.44
324.71	1439.44
324.939	1860.44
325.168	706.44
325.397	228.44
325.626	144.44
325.855	117.44
326.084	114.44
326.313	136.44
326.542	132.44
326.77	212.44
326.999	412.44
327.228	798.44
327.457	1457.44
327.686	1140.44
327.914	341.44
328.143	161.44
328.372	124.44
328.6	119.44
328.829	126.44
329.058	107.44
329.287	108.44
329.515	113.44
329.744	100.44
329.972	98.44
330.201	114.44
330.43	115.44
330.658	128.44
330.887	126.44
331.115	107.44
331.344	87.44
331.572	87.44
331.801	109.44
332.03	97.44
332.258	89.44
332.486	86.44
332.715	84.44
332.943	102.44
333.172	89.44
333.4	110.44
333.629	87.44
333.857	105.44
334.085	99.44
334.314	109.44
334.542	88.44
334.771	92.44
334.999	88.44
335.227	80.44
335.455	89.44
335.684	91.44
335.912	99.44
336.14	99.44
336.369	88.44
336.597	97.44
336.825	98.44
337.053	87.44
337.281	93.44
337.51	98.44
337.738	86.44
337.966	90.44
338.194	90.44
338.422	77.44
338.65	90.44
338.878	85.44
339.106	95.44
339.334	95.44
339.562	114.44
339.79	103.44
340.018	81.44
340.246	102.44
340.474	88.44
340.702	67.44
340.93	89.44
341.158	92.44
341.386	99.44
341.614	99.44
341.842	101.44
342.07	88.44
342.298	83.44
342.526	82.44
342.754	89.44
342.981	98.44
343.209	86.44
343.437	96.44
343.665	91.44
343.893	92.44
344.12	89.44
344.348	81.44
344.576	88.44
344.804	83.44
345.031	94.44
345.259	107.44
345.487	96.44
345.714	83.44
345.942	73.44
346.17	98.44
346.397	94.44
346.625	103.44
346.853	94.44
347.08	85.44
347.308	84.44
347.535	88.44
347.763	103.44
347.99	103.44
348.218	107.44
348.445	100.44
348.673	94.44
348.9	73.44
349.128	84.44
349.355	81.44
349.583	97.44
349.81	100.44
350.037	97.44
350.265	100.44
350.492	109.44
350.72	91.44
350.947	87.44
351.174	100.44
351.402	101.44
351.629	105.44
351.856	99.44
352.083	100.44
352.311	101.44
352.538	100.44
352.765	100.44
352.992	105.44
353.22	93.44
353.447	88.44
353.674	98.44
353.901	100.44
354.128	95.44
354.355	109.44
354.583	87.44
354.81	103.44
355.037	100.44
355.264	86.44
355.491	103.44
355.718	96.44
355.945	87.44
356.172	87.44
356.399	104.44
356.626	87.44
356.853	88.44
357.08	84.44
357.307	91.44
357.534	89.44
357.761	93.44
357.988	87.44
358.215	94.44
358.441	84.44
358.668	100.44
358.895	75.44
359.122	85.44
359.349	94.44
359.576	92.44
359.802	104.44
360.029	101.44
360.256	118.44
360.483	88.44
360.709	81.44
360.936	85.44
361.163	96.44
361.39	79.44
361.616	89.44
361.843	90.44
362.07	102.44
362.296	105.44
362.523	81.44
362.749	84.44
362.976	85.44
363.203	87.44
363.429	91.44
363.656	95.44
363.882	78.44
364.109	109.44
364.335	87.44
364.562	88.44
364.788	87.44
365.015	99.44
365.241	101.44
365.468	115.44
365.694	105.44
365.92	95.44
366.147	85.44
366.373	87.44
366.599	97.44
366.826	64.44
367.052	88.44
367.278	90.44
367.505	79.44
367.731	99.44
367.957	102.44
368.184	90.44
368.41	85.44
368.636	102.44
368.862	119.44
369.089	104.44
369.315	103.44
369.541	90.44
369.767	94.44
369.993	93.44
370.219	77.44
370.445	78.44
370.672	96.44
370.898	93.44
371.124	83.44
371.35	80.44
371.576	79.44
371.802	91.44
372.028	96.44
372.254	90.44
372.48	78.44
372.706	81.44
372.932	69.44
373.158	87.44
373.384	75.44
373.61	83.44
373.835	92.44
374.061	92.44
374.287	85.44
374.513	83.44
374.739	89.44
374.965	102.44
375.191	82.44
375.416	98.44
375.642	85.44
375.868	91.44
376.094	89.44
376.319	80.44
376.545	79.44
376.771	94.44
376.997	96.44
377.222	84.44
377.448	107.44
377.674	83.44
377.899	92.44
378.125	104.44
378.35	100.44
378.576	90.44
378.802	90.44
379.027	82.44
379.253	95.44
379.478	93.44
379.704	98.44
379.929	100.44
380.155	92.44
380.38	98.44
380.606	93.44
380.831	83.44
381.057	85.44
381.282	96.44
381.507	96.44
381.733	105.44
381.958	93.44
382.184	78.44
382.409	84.44
382.634	103.44
382.86	83.44
383.085	94.44
383.31	102.44
383.535	92.44
383.761	85.44
383.986	93.44
384.211	88.44
384.436	108.44
384.662	98.44
384.887	90.44
385.112	97.44
385.337	90.44
385.562	90.44
385.787	101.44
386.013	99.44
386.238	85.44
386.463	84.44
386.688	92.44
386.913	97.44
387.138	106.44
387.363	102.44
387.588	101.44
387.813	101.44
388.038	108.44
388.263	116.44
388.488	99.44
388.713	91.44
388.938	92.44
389.163	98.44
389.387	87.44
389.612	97.44
389.837	89.44
390.062	95.44
390.287	90.44
390.512	87.44
390.736	89.44
390.961	89.44
391.186	89.44
391.411	92.44
391.636	92.44
391.86	107.44
392.085	88.44
392.31	79.44
392.534	91.44
392.759	79.44
392.984	78.44
393.208	90.44
393.433	85.44
393.658	92.44
393.882	82.44
394.107	74.44
394.331	97.44
394.556	79.44
394.78	93.44
395.005	86.44
395.229	81.44
395.454	83.44
395.678	91.44
395.903	85.44
396.127	87.44
396.352	72.44
396.576	85.44
396.801	96.44
397.025	76.44
397.249	98.44
397.474	101.44
397.698	96.44
397.922	91.44
398.147	84.44
398.371	91.44
398.595	75.44
398.82	82.44
399.044	91.44
399.268	83.44
399.492	80.44
399.717	91.44
399.941	93.44
400.165	95.44
400.389	86.44
400.613	82.44
400.837	79.44
401.062	98.44
401.286	92.44
401.51	93.44
401.734	90.44
401.958	80.44
402.182	119.44
402.406	161.44
402.63	127.44
402.854	87.44
403.078	92.44
403.302	102.44
403.526	89.44
403.75	92.44
403.974	84.44
404.198	101.44
404.422	94.44
404.645	90.44
404.869	82.44
405.093	87.44
405.317	93.44
405.541	100.44
405.765	112.44
405.988	108.44
406.212	166.44
406.436	217.44
406.66	139.44
406.883	111.44
407.107	95.44
407.331	91.44
407.555	102.44
407.778	100.44
408.002	91.44
408.226	93.44
408.449	69.44
408.673	83.44
408.896	86.44
409.12	100.44
409.344	96.44
409.567	80.44
409.791	80.44
410.014	92.44
410.238	97.44
410.461	92.44
410.685	99.44
410.908	89.44
411.132	108.44
411.355	84.44
411.578	96.44
411.802	92.44
412.025	92.44
412.249	72.44
412.472	85.44
412.695	84.44
412.919	80.44
413.142	102.44
413.365	72.44
413.589	94.44
413.812	79.44
414.035	100.44
414.258	79.44
414.482	99.44
414.705	90.44
414.928	91.44
415.151	83.44
415.374	87.44
415.597	89.44
415.821	83.44
416.044	90.44
416.267	82.44
416.49	78.44
416.713	92.44
416.936	84.44
417.159	80.44
417.382	96.44
417.605	68.44
417.828	74.44
418.051	87.44
418.274	95.44
418.497	91.44
418.72	82.44
418.943	89.44
419.166	88.44
419.389	98.44
419.611	92.44
419.834	93.44
420.057	75.44
420.28	87.44
420.503	79.44
420.726	92.44
420.948	99.44
421.171	94.44
421.394	76.44
421.617	80.44
421.839	75.44
422.062	75.44
422.285	81.44
422.507	96.44
422.73	97.44
422.953	83.44
423.175	79.44
423.398	89.44
423.621	95.44
423.843	82.44
424.066	81.44
424.288	93.44
424.511	101.44
424.733	114.44
424.956	93.44
425.178	87.44
425.401	107.44
425.623	88.44
425.846	87.44
426.068	94.44
426.291	83.44
426.513	79.44
426.735	96.44
426.958	104.44
427.18	104.44
427.402	128.44
427.625	151.44
427.847	113.44
428.069	89.44
428.292	85.44
428.514	86.44
428.736	101.44
428.958	86.44
429.181	85.44
429.403	83.44
429.625	84.44
429.847	90.44
430.069	94.44
430.292	92.44
430.514	89.44
430.736	75.44
430.958	84.44
431.18	73.44
431.402	79.44
431.624	77.44
431.846	76.44
432.068	79.44
432.29	101.44
432.512	99.44
432.734	93.44
432.956	92.44
433.178	108.44
433.4	73.44
433.622	88.44
433.844	81.44
434.066	104.44
434.287	86.44
434.509	105.44
434.731	92.44
434.953	83.44
435.175	94.44
435.397	82.44
435.618	81.44
435.84	101.44
436.062	119.44
436.284	108.44
436.505	94.44
436.727	103.44
436.949	91.44
437.17	93.44
437.392	86.44
437.614	99.44
437.835	104.44
438.057	110.44
438.278	106.44
438.5	102.44
438.721	107.44
438.943	101.44
439.165	96.44
439.386	95.44
439.608	94.44
439.829	101.44
440.05	109.44
440.272	131.44
440.493	91.44
440.715	82.44
440.936	91.44
441.158	96.44
441.379	79.44
441.6	91.44
441.822	87.44
442.043	86.44
442.264	96.44
442.486	108.44
442.707	100.44
442.928	89.44
443.149	112.44
443.371	129.44
443.592	109.44
443.813	111.44
444.034	99.44
444.255	90.44
444.476	87.44
444.698	91.44
444.919	87.44
445.14	121.44
445.361	110.44
445.582	110.44
445.803	127.44
446.024	120.44
446.245	128.44
446.466	104.44
446.687	95.44
446.908	93.44
447.129	93.44
447.35	90.44
447.571	98.44
447.792	89.44
448.013	108.44
448.234	99.44
448.455	104.44
448.675	120.44
448.896	104.44
449.117	94.44
449.338	104.44
449.559	115.44
449.779	111.44
450	87.44
450.221	95.44
450.442	98.44
450.662	84.44
450.883	102.44
451.104	113.44
451.324	88.44
451.545	87.44
451.766	97.44
451.986	92.44
452.207	96.44
452.428	89.44
452.648	90.44
452.869	95.44
453.089	102.44
453.31	106.44
453.53	85.44
453.751	87.44
453.971	101.44
454.192	103.44
454.412	84.44
454.633	87.44
454.853	82.44
455.073	84.44
455.294	94.44
455.514	87.44
455.734	77.44
455.955	87.44
456.175	87.44
456.395	77.44
456.616	87.44
456.836	92.44
457.056	92.44
457.276	85.44
457.497	89.44
457.717	74.44
457.937	81.44
458.157	91.44
458.377	87.44
458.598	91.44
458.818	121.44
459.038	140.44
459.258	114.44
459.478	79.44
459.698	90.44
459.918	78.44
460.138	90.44
460.358	82.44
460.578	85.44
460.798	79.44
461.018	73.44
461.238	86.44
461.458	95.44
461.678	92.44
461.898	81.44
462.118	81.44
462.338	67.44
462.558	87.44
462.777	96.44
462.997	89.44
463.217	88.44
463.437	96.44
463.657	91.44
463.876	92.44
464.096	93.44
464.316	79.44
464.536	79.44
464.755	82.44
464.975	116.44
465.195	160.44
465.414	137.44
465.634	98.44
465.854	87.44
466.073	67.44
466.293	95.44
466.512	73.44
466.732	73.44
466.951	85.44
467.171	84.44
467.391	80.44
467.61	98.44
467.829	91.44
468.049	91.44
468.268	80.44
468.488	78.44
468.707	89.44
468.927	99.44
469.146	83.44
469.365	92.44
469.585	78.44
469.804	88.44
470.023	86.44
470.243	94.44
470.462	78.44
470.681	109.44
470.901	87.44
471.12	105.44
471.339	83.44
471.558	82.44
471.777	91.44
471.997	77.44
472.216	87.44
472.435	94.44
472.654	92.44
472.873	88.44
473.092	84.44
473.311	94.44
473.53	79.44
473.749	90.44
473.968	93.44
474.187	100.44
474.406	78.44
474.625	93.44
474.844	80.44
475.063	68.44
475.282	89.44
475.501	78.44
475.72	89.44
475.939	92.44
476.158	88.44
476.377	80.44
476.596	99.44
476.814	100.44
477.033	80.44
477.252	85.44
477.471	78.44
477.69	96.44
477.908	100.44
478.127	87.44
478.346	87.44
478.564	89.44
478.783	91.44
479.002	95.44
479.22	89.44
479.439	98.44
479.658	96.44
479.876	85.44
480.095	91.44
480.313	90.44
480.532	85.44
480.751	97.44
480.969	104.44
481.188	96.44
481.406	109.44
481.624	96.44
481.843	107.44
482.061	81.44
482.28	75.44
482.498	92.44
482.717	91.44
482.935	92.44
483.153	85.44
483.372	87.44
483.59	91.44
483.808	97.44
484.027	94.44
484.245	99.44
484.463	98.44
484.681	92.44
484.9	92.44
485.118	96.44
485.336	83.44
485.554	103.44
485.772	81.44
485.99	101.44
486.209	105.44
486.427	92.44
486.645	104.44
486.863	99.44
487.081	99.44
487.299	80.44
487.517	94.44
487.735	88.44
487.953	90.44
488.171	91.44
488.389	75.44
488.607	97.44
488.825	93.44
489.043	89.44
489.261	95.44
489.479	81.44
489.696	103.44
489.914	88.44
490.132	101.44
490.35	99.44
490.568	74.44
490.786	88.44
491.003	79.44
491.221	90.44
491.439	73.44
491.657	78.44
491.874	83.44
492.092	79.44
492.31	94.44
492.527	82.44
492.745	87.44
492.963	91.44
493.18	88.44
493.398	95.44
493.615	91.44
493.833	90.44
494.05	98.44
494.268	95.44
494.485	92.44
494.703	100.44
494.92	87.44
495.138	94.44
495.355	83.44
495.573	98.44
495.79	98.44
496.008	83.44
496.225	89.44
496.442	84.44
496.66	90.44
496.877	95.44
497.094	106.44
497.312	83.44
497.529	100.44
497.746	95.44
497.963	101.44
498.181	88.44
498.398	75.44
498.615	112.44
498.832	93.44
499.049	103.44
499.267	79.44
499.484	98.44
499.701	87.44
499.918	104.44
500.135	95.44
500.352	109.44
500.569	89.44
500.786	91.44
501.003	95.44
501.22	87.44
501.437	82.44
501.654	107.44
501.871	99.44
502.088	94.44
502.305	80.44
502.522	98.44
502.739	80.44
502.956	95.44
503.172	77.44
503.389	81.44
503.606	115.44
503.823	84.44
504.04	90.44
504.256	104.44
504.473	71.44
504.69	72.44
504.907	90.44
505.123	87.44
505.34	84.44
505.557	95.44
505.773	92.44
505.99	105.44
506.207	92.44
506.423	88.44
506.64	89.44
506.856	100.44
507.073	85.44
507.289	86.44
507.506	85.44
507.722	107.44
507.939	103.44
508.155	86.44
508.372	89.44
508.588	95.44
508.805	94.44
509.021	88.44
509.238	91.44
509.454	115.44
509.67	95.44
509.887	117.44
510.103	125.44
510.319	193.44
510.536	693.44
510.752	2205.44
510.968	608.44
511.184	131.44
511.401	118.44
511.617	98.44
511.833	92.44
512.049	93.44
512.265	82.44
512.481	79.44
512.698	97.44
512.914	80.44
513.13	87.44
513.346	92.44
513.562	92.44
513.778	85.44
513.994	108.44
514.21	91.44
514.426	120.44
514.642	138.44
514.858	105.44
515.074	167.44
515.29	409.44
515.506	1303.44
515.721	504.44
515.937	145.44
516.153	107.44
516.369	96.44
516.585	83.44
