Data from Uncirc_1992_H10_HRD10591_00056.txt Node
Date: Wed Jan 03 11:46:27 EST 2024
User: Yrep
Spectrometer: HR+D1059
Trigger mode: 1
Integration Time (sec): 1.000000E-1
Scans to average: 1
Electric dark correction enabled: true
Nonlinearity correction enabled: false
Boxcar width: 0
XAxis mode: Wavelengths
Number of Pixels in Spectrum: 2048
>>>>>Begin Spectral Data<<<<<
223.165	-9.31
223.4	-9.31
223.635	-9.31
223.869	-26.31
224.104	-23.31
224.338	-12.31
224.573	-22.31
224.808	-27.31
225.042	-15.31
225.277	1.69
225.511	-12.31
225.746	6.69
225.98	21.69
226.215	4.69
226.449	23.69
226.683	20.69
226.918	35.69
227.152	33.69
227.387	31.69
227.621	36.69
227.856	60.69
228.09	63.69
228.324	56.69
228.559	54.69
228.793	65.69
229.027	70.69
229.262	65.69
229.496	66.69
229.73	76.69
229.964	89.69
230.199	66.69
230.433	89.69
230.667	88.69
230.901	82.69
231.136	81.69
231.37	86.69
231.604	82.69
231.838	98.69
232.072	82.69
232.306	83.69
232.541	52.69
232.775	72.69
233.009	78.69
233.243	95.69
233.477	85.69
233.711	82.69
233.945	75.69
234.179	80.69
234.413	75.69
234.647	67.69
234.881	84.69
235.115	71.69
235.349	93.69
235.583	83.69
235.817	96.69
236.051	93.69
236.285	66.69
236.519	77.69
236.753	77.69
236.987	92.69
237.221	83.69
237.455	86.69
237.689	81.69
237.922	70.69
238.156	75.69
238.39	71.69
238.624	85.69
238.858	88.69
239.091	79.69
239.325	80.69
239.559	94.69
239.793	80.69
240.027	89.69
240.26	87.69
240.494	68.69
240.728	85.69
240.961	68.69
241.195	78.69
241.429	78.69
241.662	88.69
241.896	87.69
242.13	82.69
242.363	96.69
242.597	86.69
242.83	75.69
243.064	81.69
243.298	81.69
243.531	75.69
243.765	96.69
243.998	80.69
244.232	76.69
244.465	90.69
244.699	85.69
244.932	83.69
245.166	71.69
245.399	86.69
245.633	80.69
245.866	94.69
246.099	84.69
246.333	98.69
246.566	91.69
246.8	78.69
247.033	80.69
247.266	78.69
247.5	82.69
247.733	84.69
247.966	90.69
248.2	82.69
248.433	80.69
248.666	71.69
248.899	75.69
249.133	81.69
249.366	90.69
249.599	88.69
249.832	79.69
250.066	88.69
250.299	83.69
250.532	80.69
250.765	72.69
250.998	62.69
251.231	92.69
251.465	81.69
251.698	72.69
251.931	84.69
252.164	80.69
252.397	77.69
252.63	95.69
252.863	83.69
253.096	85.69
253.329	94.69
253.562	89.69
253.795	95.69
254.028	80.69
254.261	86.69
254.494	84.69
254.727	77.69
254.96	80.69
255.193	69.69
255.426	85.69
255.659	90.69
255.892	102.69
256.124	88.69
256.357	100.69
256.59	91.69
256.823	87.69
257.056	86.69
257.289	70.69
257.521	80.69
257.754	92.69
257.987	92.69
258.22	89.69
258.452	81.69
258.685	92.69
258.918	81.69
259.151	72.69
259.383	78.69
259.616	79.69
259.849	83.69
260.081	84.69
260.314	73.69
260.547	79.69
260.779	85.69
261.012	84.69
261.244	88.69
261.477	81.69
261.71	87.69
261.942	108.69
262.175	118.69
262.407	80.69
262.64	86.69
262.872	87.69
263.105	90.69
263.337	92.69
263.57	97.69
263.802	86.69
264.035	75.69
264.267	77.69
264.499	108.69
264.732	90.69
264.964	94.69
265.197	88.69
265.429	91.69
265.661	83.69
265.894	76.69
266.126	80.69
266.358	77.69
266.591	79.69
266.823	86.69
267.055	84.69
267.287	78.69
267.52	78.69
267.752	97.69
267.984	82.69
268.216	85.69
268.448	95.69
268.681	90.69
268.913	85.69
269.145	83.69
269.377	97.69
269.609	92.69
269.841	82.69
270.073	80.69
270.306	82.69
270.538	101.69
270.77	91.69
271.002	87.69
271.234	83.69
271.466	77.69
271.698	86.69
271.93	96.69
272.162	89.69
272.394	81.69
272.626	94.69
272.858	88.69
273.09	78.69
273.322	95.69
273.553	96.69
273.785	73.69
274.017	90.69
274.249	89.69
274.481	78.69
274.713	96.69
274.945	83.69
275.176	91.69
275.408	95.69
275.64	84.69
275.872	101.69
276.104	87.69
276.335	107.69
276.567	103.69
276.799	101.69
277.031	101.69
277.262	84.69
277.494	84.69
277.726	89.69
277.957	89.69
278.189	86.69
278.421	88.69
278.652	98.69
278.884	92.69
279.115	75.69
279.347	90.69
279.579	77.69
279.81	71.69
280.042	101.69
280.273	90.69
280.505	92.69
280.736	87.69
280.968	88.69
281.199	89.69
281.431	93.69
281.662	93.69
281.894	83.69
282.125	98.69
282.356	119.69
282.588	141.69
282.819	109.69
283.051	81.69
283.282	74.69
283.513	88.69
283.745	94.69
283.976	86.69
284.207	93.69
284.439	96.69
284.67	77.69
284.901	82.69
285.132	89.69
285.364	81.69
285.595	87.69
285.826	81.69
286.057	79.69
286.288	109.69
286.52	83.69
286.751	92.69
286.982	80.69
287.213	79.69
287.444	84.69
287.675	77.69
287.906	94.69
288.138	87.69
288.369	94.69
288.6	92.69
288.831	99.69
289.062	90.69
289.293	81.69
289.524	101.69
289.755	100.69
289.986	83.69
290.217	99.69
290.448	98.69
290.679	95.69
290.91	91.69
291.141	96.69
291.371	101.69
291.602	95.69
291.833	80.69
292.064	83.69
292.295	91.69
292.526	79.69
292.757	94.69
292.987	99.69
293.218	99.69
293.449	98.69
293.68	79.69
293.91	98.69
294.141	89.69
294.372	87.69
294.603	78.69
294.833	79.69
295.064	97.69
295.295	102.69
295.525	92.69
295.756	97.69
295.987	103.69
296.217	121.69
296.448	118.69
296.679	92.69
296.909	96.69
297.14	88.69
297.37	90.69
297.601	88.69
297.831	83.69
298.062	87.69
298.292	91.69
298.523	89.69
298.753	101.69
298.984	98.69
299.214	101.69
299.445	103.69
299.675	98.69
299.905	101.69
300.136	91.69
300.366	90.69
300.597	95.69
300.827	97.69
301.057	97.69
301.288	109.69
301.518	101.69
301.748	83.69
301.979	107.69
302.209	99.69
302.439	86.69
302.669	84.69
302.9	85.69
303.13	105.69
303.36	87.69
303.59	98.69
303.82	110.69
304.051	89.69
304.281	83.69
304.511	80.69
304.741	93.69
304.971	83.69
305.201	94.69
305.431	95.69
305.661	99.69
305.891	95.69
306.121	90.69
306.352	105.69
306.582	108.69
306.812	77.69
307.042	93.69
307.272	84.69
307.502	98.69
307.731	104.69
307.961	92.69
308.191	90.69
308.421	105.69
308.651	100.69
308.881	102.69
309.111	97.69
309.341	97.69
309.571	99.69
309.8	110.69
310.03	100.69
310.26	102.69
310.49	108.69
310.72	96.69
310.949	109.69
311.179	111.69
311.409	82.69
311.639	101.69
311.868	83.69
312.098	90.69
312.328	85.69
312.557	111.69
312.787	131.69
313.017	90.69
313.246	96.69
313.476	91.69
313.706	93.69
313.935	92.69
314.165	97.69
314.394	108.69
314.624	85.69
314.853	88.69
315.083	100.69
315.312	94.69
315.542	90.69
315.771	91.69
316.001	86.69
316.23	85.69
316.46	100.69
316.689	105.69
316.919	100.69
317.148	83.69
317.377	101.69
317.607	104.69
317.836	95.69
318.065	95.69
318.295	103.69
318.524	82.69
318.753	96.69
318.983	94.69
319.212	116.69
319.441	105.69
319.67	107.69
319.9	93.69
320.129	95.69
320.358	91.69
320.587	93.69
320.816	104.69
321.046	105.69
321.275	95.69
321.504	100.69
321.733	101.69
321.962	92.69
322.191	95.69
322.42	105.69
322.649	99.69
322.878	100.69
323.108	112.69
323.337	125.69
323.566	146.69
323.795	145.69
324.024	182.69
324.253	371.69
324.482	774.69
324.71	1570.69
324.939	1947.69
325.168	726.69
325.397	217.69
325.626	141.69
325.855	116.69
326.084	129.69
326.313	132.69
326.542	131.69
326.77	219.69
326.999	431.69
327.228	875.69
327.457	1543.69
327.686	1204.69
327.914	339.69
328.143	175.69
328.372	136.69
328.6	129.69
328.829	103.69
329.058	116.69
329.287	120.69
329.515	96.69
329.744	105.69
329.972	94.69
330.201	92.69
330.43	98.69
330.658	120.69
330.887	133.69
331.115	116.69
331.344	106.69
331.572	105.69
331.801	108.69
332.03	95.69
332.258	107.69
332.486	79.69
332.715	94.69
332.943	92.69
333.172	101.69
333.4	105.69
333.629	90.69
333.857	106.69
334.085	120.69
334.314	88.69
334.542	104.69
334.771	97.69
334.999	105.69
335.227	95.69
335.455	88.69
335.684	98.69
335.912	87.69
336.14	92.69
336.369	100.69
336.597	105.69
336.825	107.69
337.053	95.69
337.281	92.69
337.51	88.69
337.738	92.69
337.966	77.69
338.194	98.69
338.422	105.69
338.65	101.69
338.878	98.69
339.106	89.69
339.334	98.69
339.562	89.69
339.79	80.69
340.018	89.69
340.246	95.69
340.474	104.69
340.702	98.69
340.93	99.69
341.158	117.69
341.386	98.69
341.614	85.69
341.842	85.69
342.07	86.69
342.298	94.69
342.526	86.69
342.754	102.69
342.981	90.69
343.209	77.69
343.437	91.69
343.665	96.69
343.893	87.69
344.12	102.69
344.348	116.69
344.576	100.69
344.804	95.69
345.031	91.69
345.259	93.69
345.487	94.69
345.714	106.69
345.942	96.69
346.17	74.69
346.397	88.69
346.625	101.69
346.853	109.69
347.08	92.69
347.308	91.69
347.535	102.69
347.763	100.69
347.99	102.69
348.218	105.69
348.445	99.69
348.673	101.69
348.9	89.69
349.128	104.69
349.355	98.69
349.583	92.69
349.81	91.69
350.037	106.69
350.265	91.69
350.492	93.69
350.72	92.69
350.947	101.69
351.174	120.69
351.402	104.69
351.629	94.69
351.856	106.69
352.083	101.69
352.311	102.69
352.538	101.69
352.765	105.69
352.992	112.69
353.22	109.69
353.447	115.69
353.674	96.69
353.901	97.69
354.128	103.69
354.355	98.69
354.583	92.69
354.81	107.69
355.037	98.69
355.264	103.69
355.491	105.69
355.718	101.69
355.945	101.69
356.172	95.69
356.399	94.69
356.626	96.69
356.853	101.69
357.08	85.69
357.307	92.69
357.534	94.69
357.761	98.69
357.988	94.69
358.215	76.69
358.441	95.69
358.668	93.69
358.895	94.69
359.122	88.69
359.349	86.69
359.576	83.69
359.802	115.69
360.029	101.69
360.256	96.69
360.483	96.69
360.709	82.69
360.936	102.69
361.163	82.69
361.39	105.69
361.616	86.69
361.843	80.69
362.07	91.69
362.296	86.69
362.523	76.69
362.749	91.69
362.976	87.69
363.203	114.69
363.429	86.69
363.656	89.69
363.882	85.69
364.109	100.69
364.335	92.69
364.562	93.69
364.788	78.69
365.015	99.69
365.241	102.69
365.468	119.69
365.694	110.69
365.92	87.69
366.147	71.69
366.373	91.69
366.599	89.69
366.826	86.69
367.052	80.69
367.278	97.69
367.505	92.69
367.731	91.69
367.957	89.69
368.184	93.69
368.41	110.69
368.636	105.69
368.862	105.69
369.089	113.69
369.315	91.69
369.541	95.69
369.767	104.69
369.993	106.69
370.219	96.69
370.445	95.69
370.672	90.69
370.898	91.69
371.124	97.69
371.35	97.69
371.576	95.69
371.802	100.69
372.028	89.69
372.254	97.69
372.48	83.69
372.706	105.69
372.932	91.69
373.158	93.69
373.384	88.69
373.61	84.69
373.835	91.69
374.061	98.69
374.287	81.69
374.513	97.69
374.739	94.69
374.965	90.69
375.191	81.69
375.416	97.69
375.642	95.69
375.868	94.69
376.094	83.69
376.319	87.69
376.545	85.69
376.771	94.69
376.997	94.69
377.222	84.69
377.448	96.69
377.674	86.69
377.899	86.69
378.125	98.69
378.35	95.69
378.576	101.69
378.802	98.69
379.027	89.69
379.253	97.69
379.478	100.69
379.704	97.69
379.929	95.69
380.155	89.69
380.38	111.69
380.606	101.69
380.831	85.69
381.057	107.69
381.282	108.69
381.507	95.69
381.733	86.69
381.958	84.69
382.184	96.69
382.409	109.69
382.634	102.69
382.86	97.69
383.085	104.69
383.31	85.69
383.535	96.69
383.761	112.69
383.986	105.69
384.211	102.69
384.436	89.69
384.662	97.69
384.887	96.69
385.112	109.69
385.337	84.69
385.562	99.69
385.787	112.69
386.013	93.69
386.238	115.69
386.463	111.69
386.688	103.69
386.913	101.69
387.138	110.69
387.363	94.69
387.588	102.69
387.813	95.69
388.038	113.69
388.263	115.69
388.488	108.69
388.713	91.69
388.938	96.69
389.163	91.69
389.387	109.69
389.612	104.69
389.837	78.69
390.062	99.69
390.287	113.69
390.512	97.69
390.736	81.69
390.961	92.69
391.186	98.69
391.411	93.69
391.636	86.69
391.86	85.69
392.085	83.69
392.31	85.69
392.534	85.69
392.759	93.69
392.984	96.69
393.208	98.69
393.433	102.69
393.658	82.69
393.882	84.69
394.107	83.69
394.331	94.69
394.556	89.69
394.78	100.69
395.005	105.69
395.229	108.69
395.454	89.69
395.678	77.69
395.903	100.69
396.127	99.69
396.352	84.69
396.576	79.69
396.801	89.69
397.025	99.69
397.249	85.69
397.474	92.69
397.698	77.69
397.922	91.69
398.147	102.69
398.371	98.69
398.595	90.69
398.82	85.69
399.044	93.69
399.268	79.69
399.492	86.69
399.717	94.69
399.941	104.69
400.165	99.69
400.389	106.69
400.613	96.69
400.837	91.69
401.062	83.69
401.286	96.69
401.51	97.69
401.734	93.69
401.958	102.69
402.182	121.69
402.406	164.69
402.63	126.69
402.854	94.69
403.078	87.69
403.302	97.69
403.526	103.69
403.75	94.69
403.974	89.69
404.198	87.69
404.422	104.69
404.645	99.69
404.869	89.69
405.093	78.69
405.317	81.69
405.541	93.69
405.765	100.69
405.988	116.69
406.212	174.69
406.436	199.69
406.66	146.69
406.883	90.69
407.107	100.69
407.331	97.69
407.555	94.69
407.778	89.69
408.002	86.69
408.226	95.69
408.449	101.69
408.673	87.69
408.896	103.69
409.12	91.69
409.344	97.69
409.567	82.69
409.791	98.69
410.014	99.69
410.238	104.69
410.461	99.69
410.685	92.69
410.908	112.69
411.132	106.69
411.355	108.69
411.578	93.69
411.802	109.69
412.025	95.69
412.249	84.69
412.472	90.69
412.695	81.69
412.919	95.69
413.142	91.69
413.365	79.69
413.589	101.69
413.812	81.69
414.035	103.69
414.258	93.69
414.482	109.69
414.705	72.69
414.928	88.69
415.151	108.69
415.374	75.69
415.597	77.69
415.821	85.69
416.044	98.69
416.267	100.69
416.49	96.69
416.713	75.69
416.936	86.69
417.159	92.69
417.382	101.69
417.605	96.69
417.828	104.69
418.051	90.69
418.274	99.69
418.497	96.69
418.72	94.69
418.943	85.69
419.166	89.69
419.389	105.69
419.611	88.69
419.834	78.69
420.057	85.69
420.28	86.69
420.503	91.69
420.726	89.69
420.948	82.69
421.171	84.69
421.394	100.69
421.617	83.69
421.839	71.69
422.062	101.69
422.285	97.69
422.507	103.69
422.73	102.69
422.953	87.69
423.175	95.69
423.398	98.69
423.621	90.69
423.843	100.69
424.066	100.69
424.288	92.69
424.511	98.69
424.733	112.69
424.956	99.69
425.178	103.69
425.401	99.69
425.623	93.69
425.846	103.69
426.068	109.69
426.291	92.69
426.513	78.69
426.735	94.69
426.958	91.69
427.18	103.69
427.402	119.69
427.625	154.69
427.847	119.69
428.069	107.69
428.292	79.69
428.514	97.69
428.736	75.69
428.958	96.69
429.181	93.69
429.403	90.69
429.625	92.69
429.847	84.69
430.069	96.69
430.292	95.69
430.514	91.69
430.736	85.69
430.958	90.69
431.18	95.69
431.402	91.69
431.624	104.69
431.846	80.69
432.068	80.69
432.29	86.69
432.512	91.69
432.734	86.69
432.956	92.69
433.178	97.69
433.4	91.69
433.622	97.69
433.844	97.69
434.066	93.69
434.287	86.69
434.509	92.69
434.731	89.69
434.953	100.69
435.175	87.69
435.397	84.69
435.618	89.69
435.84	114.69
436.062	95.69
436.284	109.69
436.505	95.69
436.727	105.69
436.949	89.69
437.17	83.69
437.392	100.69
437.614	91.69
437.835	105.69
438.057	115.69
438.278	114.69
438.5	110.69
438.721	118.69
438.943	99.69
439.165	100.69
439.386	85.69
439.608	100.69
439.829	93.69
440.05	133.69
440.272	130.69
440.493	102.69
440.715	100.69
440.936	81.69
441.158	79.69
441.379	88.69
441.6	84.69
441.822	93.69
442.043	85.69
442.264	111.69
442.486	100.69
442.707	107.69
442.928	98.69
443.149	105.69
443.371	121.69
443.592	106.69
443.813	107.69
444.034	110.69
444.255	100.69
444.476	70.69
444.698	94.69
444.919	91.69
445.14	123.69
445.361	131.69
445.582	115.69
445.803	126.69
446.024	115.69
446.245	124.69
446.466	105.69
446.687	110.69
446.908	77.69
447.129	84.69
447.35	86.69
447.571	98.69
447.792	96.69
448.013	88.69
448.234	100.69
448.455	95.69
448.675	100.69
448.896	111.69
449.117	105.69
449.338	105.69
449.559	120.69
449.779	125.69
450	103.69
450.221	94.69
450.442	97.69
450.662	91.69
450.883	116.69
451.104	102.69
451.324	92.69
451.545	84.69
451.766	103.69
451.986	87.69
452.207	83.69
452.428	87.69
452.648	99.69
452.869	102.69
453.089	109.69
453.31	112.69
453.53	91.69
453.751	83.69
453.971	113.69
454.192	93.69
454.412	68.69
454.633	95.69
454.853	83.69
455.073	76.69
455.294	93.69
455.514	95.69
455.734	83.69
455.955	93.69
456.175	88.69
456.395	81.69
456.616	95.69
456.836	83.69
457.056	92.69
457.276	104.69
457.497	90.69
457.717	78.69
457.937	100.69
458.157	97.69
458.377	90.69
458.598	104.69
458.818	155.69
459.038	139.69
459.258	104.69
459.478	88.69
459.698	86.69
459.918	93.69
460.138	96.69
460.358	101.69
460.578	94.69
460.798	104.69
461.018	100.69
461.238	92.69
461.458	91.69
461.678	92.69
461.898	76.69
462.118	93.69
462.338	99.69
462.558	87.69
462.777	81.69
462.997	97.69
463.217	77.69
463.437	95.69
463.657	72.69
463.876	100.69
464.096	100.69
464.316	92.69
464.536	91.69
464.755	109.69
464.975	118.69
465.195	161.69
465.414	146.69
465.634	94.69
465.854	75.69
466.073	89.69
466.293	83.69
466.512	85.69
466.732	96.69
466.951	94.69
467.171	103.69
467.391	102.69
467.61	104.69
467.829	104.69
468.049	95.69
468.268	85.69
468.488	80.69
468.707	93.69
468.927	81.69
469.146	94.69
469.365	92.69
469.585	96.69
469.804	100.69
470.023	106.69
470.243	93.69
470.462	91.69
470.681	97.69
470.901	110.69
471.12	86.69
471.339	85.69
471.558	83.69
471.777	95.69
471.997	87.69
472.216	95.69
472.435	93.69
472.654	85.69
472.873	93.69
473.092	76.69
473.311	95.69
473.53	84.69
473.749	95.69
473.968	79.69
474.187	104.69
474.406	100.69
474.625	99.69
474.844	94.69
475.063	98.69
475.282	69.69
475.501	95.69
475.72	95.69
475.939	94.69
476.158	87.69
476.377	87.69
476.596	91.69
476.814	87.69
477.033	93.69
477.252	97.69
477.471	111.69
477.69	95.69
477.908	86.69
478.127	102.69
478.346	82.69
478.564	94.69
478.783	90.69
479.002	93.69
479.22	97.69
479.439	99.69
479.658	108.69
479.876	95.69
480.095	86.69
480.313	104.69
480.532	98.69
480.751	99.69
480.969	99.69
481.188	99.69
481.406	98.69
481.624	89.69
481.843	88.69
482.061	83.69
482.28	83.69
482.498	102.69
482.717	86.69
482.935	80.69
483.153	89.69
483.372	82.69
483.59	96.69
483.808	82.69
484.027	105.69
484.245	104.69
484.463	91.69
484.681	88.69
484.9	98.69
485.118	96.69
485.336	91.69
485.554	96.69
485.772	92.69
485.99	104.69
486.209	105.69
486.427	116.69
486.645	103.69
486.863	117.69
487.081	105.69
487.299	106.69
487.517	81.69
487.735	108.69
487.953	104.69
488.171	109.69
488.389	99.69
488.607	88.69
488.825	96.69
489.043	96.69
489.261	108.69
489.479	99.69
489.696	89.69
489.914	99.69
490.132	85.69
490.35	90.69
490.568	95.69
490.786	82.69
491.003	108.69
491.221	119.69
491.439	92.69
491.657	104.69
491.874	110.69
492.092	99.69
492.31	75.69
492.527	70.69
492.745	90.69
492.963	97.69
493.18	93.69
493.398	94.69
493.615	99.69
493.833	101.69
494.05	90.69
494.268	91.69
494.485	92.69
494.703	96.69
494.92	101.69
495.138	99.69
495.355	109.69
495.573	92.69
495.79	91.69
496.008	104.69
496.225	88.69
496.442	83.69
496.66	95.69
496.877	94.69
497.094	98.69
497.312	97.69
497.529	91.69
497.746	93.69
497.963	86.69
498.181	110.69
498.398	93.69
498.615	111.69
498.832	108.69
499.049	88.69
499.267	96.69
499.484	98.69
499.701	102.69
499.918	96.69
500.135	79.69
500.352	92.69
500.569	78.69
500.786	96.69
501.003	94.69
501.22	105.69
501.437	93.69
501.654	99.69
501.871	110.69
502.088	94.69
502.305	83.69
502.522	90.69
502.739	101.69
502.956	95.69
503.172	94.69
503.389	97.69
503.606	102.69
503.823	92.69
504.04	101.69
504.256	89.69
504.473	84.69
504.69	103.69
504.907	96.69
505.123	101.69
505.34	101.69
505.557	101.69
505.773	88.69
505.99	91.69
506.207	88.69
506.423	87.69
506.64	100.69
506.856	92.69
507.073	105.69
507.289	102.69
507.506	90.69
507.722	104.69
507.939	106.69
508.155	88.69
508.372	105.69
508.588	90.69
508.805	87.69
509.021	88.69
509.238	101.69
509.454	101.69
509.67	104.69
509.887	115.69
510.103	132.69
510.319	207.69
510.536	724.69
510.752	2237.69
510.968	611.69
511.184	152.69
511.401	116.69
511.617	104.69
511.833	105.69
512.049	97.69
512.265	88.69
512.481	97.69
512.698	92.69
512.914	95.69
513.13	109.69
513.346	96.69
513.562	92.69
513.778	99.69
513.994	103.69
514.21	100.69
514.426	120.69
514.642	133.69
