Data from Uncirc_1992_H10_HRD10591_00094.txt Node
Date: Wed Jan 03 11:46:35 EST 2024
User: Yrep
Spectrometer: HR+D1059
Trigger mode: 1
Integration Time (sec): 1.000000E-1
Scans to average: 1
Electric dark correction enabled: true
Nonlinearity correction enabled: false
Boxcar width: 0
XAxis mode: Wavelengths
Number of Pixels in Spectrum: 2048
>>>>>Begin Spectral Data<<<<<
223.165	-29.12
223.4	-29.12
223.635	-29.12
223.869	-14.12
224.104	-26.12
224.338	-8.12
224.573	-15.12
224.808	-2.12
225.042	-6.12
225.277	-17.12
225.511	-6.12
225.746	7.88
225.98	18.88
226.215	19.88
226.449	17.88
226.683	12.88
226.918	19.88
227.152	26.88
227.387	39.88
227.621	46.88
227.856	61.88
228.09	53.88
228.324	61.88
228.559	63.88
228.793	62.88
229.027	62.88
229.262	67.88
229.496	70.88
229.73	83.88
229.964	85.88
230.199	68.88
230.433	87.88
230.667	84.88
230.901	47.88
231.136	77.88
231.37	82.88
231.604	80.88
231.838	79.88
232.072	91.88
232.306	90.88
232.541	81.88
232.775	90.88
233.009	70.88
233.243	74.88
233.477	87.88
233.711	81.88
233.945	83.88
234.179	78.88
234.413	68.88
234.647	85.88
234.881	84.88
235.115	60.88
235.349	77.88
235.583	65.88
235.817	78.88
236.051	85.88
236.285	83.88
236.519	77.88
236.753	82.88
236.987	91.88
237.221	85.88
237.455	79.88
237.689	66.88
237.922	85.88
238.156	85.88
238.39	93.88
238.624	94.88
238.858	70.88
239.091	75.88
239.325	78.88
239.559	73.88
239.793	80.88
240.027	79.88
240.26	76.88
240.494	87.88
240.728	91.88
240.961	85.88
241.195	89.88
241.429	70.88
241.662	80.88
241.896	66.88
242.13	75.88
242.363	69.88
242.597	70.88
242.83	81.88
243.064	86.88
243.298	76.88
243.531	72.88
243.765	76.88
243.998	71.88
244.232	86.88
244.465	91.88
244.699	95.88
244.932	83.88
245.166	86.88
245.399	71.88
245.633	68.88
245.866	76.88
246.099	85.88
246.333	81.88
246.566	77.88
246.8	89.88
247.033	66.88
247.266	86.88
247.5	77.88
247.733	78.88
247.966	74.88
248.2	70.88
248.433	75.88
248.666	81.88
248.899	73.88
249.133	79.88
249.366	70.88
249.599	94.88
249.832	91.88
250.066	101.88
250.299	81.88
250.532	86.88
250.765	85.88
250.998	89.88
251.231	81.88
251.465	66.88
251.698	61.88
251.931	87.88
252.164	85.88
252.397	87.88
252.63	81.88
252.863	67.88
253.096	82.88
253.329	75.88
253.562	84.88
253.795	76.88
254.028	84.88
254.261	86.88
254.494	79.88
254.727	75.88
254.96	81.88
255.193	74.88
255.426	82.88
255.659	85.88
255.892	73.88
256.124	78.88
256.357	63.88
256.59	83.88
256.823	76.88
257.056	75.88
257.289	88.88
257.521	85.88
257.754	84.88
257.987	65.88
258.22	78.88
258.452	78.88
258.685	82.88
258.918	73.88
259.151	73.88
259.383	81.88
259.616	89.88
259.849	82.88
260.081	81.88
260.314	88.88
260.547	77.88
260.779	85.88
261.012	84.88
261.244	75.88
261.477	92.88
261.71	94.88
261.942	118.88
262.175	109.88
262.407	90.88
262.64	83.88
262.872	91.88
263.105	96.88
263.337	80.88
263.57	80.88
263.802	92.88
264.035	75.88
264.267	77.88
264.499	100.88
264.732	87.88
264.964	91.88
265.197	91.88
265.429	82.88
265.661	87.88
265.894	85.88
266.126	94.88
266.358	90.88
266.591	87.88
266.823	93.88
267.055	98.88
267.287	84.88
267.52	87.88
267.752	70.88
267.984	83.88
268.216	77.88
268.448	76.88
268.681	92.88
268.913	81.88
269.145	85.88
269.377	84.88
269.609	88.88
269.841	84.88
270.073	94.88
270.306	70.88
270.538	87.88
270.77	75.88
271.002	89.88
271.234	85.88
271.466	84.88
271.698	90.88
271.93	87.88
272.162	103.88
272.394	91.88
272.626	95.88
272.858	90.88
273.09	81.88
273.322	85.88
273.553	74.88
273.785	74.88
274.017	95.88
274.249	82.88
274.481	77.88
274.713	73.88
274.945	75.88
275.176	85.88
275.408	86.88
275.64	82.88
275.872	81.88
276.104	95.88
276.335	97.88
276.567	111.88
276.799	97.88
277.031	109.88
277.262	84.88
277.494	79.88
277.726	80.88
277.957	85.88
278.189	84.88
278.421	75.88
278.652	81.88
278.884	76.88
279.115	88.88
279.347	80.88
279.579	91.88
279.81	77.88
280.042	85.88
280.273	102.88
280.505	70.88
280.736	71.88
280.968	89.88
281.199	95.88
281.431	99.88
281.662	99.88
281.894	70.88
282.125	87.88
282.356	112.88
282.588	135.88
282.819	113.88
283.051	81.88
283.282	86.88
283.513	99.88
283.745	87.88
283.976	70.88
284.207	88.88
284.439	80.88
284.67	85.88
284.901	89.88
285.132	89.88
285.364	81.88
285.595	83.88
285.826	85.88
286.057	82.88
286.288	84.88
286.52	85.88
286.751	81.88
286.982	94.88
287.213	104.88
287.444	82.88
287.675	74.88
287.906	89.88
288.138	87.88
288.369	98.88
288.6	89.88
288.831	99.88
289.062	102.88
289.293	83.88
289.524	89.88
289.755	88.88
289.986	87.88
290.217	86.88
290.448	86.88
290.679	76.88
290.91	92.88
291.141	92.88
291.371	81.88
291.602	94.88
291.833	75.88
292.064	82.88
292.295	74.88
292.526	113.88
292.757	77.88
292.987	89.88
293.218	93.88
293.449	84.88
293.68	98.88
293.91	93.88
294.141	97.88
294.372	86.88
294.603	79.88
294.833	97.88
295.064	86.88
295.295	92.88
295.525	78.88
295.756	100.88
295.987	112.88
296.217	142.88
296.448	117.88
296.679	94.88
296.909	87.88
297.14	78.88
297.37	90.88
297.601	95.88
297.831	82.88
298.062	89.88
298.292	97.88
298.523	87.88
298.753	75.88
298.984	87.88
299.214	78.88
299.445	79.88
299.675	82.88
299.905	97.88
300.136	83.88
300.366	86.88
300.597	96.88
300.827	105.88
301.057	102.88
301.288	99.88
301.518	75.88
301.748	85.88
301.979	109.88
302.209	85.88
302.439	76.88
302.669	90.88
302.9	85.88
303.13	92.88
303.36	105.88
303.59	102.88
303.82	93.88
304.051	102.88
304.281	78.88
304.511	95.88
304.741	95.88
304.971	83.88
305.201	87.88
305.431	86.88
305.661	80.88
305.891	87.88
306.121	102.88
306.352	96.88
306.582	96.88
306.812	95.88
307.042	78.88
307.272	85.88
307.502	82.88
307.731	82.88
307.961	75.88
308.191	90.88
308.421	89.88
308.651	98.88
308.881	99.88
309.111	92.88
309.341	98.88
309.571	100.88
309.8	97.88
310.03	98.88
310.26	80.88
310.49	95.88
310.72	93.88
310.949	108.88
311.179	104.88
311.409	94.88
311.639	101.88
311.868	93.88
312.098	105.88
312.328	98.88
312.557	102.88
312.787	103.88
313.017	106.88
313.246	89.88
313.476	88.88
313.706	92.88
313.935	95.88
314.165	108.88
314.394	103.88
314.624	97.88
314.853	91.88
315.083	88.88
315.312	92.88
315.542	77.88
315.771	96.88
316.001	83.88
316.23	94.88
316.46	95.88
316.689	89.88
316.919	101.88
317.148	92.88
317.377	85.88
317.607	74.88
317.836	93.88
318.065	83.88
318.295	73.88
318.524	79.88
318.753	90.88
318.983	81.88
319.212	102.88
319.441	110.88
319.67	92.88
319.9	94.88
320.129	89.88
320.358	96.88
320.587	94.88
320.816	113.88
321.046	102.88
321.275	104.88
321.504	76.88
321.733	85.88
321.962	96.88
322.191	101.88
322.42	104.88
322.649	106.88
322.878	123.88
323.108	95.88
323.337	116.88
323.566	113.88
323.795	145.88
324.024	187.88
324.253	362.88
324.482	745.88
324.71	1538.88
324.939	1965.88
325.168	727.88
325.397	220.88
325.626	151.88
325.855	135.88
326.084	132.88
326.313	135.88
326.542	136.88
326.77	217.88
326.999	436.88
327.228	849.88
327.457	1529.88
327.686	1198.88
327.914	320.88
328.143	163.88
328.372	132.88
328.6	110.88
328.829	101.88
329.058	115.88
329.287	114.88
329.515	107.88
329.744	113.88
329.972	101.88
330.201	88.88
330.43	97.88
330.658	112.88
330.887	144.88
331.115	125.88
331.344	84.88
331.572	93.88
331.801	100.88
332.03	96.88
332.258	94.88
332.486	97.88
332.715	95.88
332.943	90.88
333.172	92.88
333.4	92.88
333.629	101.88
333.857	97.88
334.085	105.88
334.314	103.88
334.542	100.88
334.771	88.88
334.999	84.88
335.227	90.88
335.455	92.88
335.684	75.88
335.912	93.88
336.14	83.88
336.369	96.88
336.597	107.88
336.825	97.88
337.053	92.88
337.281	94.88
337.51	96.88
337.738	62.88
337.966	100.88
338.194	81.88
338.422	80.88
338.65	98.88
338.878	103.88
339.106	91.88
339.334	97.88
339.562	78.88
339.79	91.88
340.018	87.88
340.246	95.88
340.474	108.88
340.702	87.88
340.93	85.88
341.158	105.88
341.386	90.88
341.614	96.88
341.842	96.88
342.07	90.88
342.298	92.88
342.526	94.88
342.754	89.88
342.981	88.88
343.209	79.88
343.437	93.88
343.665	82.88
343.893	91.88
344.12	86.88
344.348	101.88
344.576	76.88
344.804	79.88
345.031	94.88
345.259	87.88
345.487	95.88
345.714	95.88
345.942	85.88
346.17	89.88
346.397	91.88
346.625	95.88
346.853	105.88
347.08	84.88
347.308	92.88
347.535	102.88
347.763	98.88
347.99	96.88
348.218	94.88
348.445	105.88
348.673	89.88
348.9	93.88
349.128	102.88
349.355	87.88
349.583	95.88
349.81	89.88
350.037	78.88
350.265	91.88
350.492	94.88
350.72	101.88
350.947	85.88
351.174	96.88
351.402	113.88
351.629	102.88
351.856	95.88
352.083	107.88
352.311	97.88
352.538	102.88
352.765	106.88
352.992	110.88
353.22	105.88
353.447	105.88
353.674	108.88
353.901	85.88
354.128	93.88
354.355	68.88
354.583	103.88
354.81	91.88
355.037	93.88
355.264	80.88
355.491	97.88
355.718	88.88
355.945	83.88
356.172	91.88
356.399	91.88
356.626	77.88
356.853	82.88
357.08	87.88
357.307	87.88
357.534	101.88
357.761	85.88
357.988	97.88
358.215	84.88
358.441	89.88
358.668	87.88
358.895	90.88
359.122	82.88
359.349	85.88
359.576	94.88
359.802	101.88
360.029	101.88
360.256	115.88
360.483	105.88
360.709	88.88
360.936	89.88
361.163	91.88
361.39	92.88
361.616	105.88
361.843	88.88
362.07	90.88
362.296	97.88
362.523	94.88
362.749	86.88
362.976	101.88
363.203	85.88
363.429	93.88
363.656	90.88
363.882	78.88
364.109	86.88
364.335	83.88
364.562	96.88
364.788	93.88
365.015	96.88
365.241	102.88
365.468	100.88
365.694	95.88
365.92	93.88
366.147	77.88
366.373	87.88
366.599	91.88
366.826	85.88
367.052	99.88
367.278	91.88
367.505	89.88
367.731	85.88
367.957	92.88
368.184	79.88
368.41	91.88
368.636	103.88
368.862	122.88
369.089	122.88
369.315	80.88
369.541	83.88
369.767	73.88
369.993	73.88
370.219	97.88
370.445	95.88
370.672	94.88
370.898	81.88
371.124	88.88
371.35	83.88
371.576	89.88
371.802	94.88
372.028	85.88
372.254	87.88
372.48	85.88
372.706	78.88
372.932	83.88
373.158	87.88
373.384	96.88
373.61	83.88
373.835	75.88
374.061	83.88
374.287	85.88
374.513	87.88
374.739	95.88
374.965	95.88
375.191	89.88
375.416	90.88
375.642	95.88
375.868	78.88
376.094	93.88
376.319	90.88
376.545	86.88
376.771	89.88
376.997	94.88
377.222	75.88
377.448	82.88
377.674	90.88
377.899	81.88
378.125	81.88
378.35	99.88
378.576	76.88
378.802	85.88
379.027	93.88
379.253	91.88
379.478	105.88
379.704	98.88
379.929	101.88
380.155	97.88
380.38	106.88
380.606	75.88
380.831	95.88
381.057	98.88
381.282	82.88
381.507	97.88
381.733	94.88
381.958	79.88
382.184	87.88
382.409	90.88
382.634	85.88
382.86	83.88
383.085	90.88
383.31	91.88
383.535	78.88
383.761	96.88
383.986	94.88
384.211	77.88
384.436	87.88
384.662	88.88
384.887	98.88
385.112	107.88
385.337	95.88
385.562	96.88
385.787	89.88
386.013	99.88
386.238	105.88
386.463	90.88
386.688	102.88
386.913	98.88
387.138	101.88
387.363	100.88
387.588	93.88
387.813	104.88
388.038	105.88
388.263	84.88
388.488	83.88
388.713	89.88
388.938	90.88
389.163	95.88
389.387	107.88
389.612	106.88
389.837	93.88
390.062	90.88
390.287	95.88
390.512	90.88
390.736	75.88
390.961	83.88
391.186	82.88
391.411	91.88
391.636	89.88
391.86	90.88
392.085	91.88
392.31	83.88
392.534	90.88
392.759	85.88
392.984	86.88
393.208	93.88
393.433	82.88
393.658	91.88
393.882	86.88
394.107	91.88
394.331	78.88
394.556	97.88
394.78	101.88
395.005	87.88
395.229	89.88
395.454	93.88
395.678	86.88
395.903	97.88
396.127	99.88
396.352	82.88
396.576	92.88
396.801	74.88
397.025	77.88
397.249	102.88
397.474	92.88
397.698	84.88
397.922	96.88
398.147	81.88
398.371	97.88
398.595	84.88
398.82	98.88
399.044	99.88
399.268	92.88
399.492	92.88
399.717	86.88
399.941	90.88
400.165	94.88
400.389	77.88
400.613	93.88
400.837	89.88
401.062	93.88
401.286	95.88
401.51	102.88
401.734	82.88
401.958	86.88
402.182	139.88
402.406	150.88
402.63	114.88
402.854	97.88
403.078	86.88
403.302	94.88
403.526	78.88
403.75	79.88
403.974	80.88
404.198	94.88
404.422	99.88
404.645	86.88
404.869	83.88
405.093	90.88
405.317	88.88
405.541	96.88
405.765	91.88
405.988	98.88
406.212	175.88
406.436	206.88
406.66	139.88
406.883	107.88
407.107	113.88
407.331	83.88
407.555	97.88
407.778	94.88
408.002	113.88
408.226	84.88
408.449	102.88
408.673	80.88
408.896	89.88
409.12	95.88
409.344	98.88
409.567	96.88
409.791	95.88
410.014	98.88
410.238	101.88
410.461	96.88
410.685	84.88
410.908	105.88
411.132	94.88
411.355	97.88
411.578	99.88
411.802	87.88
412.025	75.88
412.249	92.88
412.472	82.88
412.695	87.88
412.919	87.88
413.142	86.88
413.365	102.88
413.589	96.88
413.812	94.88
414.035	95.88
414.258	77.88
414.482	88.88
414.705	88.88
414.928	90.88
415.151	97.88
415.374	91.88
415.597	94.88
415.821	94.88
416.044	98.88
416.267	89.88
416.49	93.88
416.713	100.88
416.936	94.88
417.159	82.88
417.382	80.88
417.605	93.88
417.828	90.88
418.051	77.88
418.274	83.88
418.497	87.88
418.72	75.88
418.943	75.88
419.166	91.88
419.389	84.88
419.611	86.88
419.834	81.88
420.057	79.88
420.28	95.88
420.503	100.88
420.726	89.88
420.948	81.88
421.171	99.88
421.394	77.88
421.617	79.88
421.839	98.88
422.062	89.88
422.285	99.88
422.507	94.88
422.73	99.88
422.953	86.88
423.175	91.88
423.398	91.88
423.621	97.88
423.843	104.88
424.066	65.88
424.288	95.88
424.511	93.88
424.733	84.88
424.956	89.88
425.178	103.88
425.401	96.88
425.623	97.88
425.846	86.88
426.068	77.88
426.291	98.88
426.513	97.88
426.735	85.88
426.958	91.88
427.18	103.88
427.402	117.88
427.625	155.88
427.847	122.88
428.069	96.88
428.292	75.88
428.514	89.88
428.736	105.88
428.958	85.88
429.181	87.88
429.403	95.88
429.625	82.88
429.847	93.88
430.069	92.88
430.292	94.88
430.514	91.88
430.736	88.88
430.958	83.88
431.18	97.88
431.402	91.88
431.624	87.88
431.846	84.88
432.068	73.88
432.29	77.88
432.512	90.88
432.734	97.88
432.956	89.88
433.178	83.88
433.4	88.88
433.622	89.88
433.844	98.88
434.066	81.88
434.287	89.88
434.509	95.88
434.731	85.88
434.953	78.88
435.175	79.88
435.397	102.88
435.618	87.88
435.84	95.88
436.062	119.88
436.284	105.88
436.505	111.88
436.727	92.88
436.949	102.88
437.17	100.88
437.392	73.88
437.614	92.88
437.835	115.88
438.057	124.88
438.278	108.88
438.5	84.88
438.721	117.88
438.943	93.88
439.165	84.88
439.386	94.88
439.608	85.88
439.829	94.88
440.05	111.88
440.272	124.88
440.493	105.88
440.715	97.88
440.936	81.88
441.158	95.88
441.379	101.88
441.6	91.88
441.822	84.88
442.043	93.88
442.264	102.88
442.486	104.88
442.707	86.88
442.928	97.88
443.149	107.88
443.371	130.88
443.592	89.88
443.813	108.88
444.034	107.88
444.255	110.88
444.476	85.88
444.698	86.88
444.919	96.88
445.14	117.88
445.361	122.88
445.582	105.88
445.803	98.88
446.024	117.88
446.245	120.88
446.466	95.88
446.687	103.88
446.908	98.88
447.129	94.88
447.35	94.88
447.571	84.88
447.792	98.88
448.013	86.88
448.234	99.88
448.455	86.88
448.675	98.88
448.896	103.88
449.117	93.88
449.338	99.88
449.559	119.88
449.779	123.88
450	95.88
450.221	100.88
450.442	84.88
450.662	97.88
450.883	110.88
451.104	109.88
451.324	106.88
451.545	88.88
451.766	69.88
451.986	74.88
452.207	89.88
452.428	81.88
452.648	85.88
452.869	110.88
453.089	112.88
453.31	116.88
453.53	102.88
453.751	86.88
453.971	99.88
454.192	109.88
454.412	95.88
454.633	68.88
454.853	89.88
455.073	80.88
455.294	80.88
455.514	87.88
455.734	87.88
455.955	92.88
456.175	75.88
456.395	86.88
456.616	75.88
456.836	80.88
457.056	82.88
457.276	89.88
457.497	102.88
457.717	95.88
457.937	83.88
458.157	85.88
458.377	80.88
458.598	113.88
458.818	145.88
459.038	142.88
459.258	108.88
459.478	93.88
459.698	86.88
459.918	87.88
460.138	94.88
460.358	96.88
460.578	89.88
460.798	88.88
461.018	99.88
461.238	99.88
461.458	87.88
461.678	83.88
461.898	86.88
462.118	89.88
462.338	91.88
462.558	87.88
462.777	89.88
462.997	81.88
463.217	79.88
463.437	83.88
463.657	93.88
463.876	76.88
464.096	91.88
464.316	89.88
464.536	84.88
464.755	98.88
464.975	103.88
465.195	158.88
465.414	142.88
465.634	90.88
465.854	90.88
466.073	99.88
466.293	79.88
466.512	90.88
466.732	76.88
466.951	88.88
467.171	79.88
467.391	95.88
467.61	99.88
467.829	89.88
468.049	92.88
468.268	90.88
468.488	104.88
468.707	86.88
468.927	90.88
469.146	77.88
469.365	91.88
469.585	85.88
469.804	92.88
470.023	92.88
470.243	95.88
470.462	103.88
470.681	101.88
470.901	96.88
471.12	79.88
471.339	94.88
471.558	92.88
471.777	91.88
471.997	95.88
472.216	89.88
472.435	95.88
472.654	92.88
472.873	82.88
473.092	81.88
473.311	91.88
473.53	99.88
473.749	81.88
473.968	85.88
474.187	98.88
474.406	99.88
474.625	81.88
474.844	91.88
475.063	95.88
475.282	93.88
475.501	83.88
475.72	79.88
475.939	68.88
476.158	102.88
476.377	95.88
476.596	79.88
476.814	93.88
477.033	82.88
477.252	84.88
477.471	93.88
477.69	91.88
477.908	77.88
478.127	94.88
478.346	91.88
478.564	89.88
478.783	91.88
479.002	80.88
479.22	84.88
479.439	92.88
479.658	94.88
479.876	96.88
480.095	84.88
480.313	85.88
480.532	84.88
480.751	93.88
480.969	106.88
481.188	91.88
481.406	114.88
481.624	87.88
481.843	94.88
482.061	80.88
482.28	99.88
482.498	82.88
482.717	81.88
482.935	90.88
483.153	64.88
483.372	80.88
483.59	89.88
483.808	96.88
484.027	89.88
484.245	93.88
484.463	85.88
484.681	93.88
484.9	95.88
485.118	97.88
485.336	85.88
485.554	118.88
485.772	96.88
485.99	111.88
486.209	108.88
486.427	102.88
486.645	114.88
486.863	109.88
487.081	86.88
487.299	85.88
487.517	105.88
487.735	91.88
487.953	111.88
488.171	94.88
488.389	86.88
488.607	101.88
488.825	90.88
489.043	75.88
489.261	74.88
489.479	82.88
489.696	82.88
489.914	91.88
490.132	87.88
490.35	89.88
490.568	96.88
490.786	85.88
491.003	78.88
491.221	94.88
491.439	87.88
491.657	90.88
491.874	86.88
492.092	85.88
492.31	76.88
492.527	89.88
492.745	91.88
492.963	93.88
493.18	107.88
493.398	110.88
493.615	103.88
493.833	89.88
494.05	83.88
494.268	99.88
494.485	101.88
494.703	80.88
494.92	96.88
495.138	90.88
495.355	98.88
495.573	103.88
495.79	90.88
496.008	91.88
496.225	90.88
496.442	102.88
496.66	87.88
496.877	96.88
497.094	101.88
497.312	85.88
497.529	86.88
497.746	94.88
497.963	92.88
498.181	85.88
498.398	99.88
498.615	109.88
498.832	98.88
499.049	94.88
499.267	107.88
499.484	90.88
499.701	89.88
499.918	91.88
500.135	86.88
500.352	93.88
500.569	81.88
500.786	91.88
501.003	93.88
501.22	95.88
501.437	88.88
501.654	98.88
501.871	109.88
502.088	85.88
502.305	104.88
502.522	96.88
502.739	103.88
502.956	91.88
503.172	86.88
503.389	85.88
503.606	117.88
503.823	95.88
504.04	94.88
504.256	84.88
504.473	79.88
504.69	87.88
504.907	99.88
505.123	80.88
505.34	88.88
505.557	91.88
505.773	99.88
505.99	90.88
506.207	68.88
506.423	87.88
506.64	97.88
506.856	90.88
507.073	100.88
507.289	101.88
507.506	90.88
507.722	97.88
507.939	105.88
508.155	95.88
508.372	93.88
508.588	109.88
508.805	85.88
509.021	82.88
509.238	101.88
509.454	87.88
509.67	102.88
509.887	111.88
510.103	132.88
510.319	219.88
510.536	759.88
510.752	2353.88
510.968	651.88
511.184	159.88
511.401	124.88
511.617	106.88
511.833	89.88
512.049	85.88
512.265	95.88
512.481	106.88
512.698	77.88
512.914	96.88
513.13	97.88
513.346	97.88
513.562	93.88
513.778	100.88
513.994	105.88
514.21	85.88
514.426	125.88
514.642	130.88
514.858	107.88
515.074	155.88
515.29	459.88
515.506	1458.88
515.721	524.88
515.937	149.88
516.153	110.88
516.369	91.88
