Data from Uncirc_1992_H10_HRD10591_00031.txt Node
Date: Wed Jan 03 11:46:22 EST 2024
User: Yrep
Spectrometer: HR+D1059
Trigger mode: 1
Integration Time (sec): 1.000000E-1
Scans to average: 1
Electric dark correction enabled: true
Nonlinearity correction enabled: false
Boxcar width: 0
XAxis mode: Wavelengths
Number of Pixels in Spectrum: 2048
>>>>>Begin Spectral Data<<<<<
223.165	-27.38
223.4	-27.38
223.635	-27.38
223.869	-10.38
224.104	-13.38
224.338	-20.38
224.573	-21.38
224.808	-14.38
225.042	-3.38
225.277	-17.38
225.511	-3.38
225.746	0.62
225.98	15.62
226.215	15.62
226.449	20.62
226.683	14.62
226.918	18.62
227.152	45.62
227.387	39.62
227.621	39.62
227.856	44.62
228.09	51.62
228.324	52.62
228.559	68.62
228.793	59.62
229.027	42.62
229.262	60.62
229.496	74.62
229.73	64.62
229.964	78.62
230.199	71.62
230.433	61.62
230.667	77.62
230.901	63.62
231.136	72.62
231.37	63.62
231.604	82.62
231.838	81.62
232.072	77.62
232.306	83.62
232.541	66.62
232.775	85.62
233.009	70.62
233.243	79.62
233.477	75.62
233.711	64.62
233.945	85.62
234.179	83.62
234.413	70.62
234.647	76.62
234.881	81.62
235.115	80.62
235.349	87.62
235.583	71.62
235.817	84.62
236.051	75.62
236.285	65.62
236.519	79.62
236.753	81.62
236.987	87.62
237.221	90.62
237.455	84.62
237.689	71.62
237.922	84.62
238.156	75.62
238.39	78.62
238.624	73.62
238.858	91.62
239.091	77.62
239.325	73.62
239.559	57.62
239.793	71.62
240.027	81.62
240.26	79.62
240.494	71.62
240.728	82.62
240.961	68.62
241.195	81.62
241.429	66.62
241.662	59.62
241.896	82.62
242.13	81.62
242.363	67.62
242.597	86.62
242.83	75.62
243.064	80.62
243.298	67.62
243.531	74.62
243.765	71.62
243.998	69.62
244.232	82.62
244.465	88.62
244.699	89.62
244.932	76.62
245.166	85.62
245.399	82.62
245.633	61.62
245.866	83.62
246.099	75.62
246.333	80.62
246.566	81.62
246.8	82.62
247.033	74.62
247.266	65.62
247.5	75.62
247.733	74.62
247.966	72.62
248.2	71.62
248.433	70.62
248.666	84.62
248.899	75.62
249.133	88.62
249.366	87.62
249.599	82.62
249.832	65.62
250.066	76.62
250.299	81.62
250.532	83.62
250.765	80.62
250.998	80.62
251.231	86.62
251.465	84.62
251.698	73.62
251.931	88.62
252.164	77.62
252.397	79.62
252.63	87.62
252.863	80.62
253.096	81.62
253.329	81.62
253.562	77.62
253.795	83.62
254.028	75.62
254.261	87.62
254.494	80.62
254.727	83.62
254.96	79.62
255.193	84.62
255.426	87.62
255.659	71.62
255.892	76.62
256.124	76.62
256.357	82.62
256.59	88.62
256.823	99.62
257.056	68.62
257.289	79.62
257.521	77.62
257.754	74.62
257.987	85.62
258.22	88.62
258.452	83.62
258.685	86.62
258.918	81.62
259.151	85.62
259.383	82.62
259.616	83.62
259.849	71.62
260.081	69.62
260.314	69.62
260.547	72.62
260.779	82.62
261.012	73.62
261.244	98.62
261.477	99.62
261.71	78.62
261.942	91.62
262.175	110.62
262.407	93.62
262.64	77.62
262.872	87.62
263.105	77.62
263.337	76.62
263.57	85.62
263.802	81.62
264.035	76.62
264.267	98.62
264.499	84.62
264.732	77.62
264.964	87.62
265.197	84.62
265.429	90.62
265.661	87.62
265.894	82.62
266.126	81.62
266.358	87.62
266.591	79.62
266.823	92.62
267.055	87.62
267.287	76.62
267.52	83.62
267.752	84.62
267.984	77.62
268.216	76.62
268.448	94.62
268.681	81.62
268.913	77.62
269.145	72.62
269.377	69.62
269.609	79.62
269.841	81.62
270.073	72.62
270.306	63.62
270.538	82.62
270.77	83.62
271.002	80.62
271.234	92.62
271.466	87.62
271.698	84.62
271.93	81.62
272.162	81.62
272.394	86.62
272.626	81.62
272.858	87.62
273.09	75.62
273.322	76.62
273.553	75.62
273.785	73.62
274.017	91.62
274.249	91.62
274.481	75.62
274.713	90.62
274.945	85.62
275.176	87.62
275.408	87.62
275.64	78.62
275.872	92.62
276.104	93.62
276.335	92.62
276.567	97.62
276.799	98.62
277.031	94.62
277.262	87.62
277.494	91.62
277.726	81.62
277.957	75.62
278.189	88.62
278.421	78.62
278.652	95.62
278.884	84.62
279.115	76.62
279.347	96.62
279.579	83.62
279.81	89.62
280.042	83.62
280.273	94.62
280.505	76.62
280.736	88.62
280.968	80.62
281.199	91.62
281.431	93.62
281.662	73.62
281.894	84.62
282.125	97.62
282.356	103.62
282.588	120.62
282.819	93.62
283.051	95.62
283.282	95.62
283.513	85.62
283.745	84.62
283.976	79.62
284.207	87.62
284.439	79.62
284.67	79.62
284.901	85.62
285.132	86.62
285.364	87.62
285.595	81.62
285.826	95.62
286.057	91.62
286.288	93.62
286.52	87.62
286.751	81.62
286.982	91.62
287.213	67.62
287.444	92.62
287.675	73.62
287.906	91.62
288.138	89.62
288.369	91.62
288.6	98.62
288.831	88.62
289.062	90.62
289.293	93.62
289.524	85.62
289.755	96.62
289.986	92.62
290.217	81.62
290.448	90.62
290.679	85.62
290.91	83.62
291.141	99.62
291.371	71.62
291.602	99.62
291.833	64.62
292.064	92.62
292.295	97.62
292.526	84.62
292.757	84.62
292.987	96.62
293.218	76.62
293.449	87.62
293.68	79.62
293.91	80.62
294.141	91.62
294.372	90.62
294.603	78.62
294.833	89.62
295.064	92.62
295.295	96.62
295.525	85.62
295.756	91.62
295.987	98.62
296.217	131.62
296.448	111.62
296.679	93.62
296.909	96.62
297.14	91.62
297.37	87.62
297.601	84.62
297.831	88.62
298.062	102.62
298.292	91.62
298.523	83.62
298.753	88.62
298.984	85.62
299.214	98.62
299.445	88.62
299.675	74.62
299.905	90.62
300.136	88.62
300.366	92.62
300.597	100.62
300.827	100.62
301.057	90.62
301.288	105.62
301.518	89.62
301.748	91.62
301.979	108.62
302.209	85.62
302.439	87.62
302.669	69.62
302.9	96.62
303.13	87.62
303.36	89.62
303.59	90.62
303.82	88.62
304.051	88.62
304.281	80.62
304.511	97.62
304.741	92.62
304.971	87.62
305.201	75.62
305.431	83.62
305.661	86.62
305.891	79.62
306.121	91.62
306.352	102.62
306.582	101.62
306.812	87.62
307.042	90.62
307.272	114.62
307.502	92.62
307.731	89.62
307.961	96.62
308.191	95.62
308.421	100.62
308.651	96.62
308.881	85.62
309.111	99.62
309.341	96.62
309.571	100.62
309.8	95.62
310.03	89.62
310.26	94.62
310.49	114.62
310.72	85.62
310.949	102.62
311.179	81.62
311.409	94.62
311.639	91.62
311.868	91.62
312.098	90.62
312.328	88.62
312.557	103.62
312.787	96.62
313.017	84.62
313.246	78.62
313.476	93.62
313.706	83.62
313.935	83.62
314.165	78.62
314.394	83.62
314.624	86.62
314.853	94.62
315.083	101.62
315.312	88.62
315.542	94.62
315.771	95.62
316.001	94.62
316.23	96.62
316.46	96.62
316.689	89.62
316.919	86.62
317.148	100.62
317.377	99.62
317.607	96.62
317.836	82.62
318.065	84.62
318.295	81.62
318.524	90.62
318.753	90.62
318.983	85.62
319.212	94.62
319.441	99.62
319.67	96.62
319.9	96.62
320.129	98.62
320.358	87.62
320.587	89.62
320.816	99.62
321.046	94.62
321.275	92.62
321.504	91.62
321.733	83.62
321.962	93.62
322.191	105.62
322.42	106.62
322.649	99.62
322.878	105.62
323.108	106.62
323.337	112.62
323.566	94.62
323.795	135.62
324.024	167.62
324.253	317.62
324.482	643.62
324.71	1266.62
324.939	1630.62
325.168	619.62
325.397	201.62
325.626	126.62
325.855	108.62
326.084	119.62
326.313	117.62
326.542	133.62
326.77	177.62
326.999	368.62
327.228	723.62
327.457	1281.62
327.686	1005.62
327.914	284.62
328.143	155.62
328.372	126.62
328.6	115.62
328.829	111.62
329.058	94.62
329.287	111.62
329.515	102.62
329.744	101.62
329.972	83.62
330.201	99.62
330.43	97.62
330.658	103.62
330.887	101.62
331.115	98.62
331.344	99.62
331.572	93.62
331.801	81.62
332.03	96.62
332.258	85.62
332.486	89.62
332.715	77.62
332.943	92.62
333.172	91.62
333.4	94.62
333.629	91.62
333.857	109.62
334.085	94.62
334.314	95.62
334.542	88.62
334.771	107.62
334.999	91.62
335.227	95.62
335.455	87.62
335.684	94.62
335.912	98.62
336.14	109.62
336.369	98.62
336.597	98.62
336.825	95.62
337.053	100.62
337.281	79.62
337.51	90.62
337.738	91.62
337.966	87.62
338.194	91.62
338.422	88.62
338.65	95.62
338.878	105.62
339.106	91.62
339.334	101.62
339.562	80.62
339.79	81.62
340.018	85.62
340.246	78.62
340.474	109.62
340.702	92.62
340.93	85.62
341.158	93.62
341.386	102.62
341.614	94.62
341.842	90.62
342.07	82.62
342.298	94.62
342.526	84.62
342.754	75.62
342.981	96.62
343.209	101.62
343.437	112.62
343.665	78.62
343.893	96.62
344.12	94.62
344.348	85.62
344.576	96.62
344.804	79.62
345.031	98.62
345.259	88.62
345.487	80.62
345.714	97.62
345.942	95.62
346.17	93.62
346.397	89.62
346.625	92.62
346.853	87.62
347.08	89.62
347.308	104.62
347.535	107.62
347.763	87.62
347.99	94.62
348.218	106.62
348.445	97.62
348.673	86.62
348.9	86.62
349.128	104.62
349.355	91.62
349.583	92.62
349.81	77.62
350.037	79.62
350.265	98.62
350.492	79.62
350.72	96.62
350.947	88.62
351.174	96.62
351.402	105.62
351.629	86.62
351.856	91.62
352.083	106.62
352.311	110.62
352.538	99.62
352.765	99.62
352.992	103.62
353.22	90.62
353.447	91.62
353.674	105.62
353.901	89.62
354.128	96.62
354.355	86.62
354.583	95.62
354.81	100.62
355.037	98.62
355.264	88.62
355.491	86.62
355.718	88.62
355.945	104.62
356.172	107.62
356.399	92.62
356.626	113.62
356.853	91.62
357.08	88.62
357.307	98.62
357.534	94.62
357.761	83.62
357.988	100.62
358.215	92.62
358.441	99.62
358.668	104.62
358.895	72.62
359.122	99.62
359.349	93.62
359.576	87.62
359.802	87.62
360.029	106.62
360.256	111.62
360.483	94.62
360.709	91.62
360.936	105.62
361.163	83.62
361.39	87.62
361.616	87.62
361.843	92.62
362.07	92.62
362.296	74.62
362.523	90.62
362.749	92.62
362.976	81.62
363.203	89.62
363.429	95.62
363.656	76.62
363.882	78.62
364.109	78.62
364.335	87.62
364.562	81.62
364.788	91.62
365.015	99.62
365.241	100.62
365.468	102.62
365.694	77.62
365.92	100.62
366.147	85.62
366.373	97.62
366.599	92.62
366.826	87.62
367.052	80.62
367.278	84.62
367.505	88.62
367.731	87.62
367.957	84.62
368.184	91.62
368.41	89.62
368.636	99.62
368.862	108.62
369.089	99.62
369.315	78.62
369.541	103.62
369.767	95.62
369.993	89.62
370.219	96.62
370.445	78.62
370.672	81.62
370.898	87.62
371.124	88.62
371.35	76.62
371.576	82.62
371.802	87.62
372.028	84.62
372.254	81.62
372.48	87.62
372.706	104.62
372.932	88.62
373.158	77.62
373.384	86.62
373.61	85.62
373.835	87.62
374.061	82.62
374.287	104.62
374.513	93.62
374.739	87.62
374.965	101.62
375.191	89.62
375.416	78.62
375.642	101.62
375.868	92.62
376.094	79.62
376.319	82.62
376.545	86.62
376.771	81.62
376.997	92.62
377.222	88.62
377.448	84.62
377.674	77.62
377.899	78.62
378.125	90.62
378.35	97.62
378.576	71.62
378.802	89.62
379.027	105.62
379.253	87.62
379.478	86.62
379.704	94.62
379.929	87.62
380.155	111.62
380.38	89.62
380.606	97.62
380.831	92.62
381.057	96.62
381.282	93.62
381.507	88.62
381.733	87.62
381.958	82.62
382.184	91.62
382.409	81.62
382.634	97.62
382.86	79.62
383.085	95.62
383.31	99.62
383.535	110.62
383.761	92.62
383.986	96.62
384.211	93.62
384.436	89.62
384.662	85.62
384.887	98.62
385.112	94.62
385.337	108.62
385.562	91.62
385.787	98.62
386.013	102.62
386.238	108.62
386.463	95.62
386.688	100.62
386.913	100.62
387.138	97.62
387.363	100.62
387.588	96.62
387.813	96.62
388.038	111.62
388.263	93.62
388.488	108.62
388.713	103.62
388.938	99.62
389.163	89.62
389.387	100.62
389.612	85.62
389.837	93.62
390.062	101.62
390.287	97.62
390.512	100.62
390.736	85.62
390.961	84.62
391.186	85.62
391.411	91.62
391.636	96.62
391.86	80.62
392.085	85.62
392.31	89.62
392.534	93.62
392.759	83.62
392.984	87.62
393.208	89.62
393.433	86.62
393.658	72.62
393.882	68.62
394.107	74.62
394.331	85.62
394.556	84.62
394.78	75.62
395.005	80.62
395.229	75.62
395.454	85.62
395.678	72.62
395.903	89.62
396.127	96.62
396.352	80.62
396.576	84.62
396.801	86.62
397.025	78.62
397.249	76.62
397.474	83.62
397.698	83.62
397.922	82.62
398.147	81.62
398.371	82.62
398.595	79.62
398.82	89.62
399.044	87.62
399.268	84.62
399.492	75.62
399.717	84.62
399.941	77.62
400.165	103.62
400.389	95.62
400.613	84.62
400.837	81.62
401.062	81.62
401.286	79.62
401.51	91.62
401.734	85.62
401.958	105.62
402.182	100.62
402.406	126.62
402.63	95.62
402.854	89.62
403.078	81.62
403.302	83.62
403.526	92.62
403.75	88.62
403.974	93.62
404.198	65.62
404.422	93.62
404.645	77.62
404.869	78.62
405.093	100.62
405.317	96.62
405.541	89.62
405.765	76.62
405.988	110.62
406.212	146.62
406.436	168.62
406.66	132.62
406.883	84.62
407.107	93.62
407.331	83.62
407.555	93.62
407.778	91.62
408.002	75.62
408.226	83.62
408.449	82.62
408.673	86.62
408.896	86.62
409.12	93.62
409.344	102.62
409.567	100.62
409.791	92.62
410.014	105.62
410.238	94.62
410.461	93.62
410.685	88.62
410.908	90.62
411.132	101.62
411.355	83.62
411.578	88.62
411.802	91.62
412.025	94.62
412.249	84.62
412.472	96.62
412.695	84.62
412.919	86.62
413.142	88.62
413.365	86.62
413.589	84.62
413.812	87.62
414.035	105.62
414.258	81.62
414.482	89.62
414.705	76.62
414.928	97.62
415.151	83.62
415.374	93.62
415.597	87.62
415.821	86.62
416.044	88.62
416.267	95.62
416.49	79.62
416.713	89.62
416.936	96.62
417.159	78.62
417.382	66.62
417.605	84.62
417.828	92.62
418.051	93.62
418.274	95.62
418.497	82.62
418.72	90.62
418.943	87.62
419.166	86.62
419.389	86.62
419.611	81.62
419.834	81.62
420.057	92.62
420.28	98.62
420.503	83.62
420.726	89.62
420.948	75.62
421.171	92.62
421.394	95.62
421.617	106.62
421.839	86.62
422.062	85.62
422.285	80.62
422.507	84.62
422.73	95.62
422.953	78.62
423.175	89.62
423.398	75.62
423.621	98.62
423.843	79.62
424.066	84.62
424.288	84.62
424.511	83.62
424.733	96.62
424.956	112.62
425.178	90.62
425.401	116.62
425.623	92.62
425.846	91.62
426.068	89.62
426.291	85.62
426.513	79.62
426.735	91.62
426.958	86.62
427.18	119.62
427.402	112.62
427.625	132.62
427.847	109.62
428.069	83.62
428.292	82.62
428.514	82.62
428.736	72.62
428.958	95.62
429.181	65.62
429.403	95.62
429.625	82.62
429.847	87.62
430.069	87.62
430.292	78.62
430.514	74.62
430.736	82.62
430.958	92.62
431.18	96.62
431.402	66.62
431.624	91.62
431.846	71.62
432.068	86.62
432.29	99.62
432.512	112.62
432.734	91.62
432.956	89.62
433.178	91.62
433.4	89.62
433.622	102.62
433.844	89.62
434.066	81.62
434.287	80.62
434.509	94.62
434.731	98.62
434.953	77.62
435.175	79.62
435.397	91.62
435.618	90.62
435.84	111.62
436.062	117.62
436.284	110.62
436.505	82.62
436.727	85.62
436.949	112.62
437.17	99.62
437.392	94.62
437.614	107.62
437.835	92.62
438.057	95.62
438.278	104.62
438.5	89.62
438.721	109.62
438.943	92.62
439.165	90.62
439.386	79.62
439.608	78.62
439.829	95.62
440.05	93.62
440.272	116.62
440.493	96.62
440.715	84.62
440.936	75.62
441.158	85.62
441.379	84.62
441.6	78.62
441.822	88.62
442.043	100.62
442.264	101.62
442.486	102.62
442.707	90.62
442.928	104.62
443.149	111.62
443.371	103.62
443.592	99.62
443.813	100.62
444.034	93.62
444.255	101.62
444.476	74.62
444.698	85.62
444.919	92.62
445.14	138.62
445.361	119.62
445.582	96.62
445.803	102.62
446.024	128.62
446.245	113.62
446.466	96.62
446.687	76.62
446.908	84.62
447.129	87.62
447.35	95.62
447.571	80.62
447.792	80.62
448.013	73.62
448.234	98.62
448.455	90.62
448.675	99.62
448.896	117.62
449.117	92.62
449.338	101.62
449.559	114.62
449.779	115.62
450	83.62
450.221	94.62
450.442	92.62
450.662	90.62
450.883	95.62
451.104	109.62
451.324	99.62
451.545	93.62
451.766	79.62
451.986	78.62
452.207	81.62
452.428	69.62
452.648	107.62
452.869	112.62
453.089	114.62
453.31	101.62
453.53	87.62
453.751	91.62
453.971	105.62
454.192	98.62
454.412	94.62
454.633	88.62
454.853	88.62
455.073	102.62
455.294	78.62
455.514	74.62
455.734	89.62
455.955	74.62
456.175	81.62
456.395	84.62
456.616	87.62
456.836	87.62
457.056	90.62
457.276	91.62
457.497	86.62
457.717	87.62
457.937	81.62
458.157	77.62
458.377	94.62
458.598	117.62
458.818	127.62
459.038	124.62
459.258	92.62
459.478	88.62
459.698	84.62
459.918	69.62
460.138	89.62
460.358	90.62
460.578	80.62
460.798	104.62
461.018	83.62
461.238	80.62
461.458	73.62
461.678	77.62
461.898	87.62
462.118	79.62
462.338	78.62
462.558	87.62
462.777	87.62
462.997	91.62
463.217	81.62
463.437	89.62
463.657	79.62
463.876	92.62
464.096	83.62
464.316	85.62
464.536	98.62
464.755	105.62
464.975	99.62
465.195	135.62
465.414	135.62
465.634	96.62
465.854	89.62
466.073	64.62
466.293	75.62
466.512	90.62
466.732	89.62
466.951	83.62
467.171	76.62
467.391	89.62
467.61	95.62
467.829	92.62
468.049	96.62
468.268	64.62
468.488	88.62
468.707	95.62
468.927	79.62
469.146	81.62
469.365	84.62
469.585	73.62
469.804	83.62
470.023	66.62
470.243	82.62
470.462	97.62
470.681	100.62
470.901	73.62
471.12	85.62
471.339	77.62
471.558	83.62
471.777	105.62
471.997	65.62
472.216	73.62
472.435	95.62
472.654	79.62
472.873	82.62
473.092	87.62
473.311	85.62
473.53	85.62
473.749	86.62
473.968	87.62
474.187	94.62
474.406	87.62
474.625	81.62
474.844	80.62
475.063	95.62
475.282	97.62
475.501	88.62
475.72	89.62
475.939	83.62
476.158	96.62
476.377	82.62
476.596	88.62
476.814	77.62
477.033	93.62
477.252	96.62
477.471	87.62
477.69	85.62
477.908	94.62
478.127	100.62
478.346	85.62
478.564	90.62
478.783	62.62
479.002	82.62
479.22	91.62
479.439	97.62
479.658	100.62
479.876	100.62
480.095	87.62
480.313	85.62
480.532	80.62
480.751	87.62
480.969	83.62
481.188	90.62
481.406	93.62
481.624	98.62
481.843	88.62
482.061	80.62
482.28	84.62
482.498	79.62
482.717	77.62
482.935	93.62
483.153	95.62
483.372	100.62
483.59	93.62
483.808	90.62
484.027	85.62
484.245	96.62
484.463	91.62
484.681	99.62
484.9	76.62
485.118	107.62
485.336	89.62
485.554	85.62
485.772	113.62
485.99	91.62
486.209	96.62
486.427	84.62
486.645	110.62
486.863	97.62
487.081	98.62
487.299	96.62
487.517	98.62
487.735	90.62
487.953	94.62
488.171	88.62
488.389	89.62
488.607	93.62
488.825	93.62
489.043	88.62
489.261	81.62
489.479	95.62
489.696	103.62
489.914	89.62
490.132	96.62
490.35	91.62
490.568	110.62
490.786	100.62
491.003	89.62
491.221	83.62
491.439	93.62
491.657	86.62
491.874	90.62
492.092	91.62
492.31	87.62
492.527	93.62
492.745	93.62
492.963	85.62
493.18	102.62
493.398	85.62
493.615	106.62
493.833	85.62
494.05	82.62
494.268	88.62
494.485	83.62
494.703	83.62
494.92	86.62
495.138	106.62
495.355	82.62
495.573	82.62
495.79	92.62
496.008	71.62
496.225	92.62
496.442	95.62
496.66	83.62
496.877	79.62
497.094	76.62
497.312	87.62
497.529	79.62
497.746	85.62
497.963	91.62
498.181	88.62
498.398	96.62
498.615	97.62
498.832	81.62
499.049	98.62
499.267	87.62
499.484	81.62
499.701	88.62
499.918	83.62
500.135	89.62
500.352	86.62
500.569	82.62
500.786	83.62
501.003	102.62
501.22	82.62
501.437	100.62
501.654	89.62
501.871	94.62
502.088	79.62
502.305	94.62
502.522	93.62
502.739	77.62
502.956	85.62
503.172	95.62
503.389	105.62
503.606	97.62
503.823	94.62
504.04	88.62
504.256	100.62
504.473	81.62
504.69	104.62
504.907	104.62
505.123	93.62
505.34	91.62
505.557	102.62
505.773	87.62
505.99	98.62
506.207	103.62
506.423	85.62
506.64	93.62
506.856	88.62
507.073	94.62
507.289	96.62
507.506	100.62
507.722	104.62
507.939	100.62
508.155	107.62
508.372	114.62
508.588	94.62
508.805	89.62
509.021	95.62
509.238	83.62
509.454	86.62
509.67	87.62
509.887	114.62
510.103	117.62
510.319	207.62
510.536	619.62
510.752	1875.62
510.968	517.62
511.184	126.62
511.401	97.62
511.617	87.62
511.833	97.62
512.049	86.62
512.265	103.62
512.481	87.62
512.698	104.62
512.914	99.62
513.13	81.62
513.346	80.62
513.562	102.62
513.778	106.62
513.994	75.62
514.21	108.62
514.426	111.62
514.642	120.62
514.858	108.62
515.074	141.62
515.29	355.62
515.506	1092.62
515.721	399.62
515.937	145.62
516.153	119.62
516.369	103.62
516.585	108.62
516.801	88.62
517.016	79.62
