Data from Uncirc_1992_H10_HRD10591_00042.txt Node
Date: Wed Jan 03 11:46:24 EST 2024
User: Yrep
Spectrometer: HR+D1059
Trigger mode: 1
Integration Time (sec): 1.000000E-1
Scans to average: 1
Electric dark correction enabled: true
Nonlinearity correction enabled: false
Boxcar width: 0
XAxis mode: Wavelengths
Number of Pixels in Spectrum: 2048
>>>>>Begin Spectral Data<<<<<
223.165	-18
223.4	-18
223.635	-18
223.869	-2
224.104	-15
224.338	-18
224.573	-28
224.808	-6
225.042	-14
225.277	-9
225.511	-6
225.746	-1
225.98	11
226.215	14
226.449	16
226.683	12
226.918	25
227.152	39
227.387	42
227.621	43
227.856	41
228.09	42
228.324	57
228.559	63
228.793	55
229.027	56
229.262	78
229.496	83
229.73	80
229.964	79
230.199	78
230.433	77
230.667	74
230.901	86
231.136	75
231.37	83
231.604	92
231.838	81
232.072	85
232.306	88
232.541	92
232.775	89
233.009	99
233.243	81
233.477	79
233.711	80
233.945	85
234.179	83
234.413	94
234.647	88
234.881	83
235.115	92
235.349	85
235.583	95
235.817	72
236.051	79
236.285	81
236.519	89
236.753	78
236.987	76
237.221	80
237.455	89
237.689	63
237.922	67
238.156	89
238.39	72
238.624	68
238.858	78
239.091	68
239.325	75
239.559	73
239.793	96
240.027	74
240.26	77
240.494	75
240.728	76
240.961	70
241.195	75
241.429	88
241.662	87
241.896	72
242.13	82
242.363	81
242.597	85
242.83	83
243.064	64
243.298	79
243.531	91
243.765	94
243.998	87
244.232	79
244.465	90
244.699	69
244.932	75
245.166	81
245.399	83
245.633	92
245.866	88
246.099	85
246.333	65
246.566	82
246.8	80
247.033	86
247.266	75
247.5	72
247.733	83
247.966	75
248.2	81
248.433	95
248.666	67
248.899	76
249.133	79
249.366	95
249.599	93
249.832	92
250.066	83
250.299	72
250.532	75
250.765	92
250.998	85
251.231	79
251.465	78
251.698	91
251.931	88
252.164	75
252.397	77
252.63	72
252.863	64
253.096	98
253.329	99
253.562	94
253.795	86
254.028	80
254.261	86
254.494	81
254.727	79
254.96	91
255.193	84
255.426	83
255.659	68
255.892	72
256.124	89
256.357	83
256.59	100
256.823	96
257.056	92
257.289	70
257.521	85
257.754	87
257.987	88
258.22	90
258.452	77
258.685	86
258.918	78
259.151	87
259.383	71
259.616	84
259.849	87
260.081	73
260.314	75
260.547	92
260.779	81
261.012	82
261.244	88
261.477	103
261.71	95
261.942	104
262.175	97
262.407	89
262.64	102
262.872	83
263.105	85
263.337	97
263.57	64
263.802	84
264.035	80
264.267	85
264.499	76
264.732	88
264.964	82
265.197	88
265.429	87
265.661	94
265.894	94
266.126	87
266.358	80
266.591	89
266.823	84
267.055	95
267.287	87
267.52	91
267.752	77
267.984	86
268.216	95
268.448	90
268.681	91
268.913	95
269.145	93
269.377	89
269.609	80
269.841	83
270.073	77
270.306	79
270.538	99
270.77	75
271.002	91
271.234	85
271.466	83
271.698	90
271.93	94
272.162	73
272.394	109
272.626	92
272.858	75
273.09	93
273.322	93
273.553	86
273.785	81
274.017	96
274.249	71
274.481	80
274.713	89
274.945	79
275.176	80
275.408	93
275.64	89
275.872	92
276.104	95
276.335	99
276.567	97
276.799	106
277.031	88
277.262	85
277.494	104
277.726	88
277.957	95
278.189	89
278.421	97
278.652	93
278.884	86
279.115	96
279.347	89
279.579	81
279.81	79
280.042	73
280.273	84
280.505	81
280.736	83
280.968	87
281.199	101
281.431	80
281.662	107
281.894	87
282.125	97
282.356	108
282.588	128
282.819	103
283.051	95
283.282	84
283.513	89
283.745	91
283.976	90
284.207	89
284.439	95
284.67	86
284.901	89
285.132	83
285.364	79
285.595	75
285.826	88
286.057	93
286.288	87
286.52	100
286.751	88
286.982	92
287.213	98
287.444	93
287.675	101
287.906	95
288.138	84
288.369	88
288.6	99
288.831	86
289.062	100
289.293	89
289.524	95
289.755	88
289.986	92
290.217	87
290.448	90
290.679	82
290.91	81
291.141	95
291.371	90
291.602	83
291.833	89
292.064	92
292.295	86
292.526	87
292.757	96
292.987	106
293.218	87
293.449	92
293.68	94
293.91	87
294.141	101
294.372	94
294.603	87
294.833	95
295.064	88
295.295	101
295.525	98
295.756	109
295.987	89
296.217	129
296.448	115
296.679	77
296.909	87
297.14	86
297.37	90
297.601	94
297.831	86
298.062	95
298.292	93
298.523	103
298.753	88
298.984	102
299.214	86
299.445	95
299.675	92
299.905	100
300.136	98
300.366	87
300.597	87
300.827	90
301.057	104
301.288	110
301.518	97
301.748	99
301.979	100
302.209	89
302.439	106
302.669	92
302.9	103
303.13	95
303.36	87
303.59	105
303.82	88
304.051	91
304.281	89
304.511	100
304.741	96
304.971	105
305.201	85
305.431	93
305.661	102
305.891	87
306.121	84
306.352	118
306.582	104
306.812	88
307.042	104
307.272	87
307.502	100
307.731	88
307.961	89
308.191	79
308.421	84
308.651	105
308.881	71
309.111	89
309.341	85
309.571	94
309.8	104
310.03	101
310.26	95
310.49	94
310.72	89
310.949	99
311.179	99
311.409	96
311.639	80
311.868	86
312.098	94
312.328	82
312.557	98
312.787	97
313.017	92
313.246	99
313.476	81
313.706	94
313.935	95
314.165	98
314.394	95
314.624	97
314.853	98
315.083	93
315.312	104
315.542	100
315.771	96
316.001	90
316.23	93
316.46	95
316.689	111
316.919	90
317.148	105
317.377	96
317.607	97
317.836	90
318.065	87
318.295	93
318.524	84
318.753	94
318.983	86
319.212	107
319.441	105
319.67	112
319.9	101
320.129	97
320.358	101
320.587	92
320.816	96
321.046	103
321.275	92
321.504	98
321.733	104
321.962	80
322.191	96
322.42	99
322.649	111
322.878	100
323.108	124
323.337	105
323.566	132
323.795	132
324.024	163
324.253	313
324.482	647
324.71	1302
324.939	1649
325.168	631
325.397	209
325.626	139
325.855	116
326.084	93
326.313	117
326.542	142
326.77	215
326.999	369
327.228	751
327.457	1272
327.686	1039
327.914	290
328.143	158
328.372	125
328.6	118
328.829	108
329.058	123
329.287	135
329.515	115
329.744	102
329.972	105
330.201	108
330.43	109
330.658	119
330.887	109
331.115	107
331.344	117
331.572	85
331.801	94
332.03	95
332.258	98
332.486	97
332.715	103
332.943	92
333.172	103
333.4	93
333.629	115
333.857	110
334.085	95
334.314	88
334.542	94
334.771	101
334.999	100
335.227	88
335.455	101
335.684	97
335.912	101
336.14	98
336.369	95
336.597	106
336.825	97
337.053	92
337.281	85
337.51	100
337.738	92
337.966	95
338.194	93
338.422	101
338.65	92
338.878	97
339.106	103
339.334	83
339.562	78
339.79	85
340.018	81
340.246	96
340.474	97
340.702	103
340.93	101
341.158	88
341.386	88
341.614	114
341.842	84
342.07	89
342.298	96
342.526	97
342.754	91
342.981	91
343.209	84
343.437	93
343.665	90
343.893	96
344.12	96
344.348	105
344.576	87
344.804	91
345.031	73
345.259	105
345.487	103
345.714	86
345.942	81
346.17	86
346.397	89
346.625	103
346.853	88
347.08	95
347.308	84
347.535	109
347.763	104
347.99	102
348.218	100
348.445	99
348.673	98
348.9	108
349.128	78
349.355	89
349.583	95
349.81	95
350.037	105
350.265	95
350.492	92
350.72	107
350.947	95
351.174	102
351.402	95
351.629	115
351.856	90
352.083	89
352.311	112
352.538	112
352.765	112
352.992	126
353.22	115
353.447	103
353.674	101
353.901	83
354.128	99
354.355	99
354.583	111
354.81	109
355.037	100
355.264	101
355.491	105
355.718	85
355.945	102
356.172	107
356.399	99
356.626	87
356.853	97
357.08	104
357.307	97
357.534	102
357.761	101
357.988	91
358.215	94
358.441	97
358.668	87
358.895	87
359.122	85
359.349	86
359.576	101
359.802	96
360.029	97
360.256	103
360.483	96
360.709	94
360.936	105
361.163	91
361.39	99
361.616	96
361.843	90
362.07	90
362.296	99
362.523	89
362.749	84
362.976	101
363.203	106
363.429	80
363.656	88
363.882	89
364.109	91
364.335	107
364.562	96
364.788	89
365.015	100
365.241	94
365.468	108
365.694	96
365.92	94
366.147	86
366.373	94
366.599	101
366.826	100
367.052	104
367.278	89
367.505	88
367.731	88
367.957	85
368.184	93
368.41	82
368.636	92
368.862	107
369.089	94
369.315	101
369.541	92
369.767	94
369.993	92
370.219	87
370.445	86
370.672	83
370.898	94
371.124	96
371.35	105
371.576	86
371.802	90
372.028	91
372.254	91
372.48	70
372.706	84
372.932	91
373.158	100
373.384	97
373.61	104
373.835	96
374.061	100
374.287	94
374.513	93
374.739	85
374.965	101
375.191	89
375.416	91
375.642	105
375.868	86
376.094	79
376.319	98
376.545	113
376.771	99
376.997	96
377.222	102
377.448	104
377.674	87
377.899	96
378.125	87
378.35	89
378.576	101
378.802	83
379.027	100
379.253	88
379.478	95
379.704	95
379.929	94
380.155	98
380.38	100
380.606	99
380.831	101
381.057	91
381.282	96
381.507	92
381.733	84
381.958	94
382.184	93
382.409	95
382.634	105
382.86	93
383.085	100
383.31	99
383.535	101
383.761	97
383.986	96
384.211	88
384.436	94
384.662	93
384.887	89
385.112	89
385.337	104
385.562	81
385.787	100
386.013	108
386.238	102
386.463	97
386.688	99
386.913	82
387.138	94
387.363	109
387.588	101
387.813	101
388.038	102
388.263	107
388.488	112
388.713	105
388.938	97
389.163	114
389.387	91
389.612	107
389.837	97
390.062	90
390.287	86
390.512	104
390.736	94
390.961	75
391.186	91
391.411	89
391.636	94
391.86	98
392.085	87
392.31	82
392.534	100
392.759	101
392.984	85
393.208	100
393.433	91
393.658	101
393.882	79
394.107	102
394.331	90
394.556	85
394.78	110
395.005	95
395.229	78
395.454	83
395.678	92
395.903	91
396.127	75
396.352	91
396.576	88
396.801	101
397.025	88
397.249	82
397.474	80
397.698	79
397.922	95
398.147	91
398.371	89
398.595	93
398.82	93
399.044	82
399.268	83
399.492	82
399.717	80
399.941	85
400.165	103
400.389	85
400.613	91
400.837	76
401.062	95
401.286	86
401.51	88
401.734	79
401.958	105
402.182	105
402.406	137
402.63	108
402.854	97
403.078	87
403.302	99
403.526	91
403.75	100
403.974	105
404.198	100
404.422	93
404.645	80
404.869	84
405.093	75
405.317	77
405.541	94
405.765	98
405.988	113
406.212	161
406.436	215
406.66	136
406.883	91
407.107	100
407.331	104
407.555	104
407.778	92
408.002	85
408.226	84
408.449	89
408.673	87
408.896	80
409.12	92
409.344	85
409.567	83
409.791	91
410.014	89
410.238	101
410.461	87
410.685	85
410.908	99
411.132	109
411.355	107
411.578	103
411.802	81
412.025	88
412.249	98
412.472	81
412.695	96
412.919	88
413.142	101
413.365	85
413.589	81
413.812	102
414.035	94
414.258	83
414.482	94
414.705	89
414.928	101
415.151	98
415.374	105
415.597	91
415.821	92
416.044	82
416.267	95
416.49	86
416.713	93
416.936	94
417.159	94
417.382	88
417.605	95
417.828	98
418.051	93
418.274	86
418.497	97
418.72	80
418.943	94
419.166	108
419.389	92
419.611	90
419.834	82
420.057	103
420.28	96
420.503	93
420.726	85
420.948	92
421.171	86
421.394	92
421.617	98
421.839	95
422.062	98
422.285	85
422.507	96
422.73	99
422.953	87
423.175	101
423.398	93
423.621	89
423.843	91
424.066	91
424.288	98
424.511	91
424.733	99
424.956	123
425.178	96
425.401	91
425.623	87
425.846	90
426.068	100
426.291	103
426.513	84
426.735	93
426.958	98
427.18	101
427.402	119
427.625	141
427.847	124
428.069	99
428.292	92
428.514	97
428.736	82
428.958	70
429.181	88
429.403	88
429.625	84
429.847	88
430.069	91
430.292	85
430.514	87
430.736	77
430.958	71
431.18	94
431.402	75
431.624	78
431.846	85
432.068	92
432.29	96
432.512	86
432.734	99
432.956	101
433.178	82
433.4	107
433.622	97
433.844	84
434.066	104
434.287	85
434.509	84
434.731	89
434.953	93
435.175	87
435.397	91
435.618	100
435.84	92
436.062	116
436.284	114
436.505	97
436.727	97
436.949	87
437.17	98
437.392	88
437.614	87
437.835	99
438.057	114
438.278	93
438.5	96
438.721	112
438.943	96
439.165	85
439.386	89
439.608	97
439.829	92
440.05	114
440.272	128
440.493	87
440.715	94
440.936	97
441.158	87
441.379	91
441.6	101
441.822	82
442.043	87
442.264	97
442.486	100
442.707	90
442.928	113
443.149	114
443.371	108
443.592	91
443.813	102
444.034	107
444.255	85
444.476	92
444.698	92
444.919	98
445.14	141
445.361	111
445.582	111
445.803	129
446.024	118
446.245	108
446.466	105
446.687	77
446.908	87
447.129	89
447.35	92
447.571	86
447.792	95
448.013	95
448.234	88
448.455	103
448.675	99
448.896	105
449.117	89
449.338	100
449.559	116
449.779	115
450	87
450.221	85
450.442	103
450.662	93
450.883	98
451.104	92
451.324	98
451.545	96
451.766	81
451.986	83
452.207	93
452.428	82
452.648	98
452.869	108
453.089	110
453.31	110
453.53	97
453.751	84
453.971	98
454.192	108
454.412	81
454.633	93
454.853	85
455.073	89
455.294	93
455.514	100
455.734	85
455.955	82
456.175	97
456.395	81
456.616	86
456.836	87
457.056	95
457.276	93
457.497	90
457.717	89
457.937	105
458.157	86
458.377	99
458.598	107
458.818	143
459.038	149
459.258	108
459.478	86
459.698	99
459.918	86
460.138	84
460.358	92
460.578	90
460.798	101
461.018	85
461.238	85
461.458	93
461.678	85
461.898	84
462.118	86
462.338	84
462.558	84
462.777	89
462.997	84
463.217	88
463.437	92
463.657	85
463.876	66
464.096	79
464.316	93
464.536	93
464.755	91
464.975	102
465.195	141
465.414	136
465.634	90
465.854	85
466.073	98
466.293	88
466.512	85
466.732	95
466.951	85
467.171	113
467.391	99
467.61	100
467.829	92
468.049	98
468.268	90
468.488	76
468.707	89
468.927	85
469.146	83
469.365	81
469.585	101
469.804	95
470.023	92
470.243	105
470.462	91
470.681	95
470.901	82
471.12	101
471.339	98
471.558	92
471.777	83
471.997	89
472.216	85
472.435	93
472.654	78
472.873	96
473.092	96
473.311	87
473.53	85
473.749	86
473.968	99
474.187	91
474.406	105
474.625	78
474.844	89
475.063	107
475.282	83
475.501	100
475.72	98
475.939	95
476.158	103
476.377	92
476.596	87
476.814	88
477.033	86
477.252	76
477.471	90
477.69	89
477.908	79
478.127	92
478.346	96
478.564	77
478.783	100
479.002	82
479.22	90
479.439	96
479.658	86
479.876	100
480.095	68
480.313	94
480.532	87
480.751	83
480.969	86
481.188	97
481.406	93
481.624	89
481.843	89
482.061	92
482.28	101
482.498	85
482.717	89
482.935	99
483.153	77
483.372	88
483.59	81
483.808	86
484.027	85
484.245	89
484.463	87
484.681	103
484.9	92
485.118	101
485.336	109
485.554	109
485.772	99
485.99	96
486.209	107
486.427	97
486.645	109
486.863	102
487.081	99
487.299	100
487.517	98
487.735	93
487.953	89
488.171	90
488.389	88
488.607	93
488.825	87
489.043	79
489.261	78
489.479	109
489.696	84
489.914	105
490.132	92
490.35	92
490.568	83
490.786	88
491.003	83
491.221	100
491.439	104
491.657	86
491.874	92
492.092	98
492.31	98
492.527	99
492.745	78
492.963	91
493.18	83
493.398	105
493.615	108
493.833	109
494.05	88
494.268	87
494.485	85
494.703	90
494.92	92
495.138	105
495.355	89
495.573	107
495.79	81
496.008	79
496.225	99
496.442	90
496.66	93
496.877	82
497.094	106
497.312	98
497.529	107
497.746	80
497.963	65
498.181	86
498.398	99
498.615	105
498.832	99
499.049	101
499.267	94
499.484	98
499.701	83
499.918	89
500.135	82
500.352	96
500.569	103
500.786	98
501.003	96
501.22	107
501.437	104
501.654	99
501.871	96
502.088	83
502.305	95
502.522	88
502.739	96
502.956	92
503.172	96
503.389	105
503.606	102
503.823	89
504.04	95
504.256	107
504.473	98
504.69	91
504.907	96
505.123	92
505.34	102
505.557	97
505.773	102
505.99	93
506.207	100
506.423	97
506.64	105
506.856	89
507.073	95
507.289	93
507.506	100
507.722	97
507.939	102
508.155	94
508.372	87
508.588	106
508.805	112
509.021	84
509.238	91
509.454	97
509.67	95
509.887	120
510.103	124
510.319	204
510.536	655
510.752	1915
510.968	547
511.184	149
511.401	112
511.617	87
511.833	100
512.049	91
512.265	95
512.481	102
512.698	105
512.914	87
513.13	101
513.346	93
513.562	93
513.778	104
513.994	100
514.21	93
514.426	115
514.642	119
514.858	113
515.074	153
515.29	376
515.506	1101
515.721	425
515.937	127
516.153	103
516.369	95
516.585	85
516.801	101
517.016	97
517.232	95
517.448	91
517.664	91
517.879	88
518.095	97
518.311	112
518.527	88
518.742	95
518.958	89
519.173	102
519.389	97
519.605	99
519.82	83
520.036	110
520.251	123
520.467	100
520.682	103
520.898	113
521.113	107
521.329	122
521.544	168
521.76	470
521.975	1852
522.19	1095
522.406	255
522.621	119
522.836	95
523.052	91
523.267	100
523.482	87
523.698	96
523.913	119
524.128	98
524.343	109
524.559	90
524.774	93
524.989	91
525.204	103
525.419	99
525.634	79
525.849	77
526.064	87
526.28	91
526.495	85
526.71	84
526.925	83
527.14	80
527.355	91
527.57	90
527.785	109
527.999	90
528.214	78
528.429	100
528.644	94
528.859	97
529.074	84
529.289	118
529.503	156
529.718	101
529.933	84
530.148	91
530.363	91
530.577	100
530.792	92
531.007	85
531.221	99
531.436	87
531.651	98
531.865	95
532.08	88
532.295	99
532.509	101
532.724	98
532.938	97
533.153	99
533.367	84
533.582	103
533.796	99
534.011	91
534.225	87
534.44	89
534.654	91
534.868	97
535.083	96
535.297	102
535.511	98
535.726	91
535.94	100
536.154	91
536.369	89
536.583	100
536.797	92
537.011	100
537.225	78
537.44	96
537.654	81
537.868	96
538.082	86
538.296	85
538.51	87
538.724	97
538.938	89
539.153	100
539.367	107
539.581	91
539.795	88
540.009	88
540.222	91
540.436	102
540.65	99
540.864	79
541.078	105
541.292	108
541.506	95
541.72	115
541.934	88
542.147	96
542.361	105
542.575	89
542.789	97
543.002	90
543.216	90
543.43	109
543.644	88
543.857	91
544.071	88
544.285	86
544.498	89
544.712	84
544.925	92
545.139	112
545.352	96
545.566	84
545.779	96
545.993	65
546.206	85
546.42	75
546.633	85
546.847	103
547.06	96
547.274	96
547.487	89
547.7	94
547.914	83
548.127	100
548.34	84
548.554	97
548.767	92
548.98	95
549.193	84
549.407	91
549.62	105
549.833	84
550.046	96
550.259	99
550.473	92
550.686	100
550.899	92
551.112	84
551.325	84
551.538	92
551.751	94
551.964	93
552.177	110
552.39	89
552.603	95
552.816	83
553.029	92
553.242	93
553.455	93
553.667	88
553.88	105
554.093	110
554.306	83
554.519	92
554.732	96
554.944	104
555.157	111
555.37	98
555.583	100
555.795	89
556.008	101
556.221	100
556.433	93
556.646	95
556.859	99
557.071	83
557.284	89
557.496	94
557.709	95
557.921	100
558.134	105
558.346	96
558.559	95
558.771	89
558.984	95
559.196	89
559.409	96
559.621	104
559.833	79
560.046	81
560.258	79
560.47	94
560.683	91
560.895	87
561.107	86
561.32	81
561.532	83
561.744	91
561.956	96
562.168	109
562.381	85
562.593	85
562.805	90
563.017	98
563.229	94
563.441	94
563.653	101
563.865	87
564.077	93
564.289	98
564.501	84
564.713	85
564.925	97
565.137	93
565.349	95
565.561	97
565.773	85
565.985	97
566.197	70
566.408	82
566.62	89
566.832	99
567.044	87
567.255	102
567.467	97
567.679	90
567.891	91
568.102	91
568.314	89
568.526	96
568.737	91
568.949	94
569.161	89
569.372	88
569.584	96
569.795	105
570.007	132
570.218	219
570.43	117
570.641	93
570.853	95
571.064	86
571.276	89
571.487	83
571.698	91
571.91	83
572.121	98
572.333	79
572.544	95
572.755	93
572.966	83
573.178	86
573.389	93
573.6	96
573.811	96
574.023	79
574.234	101
574.445	92
574.656	83
574.867	72
575.078	100
575.289	82
575.501	78
575.712	92
575.923	92
576.134	82
576.345	100
576.556	92
576.767	104
576.978	95
577.188	87
577.399	94
577.61	102
577.821	98
578.032	112
578.243	247
578.454	659
578.665	193
578.875	96
579.086	88
579.297	95
579.508	83
579.718	101
579.929	84
580.14	108
580.35	89
580.561	91
580.772	97
580.982	96
581.193	89
581.403	87
581.614	97
581.825	85
582.035	105
582.246	92
582.456	89
582.667	85
582.877	96
583.087	98
583.298	99
583.508	69
583.719	84
