Data from Uncirc_1992_H10_HRD10591_00071.txt Node
Date: Wed Jan 03 11:46:30 EST 2024
User: Yrep
Spectrometer: HR+D1059
Trigger mode: 1
Integration Time (sec): 1.000000E-1
Scans to average: 1
Electric dark correction enabled: true
Nonlinearity correction enabled: false
Boxcar width: 0
XAxis mode: Wavelengths
Number of Pixels in Spectrum: 2048
>>>>>Begin Spectral Data<<<<<
223.165	-25.88
223.4	-25.88
223.635	-25.88
223.869	-11.88
224.104	-13.88
224.338	-5.88
224.573	-14.88
224.808	-12.88
225.042	-1.88
225.277	11.12
225.511	-9.88
225.746	5.12
225.98	-8.88
226.215	16.12
226.449	23.12
226.683	5.12
226.918	13.12
227.152	32.12
227.387	31.12
227.621	38.12
227.856	45.12
228.09	44.12
228.324	38.12
228.559	54.12
228.793	46.12
229.027	73.12
229.262	70.12
229.496	58.12
229.73	93.12
229.964	82.12
230.199	72.12
230.433	82.12
230.667	82.12
230.901	73.12
231.136	79.12
231.37	86.12
231.604	70.12
231.838	78.12
232.072	77.12
232.306	61.12
232.541	92.12
232.775	74.12
233.009	78.12
233.243	96.12
233.477	79.12
233.711	52.12
233.945	72.12
234.179	81.12
234.413	79.12
234.647	71.12
234.881	94.12
235.115	76.12
235.349	74.12
235.583	78.12
235.817	69.12
236.051	69.12
236.285	69.12
236.519	68.12
236.753	64.12
236.987	77.12
237.221	91.12
237.455	74.12
237.689	74.12
237.922	74.12
238.156	79.12
238.39	84.12
238.624	65.12
238.858	65.12
239.091	84.12
239.325	85.12
239.559	69.12
239.793	82.12
240.027	67.12
240.26	79.12
240.494	79.12
240.728	62.12
240.961	76.12
241.195	83.12
241.429	74.12
241.662	69.12
241.896	66.12
242.13	73.12
242.363	61.12
242.597	63.12
242.83	76.12
243.064	78.12
243.298	75.12
243.531	62.12
243.765	74.12
243.998	91.12
244.232	75.12
244.465	77.12
244.699	66.12
244.932	73.12
245.166	76.12
245.399	86.12
245.633	67.12
245.866	66.12
246.099	73.12
246.333	78.12
246.566	69.12
246.8	76.12
247.033	74.12
247.266	76.12
247.5	76.12
247.733	76.12
247.966	78.12
248.2	66.12
248.433	80.12
248.666	73.12
248.899	89.12
249.133	89.12
249.366	61.12
249.599	92.12
249.832	75.12
250.066	85.12
250.299	81.12
250.532	66.12
250.765	71.12
250.998	80.12
251.231	71.12
251.465	71.12
251.698	65.12
251.931	75.12
252.164	61.12
252.397	80.12
252.63	88.12
252.863	82.12
253.096	86.12
253.329	82.12
253.562	78.12
253.795	89.12
254.028	82.12
254.261	78.12
254.494	76.12
254.727	89.12
254.96	90.12
255.193	74.12
255.426	72.12
255.659	90.12
255.892	80.12
256.124	83.12
256.357	79.12
256.59	69.12
256.823	65.12
257.056	74.12
257.289	60.12
257.521	66.12
257.754	70.12
257.987	79.12
258.22	80.12
258.452	86.12
258.685	91.12
258.918	86.12
259.151	85.12
259.383	79.12
259.616	95.12
259.849	79.12
260.081	72.12
260.314	78.12
260.547	78.12
260.779	66.12
261.012	64.12
261.244	90.12
261.477	79.12
261.71	93.12
261.942	97.12
262.175	109.12
262.407	92.12
262.64	83.12
262.872	79.12
263.105	77.12
263.337	67.12
263.57	75.12
263.802	78.12
264.035	79.12
264.267	87.12
264.499	75.12
264.732	86.12
264.964	74.12
265.197	78.12
265.429	66.12
265.661	79.12
265.894	87.12
266.126	88.12
266.358	89.12
266.591	71.12
266.823	80.12
267.055	76.12
267.287	78.12
267.52	89.12
267.752	75.12
267.984	90.12
268.216	81.12
268.448	79.12
268.681	85.12
268.913	68.12
269.145	77.12
269.377	77.12
269.609	84.12
269.841	74.12
270.073	79.12
270.306	75.12
270.538	73.12
270.77	78.12
271.002	89.12
271.234	75.12
271.466	89.12
271.698	81.12
271.93	84.12
272.162	88.12
272.394	79.12
272.626	81.12
272.858	85.12
273.09	66.12
273.322	81.12
273.553	79.12
273.785	76.12
274.017	75.12
274.249	62.12
274.481	81.12
274.713	81.12
274.945	70.12
275.176	77.12
275.408	72.12
275.64	79.12
275.872	70.12
276.104	87.12
276.335	97.12
276.567	97.12
276.799	111.12
277.031	87.12
277.262	93.12
277.494	66.12
277.726	85.12
277.957	83.12
278.189	73.12
278.421	83.12
278.652	78.12
278.884	95.12
279.115	79.12
279.347	88.12
279.579	73.12
279.81	77.12
280.042	94.12
280.273	82.12
280.505	87.12
280.736	89.12
280.968	80.12
281.199	85.12
281.431	81.12
281.662	87.12
281.894	80.12
282.125	94.12
282.356	108.12
282.588	121.12
282.819	107.12
283.051	91.12
283.282	84.12
283.513	85.12
283.745	99.12
283.976	83.12
284.207	81.12
284.439	81.12
284.67	77.12
284.901	93.12
285.132	105.12
285.364	79.12
285.595	82.12
285.826	93.12
286.057	86.12
286.288	90.12
286.52	65.12
286.751	96.12
286.982	87.12
287.213	75.12
287.444	88.12
287.675	76.12
287.906	73.12
288.138	80.12
288.369	90.12
288.6	85.12
288.831	78.12
289.062	95.12
289.293	80.12
289.524	81.12
289.755	91.12
289.986	96.12
290.217	89.12
290.448	80.12
290.679	85.12
290.91	89.12
291.141	83.12
291.371	98.12
291.602	100.12
291.833	93.12
292.064	94.12
292.295	73.12
292.526	80.12
292.757	81.12
292.987	79.12
293.218	84.12
293.449	82.12
293.68	83.12
293.91	102.12
294.141	92.12
294.372	92.12
294.603	86.12
294.833	73.12
295.064	80.12
295.295	82.12
295.525	91.12
295.756	80.12
295.987	103.12
296.217	112.12
296.448	109.12
296.679	97.12
296.909	95.12
297.14	87.12
297.37	85.12
297.601	93.12
297.831	78.12
298.062	89.12
298.292	89.12
298.523	73.12
298.753	80.12
298.984	86.12
299.214	94.12
299.445	98.12
299.675	92.12
299.905	105.12
300.136	90.12
300.366	79.12
300.597	82.12
300.827	91.12
301.057	98.12
301.288	104.12
301.518	92.12
301.748	90.12
301.979	96.12
302.209	93.12
302.439	86.12
302.669	89.12
302.9	85.12
303.13	77.12
303.36	77.12
303.59	89.12
303.82	104.12
304.051	101.12
304.281	87.12
304.511	85.12
304.741	90.12
304.971	74.12
305.201	86.12
305.431	77.12
305.661	89.12
305.891	87.12
306.121	88.12
306.352	94.12
306.582	95.12
306.812	78.12
307.042	75.12
307.272	85.12
307.502	94.12
307.731	90.12
307.961	95.12
308.191	98.12
308.421	80.12
308.651	95.12
308.881	81.12
309.111	86.12
309.341	87.12
309.571	95.12
309.8	78.12
310.03	98.12
310.26	93.12
310.49	96.12
310.72	82.12
310.949	78.12
311.179	83.12
311.409	82.12
311.639	90.12
311.868	96.12
312.098	93.12
312.328	83.12
312.557	99.12
312.787	80.12
313.017	105.12
313.246	91.12
313.476	93.12
313.706	98.12
313.935	81.12
314.165	101.12
314.394	110.12
314.624	89.12
314.853	93.12
315.083	94.12
315.312	80.12
315.542	91.12
315.771	91.12
316.001	89.12
316.23	89.12
316.46	102.12
316.689	95.12
316.919	95.12
317.148	94.12
317.377	97.12
317.607	96.12
317.836	91.12
318.065	86.12
318.295	97.12
318.524	82.12
318.753	91.12
318.983	95.12
319.212	104.12
319.441	89.12
319.67	97.12
319.9	103.12
320.129	87.12
320.358	89.12
320.587	109.12
320.816	84.12
321.046	111.12
321.275	84.12
321.504	93.12
321.733	100.12
321.962	96.12
322.191	99.12
322.42	103.12
322.649	103.12
322.878	122.12
323.108	103.12
323.337	106.12
323.566	123.12
323.795	137.12
324.024	188.12
324.253	369.12
324.482	745.12
324.71	1472.12
324.939	1881.12
325.168	697.12
325.397	225.12
325.626	127.12
325.855	111.12
326.084	113.12
326.313	134.12
326.542	137.12
326.77	211.12
326.999	423.12
327.228	838.12
327.457	1463.12
327.686	1156.12
327.914	316.12
328.143	162.12
328.372	130.12
328.6	110.12
328.829	95.12
329.058	120.12
329.287	121.12
329.515	95.12
329.744	88.12
329.972	93.12
330.201	101.12
330.43	92.12
330.658	121.12
330.887	120.12
331.115	93.12
331.344	93.12
331.572	95.12
331.801	94.12
332.03	85.12
332.258	93.12
332.486	85.12
332.715	65.12
332.943	93.12
333.172	83.12
333.4	91.12
333.629	90.12
333.857	87.12
334.085	92.12
334.314	95.12
334.542	107.12
334.771	107.12
334.999	91.12
335.227	85.12
335.455	73.12
335.684	83.12
335.912	90.12
336.14	89.12
336.369	98.12
336.597	87.12
336.825	94.12
337.053	89.12
337.281	98.12
337.51	100.12
337.738	88.12
337.966	90.12
338.194	80.12
338.422	89.12
338.65	89.12
338.878	84.12
339.106	91.12
339.334	88.12
339.562	80.12
339.79	80.12
340.018	86.12
340.246	90.12
340.474	92.12
340.702	81.12
340.93	102.12
341.158	80.12
341.386	94.12
341.614	88.12
341.842	87.12
342.07	83.12
342.298	86.12
342.526	75.12
342.754	78.12
342.981	90.12
343.209	92.12
343.437	93.12
343.665	82.12
343.893	84.12
344.12	96.12
344.348	80.12
344.576	93.12
344.804	87.12
345.031	93.12
345.259	89.12
345.487	75.12
345.714	97.12
345.942	96.12
346.17	78.12
346.397	88.12
346.625	73.12
346.853	91.12
347.08	93.12
347.308	99.12
347.535	85.12
347.763	92.12
347.99	90.12
348.218	94.12
348.445	96.12
348.673	88.12
348.9	102.12
349.128	88.12
349.355	94.12
349.583	85.12
349.81	80.12
350.037	86.12
350.265	82.12
350.492	94.12
350.72	101.12
350.947	94.12
351.174	97.12
351.402	92.12
351.629	82.12
351.856	87.12
352.083	86.12
352.311	103.12
352.538	86.12
352.765	93.12
352.992	102.12
353.22	98.12
353.447	95.12
353.674	113.12
353.901	100.12
354.128	108.12
354.355	85.12
354.583	99.12
354.81	82.12
355.037	93.12
355.264	96.12
355.491	104.12
355.718	85.12
355.945	90.12
356.172	86.12
356.399	81.12
356.626	97.12
356.853	81.12
357.08	80.12
357.307	86.12
357.534	99.12
357.761	104.12
357.988	83.12
358.215	90.12
358.441	83.12
358.668	90.12
358.895	79.12
359.122	75.12
359.349	92.12
359.576	95.12
359.802	72.12
360.029	93.12
360.256	86.12
360.483	99.12
360.709	87.12
360.936	80.12
361.163	90.12
361.39	73.12
361.616	82.12
361.843	82.12
362.07	99.12
362.296	74.12
362.523	83.12
362.749	98.12
362.976	81.12
363.203	89.12
363.429	87.12
363.656	106.12
363.882	82.12
364.109	87.12
364.335	92.12
364.562	89.12
364.788	87.12
365.015	90.12
365.241	91.12
365.468	99.12
365.694	90.12
365.92	86.12
366.147	81.12
366.373	71.12
366.599	98.12
366.826	86.12
367.052	82.12
367.278	80.12
367.505	70.12
367.731	91.12
367.957	83.12
368.184	87.12
368.41	97.12
368.636	100.12
368.862	113.12
369.089	101.12
369.315	98.12
369.541	89.12
369.767	99.12
369.993	81.12
370.219	77.12
370.445	86.12
370.672	80.12
370.898	84.12
371.124	100.12
371.35	89.12
371.576	83.12
371.802	88.12
372.028	89.12
372.254	87.12
372.48	75.12
372.706	85.12
372.932	95.12
373.158	96.12
373.384	88.12
373.61	80.12
373.835	97.12
374.061	83.12
374.287	95.12
374.513	91.12
374.739	86.12
374.965	79.12
375.191	76.12
375.416	82.12
375.642	84.12
375.868	95.12
376.094	86.12
376.319	78.12
376.545	84.12
376.771	70.12
376.997	86.12
377.222	73.12
377.448	70.12
377.674	85.12
377.899	82.12
378.125	77.12
378.35	105.12
378.576	80.12
378.802	91.12
379.027	92.12
379.253	95.12
379.478	101.12
379.704	94.12
379.929	86.12
380.155	78.12
380.38	90.12
380.606	99.12
380.831	97.12
381.057	83.12
381.282	75.12
381.507	86.12
381.733	98.12
381.958	82.12
382.184	92.12
382.409	82.12
382.634	102.12
382.86	100.12
383.085	96.12
383.31	96.12
383.535	103.12
383.761	94.12
383.986	94.12
384.211	96.12
384.436	86.12
384.662	105.12
384.887	87.12
385.112	88.12
385.337	103.12
385.562	76.12
385.787	98.12
386.013	102.12
386.238	104.12
386.463	111.12
386.688	108.12
386.913	89.12
387.138	95.12
387.363	95.12
387.588	105.12
387.813	95.12
388.038	104.12
388.263	99.12
388.488	99.12
388.713	84.12
388.938	89.12
389.163	82.12
389.387	96.12
389.612	91.12
389.837	109.12
390.062	87.12
390.287	70.12
390.512	88.12
390.736	88.12
390.961	93.12
391.186	94.12
391.411	99.12
391.636	92.12
391.86	87.12
392.085	83.12
392.31	87.12
392.534	85.12
392.759	78.12
392.984	90.12
393.208	74.12
393.433	78.12
393.658	87.12
393.882	81.12
394.107	84.12
394.331	86.12
394.556	77.12
394.78	71.12
395.005	75.12
395.229	69.12
395.454	77.12
395.678	81.12
395.903	86.12
396.127	87.12
396.352	88.12
396.576	84.12
396.801	72.12
397.025	82.12
397.249	71.12
397.474	104.12
397.698	83.12
397.922	81.12
398.147	77.12
398.371	84.12
398.595	82.12
398.82	82.12
399.044	72.12
399.268	83.12
399.492	81.12
399.717	78.12
399.941	86.12
400.165	91.12
400.389	75.12
400.613	91.12
400.837	74.12
401.062	75.12
401.286	75.12
401.51	88.12
401.734	102.12
401.958	99.12
402.182	104.12
402.406	133.12
402.63	118.12
402.854	96.12
403.078	80.12
403.302	88.12
403.526	87.12
403.75	77.12
403.974	86.12
404.198	77.12
404.422	84.12
404.645	89.12
404.869	71.12
405.093	80.12
405.317	96.12
405.541	97.12
405.765	99.12
405.988	105.12
406.212	151.12
406.436	205.12
406.66	143.12
406.883	85.12
407.107	91.12
407.331	97.12
407.555	88.12
407.778	91.12
408.002	94.12
408.226	91.12
408.449	85.12
408.673	79.12
408.896	90.12
409.12	97.12
409.344	86.12
409.567	73.12
409.791	79.12
410.014	95.12
410.238	79.12
410.461	94.12
410.685	81.12
410.908	80.12
411.132	95.12
411.355	96.12
411.578	88.12
411.802	90.12
412.025	85.12
412.249	83.12
412.472	74.12
412.695	85.12
412.919	85.12
413.142	79.12
413.365	77.12
413.589	74.12
413.812	81.12
414.035	77.12
414.258	91.12
414.482	86.12
414.705	79.12
414.928	77.12
415.151	85.12
415.374	85.12
415.597	87.12
415.821	86.12
416.044	77.12
416.267	78.12
416.49	91.12
416.713	80.12
416.936	78.12
417.159	89.12
417.382	77.12
417.605	80.12
417.828	86.12
418.051	86.12
418.274	91.12
418.497	76.12
418.72	75.12
418.943	81.12
419.166	95.12
419.389	81.12
419.611	82.12
419.834	90.12
420.057	87.12
420.28	83.12
420.503	86.12
420.726	85.12
420.948	79.12
421.171	89.12
421.394	77.12
421.617	85.12
421.839	80.12
422.062	82.12
422.285	82.12
422.507	97.12
422.73	85.12
422.953	95.12
423.175	87.12
423.398	74.12
423.621	82.12
423.843	84.12
424.066	71.12
424.288	66.12
424.511	98.12
424.733	92.12
424.956	91.12
425.178	84.12
425.401	73.12
425.623	82.12
425.846	85.12
426.068	91.12
426.291	76.12
426.513	64.12
426.735	94.12
426.958	98.12
427.18	91.12
427.402	114.12
427.625	120.12
427.847	125.12
428.069	93.12
428.292	84.12
428.514	83.12
428.736	75.12
428.958	85.12
429.181	75.12
429.403	72.12
429.625	78.12
429.847	88.12
430.069	87.12
430.292	96.12
430.514	84.12
430.736	78.12
430.958	71.12
431.18	65.12
431.402	79.12
431.624	90.12
431.846	95.12
432.068	75.12
432.29	69.12
432.512	93.12
432.734	63.12
432.956	92.12
433.178	81.12
433.4	78.12
433.622	90.12
433.844	70.12
434.066	94.12
434.287	95.12
434.509	86.12
434.731	86.12
434.953	94.12
435.175	74.12
435.397	77.12
435.618	75.12
435.84	107.12
436.062	112.12
436.284	101.12
436.505	104.12
436.727	96.12
436.949	94.12
437.17	85.12
437.392	72.12
437.614	79.12
437.835	99.12
438.057	103.12
438.278	90.12
438.5	98.12
438.721	102.12
438.943	87.12
439.165	90.12
439.386	87.12
439.608	89.12
439.829	96.12
440.05	118.12
440.272	124.12
440.493	90.12
440.715	87.12
440.936	59.12
441.158	104.12
441.379	78.12
441.6	63.12
441.822	69.12
442.043	69.12
442.264	83.12
442.486	96.12
442.707	92.12
442.928	101.12
443.149	126.12
443.371	116.12
443.592	96.12
443.813	94.12
444.034	82.12
444.255	82.12
444.476	81.12
444.698	83.12
444.919	84.12
445.14	116.12
445.361	115.12
445.582	96.12
445.803	123.12
446.024	117.12
446.245	111.12
446.466	95.12
446.687	76.12
446.908	94.12
447.129	87.12
447.35	85.12
447.571	92.12
447.792	94.12
448.013	75.12
448.234	89.12
448.455	96.12
448.675	107.12
448.896	98.12
449.117	79.12
449.338	83.12
449.559	114.12
449.779	127.12
450	88.12
450.221	73.12
450.442	85.12
450.662	100.12
450.883	106.12
451.104	86.12
451.324	85.12
451.545	75.12
451.766	95.12
451.986	93.12
452.207	69.12
452.428	85.12
452.648	95.12
452.869	113.12
453.089	124.12
453.31	114.12
453.53	91.12
453.751	90.12
453.971	100.12
454.192	97.12
454.412	77.12
454.633	76.12
454.853	83.12
455.073	81.12
455.294	98.12
455.514	95.12
455.734	86.12
455.955	81.12
456.175	76.12
456.395	77.12
456.616	80.12
456.836	80.12
457.056	85.12
457.276	63.12
457.497	74.12
457.717	84.12
457.937	94.12
458.157	79.12
458.377	82.12
458.598	103.12
458.818	133.12
459.038	130.12
459.258	105.12
459.478	87.12
459.698	83.12
459.918	97.12
460.138	87.12
460.358	79.12
460.578	75.12
460.798	82.12
461.018	94.12
461.238	93.12
461.458	83.12
461.678	70.12
461.898	67.12
462.118	72.12
462.338	77.12
462.558	77.12
462.777	78.12
462.997	80.12
463.217	82.12
463.437	74.12
463.657	100.12
463.876	93.12
464.096	82.12
464.316	71.12
464.536	74.12
464.755	80.12
464.975	107.12
465.195	155.12
465.414	130.12
465.634	90.12
465.854	85.12
466.073	84.12
466.293	98.12
466.512	82.12
466.732	97.12
466.951	89.12
467.171	85.12
467.391	72.12
467.61	99.12
467.829	94.12
468.049	85.12
468.268	79.12
468.488	61.12
468.707	66.12
468.927	86.12
469.146	84.12
469.365	91.12
469.585	79.12
469.804	94.12
470.023	82.12
470.243	87.12
470.462	105.12
470.681	104.12
470.901	75.12
471.12	82.12
471.339	95.12
471.558	73.12
471.777	81.12
471.997	89.12
472.216	76.12
472.435	80.12
472.654	85.12
472.873	81.12
473.092	76.12
473.311	83.12
473.53	74.12
473.749	90.12
473.968	92.12
474.187	93.12
474.406	76.12
474.625	78.12
474.844	82.12
475.063	74.12
475.282	88.12
475.501	82.12
475.72	84.12
475.939	78.12
476.158	86.12
476.377	71.12
476.596	69.12
476.814	93.12
477.033	87.12
477.252	91.12
477.471	87.12
477.69	77.12
477.908	87.12
478.127	105.12
478.346	79.12
478.564	89.12
478.783	89.12
479.002	82.12
479.22	76.12
479.439	87.12
479.658	94.12
479.876	95.12
480.095	81.12
480.313	85.12
480.532	90.12
480.751	86.12
480.969	88.12
481.188	95.12
481.406	91.12
481.624	99.12
481.843	91.12
482.061	88.12
482.28	77.12
482.498	84.12
482.717	90.12
482.935	78.12
483.153	94.12
483.372	90.12
483.59	89.12
483.808	80.12
484.027	87.12
484.245	81.12
484.463	87.12
484.681	80.12
484.9	79.12
485.118	88.12
485.336	87.12
485.554	82.12
485.772	81.12
485.99	114.12
486.209	98.12
486.427	95.12
486.645	97.12
486.863	101.12
487.081	98.12
487.299	101.12
487.517	89.12
487.735	87.12
487.953	86.12
488.171	89.12
488.389	82.12
488.607	103.12
488.825	82.12
489.043	88.12
489.261	92.12
489.479	67.12
489.696	93.12
489.914	77.12
490.132	78.12
490.35	95.12
490.568	97.12
490.786	74.12
491.003	78.12
491.221	107.12
491.439	92.12
491.657	91.12
491.874	79.12
492.092	85.12
492.31	80.12
492.527	90.12
492.745	89.12
492.963	101.12
493.18	91.12
493.398	95.12
493.615	86.12
493.833	96.12
494.05	87.12
494.268	86.12
494.485	80.12
494.703	90.12
494.92	82.12
495.138	95.12
495.355	83.12
495.573	78.12
495.79	88.12
496.008	91.12
496.225	85.12
496.442	74.12
496.66	83.12
496.877	77.12
497.094	93.12
497.312	91.12
497.529	100.12
497.746	94.12
497.963	77.12
498.181	86.12
498.398	86.12
498.615	94.12
498.832	99.12
499.049	96.12
499.267	92.12
499.484	72.12
499.701	82.12
499.918	89.12
500.135	90.12
500.352	92.12
500.569	102.12
500.786	83.12
501.003	79.12
501.22	86.12
501.437	84.12
501.654	99.12
501.871	98.12
502.088	90.12
502.305	84.12
502.522	83.12
502.739	73.12
502.956	81.12
503.172	87.12
503.389	97.12
503.606	101.12
503.823	94.12
504.04	96.12
504.256	78.12
504.473	91.12
504.69	92.12
504.907	87.12
505.123	82.12
505.34	89.12
505.557	89.12
505.773	97.12
505.99	88.12
506.207	95.12
506.423	73.12
506.64	86.12
506.856	83.12
507.073	88.12
507.289	87.12
507.506	91.12
507.722	109.12
507.939	95.12
508.155	91.12
508.372	107.12
508.588	93.12
508.805	90.12
509.021	90.12
509.238	105.12
509.454	98.12
509.67	95.12
509.887	94.12
510.103	127.12
510.319	217.12
510.536	723.12
510.752	2202.12
510.968	591.12
511.184	163.12
511.401	115.12
511.617	100.12
511.833	103.12
512.049	69.12
512.265	87.12
512.481	93.12
512.698	90.12
512.914	89.12
513.13	95.12
513.346	100.12
513.562	86.12
513.778	87.12
513.994	87.12
514.21	91.12
514.426	109.12
514.642	117.12
514.858	111.12
515.074	155.12
515.29	416.12
515.506	1273.12
515.721	464.12
515.937	129.12
516.153	97.12
516.369	97.12
516.585	92.12
516.801	94.12
517.016	99.12
517.232	92.12
517.448	85.12
517.664	88.12
