Data from Uncirc_1992_H10_HRD10591_00082.txt Node
Date: Wed Jan 03 11:46:32 EST 2024
User: Yrep
Spectrometer: HR+D1059
Trigger mode: 1
Integration Time (sec): 1.000000E-1
Scans to average: 1
Electric dark correction enabled: true
Nonlinearity correction enabled: false
Boxcar width: 0
XAxis mode: Wavelengths
Number of Pixels in Spectrum: 2048
>>>>>Begin Spectral Data<<<<<
223.165	-8.25
223.4	-8.25
223.635	-8.25
223.869	-20.25
224.104	-13.25
224.338	-6.25
224.573	-23.25
224.808	-5.25
225.042	-2.25
225.277	-19.25
225.511	-2.25
225.746	14.75
225.98	5.75
226.215	3.75
226.449	13.75
226.683	14.75
226.918	11.75
227.152	35.75
227.387	35.75
227.621	54.75
227.856	40.75
228.09	47.75
228.324	50.75
228.559	52.75
228.793	55.75
229.027	65.75
229.262	67.75
229.496	65.75
229.73	80.75
229.964	68.75
230.199	85.75
230.433	74.75
230.667	77.75
230.901	70.75
231.136	81.75
231.37	77.75
231.604	70.75
231.838	84.75
232.072	97.75
232.306	76.75
232.541	75.75
232.775	83.75
233.009	75.75
233.243	75.75
233.477	72.75
233.711	72.75
233.945	74.75
234.179	87.75
234.413	72.75
234.647	82.75
234.881	66.75
235.115	74.75
235.349	72.75
235.583	77.75
235.817	78.75
236.051	79.75
236.285	75.75
236.519	95.75
236.753	78.75
236.987	91.75
237.221	80.75
237.455	84.75
237.689	75.75
237.922	72.75
238.156	73.75
238.39	86.75
238.624	86.75
238.858	70.75
239.091	73.75
239.325	80.75
239.559	83.75
239.793	73.75
240.027	93.75
240.26	82.75
240.494	84.75
240.728	80.75
240.961	76.75
241.195	81.75
241.429	63.75
241.662	71.75
241.896	84.75
242.13	73.75
242.363	80.75
242.597	65.75
242.83	68.75
243.064	69.75
243.298	70.75
243.531	75.75
243.765	78.75
243.998	73.75
244.232	86.75
244.465	87.75
244.699	74.75
244.932	84.75
245.166	71.75
245.399	73.75
245.633	67.75
245.866	79.75
246.099	73.75
246.333	66.75
246.566	72.75
246.8	68.75
247.033	81.75
247.266	88.75
247.5	90.75
247.733	78.75
247.966	79.75
248.2	90.75
248.433	74.75
248.666	86.75
248.899	69.75
249.133	64.75
249.366	81.75
249.599	88.75
249.832	81.75
250.066	100.75
250.299	79.75
250.532	68.75
250.765	78.75
250.998	81.75
251.231	87.75
251.465	74.75
251.698	79.75
251.931	78.75
252.164	89.75
252.397	81.75
252.63	77.75
252.863	83.75
253.096	85.75
253.329	89.75
253.562	72.75
253.795	57.75
254.028	89.75
254.261	81.75
254.494	73.75
254.727	90.75
254.96	55.75
255.193	83.75
255.426	72.75
255.659	72.75
255.892	82.75
256.124	73.75
256.357	74.75
256.59	70.75
256.823	90.75
257.056	75.75
257.289	78.75
257.521	82.75
257.754	86.75
257.987	94.75
258.22	93.75
258.452	80.75
258.685	81.75
258.918	100.75
259.151	81.75
259.383	72.75
259.616	79.75
259.849	72.75
260.081	94.75
260.314	80.75
260.547	81.75
260.779	82.75
261.012	95.75
261.244	92.75
261.477	80.75
261.71	96.75
261.942	114.75
262.175	94.75
262.407	91.75
262.64	88.75
262.872	80.75
263.105	90.75
263.337	71.75
263.57	86.75
263.802	79.75
264.035	74.75
264.267	80.75
264.499	78.75
264.732	86.75
264.964	66.75
265.197	78.75
265.429	83.75
265.661	69.75
265.894	75.75
266.126	75.75
266.358	61.75
266.591	76.75
266.823	80.75
267.055	83.75
267.287	84.75
267.52	79.75
267.752	77.75
267.984	80.75
268.216	79.75
268.448	90.75
268.681	82.75
268.913	96.75
269.145	88.75
269.377	94.75
269.609	93.75
269.841	79.75
270.073	76.75
270.306	78.75
270.538	81.75
270.77	71.75
271.002	78.75
271.234	74.75
271.466	75.75
271.698	90.75
271.93	88.75
272.162	87.75
272.394	92.75
272.626	85.75
272.858	94.75
273.09	75.75
273.322	83.75
273.553	99.75
273.785	78.75
274.017	81.75
274.249	75.75
274.481	84.75
274.713	96.75
274.945	82.75
275.176	86.75
275.408	83.75
275.64	86.75
275.872	91.75
276.104	86.75
276.335	96.75
276.567	97.75
276.799	96.75
277.031	90.75
277.262	86.75
277.494	74.75
277.726	83.75
277.957	92.75
278.189	80.75
278.421	78.75
278.652	84.75
278.884	91.75
279.115	74.75
279.347	80.75
279.579	80.75
279.81	74.75
280.042	70.75
280.273	85.75
280.505	91.75
280.736	72.75
280.968	81.75
281.199	87.75
281.431	86.75
281.662	95.75
281.894	67.75
282.125	85.75
282.356	106.75
282.588	122.75
282.819	116.75
283.051	86.75
283.282	88.75
283.513	95.75
283.745	97.75
283.976	79.75
284.207	91.75
284.439	84.75
284.67	78.75
284.901	76.75
285.132	71.75
285.364	78.75
285.595	80.75
285.826	84.75
286.057	79.75
286.288	83.75
286.52	85.75
286.751	74.75
286.982	76.75
287.213	82.75
287.444	84.75
287.675	75.75
287.906	85.75
288.138	82.75
288.369	76.75
288.6	86.75
288.831	82.75
289.062	89.75
289.293	89.75
289.524	78.75
289.755	96.75
289.986	77.75
290.217	79.75
290.448	85.75
290.679	77.75
290.91	78.75
291.141	85.75
291.371	86.75
291.602	78.75
291.833	77.75
292.064	89.75
292.295	72.75
292.526	98.75
292.757	99.75
292.987	86.75
293.218	74.75
293.449	90.75
293.68	95.75
293.91	78.75
294.141	88.75
294.372	90.75
294.603	73.75
294.833	87.75
295.064	92.75
295.295	84.75
295.525	88.75
295.756	87.75
295.987	96.75
296.217	123.75
296.448	113.75
296.679	81.75
296.909	82.75
297.14	100.75
297.37	87.75
297.601	99.75
297.831	85.75
298.062	84.75
298.292	80.75
298.523	78.75
298.753	78.75
298.984	80.75
299.214	100.75
299.445	81.75
299.675	75.75
299.905	99.75
300.136	91.75
300.366	79.75
300.597	82.75
300.827	96.75
301.057	83.75
301.288	95.75
301.518	95.75
301.748	78.75
301.979	100.75
302.209	86.75
302.439	81.75
302.669	74.75
302.9	83.75
303.13	90.75
303.36	95.75
303.59	81.75
303.82	91.75
304.051	100.75
304.281	88.75
304.511	97.75
304.741	87.75
304.971	79.75
305.201	84.75
305.431	91.75
305.661	82.75
305.891	90.75
306.121	94.75
306.352	91.75
306.582	99.75
306.812	91.75
307.042	81.75
307.272	94.75
307.502	81.75
307.731	82.75
307.961	77.75
308.191	99.75
308.421	89.75
308.651	88.75
308.881	91.75
309.111	80.75
309.341	77.75
309.571	103.75
309.8	89.75
310.03	94.75
310.26	77.75
310.49	88.75
310.72	82.75
310.949	96.75
311.179	106.75
311.409	86.75
311.639	80.75
311.868	92.75
312.098	88.75
312.328	103.75
312.557	93.75
312.787	94.75
313.017	110.75
313.246	94.75
313.476	87.75
313.706	93.75
313.935	80.75
314.165	112.75
314.394	95.75
314.624	104.75
314.853	102.75
315.083	114.75
315.312	82.75
315.542	75.75
315.771	86.75
316.001	108.75
316.23	75.75
316.46	87.75
316.689	72.75
316.919	91.75
317.148	86.75
317.377	88.75
317.607	83.75
317.836	91.75
318.065	95.75
318.295	74.75
318.524	90.75
318.753	102.75
318.983	96.75
319.212	97.75
319.441	118.75
319.67	79.75
319.9	99.75
320.129	77.75
320.358	66.75
320.587	86.75
320.816	97.75
321.046	99.75
321.275	102.75
321.504	105.75
321.733	94.75
321.962	84.75
322.191	100.75
322.42	100.75
322.649	94.75
322.878	103.75
323.108	113.75
323.337	124.75
323.566	129.75
323.795	129.75
324.024	178.75
324.253	347.75
324.482	706.75
324.71	1452.75
324.939	1922.75
325.168	731.75
325.397	225.75
325.626	130.75
325.855	130.75
326.084	107.75
326.313	140.75
326.542	129.75
326.77	210.75
326.999	410.75
327.228	864.75
327.457	1513.75
327.686	1189.75
327.914	333.75
328.143	167.75
328.372	141.75
328.6	114.75
328.829	112.75
329.058	118.75
329.287	127.75
329.515	100.75
329.744	97.75
329.972	96.75
330.201	100.75
330.43	97.75
330.658	113.75
330.887	117.75
331.115	111.75
331.344	91.75
331.572	102.75
331.801	94.75
332.03	105.75
332.258	97.75
332.486	86.75
332.715	81.75
332.943	108.75
333.172	102.75
333.4	95.75
333.629	96.75
333.857	113.75
334.085	91.75
334.314	93.75
334.542	84.75
334.771	92.75
334.999	96.75
335.227	91.75
335.455	88.75
335.684	84.75
335.912	77.75
336.14	87.75
336.369	89.75
336.597	90.75
336.825	99.75
337.053	81.75
337.281	88.75
337.51	95.75
337.738	91.75
337.966	91.75
338.194	94.75
338.422	75.75
338.65	90.75
338.878	100.75
339.106	96.75
339.334	91.75
339.562	91.75
339.79	99.75
340.018	91.75
340.246	96.75
340.474	91.75
340.702	85.75
340.93	92.75
341.158	104.75
341.386	83.75
341.614	99.75
341.842	100.75
342.07	81.75
342.298	92.75
342.526	70.75
342.754	88.75
342.981	87.75
343.209	80.75
343.437	88.75
343.665	82.75
343.893	86.75
344.12	94.75
344.348	91.75
344.576	94.75
344.804	97.75
345.031	87.75
345.259	92.75
345.487	79.75
345.714	85.75
345.942	84.75
346.17	86.75
346.397	92.75
346.625	98.75
346.853	89.75
347.08	90.75
347.308	88.75
347.535	100.75
347.763	94.75
347.99	69.75
348.218	111.75
348.445	95.75
348.673	88.75
348.9	90.75
349.128	82.75
349.355	86.75
349.583	90.75
349.81	105.75
350.037	103.75
350.265	85.75
350.492	95.75
350.72	85.75
350.947	98.75
351.174	99.75
351.402	103.75
351.629	93.75
351.856	99.75
352.083	90.75
352.311	94.75
352.538	109.75
352.765	107.75
352.992	107.75
353.22	99.75
353.447	99.75
353.674	98.75
353.901	98.75
354.128	92.75
354.355	99.75
354.583	94.75
354.81	103.75
355.037	99.75
355.264	93.75
355.491	86.75
355.718	77.75
355.945	92.75
356.172	96.75
356.399	91.75
356.626	93.75
356.853	83.75
357.08	96.75
357.307	82.75
357.534	95.75
357.761	89.75
357.988	94.75
358.215	95.75
358.441	94.75
358.668	82.75
358.895	90.75
359.122	88.75
359.349	87.75
359.576	78.75
359.802	95.75
360.029	107.75
360.256	99.75
360.483	90.75
360.709	76.75
360.936	85.75
361.163	93.75
361.39	103.75
361.616	95.75
361.843	89.75
362.07	100.75
362.296	78.75
362.523	89.75
362.749	86.75
362.976	85.75
363.203	91.75
363.429	87.75
363.656	91.75
363.882	83.75
364.109	79.75
364.335	81.75
364.562	95.75
364.788	96.75
365.015	103.75
365.241	86.75
365.468	100.75
365.694	93.75
365.92	76.75
366.147	98.75
366.373	85.75
366.599	102.75
366.826	67.75
367.052	85.75
367.278	80.75
367.505	84.75
367.731	89.75
367.957	83.75
368.184	78.75
368.41	92.75
368.636	103.75
368.862	109.75
369.089	101.75
369.315	93.75
369.541	80.75
369.767	85.75
369.993	79.75
370.219	79.75
370.445	90.75
370.672	81.75
370.898	65.75
371.124	79.75
371.35	71.75
371.576	84.75
371.802	90.75
372.028	74.75
372.254	90.75
372.48	89.75
372.706	86.75
372.932	90.75
373.158	91.75
373.384	88.75
373.61	88.75
373.835	69.75
374.061	81.75
374.287	93.75
374.513	80.75
374.739	91.75
374.965	95.75
375.191	79.75
375.416	85.75
375.642	84.75
375.868	87.75
376.094	86.75
376.319	85.75
376.545	70.75
376.771	82.75
376.997	99.75
377.222	78.75
377.448	86.75
377.674	72.75
377.899	90.75
378.125	91.75
378.35	84.75
378.576	77.75
378.802	80.75
379.027	79.75
379.253	99.75
379.478	84.75
379.704	84.75
379.929	83.75
380.155	86.75
380.38	100.75
380.606	90.75
380.831	94.75
381.057	89.75
381.282	102.75
381.507	98.75
381.733	86.75
381.958	99.75
382.184	72.75
382.409	100.75
382.634	96.75
382.86	87.75
383.085	96.75
383.31	99.75
383.535	102.75
383.761	85.75
383.986	101.75
384.211	80.75
384.436	83.75
384.662	91.75
384.887	92.75
385.112	80.75
385.337	92.75
385.562	90.75
385.787	96.75
386.013	104.75
386.238	100.75
386.463	105.75
386.688	106.75
386.913	96.75
387.138	96.75
387.363	101.75
387.588	90.75
387.813	105.75
388.038	96.75
388.263	107.75
388.488	114.75
388.713	89.75
388.938	92.75
389.163	88.75
389.387	90.75
389.612	90.75
389.837	82.75
390.062	86.75
390.287	82.75
390.512	90.75
390.736	75.75
390.961	92.75
391.186	103.75
391.411	96.75
391.636	78.75
391.86	75.75
392.085	78.75
392.31	78.75
392.534	73.75
392.759	82.75
392.984	84.75
393.208	82.75
393.433	76.75
393.658	76.75
393.882	78.75
394.107	81.75
394.331	91.75
394.556	93.75
394.78	78.75
395.005	103.75
395.229	75.75
395.454	75.75
395.678	67.75
395.903	67.75
396.127	89.75
396.352	83.75
396.576	83.75
396.801	82.75
397.025	93.75
397.249	86.75
397.474	75.75
397.698	71.75
397.922	92.75
398.147	97.75
398.371	65.75
398.595	92.75
398.82	101.75
399.044	72.75
399.268	61.75
399.492	71.75
399.717	59.75
399.941	87.75
400.165	84.75
400.389	82.75
400.613	79.75
400.837	88.75
401.062	81.75
401.286	79.75
401.51	91.75
401.734	88.75
401.958	84.75
402.182	112.75
402.406	146.75
402.63	98.75
402.854	78.75
403.078	109.75
403.302	89.75
403.526	83.75
403.75	84.75
403.974	83.75
404.198	80.75
404.422	86.75
404.645	86.75
404.869	84.75
405.093	80.75
405.317	87.75
405.541	89.75
405.765	86.75
405.988	107.75
406.212	161.75
406.436	215.75
406.66	128.75
406.883	109.75
407.107	84.75
407.331	85.75
407.555	95.75
407.778	85.75
408.002	87.75
408.226	89.75
408.449	79.75
408.673	88.75
408.896	96.75
409.12	102.75
409.344	90.75
409.567	86.75
409.791	83.75
410.014	88.75
410.238	94.75
410.461	102.75
410.685	100.75
410.908	95.75
411.132	94.75
411.355	99.75
411.578	94.75
411.802	80.75
412.025	97.75
412.249	98.75
412.472	94.75
412.695	93.75
412.919	89.75
413.142	90.75
413.365	81.75
413.589	78.75
413.812	88.75
414.035	89.75
414.258	82.75
414.482	100.75
414.705	90.75
414.928	96.75
415.151	95.75
415.374	84.75
415.597	81.75
415.821	78.75
416.044	79.75
416.267	88.75
416.49	94.75
416.713	79.75
416.936	89.75
417.159	82.75
417.382	70.75
417.605	75.75
417.828	83.75
418.051	89.75
418.274	90.75
418.497	96.75
418.72	70.75
418.943	83.75
419.166	89.75
419.389	64.75
419.611	74.75
419.834	88.75
420.057	79.75
420.28	76.75
420.503	83.75
420.726	78.75
420.948	88.75
421.171	75.75
421.394	92.75
421.617	76.75
421.839	74.75
422.062	77.75
422.285	83.75
422.507	100.75
422.73	101.75
422.953	90.75
423.175	85.75
423.398	78.75
423.621	82.75
423.843	90.75
424.066	91.75
424.288	78.75
424.511	84.75
424.733	102.75
424.956	110.75
425.178	91.75
425.401	93.75
425.623	93.75
425.846	77.75
426.068	90.75
426.291	92.75
426.513	81.75
426.735	101.75
426.958	88.75
427.18	99.75
427.402	124.75
427.625	151.75
427.847	105.75
428.069	95.75
428.292	73.75
428.514	87.75
428.736	86.75
428.958	87.75
429.181	96.75
429.403	76.75
429.625	79.75
429.847	87.75
430.069	100.75
430.292	81.75
430.514	90.75
430.736	90.75
430.958	92.75
431.18	95.75
431.402	84.75
431.624	93.75
431.846	91.75
432.068	94.75
432.29	72.75
432.512	72.75
432.734	71.75
432.956	87.75
433.178	88.75
433.4	94.75
433.622	95.75
433.844	86.75
434.066	94.75
434.287	91.75
434.509	86.75
434.731	81.75
434.953	78.75
435.175	94.75
435.397	69.75
435.618	83.75
435.84	96.75
436.062	125.75
436.284	101.75
436.505	97.75
436.727	102.75
436.949	90.75
437.17	86.75
437.392	75.75
437.614	88.75
437.835	83.75
438.057	122.75
438.278	86.75
438.5	89.75
438.721	104.75
438.943	92.75
439.165	84.75
439.386	83.75
439.608	88.75
439.829	114.75
440.05	102.75
440.272	118.75
440.493	87.75
440.715	82.75
440.936	91.75
441.158	92.75
441.379	88.75
441.6	87.75
441.822	88.75
442.043	84.75
442.264	85.75
442.486	85.75
442.707	91.75
442.928	103.75
443.149	111.75
443.371	106.75
443.592	99.75
443.813	104.75
444.034	103.75
444.255	92.75
444.476	80.75
444.698	89.75
444.919	84.75
445.14	122.75
445.361	106.75
445.582	118.75
445.803	97.75
446.024	125.75
446.245	116.75
446.466	110.75
446.687	83.75
446.908	88.75
447.129	70.75
447.35	89.75
447.571	93.75
447.792	107.75
448.013	92.75
448.234	102.75
448.455	104.75
448.675	100.75
448.896	110.75
449.117	94.75
449.338	106.75
449.559	114.75
449.779	101.75
450	83.75
450.221	64.75
450.442	96.75
450.662	93.75
450.883	100.75
451.104	100.75
451.324	84.75
451.545	98.75
451.766	82.75
451.986	82.75
452.207	81.75
452.428	78.75
452.648	87.75
452.869	100.75
453.089	112.75
453.31	108.75
453.53	88.75
453.751	81.75
453.971	84.75
454.192	106.75
454.412	90.75
454.633	74.75
454.853	87.75
455.073	87.75
455.294	73.75
455.514	100.75
455.734	88.75
455.955	77.75
456.175	90.75
456.395	88.75
456.616	69.75
456.836	75.75
457.056	83.75
457.276	84.75
457.497	98.75
457.717	81.75
457.937	74.75
458.157	85.75
458.377	86.75
458.598	100.75
458.818	136.75
459.038	154.75
459.258	101.75
459.478	90.75
459.698	86.75
459.918	80.75
460.138	83.75
460.358	91.75
460.578	79.75
460.798	79.75
461.018	82.75
461.238	80.75
461.458	93.75
461.678	90.75
461.898	93.75
462.118	81.75
462.338	80.75
462.558	82.75
462.777	87.75
462.997	92.75
463.217	81.75
463.437	81.75
463.657	75.75
463.876	86.75
464.096	90.75
464.316	88.75
464.536	86.75
464.755	91.75
464.975	92.75
465.195	154.75
465.414	157.75
465.634	94.75
465.854	96.75
466.073	80.75
466.293	81.75
466.512	83.75
466.732	81.75
466.951	85.75
467.171	85.75
467.391	86.75
467.61	103.75
467.829	99.75
468.049	97.75
468.268	82.75
468.488	90.75
468.707	73.75
468.927	77.75
469.146	81.75
469.365	97.75
469.585	78.75
469.804	72.75
470.023	95.75
470.243	79.75
470.462	103.75
470.681	111.75
470.901	100.75
471.12	67.75
471.339	95.75
471.558	94.75
471.777	92.75
471.997	82.75
472.216	77.75
472.435	91.75
472.654	110.75
472.873	74.75
473.092	77.75
473.311	85.75
473.53	80.75
473.749	73.75
473.968	99.75
474.187	102.75
474.406	94.75
474.625	84.75
474.844	94.75
475.063	80.75
475.282	92.75
475.501	69.75
475.72	98.75
475.939	107.75
476.158	81.75
476.377	88.75
476.596	103.75
476.814	79.75
477.033	88.75
477.252	85.75
477.471	71.75
477.69	92.75
477.908	77.75
478.127	64.75
478.346	84.75
478.564	105.75
478.783	99.75
479.002	92.75
479.22	86.75
479.439	84.75
479.658	97.75
479.876	99.75
480.095	89.75
480.313	84.75
480.532	91.75
480.751	88.75
480.969	90.75
481.188	90.75
481.406	85.75
481.624	84.75
481.843	68.75
482.061	78.75
482.28	74.75
482.498	82.75
482.717	95.75
482.935	78.75
483.153	80.75
483.372	84.75
483.59	88.75
483.808	84.75
484.027	86.75
484.245	76.75
484.463	88.75
484.681	97.75
484.9	91.75
485.118	82.75
485.336	90.75
485.554	91.75
485.772	103.75
485.99	95.75
486.209	107.75
486.427	99.75
486.645	100.75
486.863	113.75
487.081	88.75
487.299	92.75
487.517	100.75
487.735	107.75
487.953	91.75
488.171	78.75
488.389	106.75
488.607	96.75
488.825	90.75
489.043	80.75
489.261	89.75
489.479	106.75
489.696	90.75
489.914	93.75
490.132	92.75
490.35	95.75
490.568	97.75
490.786	97.75
491.003	97.75
491.221	99.75
491.439	88.75
491.657	88.75
491.874	92.75
492.092	78.75
492.31	92.75
492.527	89.75
492.745	86.75
492.963	80.75
493.18	93.75
493.398	93.75
493.615	106.75
493.833	99.75
494.05	94.75
494.268	89.75
494.485	80.75
494.703	83.75
494.92	85.75
495.138	91.75
495.355	88.75
495.573	86.75
495.79	94.75
496.008	94.75
496.225	72.75
496.442	82.75
496.66	87.75
496.877	97.75
497.094	83.75
497.312	80.75
497.529	84.75
497.746	99.75
497.963	91.75
498.181	94.75
498.398	78.75
498.615	119.75
498.832	100.75
499.049	79.75
499.267	83.75
499.484	86.75
499.701	86.75
499.918	92.75
500.135	94.75
500.352	76.75
500.569	80.75
500.786	92.75
501.003	89.75
501.22	91.75
501.437	101.75
501.654	89.75
501.871	111.75
502.088	82.75
502.305	96.75
502.522	88.75
502.739	84.75
502.956	93.75
503.172	91.75
503.389	90.75
503.606	106.75
503.823	86.75
504.04	86.75
504.256	99.75
504.473	79.75
504.69	83.75
504.907	74.75
505.123	80.75
505.34	84.75
505.557	87.75
505.773	87.75
505.99	90.75
506.207	77.75
506.423	77.75
506.64	92.75
506.856	80.75
507.073	81.75
507.289	96.75
507.506	74.75
507.722	115.75
507.939	97.75
508.155	93.75
508.372	83.75
508.588	86.75
508.805	93.75
509.021	93.75
509.238	94.75
509.454	92.75
509.67	96.75
509.887	101.75
510.103	128.75
510.319	198.75
510.536	729.75
510.752	2167.75
510.968	606.75
511.184	140.75
511.401	110.75
511.617	104.75
511.833	100.75
512.049	78.75
512.265	84.75
512.481	99.75
512.698	105.75
512.914	88.75
513.13	89.75
513.346	75.75
513.562	73.75
513.778	99.75
513.994	91.75
514.21	108.75
514.426	106.75
514.642	136.75
514.858	123.75
515.074	159.75
515.29	445.75
515.506	1351.75
515.721	489.75
515.937	145.75
516.153	82.75
516.369	105.75
516.585	98.75
516.801	94.75
517.016	85.75
517.232	96.75
