Data from Uncirc_1992_H10_HRD10591_00055.txt Node
Date: Wed Jan 03 11:46:27 EST 2024
User: Yrep
Spectrometer: HR+D1059
Trigger mode: 1
Integration Time (sec): 1.000000E-1
Scans to average: 1
Electric dark correction enabled: true
Nonlinearity correction enabled: false
Boxcar width: 0
XAxis mode: Wavelengths
Number of Pixels in Spectrum: 2048
>>>>>Begin Spectral Data<<<<<
223.165	-8.94
223.4	-8.94
223.635	-8.94
223.869	-18.94
224.104	-22.94
224.338	-16.94
224.573	-16.94
224.808	-12.94
225.042	-12.94
225.277	-8.94
225.511	-2.94
225.746	12.06
225.98	8.06
226.215	16.06
226.449	10.06
226.683	31.06
226.918	26.06
227.152	19.06
227.387	29.06
227.621	38.06
227.856	50.06
228.09	43.06
228.324	39.06
228.559	72.06
228.793	63.06
229.027	66.06
229.262	61.06
229.496	84.06
229.73	75.06
229.964	86.06
230.199	77.06
230.433	75.06
230.667	75.06
230.901	75.06
231.136	87.06
231.37	76.06
231.604	87.06
231.838	87.06
232.072	80.06
232.306	77.06
232.541	79.06
232.775	86.06
233.009	86.06
233.243	66.06
233.477	74.06
233.711	82.06
233.945	77.06
234.179	88.06
234.413	67.06
234.647	84.06
234.881	73.06
235.115	67.06
235.349	93.06
235.583	86.06
235.817	59.06
236.051	71.06
236.285	73.06
236.519	64.06
236.753	66.06
236.987	76.06
237.221	74.06
237.455	81.06
237.689	67.06
237.922	76.06
238.156	82.06
238.39	67.06
238.624	76.06
238.858	70.06
239.091	71.06
239.325	74.06
239.559	77.06
239.793	75.06
240.027	91.06
240.26	76.06
240.494	71.06
240.728	80.06
240.961	81.06
241.195	74.06
241.429	75.06
241.662	70.06
241.896	68.06
242.13	67.06
242.363	69.06
242.597	90.06
242.83	64.06
243.064	73.06
243.298	78.06
243.531	66.06
243.765	68.06
243.998	68.06
244.232	80.06
244.465	92.06
244.699	79.06
244.932	79.06
245.166	68.06
245.399	72.06
245.633	91.06
245.866	75.06
246.099	77.06
246.333	74.06
246.566	83.06
246.8	69.06
247.033	78.06
247.266	77.06
247.5	79.06
247.733	73.06
247.966	87.06
248.2	70.06
248.433	90.06
248.666	73.06
248.899	67.06
249.133	79.06
249.366	86.06
249.599	103.06
249.832	82.06
250.066	78.06
250.299	87.06
250.532	80.06
250.765	87.06
250.998	78.06
251.231	72.06
251.465	83.06
251.698	72.06
251.931	97.06
252.164	85.06
252.397	84.06
252.63	80.06
252.863	80.06
253.096	78.06
253.329	83.06
253.562	89.06
253.795	78.06
254.028	92.06
254.261	75.06
254.494	72.06
254.727	80.06
254.96	88.06
255.193	90.06
255.426	81.06
255.659	76.06
255.892	91.06
256.124	74.06
256.357	87.06
256.59	82.06
256.823	82.06
257.056	86.06
257.289	60.06
257.521	89.06
257.754	91.06
257.987	87.06
258.22	82.06
258.452	70.06
258.685	78.06
258.918	85.06
259.151	87.06
259.383	81.06
259.616	80.06
259.849	65.06
260.081	89.06
260.314	90.06
260.547	82.06
260.779	84.06
261.012	91.06
261.244	87.06
261.477	84.06
261.71	85.06
261.942	113.06
262.175	103.06
262.407	80.06
262.64	83.06
262.872	84.06
263.105	79.06
263.337	84.06
263.57	82.06
263.802	89.06
264.035	80.06
264.267	81.06
264.499	89.06
264.732	68.06
264.964	85.06
265.197	72.06
265.429	89.06
265.661	63.06
265.894	80.06
266.126	82.06
266.358	80.06
266.591	77.06
266.823	93.06
267.055	75.06
267.287	72.06
267.52	78.06
267.752	90.06
267.984	76.06
268.216	81.06
268.448	76.06
268.681	70.06
268.913	89.06
269.145	73.06
269.377	87.06
269.609	63.06
269.841	91.06
270.073	75.06
270.306	89.06
270.538	83.06
270.77	86.06
271.002	79.06
271.234	102.06
271.466	83.06
271.698	75.06
271.93	74.06
272.162	82.06
272.394	83.06
272.626	64.06
272.858	79.06
273.09	81.06
273.322	83.06
273.553	92.06
273.785	81.06
274.017	89.06
274.249	91.06
274.481	94.06
274.713	74.06
274.945	74.06
275.176	82.06
275.408	77.06
275.64	77.06
275.872	83.06
276.104	63.06
276.335	77.06
276.567	97.06
276.799	99.06
277.031	96.06
277.262	76.06
277.494	74.06
277.726	83.06
277.957	86.06
278.189	86.06
278.421	84.06
278.652	86.06
278.884	90.06
279.115	82.06
279.347	80.06
279.579	60.06
279.81	76.06
280.042	82.06
280.273	92.06
280.505	90.06
280.736	61.06
280.968	79.06
281.199	81.06
281.431	79.06
281.662	85.06
281.894	87.06
282.125	97.06
282.356	93.06
282.588	116.06
282.819	106.06
283.051	91.06
283.282	87.06
283.513	87.06
283.745	82.06
283.976	78.06
284.207	82.06
284.439	87.06
284.67	86.06
284.901	92.06
285.132	75.06
285.364	92.06
285.595	81.06
285.826	88.06
286.057	80.06
286.288	71.06
286.52	77.06
286.751	75.06
286.982	80.06
287.213	72.06
287.444	86.06
287.675	92.06
287.906	72.06
288.138	90.06
288.369	95.06
288.6	90.06
288.831	102.06
289.062	84.06
289.293	96.06
289.524	78.06
289.755	76.06
289.986	93.06
290.217	91.06
290.448	78.06
290.679	95.06
290.91	92.06
291.141	74.06
291.371	92.06
291.602	80.06
291.833	85.06
292.064	82.06
292.295	81.06
292.526	76.06
292.757	82.06
292.987	91.06
293.218	76.06
293.449	81.06
293.68	90.06
293.91	84.06
294.141	102.06
294.372	76.06
294.603	88.06
294.833	84.06
295.064	88.06
295.295	88.06
295.525	90.06
295.756	102.06
295.987	106.06
296.217	130.06
296.448	115.06
296.679	76.06
296.909	92.06
297.14	91.06
297.37	89.06
297.601	91.06
297.831	87.06
298.062	91.06
298.292	81.06
298.523	85.06
298.753	83.06
298.984	91.06
299.214	80.06
299.445	90.06
299.675	92.06
299.905	86.06
300.136	82.06
300.366	80.06
300.597	92.06
300.827	90.06
301.057	100.06
301.288	90.06
301.518	92.06
301.748	84.06
301.979	81.06
302.209	93.06
302.439	98.06
302.669	96.06
302.9	92.06
303.13	88.06
303.36	101.06
303.59	99.06
303.82	98.06
304.051	110.06
304.281	75.06
304.511	81.06
304.741	95.06
304.971	86.06
305.201	79.06
305.431	98.06
305.661	100.06
305.891	95.06
306.121	83.06
306.352	98.06
306.582	99.06
306.812	87.06
307.042	87.06
307.272	84.06
307.502	78.06
307.731	95.06
307.961	82.06
308.191	93.06
308.421	85.06
308.651	89.06
308.881	87.06
309.111	96.06
309.341	81.06
309.571	98.06
309.8	104.06
310.03	100.06
310.26	96.06
310.49	92.06
310.72	84.06
310.949	94.06
311.179	94.06
311.409	92.06
311.639	101.06
311.868	94.06
312.098	89.06
312.328	86.06
312.557	98.06
312.787	107.06
313.017	99.06
313.246	97.06
313.476	91.06
313.706	95.06
313.935	93.06
314.165	100.06
314.394	94.06
314.624	86.06
314.853	88.06
315.083	89.06
315.312	97.06
315.542	89.06
315.771	91.06
316.001	90.06
316.23	100.06
316.46	96.06
316.689	87.06
316.919	83.06
317.148	84.06
317.377	92.06
317.607	90.06
317.836	76.06
318.065	95.06
318.295	85.06
318.524	92.06
318.753	102.06
318.983	89.06
319.212	77.06
319.441	104.06
319.67	104.06
319.9	91.06
320.129	91.06
320.358	104.06
320.587	100.06
320.816	99.06
321.046	97.06
321.275	91.06
321.504	98.06
321.733	89.06
321.962	83.06
322.191	106.06
322.42	84.06
322.649	103.06
322.878	110.06
323.108	105.06
323.337	117.06
323.566	138.06
323.795	155.06
324.024	200.06
324.253	353.06
324.482	775.06
324.71	1549.06
324.939	2016.06
325.168	758.06
325.397	230.06
325.626	135.06
325.855	116.06
326.084	115.06
326.313	138.06
326.542	162.06
326.77	203.06
326.999	418.06
327.228	880.06
327.457	1555.06
327.686	1222.06
327.914	357.06
328.143	175.06
328.372	125.06
328.6	116.06
328.829	115.06
329.058	130.06
329.287	111.06
329.515	118.06
329.744	99.06
329.972	99.06
330.201	99.06
330.43	94.06
330.658	126.06
330.887	119.06
331.115	115.06
331.344	107.06
331.572	97.06
331.801	112.06
332.03	98.06
332.258	104.06
332.486	82.06
332.715	104.06
332.943	86.06
333.172	90.06
333.4	95.06
333.629	88.06
333.857	100.06
334.085	104.06
334.314	86.06
334.542	86.06
334.771	106.06
334.999	86.06
335.227	92.06
335.455	91.06
335.684	88.06
335.912	89.06
336.14	86.06
336.369	92.06
336.597	107.06
336.825	96.06
337.053	72.06
337.281	102.06
337.51	102.06
337.738	84.06
337.966	97.06
338.194	84.06
338.422	79.06
338.65	101.06
338.878	88.06
339.106	82.06
339.334	91.06
339.562	102.06
339.79	92.06
340.018	87.06
340.246	91.06
340.474	86.06
340.702	91.06
340.93	88.06
341.158	85.06
341.386	86.06
341.614	95.06
341.842	97.06
342.07	95.06
342.298	89.06
342.526	92.06
342.754	87.06
342.981	90.06
343.209	99.06
343.437	97.06
343.665	91.06
343.893	100.06
344.12	92.06
344.348	93.06
344.576	92.06
344.804	104.06
345.031	89.06
345.259	104.06
345.487	87.06
345.714	89.06
345.942	87.06
346.17	98.06
346.397	94.06
346.625	82.06
346.853	86.06
347.08	83.06
347.308	92.06
347.535	91.06
347.763	84.06
347.99	90.06
348.218	92.06
348.445	98.06
348.673	90.06
348.9	96.06
349.128	88.06
349.355	90.06
349.583	106.06
349.81	87.06
350.037	87.06
350.265	95.06
350.492	84.06
350.72	91.06
350.947	103.06
351.174	104.06
351.402	97.06
351.629	115.06
351.856	102.06
352.083	112.06
352.311	102.06
352.538	114.06
352.765	104.06
352.992	105.06
353.22	98.06
353.447	100.06
353.674	92.06
353.901	80.06
354.128	90.06
354.355	99.06
354.583	98.06
354.81	92.06
355.037	90.06
355.264	94.06
355.491	83.06
355.718	85.06
355.945	84.06
356.172	98.06
356.399	94.06
356.626	75.06
356.853	100.06
357.08	89.06
357.307	92.06
357.534	80.06
357.761	80.06
357.988	95.06
358.215	97.06
358.441	81.06
358.668	84.06
358.895	73.06
359.122	83.06
359.349	77.06
359.576	96.06
359.802	100.06
360.029	118.06
360.256	109.06
360.483	93.06
360.709	96.06
360.936	100.06
361.163	92.06
361.39	94.06
361.616	92.06
361.843	94.06
362.07	89.06
362.296	97.06
362.523	91.06
362.749	85.06
362.976	94.06
363.203	85.06
363.429	93.06
363.656	84.06
363.882	96.06
364.109	85.06
364.335	92.06
364.562	100.06
364.788	86.06
365.015	95.06
365.241	96.06
365.468	107.06
365.694	98.06
365.92	81.06
366.147	73.06
366.373	82.06
366.599	91.06
366.826	83.06
367.052	87.06
367.278	91.06
367.505	86.06
367.731	91.06
367.957	80.06
368.184	90.06
368.41	106.06
368.636	116.06
368.862	113.06
369.089	99.06
369.315	98.06
369.541	86.06
369.767	86.06
369.993	80.06
370.219	82.06
370.445	82.06
370.672	77.06
370.898	84.06
371.124	98.06
371.35	80.06
371.576	86.06
371.802	95.06
372.028	77.06
372.254	88.06
372.48	90.06
372.706	94.06
372.932	89.06
373.158	78.06
373.384	81.06
373.61	88.06
373.835	93.06
374.061	87.06
374.287	92.06
374.513	99.06
374.739	80.06
374.965	91.06
375.191	91.06
375.416	89.06
375.642	90.06
375.868	103.06
376.094	83.06
376.319	83.06
376.545	70.06
376.771	95.06
376.997	96.06
377.222	91.06
377.448	83.06
377.674	78.06
377.899	84.06
378.125	82.06
378.35	94.06
378.576	91.06
378.802	106.06
379.027	99.06
379.253	82.06
379.478	77.06
379.704	82.06
379.929	80.06
380.155	98.06
380.38	96.06
380.606	90.06
380.831	86.06
381.057	106.06
381.282	91.06
381.507	90.06
381.733	100.06
381.958	96.06
382.184	92.06
382.409	99.06
382.634	99.06
382.86	78.06
383.085	90.06
383.31	91.06
383.535	88.06
383.761	102.06
383.986	88.06
384.211	91.06
384.436	102.06
384.662	100.06
384.887	86.06
385.112	100.06
385.337	92.06
385.562	102.06
385.787	86.06
386.013	95.06
386.238	104.06
386.463	119.06
386.688	92.06
386.913	94.06
387.138	97.06
387.363	104.06
387.588	99.06
387.813	87.06
388.038	92.06
388.263	104.06
388.488	95.06
388.713	91.06
388.938	91.06
389.163	114.06
389.387	92.06
389.612	94.06
389.837	92.06
390.062	89.06
390.287	84.06
390.512	97.06
390.736	77.06
390.961	90.06
391.186	92.06
391.411	108.06
391.636	86.06
391.86	88.06
392.085	87.06
392.31	82.06
392.534	78.06
392.759	82.06
392.984	75.06
393.208	87.06
393.433	79.06
393.658	88.06
393.882	94.06
394.107	87.06
394.331	89.06
394.556	90.06
394.78	82.06
395.005	81.06
395.229	99.06
395.454	82.06
395.678	84.06
395.903	86.06
396.127	87.06
396.352	89.06
396.576	84.06
396.801	84.06
397.025	79.06
397.249	84.06
397.474	96.06
397.698	91.06
397.922	82.06
398.147	94.06
398.371	86.06
398.595	83.06
398.82	98.06
399.044	89.06
399.268	78.06
399.492	86.06
399.717	80.06
399.941	86.06
400.165	102.06
400.389	85.06
400.613	83.06
400.837	80.06
401.062	82.06
401.286	81.06
401.51	96.06
401.734	94.06
401.958	102.06
402.182	124.06
402.406	163.06
402.63	119.06
402.854	104.06
403.078	81.06
403.302	76.06
403.526	79.06
403.75	84.06
403.974	72.06
404.198	80.06
404.422	81.06
404.645	88.06
404.869	89.06
405.093	81.06
405.317	74.06
405.541	100.06
405.765	98.06
405.988	114.06
406.212	155.06
406.436	202.06
406.66	137.06
406.883	89.06
407.107	81.06
407.331	82.06
407.555	86.06
407.778	97.06
408.002	99.06
408.226	82.06
408.449	79.06
408.673	88.06
408.896	89.06
409.12	96.06
409.344	84.06
409.567	86.06
409.791	93.06
410.014	81.06
410.238	94.06
410.461	89.06
410.685	96.06
410.908	106.06
411.132	96.06
411.355	92.06
411.578	83.06
411.802	93.06
412.025	86.06
412.249	82.06
412.472	98.06
412.695	97.06
412.919	96.06
413.142	83.06
413.365	91.06
413.589	82.06
413.812	84.06
414.035	98.06
414.258	89.06
414.482	91.06
414.705	100.06
414.928	80.06
415.151	74.06
415.374	81.06
415.597	88.06
415.821	74.06
416.044	83.06
416.267	93.06
416.49	82.06
416.713	93.06
416.936	97.06
417.159	91.06
417.382	99.06
417.605	97.06
417.828	82.06
418.051	81.06
418.274	81.06
418.497	89.06
418.72	71.06
418.943	78.06
419.166	93.06
419.389	84.06
419.611	81.06
419.834	76.06
420.057	97.06
420.28	74.06
420.503	90.06
420.726	94.06
420.948	78.06
421.171	91.06
421.394	97.06
421.617	88.06
421.839	99.06
422.062	86.06
422.285	103.06
422.507	101.06
422.73	98.06
422.953	105.06
423.175	92.06
423.398	87.06
423.621	83.06
423.843	81.06
424.066	82.06
424.288	80.06
424.511	82.06
424.733	97.06
424.956	81.06
425.178	97.06
425.401	86.06
425.623	105.06
425.846	105.06
426.068	85.06
426.291	75.06
426.513	83.06
426.735	87.06
426.958	83.06
427.18	82.06
427.402	129.06
427.625	139.06
427.847	110.06
428.069	90.06
428.292	87.06
428.514	83.06
428.736	88.06
428.958	88.06
429.181	91.06
429.403	94.06
429.625	90.06
429.847	102.06
430.069	81.06
430.292	76.06
430.514	91.06
430.736	94.06
430.958	79.06
431.18	70.06
431.402	72.06
431.624	74.06
431.846	95.06
432.068	89.06
432.29	88.06
432.512	90.06
432.734	80.06
432.956	72.06
433.178	98.06
433.4	90.06
433.622	79.06
433.844	78.06
434.066	87.06
434.287	87.06
434.509	93.06
434.731	93.06
434.953	96.06
435.175	100.06
435.397	82.06
435.618	91.06
435.84	96.06
436.062	107.06
436.284	109.06
436.505	99.06
436.727	96.06
436.949	99.06
437.17	86.06
437.392	83.06
437.614	85.06
437.835	108.06
438.057	107.06
438.278	99.06
438.5	108.06
438.721	112.06
438.943	94.06
439.165	96.06
439.386	100.06
439.608	93.06
439.829	93.06
440.05	107.06
440.272	140.06
440.493	88.06
440.715	83.06
440.936	74.06
441.158	87.06
441.379	86.06
441.6	95.06
441.822	91.06
442.043	87.06
442.264	105.06
442.486	114.06
442.707	90.06
442.928	116.06
443.149	129.06
443.371	127.06
443.592	89.06
443.813	107.06
444.034	104.06
444.255	87.06
444.476	90.06
444.698	90.06
444.919	74.06
445.14	127.06
445.361	119.06
445.582	129.06
445.803	131.06
446.024	121.06
446.245	128.06
446.466	101.06
446.687	75.06
446.908	82.06
447.129	78.06
447.35	95.06
447.571	82.06
447.792	87.06
448.013	84.06
448.234	96.06
448.455	83.06
448.675	107.06
448.896	111.06
449.117	87.06
449.338	90.06
449.559	127.06
449.779	126.06
450	94.06
450.221	90.06
450.442	80.06
450.662	95.06
450.883	85.06
451.104	104.06
451.324	92.06
451.545	96.06
451.766	91.06
451.986	89.06
452.207	78.06
452.428	92.06
452.648	97.06
452.869	95.06
453.089	122.06
453.31	112.06
453.53	95.06
453.751	89.06
453.971	94.06
454.192	103.06
454.412	82.06
454.633	78.06
454.853	76.06
455.073	86.06
455.294	86.06
455.514	84.06
455.734	83.06
455.955	73.06
456.175	73.06
456.395	91.06
456.616	73.06
456.836	83.06
457.056	79.06
457.276	76.06
457.497	95.06
457.717	77.06
457.937	83.06
458.157	94.06
458.377	82.06
458.598	89.06
458.818	138.06
459.038	137.06
459.258	105.06
459.478	80.06
459.698	82.06
459.918	79.06
460.138	78.06
460.358	78.06
460.578	95.06
460.798	95.06
461.018	91.06
461.238	81.06
461.458	86.06
461.678	86.06
461.898	82.06
462.118	86.06
462.338	93.06
462.558	75.06
462.777	86.06
462.997	81.06
463.217	77.06
463.437	89.06
463.657	85.06
463.876	83.06
464.096	86.06
464.316	78.06
464.536	95.06
464.755	97.06
464.975	114.06
465.195	152.06
465.414	154.06
465.634	79.06
465.854	79.06
466.073	85.06
466.293	84.06
466.512	72.06
466.732	82.06
466.951	92.06
467.171	91.06
467.391	96.06
467.61	96.06
467.829	95.06
468.049	85.06
468.268	96.06
468.488	82.06
468.707	80.06
468.927	79.06
469.146	87.06
469.365	78.06
469.585	83.06
469.804	80.06
470.023	94.06
470.243	98.06
470.462	99.06
470.681	89.06
470.901	92.06
471.12	76.06
471.339	86.06
471.558	97.06
471.777	81.06
471.997	83.06
472.216	75.06
472.435	105.06
472.654	93.06
472.873	79.06
473.092	79.06
473.311	89.06
473.53	87.06
473.749	99.06
473.968	102.06
474.187	93.06
474.406	101.06
474.625	79.06
474.844	100.06
475.063	79.06
475.282	78.06
475.501	86.06
475.72	79.06
475.939	81.06
476.158	87.06
476.377	79.06
476.596	92.06
476.814	98.06
477.033	96.06
477.252	80.06
477.471	96.06
477.69	86.06
477.908	78.06
478.127	91.06
478.346	87.06
478.564	76.06
478.783	84.06
479.002	87.06
479.22	83.06
479.439	92.06
479.658	109.06
479.876	88.06
480.095	97.06
480.313	91.06
480.532	81.06
480.751	93.06
480.969	91.06
481.188	92.06
481.406	76.06
481.624	88.06
481.843	89.06
482.061	90.06
482.28	99.06
482.498	90.06
482.717	91.06
482.935	76.06
483.153	87.06
483.372	92.06
483.59	85.06
483.808	91.06
484.027	90.06
484.245	84.06
484.463	96.06
484.681	91.06
484.9	98.06
485.118	62.06
485.336	90.06
485.554	95.06
485.772	95.06
485.99	102.06
486.209	87.06
486.427	88.06
486.645	105.06
486.863	97.06
487.081	89.06
487.299	90.06
487.517	102.06
487.735	78.06
487.953	87.06
488.171	80.06
488.389	99.06
488.607	96.06
488.825	94.06
489.043	75.06
489.261	87.06
489.479	91.06
489.696	89.06
489.914	83.06
490.132	94.06
490.35	105.06
490.568	93.06
490.786	101.06
491.003	95.06
491.221	86.06
491.439	94.06
491.657	88.06
491.874	93.06
492.092	92.06
492.31	99.06
492.527	98.06
492.745	90.06
492.963	98.06
493.18	96.06
493.398	70.06
493.615	110.06
493.833	87.06
494.05	88.06
494.268	91.06
494.485	95.06
494.703	76.06
494.92	68.06
495.138	80.06
495.355	99.06
495.573	82.06
495.79	89.06
496.008	98.06
496.225	79.06
496.442	83.06
496.66	93.06
496.877	73.06
497.094	81.06
497.312	100.06
497.529	102.06
497.746	97.06
497.963	98.06
498.181	91.06
498.398	84.06
498.615	104.06
498.832	92.06
499.049	88.06
499.267	85.06
499.484	99.06
499.701	94.06
499.918	83.06
500.135	78.06
500.352	92.06
500.569	89.06
500.786	100.06
501.003	89.06
501.22	85.06
501.437	101.06
501.654	97.06
501.871	107.06
502.088	102.06
502.305	89.06
502.522	100.06
502.739	99.06
502.956	87.06
503.172	88.06
503.389	88.06
503.606	99.06
503.823	93.06
504.04	94.06
504.256	80.06
504.473	86.06
504.69	85.06
504.907	96.06
505.123	87.06
505.34	97.06
505.557	94.06
505.773	86.06
505.99	89.06
506.207	82.06
506.423	89.06
506.64	80.06
506.856	79.06
507.073	87.06
507.289	93.06
507.506	89.06
507.722	96.06
507.939	108.06
508.155	100.06
508.372	91.06
508.588	92.06
508.805	88.06
509.021	97.06
509.238	96.06
509.454	98.06
509.67	97.06
509.887	104.06
510.103	123.06
510.319	211.06
510.536	765.06
510.752	2380.06
510.968	638.06
511.184	141.06
511.401	115.06
511.617	89.06
511.833	82.06
512.049	91.06
512.265	93.06
512.481	99.06
512.698	73.06
512.914	90.06
513.13	90.06
513.346	82.06
513.562	80.06
513.778	94.06
513.994	102.06
514.21	101.06
514.426	120.06
514.642	118.06
514.858	113.06
515.074	168.06
515.29	445.06
515.506	1445.06
515.721	513.06
515.937	156.06
516.153	107.06
516.369	96.06
516.585	90.06
516.801	85.06
517.016	83.06
