Data from Uncirc_1992_H10_HRD10591_00048.txt Node
Date: Wed Jan 03 11:46:25 EST 2024
User: Yrep
Spectrometer: HR+D1059
Trigger mode: 1
Integration Time (sec): 1.000000E-1
Scans to average: 1
Electric dark correction enabled: true
Nonlinearity correction enabled: false
Boxcar width: 0
XAxis mode: Wavelengths
Number of Pixels in Spectrum: 2048
>>>>>Begin Spectral Data<<<<<
223.165	-12.44
223.4	-12.44
223.635	-12.44
223.869	-27.44
224.104	-25.44
224.338	-20.44
224.573	1.56
224.808	-9.44
225.042	-12.44
225.277	-6.44
225.511	1.56
225.746	5.56
225.98	8.56
226.215	16.56
226.449	13.56
226.683	11.56
226.918	27.56
227.152	27.56
227.387	43.56
227.621	45.56
227.856	37.56
228.09	40.56
228.324	59.56
228.559	56.56
228.793	62.56
229.027	71.56
229.262	60.56
229.496	59.56
229.73	94.56
229.964	71.56
230.199	78.56
230.433	87.56
230.667	78.56
230.901	86.56
231.136	89.56
231.37	69.56
231.604	86.56
231.838	98.56
232.072	88.56
232.306	75.56
232.541	76.56
232.775	75.56
233.009	75.56
233.243	92.56
233.477	75.56
233.711	91.56
233.945	76.56
234.179	77.56
234.413	74.56
234.647	98.56
234.881	80.56
235.115	83.56
235.349	80.56
235.583	80.56
235.817	82.56
236.051	74.56
236.285	80.56
236.519	70.56
236.753	69.56
236.987	81.56
237.221	74.56
237.455	78.56
237.689	70.56
237.922	75.56
238.156	75.56
238.39	69.56
238.624	65.56
238.858	79.56
239.091	85.56
239.325	68.56
239.559	79.56
239.793	86.56
240.027	70.56
240.26	76.56
240.494	80.56
240.728	69.56
240.961	72.56
241.195	69.56
241.429	84.56
241.662	76.56
241.896	90.56
242.13	74.56
242.363	73.56
242.597	83.56
242.83	85.56
243.064	93.56
243.298	79.56
243.531	78.56
243.765	76.56
243.998	85.56
244.232	82.56
244.465	70.56
244.699	79.56
244.932	66.56
245.166	74.56
245.399	84.56
245.633	74.56
245.866	78.56
246.099	67.56
246.333	85.56
246.566	74.56
246.8	81.56
247.033	74.56
247.266	87.56
247.5	84.56
247.733	76.56
247.966	75.56
248.2	89.56
248.433	81.56
248.666	75.56
248.899	66.56
249.133	83.56
249.366	101.56
249.599	98.56
249.832	81.56
250.066	76.56
250.299	82.56
250.532	83.56
250.765	82.56
250.998	73.56
251.231	70.56
251.465	75.56
251.698	89.56
251.931	87.56
252.164	78.56
252.397	83.56
252.63	76.56
252.863	72.56
253.096	71.56
253.329	91.56
253.562	84.56
253.795	80.56
254.028	84.56
254.261	74.56
254.494	90.56
254.727	74.56
254.96	87.56
255.193	71.56
255.426	79.56
255.659	69.56
255.892	79.56
256.124	92.56
256.357	95.56
256.59	78.56
256.823	80.56
257.056	77.56
257.289	87.56
257.521	78.56
257.754	75.56
257.987	72.56
258.22	92.56
258.452	87.56
258.685	76.56
258.918	82.56
259.151	85.56
259.383	79.56
259.616	80.56
259.849	90.56
260.081	76.56
260.314	97.56
260.547	76.56
260.779	74.56
261.012	92.56
261.244	79.56
261.477	72.56
261.71	89.56
261.942	110.56
262.175	103.56
262.407	82.56
262.64	76.56
262.872	83.56
263.105	88.56
263.337	79.56
263.57	88.56
263.802	94.56
264.035	80.56
264.267	82.56
264.499	75.56
264.732	85.56
264.964	84.56
265.197	91.56
265.429	66.56
265.661	77.56
265.894	77.56
266.126	79.56
266.358	85.56
266.591	88.56
266.823	83.56
267.055	79.56
267.287	83.56
267.52	71.56
267.752	87.56
267.984	100.56
268.216	79.56
268.448	82.56
268.681	87.56
268.913	93.56
269.145	90.56
269.377	83.56
269.609	82.56
269.841	94.56
270.073	81.56
270.306	84.56
270.538	90.56
270.77	90.56
271.002	78.56
271.234	80.56
271.466	84.56
271.698	75.56
271.93	81.56
272.162	94.56
272.394	80.56
272.626	83.56
272.858	80.56
273.09	61.56
273.322	79.56
273.553	86.56
273.785	82.56
274.017	74.56
274.249	80.56
274.481	78.56
274.713	76.56
274.945	73.56
275.176	69.56
275.408	68.56
275.64	70.56
275.872	83.56
276.104	82.56
276.335	87.56
276.567	103.56
276.799	110.56
277.031	92.56
277.262	82.56
277.494	90.56
277.726	88.56
277.957	81.56
278.189	86.56
278.421	91.56
278.652	80.56
278.884	88.56
279.115	91.56
279.347	69.56
279.579	92.56
279.81	97.56
280.042	97.56
280.273	79.56
280.505	78.56
280.736	86.56
280.968	90.56
281.199	85.56
281.431	86.56
281.662	88.56
281.894	99.56
282.125	101.56
282.356	103.56
282.588	117.56
282.819	109.56
283.051	98.56
283.282	78.56
283.513	92.56
283.745	80.56
283.976	96.56
284.207	78.56
284.439	83.56
284.67	78.56
284.901	99.56
285.132	98.56
285.364	90.56
285.595	92.56
285.826	78.56
286.057	90.56
286.288	88.56
286.52	93.56
286.751	80.56
286.982	82.56
287.213	85.56
287.444	88.56
287.675	88.56
287.906	94.56
288.138	74.56
288.369	105.56
288.6	105.56
288.831	89.56
289.062	97.56
289.293	89.56
289.524	78.56
289.755	98.56
289.986	92.56
290.217	90.56
290.448	94.56
290.679	95.56
290.91	86.56
291.141	76.56
291.371	79.56
291.602	83.56
291.833	78.56
292.064	98.56
292.295	94.56
292.526	91.56
292.757	91.56
292.987	79.56
293.218	89.56
293.449	95.56
293.68	92.56
293.91	79.56
294.141	91.56
294.372	90.56
294.603	95.56
294.833	89.56
295.064	90.56
295.295	93.56
295.525	85.56
295.756	84.56
295.987	118.56
296.217	128.56
296.448	111.56
296.679	94.56
296.909	95.56
297.14	100.56
297.37	96.56
297.601	92.56
297.831	91.56
298.062	90.56
298.292	85.56
298.523	84.56
298.753	95.56
298.984	86.56
299.214	99.56
299.445	89.56
299.675	98.56
299.905	81.56
300.136	93.56
300.366	85.56
300.597	87.56
300.827	83.56
301.057	84.56
301.288	110.56
301.518	100.56
301.748	90.56
301.979	91.56
302.209	95.56
302.439	89.56
302.669	93.56
302.9	77.56
303.13	92.56
303.36	98.56
303.59	91.56
303.82	114.56
304.051	100.56
304.281	90.56
304.511	87.56
304.741	95.56
304.971	78.56
305.201	87.56
305.431	98.56
305.661	103.56
305.891	91.56
306.121	93.56
306.352	94.56
306.582	96.56
306.812	98.56
307.042	85.56
307.272	107.56
307.502	95.56
307.731	79.56
307.961	85.56
308.191	90.56
308.421	99.56
308.651	103.56
308.881	100.56
309.111	79.56
309.341	87.56
309.571	91.56
309.8	97.56
310.03	95.56
310.26	97.56
310.49	93.56
310.72	100.56
310.949	96.56
311.179	90.56
311.409	103.56
311.639	97.56
311.868	78.56
312.098	97.56
312.328	83.56
312.557	105.56
312.787	97.56
313.017	107.56
313.246	95.56
313.476	85.56
313.706	98.56
313.935	96.56
314.165	103.56
314.394	99.56
314.624	86.56
314.853	87.56
315.083	101.56
315.312	91.56
315.542	87.56
315.771	102.56
316.001	98.56
316.23	96.56
316.46	97.56
316.689	106.56
316.919	76.56
317.148	94.56
317.377	91.56
317.607	104.56
317.836	89.56
318.065	94.56
318.295	92.56
318.524	99.56
318.753	102.56
318.983	98.56
319.212	107.56
319.441	90.56
319.67	92.56
319.9	88.56
320.129	109.56
320.358	92.56
320.587	107.56
320.816	95.56
321.046	103.56
321.275	98.56
321.504	89.56
321.733	90.56
321.962	94.56
322.191	87.56
322.42	97.56
322.649	106.56
322.878	114.56
323.108	112.56
323.337	116.56
323.566	106.56
323.795	136.56
324.024	191.56
324.253	341.56
324.482	711.56
324.71	1407.56
324.939	1781.56
325.168	666.56
325.397	208.56
325.626	134.56
325.855	112.56
326.084	110.56
326.313	121.56
326.542	138.56
326.77	218.56
326.999	384.56
327.228	767.56
327.457	1423.56
327.686	1111.56
327.914	315.56
328.143	159.56
328.372	129.56
328.6	125.56
328.829	101.56
329.058	101.56
329.287	129.56
329.515	103.56
329.744	89.56
329.972	97.56
330.201	86.56
330.43	90.56
330.658	117.56
330.887	110.56
331.115	112.56
331.344	102.56
331.572	98.56
331.801	103.56
332.03	108.56
332.258	84.56
332.486	94.56
332.715	92.56
332.943	95.56
333.172	99.56
333.4	91.56
333.629	107.56
333.857	115.56
334.085	101.56
334.314	100.56
334.542	94.56
334.771	103.56
334.999	102.56
335.227	107.56
335.455	101.56
335.684	100.56
335.912	110.56
336.14	90.56
336.369	87.56
336.597	106.56
336.825	98.56
337.053	92.56
337.281	99.56
337.51	102.56
337.738	96.56
337.966	96.56
338.194	97.56
338.422	86.56
338.65	94.56
338.878	94.56
339.106	91.56
339.334	94.56
339.562	83.56
339.79	87.56
340.018	94.56
340.246	95.56
340.474	99.56
340.702	87.56
340.93	77.56
341.158	88.56
341.386	101.56
341.614	93.56
341.842	102.56
342.07	87.56
342.298	82.56
342.526	86.56
342.754	92.56
342.981	99.56
343.209	96.56
343.437	102.56
343.665	92.56
343.893	84.56
344.12	97.56
344.348	87.56
344.576	91.56
344.804	97.56
345.031	93.56
345.259	101.56
345.487	100.56
345.714	97.56
345.942	90.56
346.17	101.56
346.397	91.56
346.625	90.56
346.853	91.56
347.08	86.56
347.308	84.56
347.535	94.56
347.763	87.56
347.99	94.56
348.218	98.56
348.445	109.56
348.673	84.56
348.9	105.56
349.128	99.56
349.355	99.56
349.583	100.56
349.81	87.56
350.037	96.56
350.265	93.56
350.492	99.56
350.72	101.56
350.947	98.56
351.174	105.56
351.402	99.56
351.629	107.56
351.856	101.56
352.083	94.56
352.311	102.56
352.538	94.56
352.765	108.56
352.992	119.56
353.22	107.56
353.447	103.56
353.674	95.56
353.901	101.56
354.128	93.56
354.355	104.56
354.583	96.56
354.81	95.56
355.037	99.56
355.264	92.56
355.491	101.56
355.718	92.56
355.945	105.56
356.172	112.56
356.399	98.56
356.626	101.56
356.853	98.56
357.08	93.56
357.307	98.56
357.534	98.56
357.761	98.56
357.988	85.56
358.215	94.56
358.441	113.56
358.668	80.56
358.895	91.56
359.122	89.56
359.349	89.56
359.576	97.56
359.802	110.56
360.029	104.56
360.256	104.56
360.483	84.56
360.709	94.56
360.936	105.56
361.163	99.56
361.39	94.56
361.616	83.56
361.843	91.56
362.07	83.56
362.296	94.56
362.523	90.56
362.749	94.56
362.976	97.56
363.203	97.56
363.429	88.56
363.656	102.56
363.882	79.56
364.109	79.56
364.335	92.56
364.562	83.56
364.788	87.56
365.015	83.56
365.241	104.56
365.468	101.56
365.694	112.56
365.92	97.56
366.147	95.56
366.373	79.56
366.599	71.56
366.826	88.56
367.052	103.56
367.278	98.56
367.505	99.56
367.731	95.56
367.957	92.56
368.184	91.56
368.41	92.56
368.636	113.56
368.862	112.56
369.089	101.56
369.315	98.56
369.541	95.56
369.767	96.56
369.993	81.56
370.219	93.56
370.445	100.56
370.672	85.56
370.898	85.56
371.124	99.56
371.35	103.56
371.576	86.56
371.802	82.56
372.028	86.56
372.254	104.56
372.48	85.56
372.706	90.56
372.932	87.56
373.158	100.56
373.384	109.56
373.61	92.56
373.835	90.56
374.061	86.56
374.287	95.56
374.513	99.56
374.739	76.56
374.965	94.56
375.191	90.56
375.416	105.56
375.642	96.56
375.868	77.56
376.094	90.56
376.319	100.56
376.545	102.56
376.771	97.56
376.997	92.56
377.222	95.56
377.448	97.56
377.674	87.56
377.899	83.56
378.125	95.56
378.35	87.56
378.576	94.56
378.802	77.56
379.027	84.56
379.253	79.56
379.478	90.56
379.704	80.56
379.929	104.56
380.155	99.56
380.38	85.56
380.606	103.56
380.831	82.56
381.057	96.56
381.282	103.56
381.507	98.56
381.733	75.56
381.958	87.56
382.184	91.56
382.409	83.56
382.634	111.56
382.86	94.56
383.085	95.56
383.31	87.56
383.535	102.56
383.761	102.56
383.986	101.56
384.211	104.56
384.436	95.56
384.662	112.56
384.887	100.56
385.112	104.56
385.337	105.56
385.562	110.56
385.787	104.56
386.013	88.56
386.238	116.56
386.463	99.56
386.688	104.56
386.913	103.56
387.138	102.56
387.363	108.56
387.588	90.56
387.813	109.56
388.038	103.56
388.263	107.56
388.488	106.56
388.713	102.56
388.938	101.56
389.163	93.56
389.387	97.56
389.612	93.56
389.837	91.56
390.062	99.56
390.287	101.56
390.512	103.56
390.736	95.56
390.961	104.56
391.186	88.56
391.411	91.56
391.636	90.56
391.86	99.56
392.085	78.56
392.31	86.56
392.534	84.56
392.759	83.56
392.984	90.56
393.208	92.56
393.433	90.56
393.658	100.56
393.882	84.56
394.107	88.56
394.331	86.56
394.556	97.56
394.78	84.56
395.005	90.56
395.229	97.56
395.454	91.56
395.678	85.56
395.903	86.56
396.127	95.56
396.352	84.56
396.576	89.56
396.801	82.56
397.025	98.56
397.249	88.56
397.474	84.56
397.698	86.56
397.922	85.56
398.147	93.56
398.371	80.56
398.595	81.56
398.82	97.56
399.044	87.56
399.268	84.56
399.492	91.56
399.717	91.56
399.941	79.56
400.165	92.56
400.389	98.56
400.613	103.56
400.837	96.56
401.062	92.56
401.286	92.56
401.51	85.56
401.734	82.56
401.958	93.56
402.182	117.56
402.406	150.56
402.63	103.56
402.854	85.56
403.078	96.56
403.302	87.56
403.526	87.56
403.75	83.56
403.974	79.56
404.198	76.56
404.422	84.56
404.645	79.56
404.869	103.56
405.093	92.56
405.317	89.56
405.541	85.56
405.765	94.56
405.988	116.56
406.212	174.56
406.436	191.56
406.66	130.56
406.883	93.56
407.107	79.56
407.331	94.56
407.555	101.56
407.778	93.56
408.002	103.56
408.226	87.56
408.449	86.56
408.673	99.56
408.896	92.56
409.12	90.56
409.344	67.56
409.567	84.56
409.791	93.56
410.014	96.56
410.238	90.56
410.461	88.56
410.685	87.56
410.908	93.56
411.132	98.56
411.355	102.56
411.578	95.56
411.802	86.56
412.025	100.56
412.249	87.56
412.472	84.56
412.695	86.56
412.919	86.56
413.142	84.56
413.365	87.56
413.589	82.56
413.812	99.56
414.035	74.56
414.258	76.56
414.482	81.56
414.705	98.56
414.928	90.56
415.151	90.56
415.374	109.56
415.597	93.56
415.821	86.56
416.044	86.56
416.267	95.56
416.49	93.56
416.713	95.56
416.936	99.56
417.159	81.56
417.382	92.56
417.605	100.56
417.828	99.56
418.051	87.56
418.274	101.56
418.497	90.56
418.72	93.56
418.943	82.56
419.166	94.56
419.389	84.56
419.611	82.56
419.834	85.56
420.057	90.56
420.28	86.56
420.503	89.56
420.726	79.56
420.948	87.56
421.171	88.56
421.394	91.56
421.617	93.56
421.839	90.56
422.062	76.56
422.285	95.56
422.507	119.56
422.73	93.56
422.953	92.56
423.175	87.56
423.398	97.56
423.621	92.56
423.843	87.56
424.066	92.56
424.288	94.56
424.511	88.56
424.733	75.56
424.956	104.56
425.178	95.56
425.401	84.56
425.623	84.56
425.846	99.56
426.068	86.56
426.291	93.56
426.513	92.56
426.735	75.56
426.958	85.56
427.18	105.56
427.402	115.56
427.625	135.56
427.847	108.56
428.069	99.56
428.292	109.56
428.514	90.56
428.736	104.56
428.958	87.56
429.181	82.56
429.403	94.56
429.625	76.56
429.847	84.56
430.069	78.56
430.292	78.56
430.514	91.56
430.736	89.56
430.958	92.56
431.18	89.56
431.402	90.56
431.624	83.56
431.846	92.56
432.068	76.56
432.29	90.56
432.512	84.56
432.734	78.56
432.956	102.56
433.178	98.56
433.4	104.56
433.622	88.56
433.844	98.56
434.066	84.56
434.287	103.56
434.509	86.56
434.731	91.56
434.953	83.56
435.175	91.56
435.397	97.56
435.618	97.56
435.84	80.56
436.062	106.56
436.284	102.56
436.505	109.56
436.727	105.56
436.949	94.56
437.17	90.56
437.392	95.56
437.614	86.56
437.835	105.56
438.057	115.56
438.278	98.56
438.5	101.56
438.721	117.56
438.943	82.56
439.165	90.56
439.386	96.56
439.608	98.56
439.829	103.56
440.05	121.56
440.272	112.56
440.493	94.56
440.715	90.56
440.936	87.56
441.158	95.56
441.379	76.56
441.6	81.56
441.822	82.56
442.043	86.56
442.264	86.56
442.486	100.56
442.707	102.56
442.928	103.56
443.149	132.56
443.371	120.56
443.592	102.56
443.813	104.56
444.034	86.56
444.255	92.56
444.476	76.56
444.698	90.56
444.919	74.56
445.14	119.56
445.361	121.56
445.582	92.56
445.803	123.56
446.024	107.56
446.245	116.56
446.466	91.56
446.687	77.56
446.908	85.56
447.129	92.56
447.35	97.56
447.571	84.56
447.792	103.56
448.013	95.56
448.234	96.56
448.455	81.56
448.675	97.56
448.896	129.56
449.117	110.56
449.338	98.56
449.559	116.56
449.779	119.56
450	86.56
450.221	97.56
450.442	95.56
450.662	93.56
450.883	105.56
451.104	111.56
451.324	101.56
451.545	99.56
451.766	92.56
451.986	86.56
452.207	92.56
452.428	98.56
452.648	100.56
452.869	101.56
453.089	122.56
453.31	111.56
453.53	107.56
453.751	106.56
453.971	95.56
454.192	109.56
454.412	102.56
454.633	82.56
454.853	106.56
455.073	94.56
455.294	94.56
455.514	104.56
455.734	85.56
455.955	95.56
456.175	82.56
456.395	88.56
456.616	87.56
456.836	86.56
457.056	84.56
457.276	93.56
457.497	88.56
457.717	78.56
457.937	80.56
458.157	89.56
458.377	81.56
458.598	91.56
458.818	132.56
459.038	141.56
459.258	112.56
459.478	95.56
459.698	82.56
459.918	86.56
460.138	88.56
460.358	82.56
460.578	88.56
460.798	96.56
461.018	86.56
461.238	75.56
461.458	104.56
461.678	80.56
461.898	95.56
462.118	81.56
462.338	88.56
462.558	95.56
462.777	87.56
462.997	96.56
463.217	87.56
463.437	90.56
463.657	92.56
463.876	90.56
464.096	88.56
464.316	91.56
464.536	91.56
464.755	84.56
464.975	99.56
465.195	136.56
465.414	138.56
465.634	92.56
465.854	78.56
466.073	85.56
466.293	87.56
466.512	83.56
466.732	80.56
466.951	80.56
467.171	93.56
467.391	90.56
467.61	109.56
467.829	89.56
468.049	80.56
468.268	97.56
468.488	93.56
468.707	94.56
468.927	79.56
469.146	66.56
469.365	92.56
469.585	91.56
469.804	107.56
470.023	100.56
470.243	88.56
470.462	110.56
470.681	100.56
470.901	102.56
471.12	82.56
471.339	70.56
471.558	85.56
471.777	98.56
471.997	94.56
472.216	101.56
472.435	94.56
472.654	93.56
472.873	102.56
473.092	75.56
473.311	87.56
473.53	85.56
473.749	91.56
473.968	94.56
474.187	89.56
474.406	91.56
474.625	99.56
474.844	95.56
475.063	86.56
475.282	84.56
475.501	91.56
475.72	90.56
475.939	92.56
476.158	78.56
476.377	83.56
476.596	93.56
476.814	98.56
477.033	94.56
477.252	96.56
477.471	101.56
477.69	99.56
477.908	90.56
478.127	94.56
478.346	85.56
478.564	101.56
478.783	90.56
479.002	85.56
479.22	74.56
479.439	97.56
479.658	92.56
479.876	89.56
480.095	96.56
480.313	94.56
480.532	98.56
480.751	90.56
480.969	106.56
481.188	105.56
481.406	84.56
481.624	87.56
481.843	103.56
482.061	87.56
482.28	99.56
482.498	90.56
482.717	89.56
482.935	80.56
483.153	90.56
483.372	90.56
483.59	90.56
483.808	99.56
484.027	92.56
484.245	102.56
484.463	99.56
484.681	94.56
484.9	101.56
485.118	88.56
485.336	88.56
485.554	80.56
485.772	101.56
485.99	103.56
486.209	92.56
486.427	98.56
486.645	99.56
486.863	109.56
487.081	87.56
487.299	109.56
487.517	92.56
487.735	81.56
487.953	96.56
488.171	96.56
488.389	104.56
488.607	100.56
488.825	87.56
489.043	95.56
489.261	90.56
489.479	109.56
489.696	97.56
489.914	101.56
490.132	94.56
490.35	103.56
490.568	105.56
490.786	84.56
491.003	78.56
491.221	92.56
491.439	84.56
491.657	99.56
491.874	108.56
492.092	83.56
492.31	103.56
492.527	94.56
492.745	96.56
492.963	100.56
493.18	103.56
493.398	94.56
493.615	99.56
493.833	95.56
494.05	97.56
494.268	98.56
494.485	101.56
494.703	94.56
494.92	90.56
495.138	79.56
495.355	92.56
495.573	85.56
495.79	79.56
496.008	94.56
496.225	93.56
496.442	87.56
496.66	84.56
496.877	81.56
497.094	98.56
497.312	103.56
497.529	89.56
497.746	109.56
497.963	96.56
498.181	76.56
498.398	103.56
498.615	106.56
498.832	102.56
499.049	92.56
499.267	86.56
499.484	84.56
499.701	89.56
499.918	86.56
500.135	95.56
500.352	85.56
500.569	97.56
500.786	89.56
501.003	97.56
501.22	86.56
501.437	88.56
501.654	102.56
501.871	108.56
502.088	100.56
502.305	91.56
502.522	93.56
502.739	103.56
502.956	83.56
503.172	95.56
503.389	76.56
503.606	102.56
503.823	92.56
504.04	91.56
504.256	91.56
504.473	76.56
504.69	88.56
504.907	112.56
505.123	89.56
505.34	93.56
505.557	85.56
505.773	100.56
505.99	96.56
506.207	90.56
506.423	92.56
506.64	80.56
506.856	70.56
507.073	89.56
507.289	85.56
507.506	93.56
507.722	105.56
507.939	103.56
508.155	84.56
508.372	89.56
508.588	95.56
508.805	100.56
509.021	91.56
509.238	90.56
509.454	100.56
509.67	99.56
509.887	110.56
510.103	123.56
510.319	186.56
510.536	678.56
510.752	1960.56
510.968	562.56
511.184	140.56
511.401	112.56
511.617	107.56
511.833	89.56
512.049	95.56
512.265	93.56
512.481	104.56
512.698	84.56
512.914	83.56
513.13	89.56
513.346	95.56
513.562	99.56
513.778	91.56
513.994	94.56
514.21	115.56
514.426	115.56
514.642	139.56
514.858	122.56
515.074	165.56
515.29	373.56
515.506	1178.56
515.721	451.56
