Data from Uncirc_1992_H10_HRD10591_00100.txt Node
Date: Wed Jan 03 11:46:36 EST 2024
User: Yrep
Spectrometer: HR+D1059
Trigger mode: 1
Integration Time (sec): 1.000000E-1
Scans to average: 1
Electric dark correction enabled: true
Nonlinearity correction enabled: false
Boxcar width: 0
XAxis mode: Wavelengths
Number of Pixels in Spectrum: 2048
>>>>>Begin Spectral Data<<<<<
223.165	-30.56
223.4	-30.56
223.635	-30.56
223.869	-26.56
224.104	-13.56
224.338	-14.56
224.573	-16.56
224.808	-5.56
225.042	-7.56
225.277	-5.56
225.511	3.44
225.746	8.44
225.98	1.44
226.215	8.44
226.449	10.44
226.683	19.44
226.918	28.44
227.152	40.44
227.387	17.44
227.621	21.44
227.856	39.44
228.09	46.44
228.324	43.44
228.559	60.44
228.793	54.44
229.027	56.44
229.262	59.44
229.496	71.44
229.73	72.44
229.964	55.44
230.199	58.44
230.433	64.44
230.667	71.44
230.901	74.44
231.136	86.44
231.37	72.44
231.604	71.44
231.838	65.44
232.072	69.44
232.306	78.44
232.541	82.44
232.775	85.44
233.009	68.44
233.243	76.44
233.477	81.44
233.711	79.44
233.945	72.44
234.179	66.44
234.413	70.44
234.647	70.44
234.881	84.44
235.115	86.44
235.349	75.44
235.583	74.44
235.817	57.44
236.051	73.44
236.285	68.44
236.519	79.44
236.753	62.44
236.987	76.44
237.221	79.44
237.455	78.44
237.689	81.44
237.922	81.44
238.156	83.44
238.39	74.44
238.624	81.44
238.858	73.44
239.091	62.44
239.325	79.44
239.559	92.44
239.793	79.44
240.027	75.44
240.26	61.44
240.494	77.44
240.728	77.44
240.961	70.44
241.195	69.44
241.429	75.44
241.662	64.44
241.896	64.44
242.13	84.44
242.363	68.44
242.597	77.44
242.83	54.44
243.064	70.44
243.298	78.44
243.531	68.44
243.765	79.44
243.998	68.44
244.232	77.44
244.465	82.44
244.699	72.44
244.932	66.44
245.166	86.44
245.399	61.44
245.633	84.44
245.866	78.44
246.099	79.44
246.333	81.44
246.566	65.44
246.8	84.44
247.033	74.44
247.266	66.44
247.5	72.44
247.733	63.44
247.966	76.44
248.2	79.44
248.433	71.44
248.666	65.44
248.899	61.44
249.133	79.44
249.366	82.44
249.599	91.44
249.832	80.44
250.066	72.44
250.299	78.44
250.532	68.44
250.765	86.44
250.998	73.44
251.231	76.44
251.465	88.44
251.698	71.44
251.931	63.44
252.164	89.44
252.397	90.44
252.63	77.44
252.863	81.44
253.096	91.44
253.329	65.44
253.562	59.44
253.795	85.44
254.028	69.44
254.261	79.44
254.494	92.44
254.727	77.44
254.96	81.44
255.193	85.44
255.426	84.44
255.659	65.44
255.892	91.44
256.124	75.44
256.357	69.44
256.59	90.44
256.823	78.44
257.056	86.44
257.289	74.44
257.521	72.44
257.754	70.44
257.987	89.44
258.22	82.44
258.452	81.44
258.685	79.44
258.918	81.44
259.151	90.44
259.383	77.44
259.616	80.44
259.849	69.44
260.081	76.44
260.314	81.44
260.547	70.44
260.779	75.44
261.012	77.44
261.244	60.44
261.477	93.44
261.71	88.44
261.942	95.44
262.175	95.44
262.407	92.44
262.64	82.44
262.872	88.44
263.105	79.44
263.337	92.44
263.57	100.44
263.802	85.44
264.035	76.44
264.267	72.44
264.499	64.44
264.732	80.44
264.964	101.44
265.197	76.44
265.429	80.44
265.661	86.44
265.894	90.44
266.126	64.44
266.358	68.44
266.591	72.44
266.823	67.44
267.055	84.44
267.287	87.44
267.52	73.44
267.752	70.44
267.984	54.44
268.216	74.44
268.448	72.44
268.681	78.44
268.913	86.44
269.145	80.44
269.377	68.44
269.609	73.44
269.841	80.44
270.073	72.44
270.306	94.44
270.538	72.44
270.77	73.44
271.002	77.44
271.234	78.44
271.466	82.44
271.698	73.44
271.93	80.44
272.162	82.44
272.394	98.44
272.626	65.44
272.858	78.44
273.09	74.44
273.322	88.44
273.553	85.44
273.785	86.44
274.017	72.44
274.249	80.44
274.481	79.44
274.713	78.44
274.945	89.44
275.176	82.44
275.408	71.44
275.64	81.44
275.872	71.44
276.104	75.44
276.335	80.44
276.567	87.44
276.799	94.44
277.031	98.44
277.262	82.44
277.494	82.44
277.726	80.44
277.957	84.44
278.189	62.44
278.421	71.44
278.652	84.44
278.884	79.44
279.115	73.44
279.347	76.44
279.579	70.44
279.81	92.44
280.042	97.44
280.273	90.44
280.505	76.44
280.736	76.44
280.968	85.44
281.199	80.44
281.431	81.44
281.662	82.44
281.894	90.44
282.125	89.44
282.356	101.44
282.588	128.44
282.819	111.44
283.051	71.44
283.282	92.44
283.513	80.44
283.745	93.44
283.976	91.44
284.207	86.44
284.439	70.44
284.67	94.44
284.901	86.44
285.132	78.44
285.364	59.44
285.595	70.44
285.826	76.44
286.057	84.44
286.288	72.44
286.52	75.44
286.751	76.44
286.982	91.44
287.213	88.44
287.444	84.44
287.675	83.44
287.906	90.44
288.138	87.44
288.369	87.44
288.6	79.44
288.831	73.44
289.062	88.44
289.293	81.44
289.524	84.44
289.755	92.44
289.986	84.44
290.217	89.44
290.448	89.44
290.679	75.44
290.91	80.44
291.141	83.44
291.371	79.44
291.602	78.44
291.833	98.44
292.064	64.44
292.295	80.44
292.526	88.44
292.757	84.44
292.987	74.44
293.218	90.44
293.449	82.44
293.68	83.44
293.91	86.44
294.141	93.44
294.372	86.44
294.603	84.44
294.833	85.44
295.064	68.44
295.295	84.44
295.525	84.44
295.756	95.44
295.987	94.44
296.217	130.44
296.448	104.44
296.679	88.44
296.909	86.44
297.14	80.44
297.37	85.44
297.601	84.44
297.831	93.44
298.062	96.44
298.292	93.44
298.523	80.44
298.753	90.44
298.984	83.44
299.214	82.44
299.445	89.44
299.675	77.44
299.905	85.44
300.136	83.44
300.366	80.44
300.597	65.44
300.827	88.44
301.057	90.44
301.288	80.44
301.518	70.44
301.748	83.44
301.979	88.44
302.209	81.44
302.439	84.44
302.669	86.44
302.9	88.44
303.13	80.44
303.36	73.44
303.59	87.44
303.82	94.44
304.051	85.44
304.281	94.44
304.511	94.44
304.741	77.44
304.971	85.44
305.201	89.44
305.431	88.44
305.661	90.44
305.891	85.44
306.121	89.44
306.352	96.44
306.582	98.44
306.812	88.44
307.042	89.44
307.272	73.44
307.502	94.44
307.731	90.44
307.961	83.44
308.191	85.44
308.421	80.44
308.651	83.44
308.881	77.44
309.111	79.44
309.341	85.44
309.571	85.44
309.8	80.44
310.03	96.44
310.26	91.44
310.49	77.44
310.72	99.44
310.949	88.44
311.179	95.44
311.409	84.44
311.639	93.44
311.868	115.44
312.098	96.44
312.328	89.44
312.557	97.44
312.787	89.44
313.017	85.44
313.246	66.44
313.476	87.44
313.706	86.44
313.935	81.44
314.165	90.44
314.394	105.44
314.624	82.44
314.853	87.44
315.083	86.44
315.312	86.44
315.542	88.44
315.771	98.44
316.001	91.44
316.23	75.44
316.46	90.44
316.689	95.44
316.919	88.44
317.148	88.44
317.377	88.44
317.607	88.44
317.836	90.44
318.065	89.44
318.295	88.44
318.524	71.44
318.753	83.44
318.983	85.44
319.212	93.44
319.441	103.44
319.67	102.44
319.9	97.44
320.129	75.44
320.358	93.44
320.587	111.44
320.816	99.44
321.046	106.44
321.275	88.44
321.504	88.44
321.733	93.44
321.962	102.44
322.191	112.44
322.42	105.44
322.649	100.44
322.878	90.44
323.108	110.44
323.337	118.44
323.566	116.44
323.795	130.44
324.024	174.44
324.253	346.44
324.482	700.44
324.71	1400.44
324.939	1805.44
325.168	700.44
325.397	208.44
325.626	127.44
325.855	101.44
326.084	117.44
326.313	133.44
326.542	144.44
326.77	201.44
326.999	377.44
327.228	768.44
327.457	1420.44
327.686	1101.44
327.914	318.44
328.143	174.44
328.372	128.44
328.6	110.44
328.829	112.44
329.058	109.44
329.287	120.44
329.515	104.44
329.744	97.44
329.972	90.44
330.201	99.44
330.43	96.44
330.658	115.44
330.887	125.44
331.115	98.44
331.344	81.44
331.572	84.44
331.801	102.44
332.03	96.44
332.258	95.44
332.486	92.44
332.715	90.44
332.943	87.44
333.172	94.44
333.4	85.44
333.629	91.44
333.857	95.44
334.085	88.44
334.314	84.44
334.542	94.44
334.771	93.44
334.999	94.44
335.227	92.44
335.455	86.44
335.684	84.44
335.912	76.44
336.14	96.44
336.369	85.44
336.597	90.44
336.825	103.44
337.053	85.44
337.281	93.44
337.51	89.44
337.738	88.44
337.966	95.44
338.194	77.44
338.422	81.44
338.65	91.44
338.878	84.44
339.106	81.44
339.334	93.44
339.562	89.44
339.79	68.44
340.018	93.44
340.246	98.44
340.474	91.44
340.702	96.44
340.93	102.44
341.158	103.44
341.386	93.44
341.614	84.44
341.842	77.44
342.07	103.44
342.298	93.44
342.526	81.44
342.754	88.44
342.981	71.44
343.209	69.44
343.437	114.44
343.665	87.44
343.893	72.44
344.12	96.44
344.348	68.44
344.576	92.44
344.804	99.44
345.031	89.44
345.259	91.44
345.487	85.44
345.714	83.44
345.942	75.44
346.17	88.44
346.397	98.44
346.625	87.44
346.853	76.44
347.08	89.44
347.308	93.44
347.535	97.44
347.763	95.44
347.99	98.44
348.218	101.44
348.445	81.44
348.673	92.44
348.9	89.44
349.128	96.44
349.355	72.44
349.583	93.44
349.81	93.44
350.037	78.44
350.265	88.44
350.492	92.44
350.72	85.44
350.947	111.44
351.174	111.44
351.402	112.44
351.629	97.44
351.856	101.44
352.083	102.44
352.311	87.44
352.538	112.44
352.765	95.44
352.992	102.44
353.22	99.44
353.447	84.44
353.674	92.44
353.901	88.44
354.128	89.44
354.355	85.44
354.583	86.44
354.81	87.44
355.037	81.44
355.264	84.44
355.491	82.44
355.718	82.44
355.945	89.44
356.172	93.44
356.399	89.44
356.626	90.44
356.853	92.44
357.08	85.44
357.307	92.44
357.534	76.44
357.761	86.44
357.988	82.44
358.215	94.44
358.441	77.44
358.668	92.44
358.895	92.44
359.122	88.44
359.349	94.44
359.576	93.44
359.802	95.44
360.029	89.44
360.256	85.44
360.483	87.44
360.709	88.44
360.936	87.44
361.163	78.44
361.39	83.44
361.616	95.44
361.843	93.44
362.07	81.44
362.296	87.44
362.523	84.44
362.749	86.44
362.976	96.44
363.203	92.44
363.429	92.44
363.656	103.44
363.882	103.44
364.109	74.44
364.335	95.44
364.562	93.44
364.788	78.44
365.015	82.44
365.241	98.44
365.468	103.44
365.694	90.44
365.92	88.44
366.147	93.44
366.373	95.44
366.599	93.44
366.826	88.44
367.052	87.44
367.278	86.44
367.505	71.44
367.731	85.44
367.957	93.44
368.184	88.44
368.41	98.44
368.636	112.44
368.862	116.44
369.089	111.44
369.315	97.44
369.541	98.44
369.767	79.44
369.993	99.44
370.219	84.44
370.445	73.44
370.672	92.44
370.898	83.44
371.124	71.44
371.35	75.44
371.576	92.44
371.802	77.44
372.028	82.44
372.254	85.44
372.48	86.44
372.706	85.44
372.932	89.44
373.158	84.44
373.384	105.44
373.61	74.44
373.835	76.44
374.061	80.44
374.287	89.44
374.513	86.44
374.739	86.44
374.965	85.44
375.191	81.44
375.416	89.44
375.642	90.44
375.868	77.44
376.094	76.44
376.319	93.44
376.545	87.44
376.771	79.44
376.997	90.44
377.222	81.44
377.448	91.44
377.674	91.44
377.899	82.44
378.125	85.44
378.35	86.44
378.576	66.44
378.802	85.44
379.027	85.44
379.253	104.44
379.478	91.44
379.704	86.44
379.929	97.44
380.155	102.44
380.38	98.44
380.606	97.44
380.831	90.44
381.057	95.44
381.282	88.44
381.507	78.44
381.733	94.44
381.958	91.44
382.184	85.44
382.409	93.44
382.634	98.44
382.86	81.44
383.085	98.44
383.31	94.44
383.535	117.44
383.761	89.44
383.986	86.44
384.211	79.44
384.436	95.44
384.662	73.44
384.887	91.44
385.112	84.44
385.337	89.44
385.562	98.44
385.787	84.44
386.013	94.44
386.238	109.44
386.463	93.44
386.688	104.44
386.913	110.44
387.138	106.44
387.363	81.44
387.588	88.44
387.813	79.44
388.038	92.44
388.263	98.44
388.488	104.44
388.713	82.44
388.938	96.44
389.163	70.44
389.387	84.44
389.612	100.44
389.837	81.44
390.062	87.44
390.287	79.44
390.512	80.44
390.736	86.44
390.961	81.44
391.186	89.44
391.411	98.44
391.636	94.44
391.86	76.44
392.085	95.44
392.31	94.44
392.534	80.44
392.759	91.44
392.984	86.44
393.208	67.44
393.433	104.44
393.658	87.44
393.882	84.44
394.107	81.44
394.331	81.44
394.556	92.44
394.78	105.44
395.005	76.44
395.229	86.44
395.454	76.44
395.678	80.44
395.903	73.44
396.127	86.44
396.352	69.44
396.576	73.44
396.801	61.44
397.025	102.44
397.249	76.44
397.474	87.44
397.698	98.44
397.922	87.44
398.147	89.44
398.371	93.44
398.595	73.44
398.82	84.44
399.044	90.44
399.268	83.44
399.492	92.44
399.717	93.44
399.941	82.44
400.165	76.44
400.389	86.44
400.613	75.44
400.837	76.44
401.062	93.44
401.286	89.44
401.51	88.44
401.734	88.44
401.958	96.44
402.182	117.44
402.406	144.44
402.63	96.44
402.854	67.44
403.078	82.44
403.302	73.44
403.526	82.44
403.75	89.44
403.974	89.44
404.198	72.44
404.422	93.44
404.645	83.44
404.869	80.44
405.093	87.44
405.317	92.44
405.541	89.44
405.765	93.44
405.988	98.44
406.212	162.44
406.436	209.44
406.66	119.44
406.883	87.44
407.107	82.44
407.331	102.44
407.555	88.44
407.778	88.44
408.002	88.44
408.226	91.44
408.449	96.44
408.673	85.44
408.896	88.44
409.12	91.44
409.344	89.44
409.567	70.44
409.791	89.44
410.014	90.44
410.238	98.44
410.461	102.44
410.685	90.44
410.908	92.44
411.132	81.44
411.355	82.44
411.578	99.44
411.802	84.44
412.025	89.44
412.249	85.44
412.472	91.44
412.695	88.44
412.919	66.44
413.142	97.44
413.365	73.44
413.589	94.44
413.812	74.44
414.035	88.44
414.258	90.44
414.482	76.44
414.705	81.44
414.928	83.44
415.151	93.44
415.374	86.44
415.597	71.44
415.821	84.44
416.044	85.44
416.267	91.44
416.49	69.44
416.713	80.44
416.936	82.44
417.159	89.44
417.382	94.44
417.605	96.44
417.828	92.44
418.051	89.44
418.274	82.44
418.497	76.44
418.72	88.44
418.943	73.44
419.166	86.44
419.389	83.44
419.611	75.44
419.834	78.44
420.057	78.44
420.28	76.44
420.503	75.44
420.726	77.44
420.948	74.44
421.171	77.44
421.394	80.44
421.617	88.44
421.839	77.44
422.062	76.44
422.285	69.44
422.507	93.44
422.73	93.44
422.953	99.44
423.175	78.44
423.398	95.44
423.621	86.44
423.843	87.44
424.066	85.44
424.288	95.44
424.511	80.44
424.733	89.44
424.956	85.44
425.178	98.44
425.401	94.44
425.623	85.44
425.846	86.44
426.068	77.44
426.291	79.44
426.513	84.44
426.735	80.44
426.958	97.44
427.18	90.44
427.402	111.44
427.625	159.44
427.847	111.44
428.069	92.44
428.292	91.44
428.514	72.44
428.736	79.44
428.958	84.44
429.181	77.44
429.403	80.44
429.625	81.44
429.847	90.44
430.069	86.44
430.292	89.44
430.514	69.44
430.736	80.44
430.958	83.44
431.18	72.44
431.402	70.44
431.624	75.44
431.846	84.44
432.068	76.44
432.29	96.44
432.512	91.44
432.734	88.44
432.956	91.44
433.178	84.44
433.4	92.44
433.622	84.44
433.844	80.44
434.066	65.44
434.287	81.44
434.509	90.44
434.731	93.44
434.953	86.44
435.175	81.44
435.397	80.44
435.618	90.44
435.84	100.44
436.062	104.44
436.284	101.44
436.505	84.44
436.727	97.44
436.949	86.44
437.17	77.44
437.392	94.44
437.614	79.44
437.835	84.44
438.057	113.44
438.278	98.44
438.5	103.44
438.721	109.44
438.943	99.44
439.165	96.44
439.386	71.44
439.608	85.44
439.829	91.44
440.05	107.44
440.272	125.44
440.493	89.44
440.715	92.44
440.936	96.44
441.158	75.44
441.379	97.44
441.6	97.44
441.822	97.44
442.043	80.44
442.264	93.44
442.486	94.44
442.707	94.44
442.928	101.44
443.149	113.44
443.371	107.44
443.592	90.44
443.813	91.44
444.034	109.44
444.255	76.44
444.476	83.44
444.698	85.44
444.919	70.44
445.14	111.44
445.361	132.44
445.582	115.44
445.803	111.44
446.024	122.44
446.245	117.44
446.466	113.44
446.687	78.44
446.908	76.44
447.129	82.44
447.35	94.44
447.571	86.44
447.792	78.44
448.013	87.44
448.234	92.44
448.455	94.44
448.675	102.44
448.896	100.44
449.117	90.44
449.338	94.44
449.559	100.44
449.779	113.44
450	92.44
450.221	74.44
450.442	88.44
450.662	95.44
450.883	88.44
451.104	97.44
451.324	96.44
451.545	79.44
451.766	85.44
451.986	80.44
452.207	85.44
452.428	78.44
452.648	102.44
452.869	103.44
453.089	108.44
453.31	107.44
453.53	65.44
453.751	86.44
453.971	94.44
454.192	102.44
454.412	90.44
454.633	84.44
454.853	82.44
455.073	80.44
455.294	89.44
455.514	84.44
455.734	98.44
455.955	75.44
456.175	73.44
456.395	87.44
456.616	85.44
456.836	80.44
457.056	76.44
457.276	76.44
457.497	88.44
457.717	74.44
457.937	85.44
458.157	78.44
458.377	83.44
458.598	90.44
458.818	134.44
459.038	129.44
459.258	108.44
459.478	96.44
459.698	90.44
459.918	80.44
460.138	80.44
460.358	89.44
460.578	94.44
460.798	85.44
461.018	86.44
461.238	77.44
461.458	56.44
461.678	86.44
461.898	85.44
462.118	91.44
462.338	96.44
462.558	77.44
462.777	78.44
462.997	65.44
463.217	92.44
463.437	72.44
463.657	84.44
463.876	100.44
464.096	78.44
464.316	79.44
464.536	97.44
464.755	87.44
464.975	104.44
465.195	138.44
465.414	126.44
465.634	81.44
465.854	77.44
466.073	93.44
466.293	71.44
466.512	83.44
466.732	81.44
466.951	98.44
467.171	90.44
467.391	93.44
467.61	99.44
467.829	91.44
468.049	98.44
468.268	84.44
468.488	96.44
468.707	90.44
468.927	74.44
469.146	73.44
469.365	92.44
469.585	89.44
469.804	95.44
470.023	95.44
470.243	97.44
470.462	80.44
470.681	107.44
470.901	82.44
471.12	84.44
471.339	86.44
471.558	64.44
471.777	65.44
471.997	79.44
472.216	88.44
472.435	92.44
472.654	95.44
472.873	86.44
473.092	85.44
473.311	68.44
473.53	94.44
473.749	76.44
473.968	87.44
474.187	88.44
474.406	85.44
474.625	78.44
474.844	72.44
475.063	76.44
475.282	81.44
475.501	80.44
475.72	82.44
475.939	94.44
476.158	76.44
476.377	86.44
476.596	80.44
476.814	84.44
477.033	72.44
477.252	90.44
477.471	88.44
477.69	84.44
477.908	70.44
478.127	83.44
478.346	86.44
478.564	80.44
478.783	97.44
479.002	91.44
479.22	88.44
479.439	93.44
479.658	91.44
479.876	88.44
480.095	72.44
480.313	96.44
480.532	92.44
480.751	91.44
480.969	102.44
481.188	117.44
481.406	101.44
481.624	89.44
481.843	94.44
482.061	81.44
482.28	66.44
482.498	94.44
482.717	85.44
482.935	94.44
483.153	71.44
483.372	69.44
483.59	84.44
483.808	81.44
484.027	78.44
484.245	83.44
484.463	81.44
484.681	89.44
484.9	75.44
485.118	87.44
485.336	96.44
485.554	73.44
485.772	80.44
485.99	98.44
486.209	79.44
486.427	88.44
486.645	94.44
486.863	122.44
487.081	98.44
487.299	96.44
487.517	91.44
487.735	80.44
487.953	87.44
488.171	89.44
488.389	81.44
488.607	101.44
488.825	83.44
489.043	76.44
489.261	88.44
489.479	102.44
489.696	89.44
489.914	89.44
490.132	84.44
490.35	72.44
490.568	83.44
490.786	84.44
491.003	89.44
491.221	94.44
491.439	77.44
491.657	90.44
491.874	92.44
492.092	86.44
492.31	88.44
492.527	87.44
492.745	91.44
492.963	81.44
493.18	89.44
493.398	82.44
493.615	90.44
493.833	94.44
494.05	87.44
494.268	72.44
494.485	89.44
494.703	84.44
494.92	104.44
495.138	85.44
495.355	76.44
495.573	82.44
495.79	69.44
496.008	82.44
496.225	89.44
496.442	74.44
496.66	79.44
496.877	84.44
497.094	87.44
497.312	86.44
497.529	81.44
497.746	75.44
497.963	91.44
498.181	89.44
498.398	101.44
498.615	98.44
498.832	87.44
499.049	87.44
499.267	82.44
499.484	88.44
499.701	76.44
499.918	103.44
500.135	92.44
500.352	100.44
500.569	97.44
500.786	94.44
501.003	94.44
501.22	81.44
501.437	82.44
501.654	92.44
501.871	99.44
502.088	89.44
502.305	96.44
502.522	77.44
502.739	78.44
502.956	86.44
503.172	81.44
503.389	93.44
503.606	103.44
503.823	82.44
504.04	87.44
504.256	89.44
504.473	87.44
504.69	77.44
504.907	83.44
505.123	92.44
505.34	80.44
505.557	88.44
505.773	79.44
505.99	94.44
506.207	92.44
506.423	88.44
506.64	85.44
506.856	79.44
507.073	76.44
507.289	80.44
507.506	86.44
507.722	106.44
507.939	98.44
508.155	97.44
508.372	112.44
508.588	92.44
508.805	97.44
509.021	98.44
509.238	92.44
509.454	100.44
509.67	100.44
509.887	106.44
510.103	120.44
510.319	210.44
510.536	696.44
510.752	2039.44
510.968	558.44
511.184	148.44
511.401	104.44
511.617	92.44
511.833	91.44
512.049	85.44
512.265	83.44
512.481	96.44
512.698	70.44
512.914	83.44
513.13	74.44
513.346	80.44
513.562	102.44
513.778	91.44
513.994	97.44
514.21	103.44
514.426	113.44
514.642	110.44
514.858	131.44
515.074	140.44
515.29	368.44
515.506	1206.44
515.721	475.44
515.937	129.44
516.153	102.44
516.369	97.44
516.585	87.44
516.801	95.44
517.016	93.44
517.232	97.44
517.448	81.44
517.664	90.44
517.879	89.44
