Data from Uncirc_1992_H10_HRD10591_00012.txt Node
Date: Wed Jan 03 11:46:18 EST 2024
User: Yrep
Spectrometer: HR+D1059
Trigger mode: 1
Integration Time (sec): 1.000000E-1
Scans to average: 1
Electric dark correction enabled: true
Nonlinearity correction enabled: false
Boxcar width: 0
XAxis mode: Wavelengths
Number of Pixels in Spectrum: 2048
>>>>>Begin Spectral Data<<<<<
223.165	-31.94
223.4	-31.94
223.635	-31.94
223.869	-25.94
224.104	-20.94
224.338	-8.94
224.573	-17.94
224.808	-12.94
225.042	7.06
225.277	4.06
225.511	3.06
225.746	1.06
225.98	3.06
226.215	10.06
226.449	13.06
226.683	22.06
226.918	25.06
227.152	30.06
227.387	33.06
227.621	27.06
227.856	39.06
228.09	65.06
228.324	62.06
228.559	55.06
228.793	58.06
229.027	64.06
229.262	55.06
229.496	74.06
229.73	72.06
229.964	71.06
230.199	67.06
230.433	75.06
230.667	79.06
230.901	83.06
231.136	79.06
231.37	84.06
231.604	85.06
231.838	93.06
232.072	98.06
232.306	81.06
232.541	90.06
232.775	76.06
233.009	77.06
233.243	77.06
233.477	87.06
233.711	72.06
233.945	78.06
234.179	64.06
234.413	74.06
234.647	87.06
234.881	69.06
235.115	84.06
235.349	80.06
235.583	85.06
235.817	63.06
236.051	78.06
236.285	78.06
236.519	91.06
236.753	76.06
236.987	90.06
237.221	81.06
237.455	80.06
237.689	74.06
237.922	72.06
238.156	77.06
238.39	76.06
238.624	84.06
238.858	80.06
239.091	78.06
239.325	82.06
239.559	97.06
239.793	70.06
240.027	67.06
240.26	88.06
240.494	69.06
240.728	79.06
240.961	87.06
241.195	88.06
241.429	76.06
241.662	85.06
241.896	87.06
242.13	84.06
242.363	84.06
242.597	76.06
242.83	79.06
243.064	80.06
243.298	67.06
243.531	83.06
243.765	79.06
243.998	71.06
244.232	85.06
244.465	97.06
244.699	59.06
244.932	74.06
245.166	80.06
245.399	83.06
245.633	70.06
245.866	76.06
246.099	84.06
246.333	100.06
246.566	82.06
246.8	78.06
247.033	81.06
247.266	88.06
247.5	96.06
247.733	88.06
247.966	96.06
248.2	84.06
248.433	92.06
248.666	84.06
248.899	91.06
249.133	84.06
249.366	92.06
249.599	103.06
249.832	80.06
250.066	95.06
250.299	74.06
250.532	75.06
250.765	86.06
250.998	68.06
251.231	92.06
251.465	79.06
251.698	83.06
251.931	90.06
252.164	80.06
252.397	99.06
252.63	75.06
252.863	75.06
253.096	83.06
253.329	65.06
253.562	77.06
253.795	93.06
254.028	76.06
254.261	73.06
254.494	75.06
254.727	87.06
254.96	86.06
255.193	76.06
255.426	75.06
255.659	82.06
255.892	104.06
256.124	77.06
256.357	91.06
256.59	85.06
256.823	90.06
257.056	83.06
257.289	67.06
257.521	88.06
257.754	88.06
257.987	84.06
258.22	85.06
258.452	85.06
258.685	87.06
258.918	84.06
259.151	76.06
259.383	85.06
259.616	72.06
259.849	83.06
260.081	86.06
260.314	90.06
260.547	92.06
260.779	90.06
261.012	68.06
261.244	89.06
261.477	96.06
261.71	80.06
261.942	94.06
262.175	117.06
262.407	90.06
262.64	74.06
262.872	81.06
263.105	87.06
263.337	81.06
263.57	79.06
263.802	80.06
264.035	73.06
264.267	83.06
264.499	80.06
264.732	76.06
264.964	100.06
265.197	77.06
265.429	71.06
265.661	100.06
265.894	92.06
266.126	88.06
266.358	82.06
266.591	86.06
266.823	77.06
267.055	84.06
267.287	86.06
267.52	87.06
267.752	94.06
267.984	90.06
268.216	72.06
268.448	91.06
268.681	91.06
268.913	78.06
269.145	82.06
269.377	99.06
269.609	86.06
269.841	82.06
270.073	76.06
270.306	92.06
270.538	83.06
270.77	83.06
271.002	84.06
271.234	84.06
271.466	78.06
271.698	92.06
271.93	80.06
272.162	88.06
272.394	78.06
272.626	88.06
272.858	83.06
273.09	90.06
273.322	86.06
273.553	96.06
273.785	80.06
274.017	74.06
274.249	79.06
274.481	90.06
274.713	89.06
274.945	82.06
275.176	99.06
275.408	88.06
275.64	93.06
275.872	84.06
276.104	98.06
276.335	92.06
276.567	101.06
276.799	112.06
277.031	111.06
277.262	83.06
277.494	70.06
277.726	98.06
277.957	66.06
278.189	82.06
278.421	94.06
278.652	105.06
278.884	78.06
279.115	88.06
279.347	90.06
279.579	88.06
279.81	76.06
280.042	86.06
280.273	76.06
280.505	101.06
280.736	74.06
280.968	76.06
281.199	90.06
281.431	89.06
281.662	97.06
281.894	71.06
282.125	104.06
282.356	109.06
282.588	133.06
282.819	110.06
283.051	86.06
283.282	83.06
283.513	89.06
283.745	82.06
283.976	80.06
284.207	77.06
284.439	97.06
284.67	88.06
284.901	94.06
285.132	89.06
285.364	81.06
285.595	84.06
285.826	93.06
286.057	93.06
286.288	94.06
286.52	88.06
286.751	86.06
286.982	83.06
287.213	78.06
287.444	83.06
287.675	102.06
287.906	90.06
288.138	94.06
288.369	87.06
288.6	95.06
288.831	87.06
289.062	83.06
289.293	87.06
289.524	86.06
289.755	91.06
289.986	78.06
290.217	82.06
290.448	89.06
290.679	93.06
290.91	91.06
291.141	84.06
291.371	79.06
291.602	84.06
291.833	98.06
292.064	70.06
292.295	95.06
292.526	83.06
292.757	100.06
292.987	92.06
293.218	85.06
293.449	93.06
293.68	86.06
293.91	98.06
294.141	87.06
294.372	96.06
294.603	83.06
294.833	98.06
295.064	97.06
295.295	92.06
295.525	85.06
295.756	96.06
295.987	103.06
296.217	130.06
296.448	109.06
296.679	91.06
296.909	78.06
297.14	78.06
297.37	93.06
297.601	93.06
297.831	85.06
298.062	85.06
298.292	78.06
298.523	88.06
298.753	93.06
298.984	96.06
299.214	78.06
299.445	101.06
299.675	105.06
299.905	90.06
300.136	102.06
300.366	90.06
300.597	94.06
300.827	102.06
301.057	104.06
301.288	98.06
301.518	85.06
301.748	86.06
301.979	92.06
302.209	79.06
302.439	96.06
302.669	94.06
302.9	77.06
303.13	87.06
303.36	96.06
303.59	112.06
303.82	99.06
304.051	87.06
304.281	76.06
304.511	82.06
304.741	86.06
304.971	103.06
305.201	80.06
305.431	79.06
305.661	86.06
305.891	79.06
306.121	99.06
306.352	100.06
306.582	106.06
306.812	94.06
307.042	105.06
307.272	92.06
307.502	88.06
307.731	98.06
307.961	98.06
308.191	95.06
308.421	93.06
308.651	84.06
308.881	98.06
309.111	76.06
309.341	95.06
309.571	103.06
309.8	100.06
310.03	100.06
310.26	95.06
310.49	90.06
310.72	98.06
310.949	110.06
311.179	91.06
311.409	108.06
311.639	107.06
311.868	105.06
312.098	94.06
312.328	97.06
312.557	109.06
312.787	105.06
313.017	105.06
313.246	78.06
313.476	81.06
313.706	82.06
313.935	94.06
314.165	89.06
314.394	102.06
314.624	106.06
314.853	86.06
315.083	90.06
315.312	101.06
315.542	94.06
315.771	86.06
316.001	111.06
316.23	91.06
316.46	96.06
316.689	94.06
316.919	96.06
317.148	119.06
317.377	88.06
317.607	99.06
317.836	95.06
318.065	77.06
318.295	95.06
318.524	99.06
318.753	102.06
318.983	106.06
319.212	95.06
319.441	108.06
319.67	104.06
319.9	98.06
320.129	96.06
320.358	95.06
320.587	114.06
320.816	104.06
321.046	103.06
321.275	100.06
321.504	106.06
321.733	101.06
321.962	87.06
322.191	103.06
322.42	109.06
322.649	115.06
322.878	107.06
323.108	110.06
323.337	107.06
323.566	126.06
323.795	128.06
324.024	166.06
324.253	342.06
324.482	699.06
324.71	1398.06
324.939	1808.06
325.168	650.06
325.397	206.06
325.626	137.06
325.855	127.06
326.084	129.06
326.313	121.06
326.542	158.06
326.77	229.06
326.999	387.06
327.228	758.06
327.457	1409.06
327.686	1062.06
327.914	307.06
328.143	188.06
328.372	140.06
328.6	113.06
328.829	129.06
329.058	118.06
329.287	132.06
329.515	104.06
329.744	102.06
329.972	97.06
330.201	87.06
330.43	92.06
330.658	123.06
330.887	123.06
331.115	112.06
331.344	97.06
331.572	87.06
331.801	95.06
332.03	97.06
332.258	94.06
332.486	90.06
332.715	88.06
332.943	97.06
333.172	113.06
333.4	101.06
333.629	98.06
333.857	109.06
334.085	104.06
334.314	94.06
334.542	82.06
334.771	83.06
334.999	86.06
335.227	106.06
335.455	92.06
335.684	96.06
335.912	112.06
336.14	91.06
336.369	103.06
336.597	99.06
336.825	100.06
337.053	90.06
337.281	97.06
337.51	86.06
337.738	96.06
337.966	92.06
338.194	90.06
338.422	85.06
338.65	93.06
338.878	101.06
339.106	98.06
339.334	92.06
339.562	87.06
339.79	86.06
340.018	76.06
340.246	105.06
340.474	110.06
340.702	92.06
340.93	90.06
341.158	77.06
341.386	90.06
341.614	100.06
341.842	83.06
342.07	72.06
342.298	94.06
342.526	80.06
342.754	95.06
342.981	82.06
343.209	97.06
343.437	96.06
343.665	98.06
343.893	79.06
344.12	102.06
344.348	85.06
344.576	94.06
344.804	103.06
345.031	93.06
345.259	96.06
345.487	106.06
345.714	79.06
345.942	91.06
346.17	90.06
346.397	83.06
346.625	108.06
346.853	99.06
347.08	82.06
347.308	99.06
347.535	107.06
347.763	102.06
347.99	94.06
348.218	102.06
348.445	101.06
348.673	105.06
348.9	104.06
349.128	99.06
349.355	91.06
349.583	100.06
349.81	105.06
350.037	76.06
350.265	96.06
350.492	92.06
350.72	88.06
350.947	105.06
351.174	115.06
351.402	91.06
351.629	102.06
351.856	108.06
352.083	93.06
352.311	97.06
352.538	96.06
352.765	104.06
352.992	121.06
353.22	122.06
353.447	100.06
353.674	85.06
353.901	92.06
354.128	98.06
354.355	99.06
354.583	99.06
354.81	102.06
355.037	103.06
355.264	80.06
355.491	75.06
355.718	87.06
355.945	105.06
356.172	99.06
356.399	102.06
356.626	100.06
356.853	96.06
357.08	98.06
357.307	101.06
357.534	89.06
357.761	98.06
357.988	87.06
358.215	93.06
358.441	107.06
358.668	74.06
358.895	95.06
359.122	85.06
359.349	87.06
359.576	101.06
359.802	88.06
360.029	115.06
360.256	88.06
360.483	88.06
360.709	96.06
360.936	91.06
361.163	85.06
361.39	85.06
361.616	91.06
361.843	78.06
362.07	108.06
362.296	90.06
362.523	93.06
362.749	103.06
362.976	84.06
363.203	96.06
363.429	98.06
363.656	104.06
363.882	89.06
364.109	84.06
364.335	92.06
364.562	94.06
364.788	97.06
365.015	104.06
365.241	98.06
365.468	104.06
365.694	93.06
365.92	101.06
366.147	107.06
366.373	103.06
366.599	88.06
366.826	100.06
367.052	89.06
367.278	76.06
367.505	88.06
367.731	105.06
367.957	98.06
368.184	107.06
368.41	111.06
368.636	107.06
368.862	115.06
369.089	97.06
369.315	103.06
369.541	95.06
369.767	87.06
369.993	66.06
370.219	104.06
370.445	104.06
370.672	102.06
370.898	85.06
371.124	85.06
371.35	78.06
371.576	80.06
371.802	77.06
372.028	86.06
372.254	89.06
372.48	89.06
372.706	87.06
372.932	102.06
373.158	85.06
373.384	110.06
373.61	86.06
373.835	92.06
374.061	78.06
374.287	100.06
374.513	84.06
374.739	99.06
374.965	100.06
375.191	100.06
375.416	88.06
375.642	87.06
375.868	94.06
376.094	95.06
376.319	91.06
376.545	94.06
376.771	86.06
376.997	95.06
377.222	89.06
377.448	92.06
377.674	87.06
377.899	93.06
378.125	87.06
378.35	91.06
378.576	105.06
378.802	95.06
379.027	94.06
379.253	101.06
379.478	95.06
379.704	98.06
379.929	96.06
380.155	101.06
380.38	104.06
380.606	102.06
380.831	108.06
381.057	91.06
381.282	91.06
381.507	105.06
381.733	98.06
381.958	103.06
382.184	104.06
382.409	116.06
382.634	113.06
382.86	98.06
383.085	110.06
383.31	113.06
383.535	95.06
383.761	100.06
383.986	91.06
384.211	103.06
384.436	103.06
384.662	96.06
384.887	100.06
385.112	90.06
385.337	104.06
385.562	119.06
385.787	108.06
386.013	110.06
386.238	114.06
386.463	99.06
386.688	107.06
386.913	112.06
387.138	109.06
387.363	100.06
387.588	84.06
387.813	95.06
388.038	105.06
388.263	113.06
388.488	103.06
388.713	106.06
388.938	130.06
389.163	104.06
389.387	93.06
389.612	87.06
389.837	93.06
390.062	104.06
390.287	96.06
390.512	111.06
390.736	93.06
390.961	104.06
391.186	104.06
391.411	98.06
391.636	85.06
391.86	83.06
392.085	88.06
392.31	96.06
392.534	94.06
392.759	92.06
392.984	98.06
393.208	91.06
393.433	90.06
393.658	104.06
393.882	91.06
394.107	91.06
394.331	108.06
394.556	83.06
394.78	75.06
395.005	85.06
395.229	90.06
395.454	78.06
395.678	76.06
395.903	87.06
396.127	91.06
396.352	104.06
396.576	91.06
396.801	94.06
397.025	99.06
397.249	91.06
397.474	85.06
397.698	83.06
397.922	91.06
398.147	87.06
398.371	83.06
398.595	75.06
398.82	83.06
399.044	95.06
399.268	92.06
399.492	90.06
399.717	102.06
399.941	94.06
400.165	94.06
400.389	86.06
400.613	90.06
400.837	98.06
401.062	94.06
401.286	85.06
401.51	84.06
401.734	90.06
401.958	95.06
402.182	139.06
402.406	140.06
402.63	109.06
402.854	90.06
403.078	96.06
403.302	88.06
403.526	90.06
403.75	100.06
403.974	93.06
404.198	90.06
404.422	84.06
404.645	85.06
404.869	92.06
405.093	84.06
405.317	101.06
405.541	97.06
405.765	102.06
405.988	123.06
406.212	156.06
406.436	194.06
406.66	124.06
406.883	86.06
407.107	76.06
407.331	98.06
407.555	102.06
407.778	103.06
408.002	87.06
408.226	96.06
408.449	89.06
408.673	94.06
408.896	90.06
409.12	102.06
409.344	96.06
409.567	95.06
409.791	100.06
410.014	102.06
410.238	109.06
410.461	79.06
410.685	98.06
410.908	96.06
411.132	99.06
411.355	98.06
411.578	103.06
411.802	97.06
412.025	95.06
412.249	90.06
412.472	90.06
412.695	93.06
412.919	84.06
413.142	82.06
413.365	82.06
413.589	80.06
413.812	82.06
414.035	98.06
414.258	94.06
414.482	93.06
414.705	91.06
414.928	91.06
415.151	92.06
415.374	92.06
415.597	97.06
415.821	86.06
416.044	92.06
416.267	87.06
416.49	71.06
416.713	85.06
416.936	98.06
417.159	98.06
417.382	87.06
417.605	93.06
417.828	88.06
418.051	85.06
418.274	92.06
418.497	86.06
418.72	92.06
418.943	94.06
419.166	99.06
419.389	86.06
419.611	77.06
419.834	86.06
420.057	86.06
420.28	79.06
420.503	85.06
420.726	92.06
420.948	103.06
421.171	84.06
421.394	103.06
421.617	103.06
421.839	103.06
422.062	97.06
422.285	96.06
422.507	85.06
422.73	98.06
422.953	101.06
423.175	94.06
423.398	102.06
423.621	102.06
423.843	88.06
424.066	83.06
424.288	99.06
424.511	92.06
424.733	85.06
424.956	103.06
425.178	94.06
425.401	87.06
425.623	94.06
425.846	89.06
426.068	84.06
426.291	92.06
426.513	80.06
426.735	88.06
426.958	92.06
427.18	103.06
427.402	126.06
427.625	139.06
427.847	118.06
428.069	105.06
428.292	95.06
428.514	89.06
428.736	87.06
428.958	103.06
429.181	89.06
429.403	83.06
429.625	89.06
429.847	102.06
430.069	95.06
430.292	86.06
430.514	76.06
430.736	85.06
430.958	78.06
431.18	94.06
431.402	82.06
431.624	82.06
431.846	90.06
432.068	86.06
432.29	93.06
432.512	91.06
432.734	97.06
432.956	95.06
433.178	95.06
433.4	103.06
433.622	73.06
433.844	93.06
434.066	95.06
434.287	95.06
434.509	92.06
434.731	92.06
434.953	91.06
435.175	72.06
435.397	90.06
435.618	80.06
435.84	101.06
436.062	116.06
436.284	100.06
436.505	100.06
436.727	103.06
436.949	87.06
437.17	86.06
437.392	91.06
437.614	85.06
437.835	104.06
438.057	103.06
438.278	97.06
438.5	100.06
438.721	114.06
438.943	106.06
439.165	86.06
439.386	84.06
439.608	91.06
439.829	95.06
440.05	111.06
440.272	124.06
440.493	102.06
440.715	97.06
440.936	68.06
441.158	90.06
441.379	97.06
441.6	90.06
441.822	95.06
442.043	94.06
442.264	99.06
442.486	103.06
442.707	95.06
442.928	101.06
443.149	116.06
443.371	124.06
443.592	108.06
443.813	108.06
444.034	97.06
444.255	86.06
444.476	86.06
444.698	71.06
444.919	106.06
445.14	135.06
445.361	125.06
445.582	111.06
445.803	125.06
446.024	115.06
446.245	109.06
446.466	86.06
446.687	97.06
446.908	106.06
447.129	87.06
447.35	87.06
447.571	88.06
447.792	95.06
448.013	99.06
448.234	87.06
448.455	89.06
448.675	101.06
448.896	96.06
449.117	88.06
449.338	95.06
449.559	100.06
449.779	103.06
450	86.06
450.221	81.06
450.442	87.06
450.662	101.06
450.883	111.06
451.104	110.06
451.324	88.06
451.545	84.06
451.766	90.06
451.986	80.06
452.207	81.06
452.428	100.06
452.648	103.06
452.869	107.06
453.089	106.06
453.31	110.06
453.53	91.06
453.751	87.06
453.971	121.06
454.192	98.06
454.412	83.06
454.633	96.06
454.853	77.06
455.073	91.06
455.294	95.06
455.514	93.06
455.734	100.06
455.955	91.06
456.175	90.06
456.395	94.06
456.616	93.06
456.836	86.06
457.056	90.06
457.276	89.06
457.497	103.06
457.717	86.06
457.937	78.06
458.157	82.06
458.377	77.06
458.598	100.06
458.818	134.06
459.038	139.06
459.258	109.06
459.478	85.06
459.698	83.06
459.918	86.06
460.138	84.06
460.358	97.06
460.578	85.06
460.798	84.06
461.018	91.06
461.238	77.06
461.458	79.06
461.678	83.06
461.898	88.06
462.118	81.06
462.338	100.06
462.558	96.06
462.777	85.06
462.997	99.06
463.217	87.06
463.437	82.06
463.657	71.06
463.876	95.06
464.096	107.06
464.316	88.06
464.536	94.06
464.755	98.06
464.975	102.06
465.195	159.06
465.414	143.06
465.634	104.06
465.854	108.06
466.073	81.06
466.293	79.06
466.512	83.06
466.732	93.06
466.951	87.06
467.171	84.06
467.391	101.06
467.61	96.06
467.829	107.06
468.049	99.06
468.268	95.06
468.488	86.06
468.707	86.06
468.927	95.06
469.146	69.06
469.365	75.06
469.585	71.06
469.804	100.06
470.023	103.06
470.243	100.06
470.462	94.06
470.681	103.06
470.901	92.06
471.12	92.06
471.339	89.06
471.558	84.06
471.777	82.06
471.997	94.06
472.216	98.06
472.435	100.06
472.654	93.06
472.873	100.06
473.092	101.06
473.311	91.06
473.53	80.06
473.749	105.06
473.968	86.06
474.187	95.06
474.406	109.06
474.625	98.06
474.844	103.06
475.063	78.06
475.282	94.06
475.501	82.06
475.72	81.06
475.939	80.06
476.158	88.06
476.377	101.06
476.596	99.06
476.814	99.06
477.033	80.06
477.252	110.06
477.471	95.06
477.69	83.06
477.908	84.06
478.127	89.06
478.346	78.06
478.564	69.06
478.783	96.06
479.002	94.06
479.22	95.06
479.439	114.06
479.658	110.06
479.876	98.06
480.095	96.06
480.313	110.06
480.532	81.06
480.751	83.06
480.969	105.06
481.188	87.06
481.406	95.06
481.624	103.06
481.843	102.06
482.061	103.06
482.28	85.06
482.498	97.06
482.717	99.06
482.935	93.06
483.153	98.06
483.372	95.06
483.59	98.06
483.808	83.06
484.027	82.06
484.245	90.06
484.463	102.06
484.681	102.06
484.9	88.06
485.118	103.06
485.336	92.06
485.554	80.06
485.772	105.06
485.99	108.06
486.209	90.06
486.427	90.06
486.645	109.06
486.863	90.06
487.081	109.06
487.299	107.06
487.517	88.06
487.735	99.06
487.953	108.06
488.171	95.06
488.389	89.06
488.607	102.06
488.825	107.06
489.043	84.06
489.261	94.06
489.479	104.06
489.696	92.06
489.914	80.06
490.132	95.06
490.35	79.06
490.568	76.06
490.786	75.06
491.003	92.06
491.221	83.06
491.439	96.06
491.657	102.06
491.874	108.06
492.092	100.06
492.31	100.06
492.527	94.06
492.745	93.06
492.963	79.06
493.18	96.06
493.398	85.06
493.615	94.06
493.833	93.06
494.05	78.06
494.268	99.06
494.485	104.06
494.703	95.06
494.92	104.06
495.138	96.06
495.355	87.06
495.573	82.06
495.79	98.06
496.008	83.06
496.225	87.06
496.442	95.06
496.66	86.06
496.877	88.06
497.094	94.06
497.312	80.06
497.529	97.06
497.746	86.06
497.963	90.06
498.181	101.06
498.398	84.06
498.615	123.06
498.832	104.06
499.049	101.06
499.267	89.06
499.484	91.06
499.701	91.06
499.918	95.06
500.135	88.06
500.352	92.06
500.569	82.06
500.786	92.06
501.003	96.06
501.22	94.06
501.437	96.06
501.654	108.06
501.871	104.06
502.088	102.06
502.305	79.06
502.522	81.06
502.739	84.06
502.956	95.06
503.172	104.06
503.389	103.06
503.606	92.06
503.823	101.06
504.04	95.06
504.256	110.06
504.473	93.06
504.69	80.06
504.907	98.06
505.123	103.06
505.34	94.06
505.557	99.06
505.773	113.06
505.99	90.06
506.207	97.06
506.423	87.06
506.64	86.06
506.856	85.06
507.073	95.06
507.289	97.06
507.506	86.06
507.722	108.06
507.939	92.06
508.155	112.06
508.372	92.06
508.588	85.06
508.805	94.06
509.021	101.06
509.238	104.06
509.454	104.06
509.67	97.06
509.887	113.06
510.103	120.06
510.319	227.06
510.536	729.06
510.752	2139.06
510.968	582.06
511.184	146.06
511.401	103.06
511.617	85.06
511.833	108.06
512.049	103.06
512.265	100.06
512.481	91.06
512.698	101.06
512.914	101.06
513.13	89.06
513.346	94.06
513.562	80.06
513.778	95.06
513.994	111.06
514.21	88.06
514.426	100.06
514.642	123.06
514.858	115.06
515.074	151.06
