Data from Uncirc_1992_H10_HRD10591_00074.txt Node
Date: Wed Jan 03 11:46:31 EST 2024
User: Yrep
Spectrometer: HR+D1059
Trigger mode: 1
Integration Time (sec): 1.000000E-1
Scans to average: 1
Electric dark correction enabled: true
Nonlinearity correction enabled: false
Boxcar width: 0
XAxis mode: Wavelengths
Number of Pixels in Spectrum: 2048
>>>>>Begin Spectral Data<<<<<
223.165	-23
223.4	-23
223.635	-23
223.869	-27
224.104	-8
224.338	-11
224.573	-18
224.808	-14
225.042	-10
225.277	-7
225.511	2
225.746	-2
225.98	20
226.215	6
226.449	22
226.683	22
226.918	20
227.152	28
227.387	21
227.621	37
227.856	48
228.09	54
228.324	58
228.559	60
228.793	64
229.027	65
229.262	57
229.496	58
229.73	74
229.964	83
230.199	72
230.433	72
230.667	81
230.901	87
231.136	79
231.37	82
231.604	88
231.838	67
232.072	81
232.306	82
232.541	72
232.775	82
233.009	88
233.243	63
233.477	88
233.711	79
233.945	69
234.179	68
234.413	70
234.647	77
234.881	86
235.115	69
235.349	84
235.583	81
235.817	88
236.051	76
236.285	83
236.519	69
236.753	78
236.987	69
237.221	86
237.455	93
237.689	77
237.922	73
238.156	72
238.39	77
238.624	69
238.858	90
239.091	70
239.325	67
239.559	76
239.793	83
240.027	89
240.26	78
240.494	75
240.728	66
240.961	92
241.195	86
241.429	62
241.662	72
241.896	65
242.13	74
242.363	81
242.597	83
242.83	81
243.064	72
243.298	82
243.531	81
243.765	87
243.998	81
244.232	85
244.465	97
244.699	76
244.932	78
245.166	88
245.399	74
245.633	69
245.866	83
246.099	74
246.333	76
246.566	82
246.8	75
247.033	85
247.266	89
247.5	73
247.733	68
247.966	84
248.2	69
248.433	76
248.666	72
248.899	75
249.133	90
249.366	107
249.599	100
249.832	88
250.066	75
250.299	85
250.532	91
250.765	88
250.998	78
251.231	82
251.465	66
251.698	78
251.931	74
252.164	82
252.397	85
252.63	83
252.863	89
253.096	72
253.329	88
253.562	75
253.795	77
254.028	89
254.261	85
254.494	84
254.727	92
254.96	72
255.193	86
255.426	77
255.659	78
255.892	76
256.124	77
256.357	83
256.59	88
256.823	87
257.056	70
257.289	77
257.521	84
257.754	85
257.987	76
258.22	83
258.452	64
258.685	94
258.918	91
259.151	85
259.383	74
259.616	73
259.849	79
260.081	81
260.314	90
260.547	79
260.779	72
261.012	77
261.244	90
261.477	76
261.71	100
261.942	89
262.175	95
262.407	78
262.64	80
262.872	75
263.105	81
263.337	80
263.57	87
263.802	65
264.035	84
264.267	69
264.499	76
264.732	81
264.964	83
265.197	78
265.429	89
265.661	91
265.894	71
266.126	85
266.358	89
266.591	73
266.823	75
267.055	84
267.287	81
267.52	73
267.752	96
267.984	74
268.216	82
268.448	78
268.681	88
268.913	85
269.145	77
269.377	96
269.609	89
269.841	94
270.073	89
270.306	82
270.538	76
270.77	69
271.002	80
271.234	88
271.466	84
271.698	67
271.93	76
272.162	89
272.394	86
272.626	86
272.858	76
273.09	74
273.322	90
273.553	97
273.785	81
274.017	78
274.249	85
274.481	80
274.713	84
274.945	84
275.176	86
275.408	85
275.64	94
275.872	76
276.104	90
276.335	87
276.567	92
276.799	92
277.031	93
277.262	98
277.494	78
277.726	94
277.957	71
278.189	85
278.421	85
278.652	86
278.884	78
279.115	86
279.347	88
279.579	86
279.81	95
280.042	85
280.273	89
280.505	85
280.736	100
280.968	94
281.199	95
281.431	80
281.662	82
281.894	93
282.125	104
282.356	120
282.588	137
282.819	105
283.051	92
283.282	67
283.513	92
283.745	80
283.976	88
284.207	89
284.439	81
284.67	79
284.901	89
285.132	86
285.364	93
285.595	94
285.826	100
286.057	107
286.288	80
286.52	90
286.751	80
286.982	91
287.213	91
287.444	80
287.675	87
287.906	94
288.138	95
288.369	100
288.6	92
288.831	85
289.062	78
289.293	92
289.524	90
289.755	91
289.986	94
290.217	79
290.448	85
290.679	80
290.91	94
291.141	96
291.371	92
291.602	93
291.833	96
292.064	92
292.295	91
292.526	91
292.757	92
292.987	64
293.218	87
293.449	77
293.68	96
293.91	92
294.141	67
294.372	81
294.603	86
294.833	81
295.064	92
295.295	90
295.525	95
295.756	104
295.987	120
296.217	121
296.448	117
296.679	90
296.909	93
297.14	89
297.37	95
297.601	81
297.831	94
298.062	103
298.292	80
298.523	86
298.753	86
298.984	89
299.214	93
299.445	98
299.675	83
299.905	98
300.136	93
300.366	95
300.597	85
300.827	87
301.057	94
301.288	93
301.518	95
301.748	98
301.979	101
302.209	74
302.439	86
302.669	81
302.9	89
303.13	98
303.36	94
303.59	98
303.82	100
304.051	102
304.281	89
304.511	97
304.741	90
304.971	82
305.201	86
305.431	82
305.661	99
305.891	81
306.121	86
306.352	109
306.582	99
306.812	85
307.042	81
307.272	86
307.502	87
307.731	87
307.961	93
308.191	79
308.421	112
308.651	76
308.881	90
309.111	89
309.341	96
309.571	84
309.8	108
310.03	100
310.26	100
310.49	94
310.72	103
310.949	83
311.179	97
311.409	99
311.639	96
311.868	95
312.098	90
312.328	92
312.557	112
312.787	109
313.017	99
313.246	97
313.476	78
313.706	95
313.935	98
314.165	109
314.394	101
314.624	85
314.853	88
315.083	90
315.312	102
315.542	92
315.771	92
316.001	92
316.23	93
316.46	80
316.689	75
316.919	81
317.148	90
317.377	92
317.607	96
317.836	99
318.065	99
318.295	77
318.524	92
318.753	93
318.983	106
319.212	96
319.441	100
319.67	110
319.9	98
320.129	93
320.358	81
320.587	82
320.816	92
321.046	106
321.275	96
321.504	98
321.733	100
321.962	102
322.191	98
322.42	91
322.649	116
322.878	95
323.108	124
323.337	110
323.566	124
323.795	148
324.024	191
324.253	359
324.482	746
324.71	1547
324.939	1984
325.168	701
325.397	230
325.626	138
325.855	138
326.084	120
326.313	137
326.542	138
326.77	203
326.999	425
327.228	888
327.457	1528
327.686	1264
327.914	336
328.143	181
328.372	143
328.6	110
328.829	123
329.058	121
329.287	126
329.515	91
329.744	116
329.972	104
330.201	106
330.43	114
330.658	98
330.887	136
331.115	102
331.344	85
331.572	92
331.801	109
332.03	113
332.258	96
332.486	90
332.715	93
332.943	100
333.172	97
333.4	102
333.629	91
333.857	108
334.085	120
334.314	110
334.542	100
334.771	103
334.999	86
335.227	87
335.455	93
335.684	97
335.912	95
336.14	79
336.369	94
336.597	96
336.825	92
337.053	90
337.281	90
337.51	89
337.738	93
337.966	101
338.194	109
338.422	93
338.65	91
338.878	95
339.106	91
339.334	82
339.562	90
339.79	85
340.018	88
340.246	85
340.474	89
340.702	96
340.93	94
341.158	86
341.386	97
341.614	89
341.842	94
342.07	100
342.298	85
342.526	82
342.754	105
342.981	75
343.209	95
343.437	100
343.665	80
343.893	92
344.12	96
344.348	93
344.576	107
344.804	96
345.031	101
345.259	94
345.487	89
345.714	91
345.942	93
346.17	91
346.397	96
346.625	96
346.853	84
347.08	88
347.308	89
347.535	104
347.763	105
347.99	104
348.218	101
348.445	88
348.673	92
348.9	95
349.128	109
349.355	104
349.583	86
349.81	93
350.037	90
350.265	102
350.492	84
350.72	101
350.947	87
351.174	104
351.402	96
351.629	86
351.856	99
352.083	94
352.311	102
352.538	101
352.765	104
352.992	101
353.22	100
353.447	109
353.674	106
353.901	94
354.128	102
354.355	97
354.583	94
354.81	104
355.037	86
355.264	95
355.491	95
355.718	99
355.945	105
356.172	102
356.399	99
356.626	94
356.853	97
357.08	80
357.307	89
357.534	97
357.761	91
357.988	101
358.215	92
358.441	102
358.668	79
358.895	90
359.122	90
359.349	97
359.576	85
359.802	108
360.029	101
360.256	106
360.483	101
360.709	92
360.936	100
361.163	97
361.39	100
361.616	100
361.843	80
362.07	86
362.296	84
362.523	93
362.749	92
362.976	98
363.203	108
363.429	90
363.656	95
363.882	99
364.109	99
364.335	95
364.562	91
364.788	97
365.015	78
365.241	105
365.468	90
365.694	102
365.92	98
366.147	85
366.373	89
366.599	90
366.826	93
367.052	86
367.278	82
367.505	100
367.731	90
367.957	80
368.184	101
368.41	108
368.636	108
368.862	113
369.089	108
369.315	90
369.541	93
369.767	90
369.993	107
370.219	87
370.445	94
370.672	82
370.898	83
371.124	96
371.35	95
371.576	89
371.802	97
372.028	84
372.254	72
372.48	73
372.706	101
372.932	90
373.158	80
373.384	92
373.61	90
373.835	90
374.061	99
374.287	78
374.513	92
374.739	99
374.965	80
375.191	89
375.416	88
375.642	84
375.868	106
376.094	86
376.319	90
376.545	74
376.771	92
376.997	92
377.222	98
377.448	101
377.674	87
377.899	78
378.125	85
378.35	102
378.576	93
378.802	94
379.027	92
379.253	84
379.478	75
379.704	94
379.929	97
380.155	84
380.38	108
380.606	89
380.831	97
381.057	91
381.282	102
381.507	101
381.733	97
381.958	95
382.184	107
382.409	104
382.634	105
382.86	89
383.085	100
383.31	97
383.535	105
383.761	100
383.986	102
384.211	90
384.436	87
384.662	97
384.887	100
385.112	101
385.337	96
385.562	92
385.787	94
386.013	115
386.238	111
386.463	104
386.688	113
386.913	88
387.138	100
387.363	109
387.588	89
387.813	98
388.038	106
388.263	87
388.488	113
388.713	94
388.938	87
389.163	88
389.387	88
389.612	87
389.837	83
390.062	93
390.287	86
390.512	82
390.736	90
390.961	87
391.186	89
391.411	99
391.636	92
391.86	90
392.085	88
392.31	83
392.534	84
392.759	84
392.984	82
393.208	89
393.433	93
393.658	101
393.882	93
394.107	84
394.331	84
394.556	65
394.78	90
395.005	83
395.229	90
395.454	86
395.678	91
395.903	86
396.127	94
396.352	89
396.576	74
396.801	94
397.025	92
397.249	82
397.474	90
397.698	80
397.922	77
398.147	89
398.371	68
398.595	92
398.82	92
399.044	83
399.268	90
399.492	92
399.717	103
399.941	80
400.165	94
400.389	98
400.613	72
400.837	89
401.062	76
401.286	94
401.51	74
401.734	95
401.958	94
402.182	116
402.406	147
402.63	110
402.854	94
403.078	101
403.302	84
403.526	76
403.75	98
403.974	90
404.198	100
404.422	85
404.645	94
404.869	91
405.093	90
405.317	78
405.541	91
405.765	112
405.988	118
406.212	159
406.436	202
406.66	126
406.883	101
407.107	82
407.331	104
407.555	88
407.778	100
408.002	96
408.226	98
408.449	96
408.673	90
408.896	90
409.12	99
409.344	99
409.567	90
409.791	94
410.014	107
410.238	86
410.461	88
410.685	93
410.908	75
411.132	105
411.355	98
411.578	90
411.802	99
412.025	98
412.249	72
412.472	82
412.695	94
412.919	94
413.142	85
413.365	85
413.589	84
413.812	76
414.035	90
414.258	76
414.482	90
414.705	102
414.928	88
415.151	108
415.374	91
415.597	77
415.821	80
416.044	94
416.267	86
416.49	97
416.713	82
416.936	106
417.159	89
417.382	77
417.605	92
417.828	92
418.051	93
418.274	92
418.497	96
418.72	80
418.943	86
419.166	87
419.389	102
419.611	76
419.834	83
420.057	82
420.28	84
420.503	85
420.726	95
420.948	93
421.171	85
421.394	98
421.617	98
421.839	82
422.062	82
422.285	89
422.507	94
422.73	106
422.953	86
423.175	95
423.398	79
423.621	94
423.843	80
424.066	78
424.288	73
424.511	99
424.733	86
424.956	99
425.178	96
425.401	108
425.623	98
425.846	89
426.068	78
426.291	85
426.513	77
426.735	90
426.958	108
427.18	114
427.402	131
427.625	158
427.847	109
428.069	99
428.292	72
428.514	76
428.736	77
428.958	77
429.181	89
429.403	88
429.625	82
429.847	89
430.069	101
430.292	88
430.514	85
430.736	90
430.958	80
431.18	83
431.402	82
431.624	81
431.846	83
432.068	77
432.29	98
432.512	80
432.734	90
432.956	93
433.178	93
433.4	94
433.622	90
433.844	77
434.066	93
434.287	91
434.509	98
434.731	96
434.953	85
435.175	81
435.397	102
435.618	97
435.84	102
436.062	106
436.284	110
436.505	100
436.727	103
436.949	96
437.17	83
437.392	88
437.614	92
437.835	98
438.057	123
438.278	106
438.5	96
438.721	120
438.943	107
439.165	97
439.386	81
439.608	91
439.829	108
440.05	124
440.272	135
440.493	92
440.715	93
440.936	77
441.158	96
441.379	83
441.6	77
441.822	74
442.043	81
442.264	94
442.486	81
442.707	84
442.928	97
443.149	115
443.371	113
443.592	110
443.813	89
444.034	100
444.255	89
444.476	91
444.698	90
444.919	86
445.14	116
445.361	110
445.582	95
445.803	120
446.024	127
446.245	132
446.466	98
446.687	95
446.908	82
447.129	93
447.35	96
447.571	92
447.792	89
448.013	103
448.234	107
448.455	98
448.675	111
448.896	100
449.117	104
449.338	92
449.559	133
449.779	120
450	90
450.221	91
450.442	93
450.662	88
450.883	91
451.104	100
451.324	93
451.545	91
451.766	72
451.986	97
452.207	89
452.428	97
452.648	101
452.869	108
453.089	97
453.31	110
453.53	86
453.751	77
453.971	104
454.192	97
454.412	98
454.633	98
454.853	81
455.073	78
455.294	84
455.514	98
455.734	79
455.955	98
456.175	84
456.395	102
456.616	95
456.836	88
457.056	90
457.276	71
457.497	92
457.717	83
457.937	101
458.157	86
458.377	92
458.598	98
458.818	136
459.038	158
459.258	99
459.478	101
459.698	82
459.918	88
460.138	93
460.358	92
460.578	78
460.798	89
461.018	87
461.238	89
461.458	88
461.678	91
461.898	82
462.118	86
462.338	80
462.558	92
462.777	76
462.997	87
463.217	97
463.437	93
463.657	68
463.876	86
464.096	77
464.316	80
464.536	96
464.755	102
464.975	107
465.195	137
465.414	136
465.634	94
465.854	96
466.073	92
466.293	99
466.512	86
466.732	98
466.951	87
467.171	82
467.391	100
467.61	113
467.829	102
468.049	99
468.268	88
468.488	78
468.707	88
468.927	84
469.146	83
469.365	105
469.585	90
469.804	100
470.023	89
470.243	90
470.462	97
470.681	106
470.901	90
471.12	78
471.339	82
471.558	76
471.777	96
471.997	88
472.216	105
472.435	97
472.654	81
472.873	84
473.092	86
473.311	101
473.53	85
473.749	96
473.968	92
474.187	104
474.406	96
474.625	101
474.844	89
475.063	84
475.282	88
475.501	101
475.72	86
475.939	87
476.158	90
476.377	81
476.596	86
476.814	94
477.033	100
477.252	84
477.471	75
477.69	77
477.908	72
478.127	91
478.346	93
478.564	88
478.783	98
479.002	78
479.22	107
479.439	82
479.658	99
479.876	85
480.095	83
480.313	97
480.532	99
480.751	102
480.969	85
481.188	92
481.406	80
481.624	109
481.843	77
482.061	88
482.28	88
482.498	85
482.717	93
482.935	78
483.153	100
483.372	85
483.59	90
483.808	94
484.027	91
484.245	81
484.463	96
484.681	101
484.9	101
485.118	91
485.336	109
485.554	106
485.772	84
485.99	98
486.209	108
486.427	99
486.645	106
486.863	98
487.081	101
487.299	93
487.517	99
487.735	84
487.953	99
488.171	93
488.389	105
488.607	88
488.825	89
489.043	85
489.261	84
489.479	85
489.696	99
489.914	98
490.132	80
490.35	99
490.568	93
490.786	80
491.003	102
491.221	76
491.439	85
491.657	106
491.874	109
492.092	81
492.31	75
492.527	83
492.745	96
492.963	87
493.18	78
493.398	80
493.615	100
493.833	97
494.05	91
494.268	84
494.485	92
494.703	94
494.92	89
495.138	104
495.355	102
495.573	91
495.79	85
496.008	91
496.225	99
496.442	88
496.66	76
496.877	88
497.094	94
497.312	84
497.529	84
497.746	108
497.963	96
498.181	90
498.398	109
498.615	112
498.832	102
499.049	80
499.267	89
499.484	94
499.701	81
499.918	94
500.135	96
500.352	91
500.569	87
500.786	98
501.003	92
501.22	89
501.437	81
501.654	90
501.871	92
502.088	104
502.305	108
502.522	89
502.739	68
502.956	100
503.172	85
503.389	93
503.606	104
503.823	107
504.04	99
504.256	103
504.473	94
504.69	98
504.907	93
505.123	85
505.34	83
505.557	94
505.773	87
505.99	87
506.207	76
506.423	91
506.64	96
506.856	93
507.073	84
507.289	84
507.506	99
507.722	101
507.939	108
508.155	88
508.372	81
508.588	91
508.805	101
509.021	90
509.238	108
509.454	97
509.67	103
509.887	102
510.103	118
510.319	211
510.536	714
510.752	2123
510.968	592
511.184	153
511.401	106
511.617	100
511.833	98
512.049	91
512.265	98
512.481	85
512.698	99
512.914	82
513.13	96
513.346	76
513.562	93
513.778	96
513.994	108
514.21	96
514.426	126
514.642	117
514.858	113
515.074	162
515.29	441
515.506	1338
515.721	477
515.937	139
516.153	110
516.369	104
516.585	89
516.801	78
517.016	100
517.232	91
517.448	95
517.664	100
517.879	93
518.095	90
518.311	82
518.527	80
518.742	82
518.958	95
519.173	115
519.389	95
519.605	81
519.82	92
520.036	98
520.251	112
520.467	100
520.682	108
520.898	103
521.113	124
521.329	140
521.544	194
521.76	523
521.975	2178
522.19	1310
522.406	272
522.621	122
522.836	106
523.052	91
523.267	84
523.482	102
523.698	94
523.913	106
524.128	104
524.343	100
524.559	99
524.774	94
524.989	91
525.204	110
525.419	90
525.634	90
525.849	94
526.064	95
526.28	98
526.495	97
526.71	86
526.925	91
527.14	91
527.355	105
527.57	100
527.785	96
527.999	78
528.214	94
528.429	84
528.644	94
528.859	108
529.074	97
529.289	124
529.503	160
529.718	120
529.933	80
530.148	83
530.363	75
530.577	86
530.792	92
531.007	96
531.221	84
531.436	88
531.651	85
531.865	63
532.08	88
532.295	109
532.509	92
532.724	112
532.938	102
533.153	104
533.367	102
533.582	91
533.796	96
534.011	87
534.225	93
534.44	100
534.654	98
534.868	90
535.083	87
535.297	91
535.511	95
535.726	95
535.94	109
536.154	105
536.369	74
536.583	86
536.797	94
537.011	106
537.225	85
537.44	87
537.654	91
537.868	85
538.082	91
538.296	95
538.51	93
538.724	85
538.938	102
539.153	113
539.367	102
539.581	103
539.795	94
540.009	95
540.222	97
540.436	81
540.65	69
540.864	85
541.078	93
541.292	99
541.506	87
541.72	93
541.934	85
542.147	96
542.361	84
542.575	87
542.789	92
543.002	87
543.216	104
543.43	88
543.644	96
543.857	82
544.071	85
544.285	98
544.498	75
544.712	96
544.925	76
545.139	86
545.352	83
545.566	81
545.779	78
545.993	91
546.206	95
546.42	84
546.633	96
546.847	101
547.06	86
547.274	83
547.487	94
547.7	86
547.914	79
548.127	100
548.34	90
548.554	89
548.767	82
548.98	95
549.193	94
549.407	101
549.62	89
549.833	85
550.046	91
550.259	85
550.473	80
550.686	98
550.899	101
551.112	93
551.325	111
551.538	90
551.751	94
551.964	89
552.177	93
552.39	97
552.603	93
552.816	97
553.029	91
553.242	105
553.455	96
553.667	94
553.88	84
554.093	96
554.306	89
554.519	98
554.732	84
554.944	72
555.157	86
555.37	89
555.583	92
555.795	97
556.008	101
556.221	101
556.433	94
556.646	84
556.859	90
557.071	95
557.284	90
557.496	97
557.709	82
557.921	93
558.134	88
558.346	92
558.559	82
558.771	85
558.984	89
559.196	88
559.409	86
559.621	91
559.833	84
560.046	92
560.258	94
560.47	92
560.683	82
560.895	91
561.107	90
561.32	85
561.532	86
561.744	94
561.956	86
562.168	101
562.381	91
562.593	81
562.805	93
563.017	85
563.229	88
563.441	87
563.653	79
563.865	85
564.077	84
564.289	91
564.501	90
564.713	100
564.925	97
565.137	104
565.349	95
565.561	74
565.773	88
565.985	94
566.197	82
566.408	89
566.62	81
566.832	92
567.044	77
567.255	96
567.467	75
567.679	81
567.891	78
568.102	85
568.314	93
568.526	94
568.737	92
568.949	101
569.161	88
569.372	102
569.584	95
569.795	103
570.007	103
570.218	246
570.43	138
570.641	90
570.853	82
571.064	78
571.276	96
571.487	101
571.698	93
571.91	82
572.121	82
572.333	79
572.544	87
572.755	102
572.966	97
573.178	92
573.389	81
573.6	84
573.811	81
574.023	91
574.234	73
574.445	90
574.656	81
574.867	82
575.078	75
575.289	90
575.501	74
575.712	88
575.923	73
576.134	95
576.345	91
576.556	80
576.767	95
576.978	94
577.188	101
577.399	91
577.61	101
577.821	86
578.032	112
578.243	264
578.454	676
578.665	191
578.875	108
579.086	98
579.297	92
579.508	85
579.718	99
579.929	93
580.14	79
580.35	86
580.561	78
580.772	92
580.982	85
581.193	82
581.403	97
581.614	83
581.825	84
582.035	91
582.246	89
582.456	86
582.667	88
582.877	96
583.087	90
583.298	93
583.508	86
583.719	83
583.929	92
584.139	78
584.35	89
584.56	96
