Data from Uncirc_1992_H10_HRD10591_00086.txt Node
Date: Wed Jan 03 11:46:33 EST 2024
User: Yrep
Spectrometer: HR+D1059
Trigger mode: 1
Integration Time (sec): 1.000000E-1
Scans to average: 1
Electric dark correction enabled: true
Nonlinearity correction enabled: false
Boxcar width: 0
XAxis mode: Wavelengths
Number of Pixels in Spectrum: 2048
>>>>>Begin Spectral Data<<<<<
223.165	-22.5
223.4	-22.5
223.635	-22.5
223.869	-16.5
224.104	-20.5
224.338	2.5
224.573	-17.5
224.808	-1.5
225.042	-2.5
225.277	-0.5
225.511	-9.5
225.746	0.5
225.98	-0.5
226.215	8.5
226.449	3.5
226.683	23.5
226.918	16.5
227.152	36.5
227.387	21.5
227.621	42.5
227.856	40.5
228.09	53.5
228.324	60.5
228.559	46.5
228.793	55.5
229.027	55.5
229.262	74.5
229.496	76.5
229.73	78.5
229.964	84.5
230.199	71.5
230.433	81.5
230.667	76.5
230.901	79.5
231.136	83.5
231.37	80.5
231.604	70.5
231.838	74.5
232.072	74.5
232.306	70.5
232.541	72.5
232.775	78.5
233.009	87.5
233.243	103.5
233.477	79.5
233.711	87.5
233.945	80.5
234.179	85.5
234.413	67.5
234.647	79.5
234.881	79.5
235.115	80.5
235.349	84.5
235.583	99.5
235.817	76.5
236.051	74.5
236.285	84.5
236.519	74.5
236.753	80.5
236.987	85.5
237.221	83.5
237.455	91.5
237.689	65.5
237.922	75.5
238.156	74.5
238.39	84.5
238.624	93.5
238.858	86.5
239.091	64.5
239.325	88.5
239.559	90.5
239.793	74.5
240.027	76.5
240.26	76.5
240.494	74.5
240.728	83.5
240.961	46.5
241.195	86.5
241.429	93.5
241.662	83.5
241.896	86.5
242.13	88.5
242.363	88.5
242.597	89.5
242.83	84.5
243.064	81.5
243.298	84.5
243.531	88.5
243.765	78.5
243.998	73.5
244.232	95.5
244.465	81.5
244.699	92.5
244.932	82.5
245.166	63.5
245.399	76.5
245.633	77.5
245.866	69.5
246.099	71.5
246.333	79.5
246.566	88.5
246.8	86.5
247.033	80.5
247.266	78.5
247.5	76.5
247.733	66.5
247.966	74.5
248.2	76.5
248.433	66.5
248.666	91.5
248.899	74.5
249.133	93.5
249.366	88.5
249.599	90.5
249.832	71.5
250.066	83.5
250.299	84.5
250.532	76.5
250.765	69.5
250.998	69.5
251.231	79.5
251.465	79.5
251.698	72.5
251.931	94.5
252.164	94.5
252.397	100.5
252.63	86.5
252.863	101.5
253.096	72.5
253.329	71.5
253.562	82.5
253.795	86.5
254.028	102.5
254.261	86.5
254.494	79.5
254.727	77.5
254.96	91.5
255.193	78.5
255.426	70.5
255.659	87.5
255.892	72.5
256.124	82.5
256.357	86.5
256.59	68.5
256.823	78.5
257.056	78.5
257.289	71.5
257.521	90.5
257.754	87.5
257.987	88.5
258.22	95.5
258.452	63.5
258.685	84.5
258.918	81.5
259.151	84.5
259.383	78.5
259.616	82.5
259.849	88.5
260.081	81.5
260.314	91.5
260.547	83.5
260.779	81.5
261.012	82.5
261.244	75.5
261.477	88.5
261.71	83.5
261.942	99.5
262.175	117.5
262.407	88.5
262.64	76.5
262.872	69.5
263.105	87.5
263.337	90.5
263.57	89.5
263.802	86.5
264.035	83.5
264.267	75.5
264.499	84.5
264.732	102.5
264.964	78.5
265.197	75.5
265.429	77.5
265.661	81.5
265.894	92.5
266.126	75.5
266.358	87.5
266.591	94.5
266.823	77.5
267.055	74.5
267.287	69.5
267.52	72.5
267.752	84.5
267.984	83.5
268.216	90.5
268.448	85.5
268.681	90.5
268.913	86.5
269.145	87.5
269.377	87.5
269.609	92.5
269.841	71.5
270.073	86.5
270.306	74.5
270.538	79.5
270.77	87.5
271.002	81.5
271.234	79.5
271.466	93.5
271.698	85.5
271.93	92.5
272.162	85.5
272.394	92.5
272.626	90.5
272.858	97.5
273.09	101.5
273.322	78.5
273.553	79.5
273.785	88.5
274.017	77.5
274.249	89.5
274.481	99.5
274.713	97.5
274.945	86.5
275.176	81.5
275.408	89.5
275.64	83.5
275.872	92.5
276.104	91.5
276.335	89.5
276.567	93.5
276.799	85.5
277.031	103.5
277.262	93.5
277.494	79.5
277.726	85.5
277.957	76.5
278.189	85.5
278.421	87.5
278.652	74.5
278.884	91.5
279.115	87.5
279.347	86.5
279.579	90.5
279.81	72.5
280.042	81.5
280.273	81.5
280.505	80.5
280.736	78.5
280.968	84.5
281.199	94.5
281.431	92.5
281.662	100.5
281.894	84.5
282.125	107.5
282.356	119.5
282.588	124.5
282.819	105.5
283.051	93.5
283.282	78.5
283.513	95.5
283.745	96.5
283.976	87.5
284.207	101.5
284.439	84.5
284.67	84.5
284.901	88.5
285.132	107.5
285.364	86.5
285.595	76.5
285.826	89.5
286.057	86.5
286.288	93.5
286.52	82.5
286.751	85.5
286.982	84.5
287.213	82.5
287.444	92.5
287.675	87.5
287.906	90.5
288.138	86.5
288.369	90.5
288.6	78.5
288.831	75.5
289.062	90.5
289.293	82.5
289.524	74.5
289.755	76.5
289.986	91.5
290.217	86.5
290.448	92.5
290.679	111.5
290.91	98.5
291.141	92.5
291.371	89.5
291.602	86.5
291.833	96.5
292.064	72.5
292.295	88.5
292.526	80.5
292.757	95.5
292.987	94.5
293.218	96.5
293.449	105.5
293.68	95.5
293.91	92.5
294.141	95.5
294.372	81.5
294.603	93.5
294.833	75.5
295.064	90.5
295.295	101.5
295.525	102.5
295.756	103.5
295.987	123.5
296.217	138.5
296.448	128.5
296.679	105.5
296.909	84.5
297.14	83.5
297.37	86.5
297.601	96.5
297.831	90.5
298.062	91.5
298.292	103.5
298.523	91.5
298.753	73.5
298.984	90.5
299.214	89.5
299.445	97.5
299.675	98.5
299.905	109.5
300.136	96.5
300.366	87.5
300.597	82.5
300.827	87.5
301.057	101.5
301.288	94.5
301.518	106.5
301.748	87.5
301.979	90.5
302.209	77.5
302.439	85.5
302.669	88.5
302.9	83.5
303.13	82.5
303.36	95.5
303.59	94.5
303.82	95.5
304.051	102.5
304.281	89.5
304.511	91.5
304.741	89.5
304.971	96.5
305.201	90.5
305.431	85.5
305.661	88.5
305.891	92.5
306.121	89.5
306.352	90.5
306.582	103.5
306.812	80.5
307.042	92.5
307.272	85.5
307.502	93.5
307.731	84.5
307.961	95.5
308.191	90.5
308.421	98.5
308.651	96.5
308.881	93.5
309.111	109.5
309.341	110.5
309.571	99.5
309.8	106.5
310.03	94.5
310.26	94.5
310.49	83.5
310.72	97.5
310.949	97.5
311.179	91.5
311.409	91.5
311.639	102.5
311.868	89.5
312.098	90.5
312.328	76.5
312.557	94.5
312.787	108.5
313.017	84.5
313.246	105.5
313.476	96.5
313.706	84.5
313.935	94.5
314.165	87.5
314.394	94.5
314.624	103.5
314.853	86.5
315.083	96.5
315.312	78.5
315.542	102.5
315.771	87.5
316.001	102.5
316.23	94.5
316.46	90.5
316.689	86.5
316.919	98.5
317.148	93.5
317.377	89.5
317.607	86.5
317.836	94.5
318.065	101.5
318.295	91.5
318.524	94.5
318.753	78.5
318.983	98.5
319.212	98.5
319.441	111.5
319.67	114.5
319.9	93.5
320.129	95.5
320.358	82.5
320.587	102.5
320.816	90.5
321.046	92.5
321.275	93.5
321.504	99.5
321.733	98.5
321.962	98.5
322.191	89.5
322.42	92.5
322.649	107.5
322.878	108.5
323.108	104.5
323.337	115.5
323.566	114.5
323.795	146.5
324.024	173.5
324.253	342.5
324.482	702.5
324.71	1413.5
324.939	1797.5
325.168	678.5
325.397	222.5
325.626	130.5
325.855	121.5
326.084	122.5
326.313	123.5
326.542	136.5
326.77	203.5
326.999	384.5
327.228	790.5
327.457	1398.5
327.686	1110.5
327.914	306.5
328.143	178.5
328.372	128.5
328.6	126.5
328.829	118.5
329.058	119.5
329.287	119.5
329.515	95.5
329.744	87.5
329.972	103.5
330.201	110.5
330.43	87.5
330.658	106.5
330.887	130.5
331.115	113.5
331.344	102.5
331.572	104.5
331.801	97.5
332.03	107.5
332.258	100.5
332.486	99.5
332.715	95.5
332.943	101.5
333.172	98.5
333.4	109.5
333.629	120.5
333.857	106.5
334.085	115.5
334.314	101.5
334.542	90.5
334.771	98.5
334.999	97.5
335.227	100.5
335.455	87.5
335.684	104.5
335.912	90.5
336.14	98.5
336.369	91.5
336.597	95.5
336.825	96.5
337.053	93.5
337.281	92.5
337.51	76.5
337.738	92.5
337.966	80.5
338.194	90.5
338.422	90.5
338.65	81.5
338.878	88.5
339.106	99.5
339.334	88.5
339.562	104.5
339.79	89.5
340.018	88.5
340.246	83.5
340.474	102.5
340.702	86.5
340.93	89.5
341.158	99.5
341.386	102.5
341.614	102.5
341.842	84.5
342.07	77.5
342.298	90.5
342.526	71.5
342.754	96.5
342.981	95.5
343.209	94.5
343.437	107.5
343.665	85.5
343.893	69.5
344.12	84.5
344.348	103.5
344.576	88.5
344.804	94.5
345.031	94.5
345.259	111.5
345.487	97.5
345.714	95.5
345.942	96.5
346.17	89.5
346.397	79.5
346.625	90.5
346.853	84.5
347.08	96.5
347.308	100.5
347.535	99.5
347.763	103.5
347.99	84.5
348.218	93.5
348.445	108.5
348.673	94.5
348.9	85.5
349.128	100.5
349.355	101.5
349.583	103.5
349.81	109.5
350.037	98.5
350.265	102.5
350.492	85.5
350.72	85.5
350.947	112.5
351.174	103.5
351.402	110.5
351.629	100.5
351.856	104.5
352.083	107.5
352.311	119.5
352.538	104.5
352.765	107.5
352.992	104.5
353.22	116.5
353.447	100.5
353.674	99.5
353.901	93.5
354.128	103.5
354.355	98.5
354.583	105.5
354.81	111.5
355.037	101.5
355.264	96.5
355.491	93.5
355.718	98.5
355.945	86.5
356.172	83.5
356.399	92.5
356.626	102.5
356.853	96.5
357.08	88.5
357.307	90.5
357.534	92.5
357.761	102.5
357.988	89.5
358.215	95.5
358.441	90.5
358.668	100.5
358.895	96.5
359.122	92.5
359.349	89.5
359.576	90.5
359.802	99.5
360.029	99.5
360.256	98.5
360.483	81.5
360.709	77.5
360.936	97.5
361.163	94.5
361.39	90.5
361.616	96.5
361.843	83.5
362.07	80.5
362.296	94.5
362.523	106.5
362.749	87.5
362.976	85.5
363.203	89.5
363.429	96.5
363.656	78.5
363.882	90.5
364.109	86.5
364.335	99.5
364.562	85.5
364.788	109.5
365.015	95.5
365.241	111.5
365.468	102.5
365.694	103.5
365.92	92.5
366.147	97.5
366.373	96.5
366.599	98.5
366.826	90.5
367.052	101.5
367.278	106.5
367.505	82.5
367.731	94.5
367.957	94.5
368.184	83.5
368.41	96.5
368.636	102.5
368.862	110.5
369.089	110.5
369.315	93.5
369.541	88.5
369.767	100.5
369.993	97.5
370.219	89.5
370.445	79.5
370.672	99.5
370.898	83.5
371.124	92.5
371.35	80.5
371.576	95.5
371.802	96.5
372.028	88.5
372.254	88.5
372.48	84.5
372.706	95.5
372.932	93.5
373.158	88.5
373.384	95.5
373.61	92.5
373.835	96.5
374.061	82.5
374.287	83.5
374.513	85.5
374.739	84.5
374.965	82.5
375.191	93.5
375.416	85.5
375.642	85.5
375.868	99.5
376.094	99.5
376.319	102.5
376.545	85.5
376.771	92.5
376.997	92.5
377.222	88.5
377.448	109.5
377.674	87.5
377.899	100.5
378.125	95.5
378.35	94.5
378.576	95.5
378.802	88.5
379.027	106.5
379.253	92.5
379.478	86.5
379.704	96.5
379.929	91.5
380.155	92.5
380.38	96.5
380.606	96.5
380.831	95.5
381.057	113.5
381.282	99.5
381.507	82.5
381.733	96.5
381.958	98.5
382.184	93.5
382.409	94.5
382.634	110.5
382.86	98.5
383.085	106.5
383.31	99.5
383.535	102.5
383.761	107.5
383.986	102.5
384.211	93.5
384.436	100.5
384.662	86.5
384.887	91.5
385.112	96.5
385.337	101.5
385.562	103.5
385.787	94.5
386.013	99.5
386.238	119.5
386.463	107.5
386.688	104.5
386.913	103.5
387.138	99.5
387.363	119.5
387.588	100.5
387.813	110.5
388.038	104.5
388.263	104.5
388.488	102.5
388.713	95.5
388.938	101.5
389.163	107.5
389.387	96.5
389.612	111.5
389.837	105.5
390.062	87.5
390.287	91.5
390.512	99.5
390.736	103.5
390.961	104.5
391.186	102.5
391.411	114.5
391.636	101.5
391.86	84.5
392.085	94.5
392.31	97.5
392.534	97.5
392.759	96.5
392.984	88.5
393.208	96.5
393.433	77.5
393.658	82.5
393.882	81.5
394.107	88.5
394.331	84.5
394.556	90.5
394.78	96.5
395.005	96.5
395.229	71.5
395.454	86.5
395.678	86.5
395.903	100.5
396.127	86.5
396.352	108.5
396.576	91.5
396.801	86.5
397.025	91.5
397.249	99.5
397.474	95.5
397.698	102.5
397.922	99.5
398.147	98.5
398.371	81.5
398.595	90.5
398.82	101.5
399.044	94.5
399.268	75.5
399.492	78.5
399.717	86.5
399.941	97.5
400.165	108.5
400.389	94.5
400.613	81.5
400.837	75.5
401.062	84.5
401.286	83.5
401.51	95.5
401.734	91.5
401.958	96.5
402.182	121.5
402.406	141.5
402.63	108.5
402.854	86.5
403.078	97.5
403.302	78.5
403.526	98.5
403.75	96.5
403.974	100.5
404.198	92.5
404.422	96.5
404.645	82.5
404.869	103.5
405.093	99.5
405.317	101.5
405.541	99.5
405.765	94.5
405.988	115.5
406.212	163.5
406.436	212.5
406.66	151.5
406.883	104.5
407.107	81.5
407.331	97.5
407.555	85.5
407.778	93.5
408.002	93.5
408.226	99.5
408.449	91.5
408.673	87.5
408.896	80.5
409.12	82.5
409.344	86.5
409.567	88.5
409.791	84.5
410.014	94.5
410.238	94.5
410.461	88.5
410.685	87.5
410.908	98.5
411.132	100.5
411.355	96.5
411.578	108.5
411.802	99.5
412.025	88.5
412.249	79.5
412.472	96.5
412.695	84.5
412.919	88.5
413.142	88.5
413.365	98.5
413.589	91.5
413.812	70.5
414.035	90.5
414.258	104.5
414.482	85.5
414.705	92.5
414.928	91.5
415.151	96.5
415.374	83.5
415.597	82.5
415.821	84.5
416.044	78.5
416.267	86.5
416.49	98.5
416.713	76.5
416.936	79.5
417.159	82.5
417.382	92.5
417.605	83.5
417.828	93.5
418.051	86.5
418.274	92.5
418.497	83.5
418.72	93.5
418.943	83.5
419.166	88.5
419.389	94.5
419.611	94.5
419.834	80.5
420.057	82.5
420.28	83.5
420.503	80.5
420.726	76.5
420.948	86.5
421.171	89.5
421.394	87.5
421.617	86.5
421.839	101.5
422.062	91.5
422.285	98.5
422.507	103.5
422.73	90.5
422.953	73.5
423.175	93.5
423.398	91.5
423.621	91.5
423.843	88.5
424.066	94.5
424.288	84.5
424.511	94.5
424.733	96.5
424.956	101.5
425.178	101.5
425.401	92.5
425.623	99.5
425.846	92.5
426.068	108.5
426.291	96.5
426.513	97.5
426.735	95.5
426.958	80.5
427.18	106.5
427.402	111.5
427.625	131.5
427.847	110.5
428.069	100.5
428.292	90.5
428.514	90.5
428.736	79.5
428.958	66.5
429.181	82.5
429.403	88.5
429.625	101.5
429.847	93.5
430.069	103.5
430.292	95.5
430.514	90.5
430.736	85.5
430.958	88.5
431.18	81.5
431.402	88.5
431.624	82.5
431.846	74.5
432.068	94.5
432.29	89.5
432.512	91.5
432.734	99.5
432.956	96.5
433.178	86.5
433.4	91.5
433.622	81.5
433.844	97.5
434.066	97.5
434.287	97.5
434.509	89.5
434.731	92.5
434.953	90.5
435.175	90.5
435.397	108.5
435.618	100.5
435.84	95.5
436.062	107.5
436.284	102.5
436.505	102.5
436.727	103.5
436.949	94.5
437.17	86.5
437.392	82.5
437.614	104.5
437.835	107.5
438.057	109.5
438.278	102.5
438.5	98.5
438.721	116.5
438.943	91.5
439.165	93.5
439.386	94.5
439.608	94.5
439.829	94.5
440.05	110.5
440.272	138.5
440.493	98.5
440.715	79.5
440.936	92.5
441.158	83.5
441.379	106.5
441.6	89.5
441.822	94.5
442.043	91.5
442.264	102.5
442.486	94.5
442.707	104.5
442.928	107.5
443.149	115.5
443.371	146.5
443.592	109.5
443.813	94.5
444.034	92.5
444.255	84.5
444.476	90.5
444.698	86.5
444.919	95.5
445.14	125.5
445.361	105.5
445.582	115.5
445.803	112.5
446.024	126.5
446.245	114.5
446.466	98.5
446.687	96.5
446.908	80.5
447.129	91.5
447.35	90.5
447.571	102.5
447.792	102.5
448.013	101.5
448.234	117.5
448.455	101.5
448.675	112.5
448.896	108.5
449.117	104.5
449.338	104.5
449.559	127.5
449.779	111.5
450	89.5
450.221	92.5
450.442	82.5
450.662	80.5
450.883	95.5
451.104	118.5
451.324	85.5
451.545	96.5
451.766	90.5
451.986	90.5
452.207	93.5
452.428	94.5
452.648	87.5
452.869	94.5
453.089	103.5
453.31	110.5
453.53	96.5
453.751	95.5
453.971	108.5
454.192	99.5
454.412	90.5
454.633	97.5
454.853	84.5
455.073	85.5
455.294	79.5
455.514	96.5
455.734	85.5
455.955	91.5
456.175	93.5
456.395	78.5
456.616	87.5
456.836	102.5
457.056	95.5
457.276	98.5
457.497	99.5
457.717	83.5
457.937	86.5
458.157	95.5
458.377	91.5
458.598	121.5
458.818	156.5
459.038	130.5
459.258	106.5
459.478	82.5
459.698	96.5
459.918	85.5
460.138	99.5
460.358	86.5
460.578	76.5
460.798	92.5
461.018	81.5
461.238	88.5
461.458	104.5
461.678	82.5
461.898	80.5
462.118	93.5
462.338	83.5
462.558	82.5
462.777	83.5
462.997	83.5
463.217	85.5
463.437	86.5
463.657	72.5
463.876	81.5
464.096	90.5
464.316	84.5
464.536	92.5
464.755	84.5
464.975	117.5
465.195	150.5
465.414	144.5
465.634	95.5
465.854	100.5
466.073	83.5
466.293	85.5
466.512	87.5
466.732	79.5
466.951	97.5
467.171	94.5
467.391	99.5
467.61	108.5
467.829	101.5
468.049	90.5
468.268	86.5
468.488	93.5
468.707	96.5
468.927	76.5
469.146	88.5
469.365	76.5
469.585	82.5
469.804	78.5
470.023	101.5
470.243	87.5
470.462	96.5
470.681	97.5
470.901	95.5
471.12	91.5
471.339	100.5
471.558	103.5
471.777	87.5
471.997	96.5
472.216	100.5
472.435	92.5
472.654	74.5
472.873	88.5
473.092	94.5
473.311	77.5
473.53	91.5
473.749	92.5
473.968	92.5
474.187	115.5
474.406	96.5
474.625	94.5
474.844	82.5
475.063	90.5
475.282	74.5
475.501	82.5
475.72	85.5
475.939	96.5
476.158	90.5
476.377	87.5
476.596	90.5
476.814	80.5
477.033	87.5
477.252	76.5
477.471	83.5
477.69	91.5
477.908	95.5
478.127	74.5
478.346	90.5
478.564	95.5
478.783	91.5
479.002	92.5
479.22	80.5
479.439	107.5
479.658	99.5
479.876	95.5
480.095	93.5
480.313	79.5
480.532	92.5
480.751	110.5
480.969	77.5
481.188	99.5
481.406	100.5
481.624	87.5
481.843	85.5
482.061	79.5
482.28	92.5
482.498	92.5
482.717	88.5
482.935	88.5
483.153	100.5
483.372	100.5
483.59	83.5
483.808	76.5
484.027	93.5
484.245	94.5
484.463	82.5
484.681	82.5
484.9	80.5
485.118	104.5
485.336	107.5
485.554	96.5
485.772	104.5
485.99	106.5
486.209	92.5
486.427	111.5
486.645	92.5
486.863	113.5
487.081	118.5
487.299	98.5
487.517	99.5
487.735	99.5
487.953	87.5
488.171	94.5
488.389	93.5
488.607	106.5
488.825	100.5
489.043	91.5
489.261	96.5
489.479	81.5
489.696	102.5
489.914	92.5
490.132	95.5
490.35	79.5
490.568	100.5
490.786	92.5
491.003	80.5
491.221	86.5
491.439	98.5
491.657	102.5
491.874	91.5
492.092	97.5
492.31	88.5
492.527	86.5
492.745	87.5
492.963	85.5
493.18	88.5
493.398	89.5
493.615	114.5
493.833	95.5
494.05	90.5
494.268	86.5
494.485	85.5
494.703	95.5
494.92	75.5
495.138	94.5
495.355	92.5
495.573	90.5
495.79	86.5
496.008	103.5
496.225	105.5
496.442	84.5
496.66	93.5
496.877	94.5
497.094	90.5
497.312	82.5
497.529	96.5
497.746	94.5
497.963	100.5
498.181	97.5
498.398	104.5
498.615	103.5
498.832	103.5
499.049	88.5
499.267	95.5
499.484	91.5
499.701	99.5
499.918	87.5
500.135	87.5
500.352	89.5
500.569	94.5
500.786	86.5
501.003	94.5
501.22	92.5
501.437	92.5
501.654	101.5
501.871	99.5
502.088	82.5
502.305	94.5
502.522	94.5
502.739	90.5
502.956	96.5
503.172	95.5
503.389	84.5
503.606	107.5
503.823	104.5
504.04	104.5
504.256	98.5
504.473	107.5
504.69	103.5
504.907	93.5
505.123	98.5
505.34	95.5
505.557	100.5
505.773	92.5
505.99	91.5
506.207	97.5
506.423	93.5
506.64	96.5
506.856	87.5
507.073	84.5
507.289	94.5
507.506	94.5
507.722	96.5
507.939	110.5
508.155	103.5
508.372	97.5
508.588	98.5
508.805	91.5
509.021	91.5
509.238	98.5
509.454	87.5
509.67	87.5
509.887	95.5
510.103	130.5
510.319	207.5
510.536	698.5
510.752	2159.5
510.968	576.5
511.184	154.5
511.401	101.5
511.617	97.5
511.833	90.5
512.049	107.5
512.265	90.5
512.481	103.5
512.698	84.5
512.914	83.5
513.13	91.5
513.346	96.5
513.562	86.5
513.778	85.5
513.994	91.5
514.21	102.5
514.426	123.5
514.642	117.5
514.858	124.5
515.074	156.5
515.29	422.5
515.506	1294.5
515.721	464.5
515.937	133.5
516.153	112.5
516.369	99.5
516.585	89.5
516.801	95.5
517.016	94.5
517.232	96.5
517.448	91.5
517.664	80.5
517.879	91.5
518.095	94.5
518.311	94.5
518.527	91.5
518.742	93.5
518.958	103.5
519.173	96.5
519.389	72.5
519.605	95.5
519.82	95.5
520.036	100.5
520.251	112.5
520.467	124.5
520.682	110.5
520.898	96.5
521.113	111.5
521.329	138.5
521.544	182.5
521.76	501.5
521.975	2124.5
522.19	1276.5
522.406	279.5
522.621	117.5
522.836	87.5
523.052	80.5
523.267	96.5
523.482	88.5
523.698	103.5
523.913	111.5
524.128	100.5
524.343	98.5
524.559	105.5
524.774	75.5
524.989	84.5
525.204	105.5
525.419	102.5
525.634	83.5
525.849	96.5
526.064	99.5
526.28	98.5
526.495	98.5
526.71	87.5
526.925	91.5
527.14	90.5
527.355	98.5
527.57	95.5
527.785	95.5
527.999	86.5
528.214	86.5
528.429	90.5
528.644	94.5
528.859	98.5
529.074	93.5
529.289	127.5
529.503	147.5
529.718	91.5
529.933	93.5
530.148	94.5
530.363	87.5
530.577	92.5
530.792	93.5
531.007	97.5
531.221	103.5
531.436	98.5
531.651	78.5
531.865	94.5
532.08	94.5
532.295	107.5
532.509	94.5
532.724	91.5
532.938	111.5
533.153	98.5
533.367	88.5
533.582	88.5
533.796	104.5
534.011	92.5
534.225	94.5
534.44	98.5
534.654	96.5
534.868	102.5
535.083	81.5
535.297	107.5
