Data from Uncirc_1992_H10_HRD10591_00049.txt Node
Date: Wed Jan 03 11:46:26 EST 2024
User: Yrep
Spectrometer: HR+D1059
Trigger mode: 1
Integration Time (sec): 1.000000E-1
Scans to average: 1
Electric dark correction enabled: true
Nonlinearity correction enabled: false
Boxcar width: 0
XAxis mode: Wavelengths
Number of Pixels in Spectrum: 2048
>>>>>Begin Spectral Data<<<<<
223.165	-23.81
223.4	-23.81
223.635	-23.81
223.869	-8.81
224.104	-23.81
224.338	-15.81
224.573	-13.81
224.808	-19.81
225.042	-7.81
225.277	-13.81
225.511	-0.81
225.746	1.19
225.98	2.19
226.215	11.19
226.449	17.19
226.683	19.19
226.918	40.19
227.152	37.19
227.387	35.19
227.621	48.19
227.856	53.19
228.09	48.19
228.324	63.19
228.559	46.19
228.793	66.19
229.027	70.19
229.262	68.19
229.496	71.19
229.73	84.19
229.964	72.19
230.199	75.19
230.433	93.19
230.667	91.19
230.901	87.19
231.136	78.19
231.37	80.19
231.604	81.19
231.838	89.19
232.072	81.19
232.306	89.19
232.541	86.19
232.775	99.19
233.009	87.19
233.243	88.19
233.477	95.19
233.711	81.19
233.945	64.19
234.179	86.19
234.413	83.19
234.647	70.19
234.881	63.19
235.115	79.19
235.349	72.19
235.583	91.19
235.817	83.19
236.051	77.19
236.285	72.19
236.519	83.19
236.753	70.19
236.987	69.19
237.221	82.19
237.455	88.19
237.689	96.19
237.922	72.19
238.156	62.19
238.39	72.19
238.624	90.19
238.858	79.19
239.091	87.19
239.325	80.19
239.559	81.19
239.793	75.19
240.027	95.19
240.26	80.19
240.494	91.19
240.728	64.19
240.961	82.19
241.195	82.19
241.429	72.19
241.662	74.19
241.896	84.19
242.13	68.19
242.363	72.19
242.597	68.19
242.83	73.19
243.064	80.19
243.298	81.19
243.531	77.19
243.765	81.19
243.998	82.19
244.232	85.19
244.465	79.19
244.699	77.19
244.932	75.19
245.166	99.19
245.399	82.19
245.633	77.19
245.866	75.19
246.099	79.19
246.333	81.19
246.566	86.19
246.8	80.19
247.033	87.19
247.266	79.19
247.5	65.19
247.733	83.19
247.966	80.19
248.2	77.19
248.433	84.19
248.666	65.19
248.899	81.19
249.133	93.19
249.366	85.19
249.599	87.19
249.832	84.19
250.066	101.19
250.299	80.19
250.532	88.19
250.765	72.19
250.998	80.19
251.231	87.19
251.465	84.19
251.698	75.19
251.931	79.19
252.164	84.19
252.397	88.19
252.63	83.19
252.863	79.19
253.096	67.19
253.329	88.19
253.562	79.19
253.795	68.19
254.028	87.19
254.261	90.19
254.494	82.19
254.727	87.19
254.96	75.19
255.193	81.19
255.426	64.19
255.659	101.19
255.892	93.19
256.124	87.19
256.357	84.19
256.59	69.19
256.823	85.19
257.056	89.19
257.289	76.19
257.521	81.19
257.754	87.19
257.987	77.19
258.22	94.19
258.452	92.19
258.685	85.19
258.918	92.19
259.151	90.19
259.383	97.19
259.616	82.19
259.849	87.19
260.081	82.19
260.314	71.19
260.547	87.19
260.779	84.19
261.012	77.19
261.244	78.19
261.477	75.19
261.71	91.19
261.942	100.19
262.175	107.19
262.407	86.19
262.64	76.19
262.872	80.19
263.105	98.19
263.337	96.19
263.57	79.19
263.802	80.19
264.035	85.19
264.267	90.19
264.499	73.19
264.732	89.19
264.964	92.19
265.197	77.19
265.429	84.19
265.661	93.19
265.894	83.19
266.126	93.19
266.358	74.19
266.591	71.19
266.823	87.19
267.055	86.19
267.287	78.19
267.52	78.19
267.752	81.19
267.984	80.19
268.216	99.19
268.448	98.19
268.681	85.19
268.913	81.19
269.145	84.19
269.377	95.19
269.609	92.19
269.841	93.19
270.073	86.19
270.306	100.19
270.538	95.19
270.77	87.19
271.002	88.19
271.234	93.19
271.466	82.19
271.698	78.19
271.93	88.19
272.162	87.19
272.394	76.19
272.626	88.19
272.858	87.19
273.09	88.19
273.322	86.19
273.553	104.19
273.785	91.19
274.017	87.19
274.249	93.19
274.481	66.19
274.713	96.19
274.945	87.19
275.176	92.19
275.408	96.19
275.64	104.19
275.872	91.19
276.104	97.19
276.335	101.19
276.567	86.19
276.799	89.19
277.031	83.19
277.262	79.19
277.494	83.19
277.726	94.19
277.957	91.19
278.189	97.19
278.421	83.19
278.652	79.19
278.884	98.19
279.115	79.19
279.347	87.19
279.579	80.19
279.81	78.19
280.042	97.19
280.273	94.19
280.505	92.19
280.736	98.19
280.968	91.19
281.199	94.19
281.431	87.19
281.662	93.19
281.894	85.19
282.125	100.19
282.356	110.19
282.588	110.19
282.819	111.19
283.051	91.19
283.282	84.19
283.513	88.19
283.745	83.19
283.976	81.19
284.207	90.19
284.439	63.19
284.67	89.19
284.901	92.19
285.132	80.19
285.364	82.19
285.595	88.19
285.826	97.19
286.057	100.19
286.288	79.19
286.52	85.19
286.751	83.19
286.982	78.19
287.213	86.19
287.444	87.19
287.675	89.19
287.906	82.19
288.138	94.19
288.369	101.19
288.6	87.19
288.831	94.19
289.062	83.19
289.293	100.19
289.524	91.19
289.755	95.19
289.986	94.19
290.217	95.19
290.448	79.19
290.679	81.19
290.91	89.19
291.141	87.19
291.371	88.19
291.602	78.19
291.833	96.19
292.064	90.19
292.295	99.19
292.526	78.19
292.757	84.19
292.987	94.19
293.218	79.19
293.449	77.19
293.68	95.19
293.91	91.19
294.141	83.19
294.372	88.19
294.603	104.19
294.833	85.19
295.064	85.19
295.295	77.19
295.525	83.19
295.756	83.19
295.987	103.19
296.217	115.19
296.448	109.19
296.679	105.19
296.909	91.19
297.14	87.19
297.37	93.19
297.601	96.19
297.831	75.19
298.062	98.19
298.292	91.19
298.523	88.19
298.753	100.19
298.984	90.19
299.214	88.19
299.445	90.19
299.675	81.19
299.905	107.19
300.136	93.19
300.366	75.19
300.597	83.19
300.827	88.19
301.057	93.19
301.288	106.19
301.518	92.19
301.748	84.19
301.979	99.19
302.209	91.19
302.439	84.19
302.669	88.19
302.9	87.19
303.13	93.19
303.36	93.19
303.59	94.19
303.82	98.19
304.051	98.19
304.281	98.19
304.511	81.19
304.741	91.19
304.971	90.19
305.201	81.19
305.431	92.19
305.661	94.19
305.891	91.19
306.121	98.19
306.352	105.19
306.582	96.19
306.812	97.19
307.042	69.19
307.272	87.19
307.502	93.19
307.731	95.19
307.961	89.19
308.191	101.19
308.421	91.19
308.651	103.19
308.881	86.19
309.111	93.19
309.341	101.19
309.571	94.19
309.8	98.19
310.03	93.19
310.26	90.19
310.49	91.19
310.72	111.19
310.949	87.19
311.179	103.19
311.409	91.19
311.639	85.19
311.868	104.19
312.098	90.19
312.328	93.19
312.557	96.19
312.787	102.19
313.017	97.19
313.246	99.19
313.476	81.19
313.706	94.19
313.935	103.19
314.165	106.19
314.394	93.19
314.624	93.19
314.853	97.19
315.083	96.19
315.312	98.19
315.542	102.19
315.771	96.19
316.001	91.19
316.23	79.19
316.46	91.19
316.689	86.19
316.919	83.19
317.148	105.19
317.377	104.19
317.607	88.19
317.836	82.19
318.065	83.19
318.295	94.19
318.524	95.19
318.753	83.19
318.983	102.19
319.212	95.19
319.441	116.19
319.67	102.19
319.9	100.19
320.129	92.19
320.358	91.19
320.587	109.19
320.816	113.19
321.046	98.19
321.275	96.19
321.504	93.19
321.733	111.19
321.962	96.19
322.191	93.19
322.42	111.19
322.649	111.19
322.878	93.19
323.108	107.19
323.337	119.19
323.566	127.19
323.795	132.19
324.024	174.19
324.253	340.19
324.482	681.19
324.71	1344.19
324.939	1759.19
325.168	647.19
325.397	209.19
325.626	128.19
325.855	126.19
326.084	111.19
326.313	116.19
326.542	133.19
326.77	223.19
326.999	391.19
327.228	746.19
327.457	1378.19
327.686	1079.19
327.914	301.19
328.143	181.19
328.372	133.19
328.6	137.19
328.829	111.19
329.058	111.19
329.287	123.19
329.515	90.19
329.744	105.19
329.972	100.19
330.201	95.19
330.43	100.19
330.658	113.19
330.887	116.19
331.115	119.19
331.344	94.19
331.572	108.19
331.801	99.19
332.03	110.19
332.258	101.19
332.486	93.19
332.715	95.19
332.943	93.19
333.172	99.19
333.4	92.19
333.629	108.19
333.857	108.19
334.085	101.19
334.314	88.19
334.542	93.19
334.771	91.19
334.999	86.19
335.227	92.19
335.455	86.19
335.684	100.19
335.912	92.19
336.14	88.19
336.369	99.19
336.597	86.19
336.825	95.19
337.053	105.19
337.281	103.19
337.51	91.19
337.738	82.19
337.966	88.19
338.194	93.19
338.422	105.19
338.65	98.19
338.878	88.19
339.106	92.19
339.334	95.19
339.562	93.19
339.79	83.19
340.018	92.19
340.246	88.19
340.474	95.19
340.702	97.19
340.93	96.19
341.158	98.19
341.386	96.19
341.614	107.19
341.842	96.19
342.07	92.19
342.298	90.19
342.526	91.19
342.754	103.19
342.981	115.19
343.209	85.19
343.437	98.19
343.665	93.19
343.893	87.19
344.12	81.19
344.348	99.19
344.576	94.19
344.804	81.19
345.031	85.19
345.259	88.19
345.487	99.19
345.714	88.19
345.942	89.19
346.17	97.19
346.397	104.19
346.625	95.19
346.853	109.19
347.08	95.19
347.308	92.19
347.535	98.19
347.763	105.19
347.99	88.19
348.218	100.19
348.445	99.19
348.673	93.19
348.9	102.19
349.128	107.19
349.355	99.19
349.583	100.19
349.81	98.19
350.037	97.19
350.265	93.19
350.492	91.19
350.72	100.19
350.947	117.19
351.174	119.19
351.402	91.19
351.629	95.19
351.856	97.19
352.083	120.19
352.311	108.19
352.538	99.19
352.765	91.19
352.992	97.19
353.22	107.19
353.447	106.19
353.674	102.19
353.901	112.19
354.128	106.19
354.355	89.19
354.583	95.19
354.81	84.19
355.037	97.19
355.264	94.19
355.491	95.19
355.718	108.19
355.945	97.19
356.172	102.19
356.399	99.19
356.626	102.19
356.853	106.19
357.08	94.19
357.307	87.19
357.534	86.19
357.761	86.19
357.988	96.19
358.215	110.19
358.441	96.19
358.668	94.19
358.895	95.19
359.122	80.19
359.349	89.19
359.576	88.19
359.802	93.19
360.029	107.19
360.256	116.19
360.483	109.19
360.709	87.19
360.936	84.19
361.163	89.19
361.39	86.19
361.616	105.19
361.843	104.19
362.07	94.19
362.296	92.19
362.523	85.19
362.749	103.19
362.976	105.19
363.203	88.19
363.429	83.19
363.656	95.19
363.882	94.19
364.109	96.19
364.335	86.19
364.562	93.19
364.788	106.19
365.015	87.19
365.241	93.19
365.468	85.19
365.694	99.19
365.92	85.19
366.147	93.19
366.373	96.19
366.599	92.19
366.826	90.19
367.052	83.19
367.278	84.19
367.505	83.19
367.731	91.19
367.957	92.19
368.184	93.19
368.41	81.19
368.636	111.19
368.862	100.19
369.089	105.19
369.315	104.19
369.541	82.19
369.767	86.19
369.993	87.19
370.219	91.19
370.445	99.19
370.672	95.19
370.898	88.19
371.124	89.19
371.35	87.19
371.576	83.19
371.802	83.19
372.028	89.19
372.254	76.19
372.48	97.19
372.706	97.19
372.932	92.19
373.158	101.19
373.384	100.19
373.61	103.19
373.835	90.19
374.061	99.19
374.287	88.19
374.513	100.19
374.739	88.19
374.965	84.19
375.191	97.19
375.416	104.19
375.642	86.19
375.868	91.19
376.094	96.19
376.319	97.19
376.545	78.19
376.771	85.19
376.997	92.19
377.222	84.19
377.448	86.19
377.674	93.19
377.899	95.19
378.125	107.19
378.35	104.19
378.576	96.19
378.802	94.19
379.027	89.19
379.253	71.19
379.478	96.19
379.704	88.19
379.929	88.19
380.155	99.19
380.38	91.19
380.606	99.19
380.831	108.19
381.057	99.19
381.282	88.19
381.507	100.19
381.733	101.19
381.958	88.19
382.184	91.19
382.409	95.19
382.634	100.19
382.86	91.19
383.085	93.19
383.31	104.19
383.535	90.19
383.761	92.19
383.986	89.19
384.211	99.19
384.436	109.19
384.662	91.19
384.887	94.19
385.112	102.19
385.337	97.19
385.562	96.19
385.787	99.19
386.013	108.19
386.238	111.19
386.463	95.19
386.688	110.19
386.913	107.19
387.138	96.19
387.363	100.19
387.588	105.19
387.813	103.19
388.038	107.19
388.263	110.19
388.488	105.19
388.713	96.19
388.938	100.19
389.163	92.19
389.387	91.19
389.612	90.19
389.837	101.19
390.062	92.19
390.287	99.19
390.512	96.19
390.736	89.19
390.961	99.19
391.186	82.19
391.411	104.19
391.636	109.19
391.86	95.19
392.085	100.19
392.31	79.19
392.534	86.19
392.759	89.19
392.984	83.19
393.208	85.19
393.433	96.19
393.658	70.19
393.882	85.19
394.107	90.19
394.331	85.19
394.556	73.19
394.78	95.19
395.005	77.19
395.229	90.19
395.454	99.19
395.678	79.19
395.903	95.19
396.127	97.19
396.352	99.19
396.576	82.19
396.801	92.19
397.025	80.19
397.249	86.19
397.474	82.19
397.698	85.19
397.922	83.19
398.147	97.19
398.371	82.19
398.595	69.19
398.82	93.19
399.044	89.19
399.268	85.19
399.492	97.19
399.717	99.19
399.941	100.19
400.165	95.19
400.389	84.19
400.613	87.19
400.837	67.19
401.062	81.19
401.286	99.19
401.51	86.19
401.734	91.19
401.958	112.19
402.182	124.19
402.406	141.19
402.63	99.19
402.854	91.19
403.078	96.19
403.302	93.19
403.526	89.19
403.75	92.19
403.974	77.19
404.198	98.19
404.422	80.19
404.645	87.19
404.869	91.19
405.093	105.19
405.317	81.19
405.541	102.19
405.765	103.19
405.988	106.19
406.212	154.19
406.436	199.19
406.66	128.19
406.883	95.19
407.107	87.19
407.331	89.19
407.555	93.19
407.778	104.19
408.002	92.19
408.226	97.19
408.449	91.19
408.673	86.19
408.896	97.19
409.12	94.19
409.344	97.19
409.567	83.19
409.791	98.19
410.014	90.19
410.238	98.19
410.461	109.19
410.685	79.19
410.908	85.19
411.132	104.19
411.355	109.19
411.578	99.19
411.802	99.19
412.025	96.19
412.249	97.19
412.472	97.19
412.695	91.19
412.919	86.19
413.142	96.19
413.365	80.19
413.589	85.19
413.812	91.19
414.035	108.19
414.258	92.19
414.482	100.19
414.705	84.19
414.928	97.19
415.151	88.19
415.374	86.19
415.597	95.19
415.821	96.19
416.044	80.19
416.267	81.19
416.49	94.19
416.713	72.19
416.936	92.19
417.159	91.19
417.382	95.19
417.605	80.19
417.828	86.19
418.051	95.19
418.274	99.19
418.497	91.19
418.72	90.19
418.943	98.19
419.166	95.19
419.389	95.19
419.611	90.19
419.834	88.19
420.057	84.19
420.28	79.19
420.503	90.19
420.726	91.19
420.948	84.19
421.171	93.19
421.394	80.19
421.617	85.19
421.839	98.19
422.062	71.19
422.285	83.19
422.507	104.19
422.73	118.19
422.953	94.19
423.175	92.19
423.398	93.19
423.621	96.19
423.843	94.19
424.066	92.19
424.288	89.19
424.511	88.19
424.733	95.19
424.956	104.19
425.178	105.19
425.401	108.19
425.623	110.19
425.846	97.19
426.068	92.19
426.291	89.19
426.513	84.19
426.735	86.19
426.958	93.19
427.18	92.19
427.402	118.19
427.625	144.19
427.847	113.19
428.069	97.19
428.292	80.19
428.514	92.19
428.736	78.19
428.958	86.19
429.181	101.19
429.403	99.19
429.625	85.19
429.847	105.19
430.069	91.19
430.292	85.19
430.514	76.19
430.736	83.19
430.958	89.19
431.18	70.19
431.402	80.19
431.624	77.19
431.846	74.19
432.068	85.19
432.29	73.19
432.512	95.19
432.734	85.19
432.956	104.19
433.178	111.19
433.4	86.19
433.622	103.19
433.844	85.19
434.066	84.19
434.287	92.19
434.509	95.19
434.731	93.19
434.953	94.19
435.175	92.19
435.397	102.19
435.618	99.19
435.84	99.19
436.062	116.19
436.284	117.19
436.505	104.19
436.727	106.19
436.949	99.19
437.17	83.19
437.392	86.19
437.614	88.19
437.835	113.19
438.057	107.19
438.278	111.19
438.5	100.19
438.721	102.19
438.943	102.19
439.165	95.19
439.386	98.19
439.608	95.19
439.829	99.19
440.05	118.19
440.272	135.19
440.493	93.19
440.715	100.19
440.936	86.19
441.158	99.19
441.379	89.19
441.6	86.19
441.822	104.19
442.043	92.19
442.264	99.19
442.486	101.19
442.707	97.19
442.928	84.19
443.149	117.19
443.371	108.19
443.592	99.19
443.813	106.19
444.034	99.19
444.255	77.19
444.476	91.19
444.698	89.19
444.919	102.19
445.14	133.19
445.361	115.19
445.582	103.19
445.803	124.19
446.024	143.19
446.245	120.19
446.466	107.19
446.687	90.19
446.908	95.19
447.129	99.19
447.35	86.19
447.571	87.19
447.792	89.19
448.013	104.19
448.234	97.19
448.455	99.19
448.675	86.19
448.896	108.19
449.117	102.19
449.338	107.19
449.559	104.19
449.779	115.19
450	96.19
450.221	93.19
450.442	105.19
450.662	84.19
450.883	107.19
451.104	104.19
451.324	96.19
451.545	76.19
451.766	99.19
451.986	87.19
452.207	94.19
452.428	91.19
452.648	100.19
452.869	102.19
453.089	101.19
453.31	115.19
453.53	87.19
453.751	83.19
453.971	95.19
454.192	91.19
454.412	94.19
454.633	91.19
454.853	107.19
455.073	83.19
455.294	94.19
455.514	102.19
455.734	81.19
455.955	77.19
456.175	91.19
456.395	95.19
456.616	85.19
456.836	88.19
457.056	83.19
457.276	72.19
457.497	94.19
457.717	91.19
457.937	79.19
458.157	95.19
458.377	91.19
458.598	99.19
458.818	127.19
459.038	131.19
459.258	111.19
459.478	91.19
459.698	92.19
459.918	93.19
460.138	85.19
460.358	91.19
460.578	90.19
460.798	83.19
461.018	89.19
461.238	84.19
461.458	81.19
461.678	89.19
461.898	93.19
462.118	82.19
462.338	80.19
462.558	83.19
462.777	89.19
462.997	84.19
463.217	77.19
463.437	83.19
463.657	80.19
463.876	88.19
464.096	99.19
464.316	105.19
464.536	88.19
464.755	96.19
464.975	114.19
465.195	155.19
465.414	153.19
465.634	96.19
465.854	93.19
466.073	85.19
466.293	92.19
466.512	80.19
466.732	77.19
466.951	88.19
467.171	92.19
467.391	105.19
467.61	84.19
467.829	87.19
468.049	99.19
468.268	97.19
468.488	88.19
468.707	80.19
468.927	94.19
469.146	93.19
469.365	91.19
469.585	98.19
469.804	94.19
470.023	85.19
470.243	100.19
470.462	85.19
470.681	100.19
470.901	78.19
471.12	80.19
471.339	87.19
471.558	84.19
471.777	102.19
471.997	84.19
472.216	94.19
472.435	96.19
472.654	84.19
472.873	91.19
473.092	86.19
473.311	80.19
473.53	89.19
473.749	93.19
473.968	91.19
474.187	105.19
474.406	96.19
474.625	93.19
474.844	74.19
475.063	88.19
475.282	105.19
475.501	97.19
475.72	104.19
475.939	95.19
476.158	92.19
476.377	75.19
476.596	81.19
476.814	103.19
477.033	97.19
477.252	87.19
477.471	91.19
477.69	85.19
477.908	87.19
478.127	95.19
478.346	90.19
478.564	95.19
478.783	104.19
479.002	105.19
479.22	88.19
479.439	88.19
479.658	96.19
479.876	105.19
480.095	99.19
480.313	94.19
480.532	79.19
480.751	95.19
480.969	82.19
481.188	113.19
481.406	117.19
481.624	76.19
481.843	94.19
482.061	83.19
482.28	99.19
482.498	89.19
482.717	97.19
482.935	87.19
483.153	103.19
483.372	98.19
483.59	87.19
483.808	97.19
484.027	79.19
484.245	97.19
484.463	85.19
484.681	94.19
484.9	86.19
485.118	93.19
485.336	100.19
485.554	99.19
485.772	101.19
485.99	92.19
486.209	105.19
486.427	99.19
486.645	109.19
486.863	89.19
487.081	104.19
487.299	96.19
487.517	96.19
487.735	92.19
487.953	99.19
488.171	85.19
488.389	97.19
488.607	103.19
488.825	90.19
489.043	105.19
489.261	108.19
489.479	97.19
489.696	89.19
489.914	87.19
490.132	97.19
490.35	101.19
490.568	88.19
490.786	95.19
491.003	99.19
491.221	84.19
491.439	81.19
491.657	95.19
491.874	99.19
492.092	96.19
492.31	91.19
492.527	85.19
492.745	107.19
492.963	99.19
493.18	96.19
493.398	98.19
493.615	90.19
493.833	67.19
494.05	78.19
494.268	102.19
494.485	101.19
494.703	82.19
494.92	94.19
495.138	93.19
495.355	110.19
495.573	104.19
495.79	97.19
496.008	95.19
496.225	94.19
496.442	99.19
496.66	100.19
496.877	94.19
497.094	96.19
497.312	94.19
497.529	88.19
497.746	77.19
497.963	107.19
498.181	95.19
498.398	108.19
498.615	100.19
498.832	102.19
499.049	87.19
499.267	90.19
499.484	79.19
499.701	98.19
499.918	82.19
500.135	111.19
500.352	93.19
500.569	100.19
500.786	94.19
501.003	98.19
501.22	83.19
501.437	92.19
501.654	104.19
501.871	100.19
502.088	91.19
502.305	94.19
502.522	91.19
502.739	101.19
502.956	79.19
503.172	87.19
503.389	96.19
503.606	95.19
503.823	95.19
504.04	83.19
504.256	92.19
504.473	80.19
504.69	97.19
504.907	95.19
505.123	98.19
505.34	105.19
505.557	98.19
505.773	90.19
505.99	89.19
506.207	88.19
506.423	92.19
506.64	104.19
506.856	104.19
507.073	97.19
507.289	98.19
507.506	99.19
507.722	110.19
507.939	110.19
508.155	88.19
508.372	81.19
508.588	93.19
508.805	97.19
509.021	89.19
509.238	99.19
509.454	102.19
509.67	97.19
509.887	111.19
510.103	132.19
510.319	203.19
510.536	677.19
510.752	2009.19
510.968	581.19
511.184	146.19
511.401	101.19
511.617	94.19
511.833	85.19
512.049	79.19
512.265	94.19
512.481	76.19
512.698	85.19
512.914	103.19
513.13	88.19
513.346	95.19
513.562	87.19
513.778	94.19
513.994	93.19
514.21	99.19
514.426	117.19
514.642	130.19
514.858	108.19
515.074	173.19
515.29	372.19
515.506	1229.19
515.721	462.19
515.937	149.19
