Data from Uncirc_1992_H10_HRD10591_00036.txt Node
Date: Wed Jan 03 11:46:23 EST 2024
User: Yrep
Spectrometer: HR+D1059
Trigger mode: 1
Integration Time (sec): 1.000000E-1
Scans to average: 1
Electric dark correction enabled: true
Nonlinearity correction enabled: false
Boxcar width: 0
XAxis mode: Wavelengths
Number of Pixels in Spectrum: 2048
>>>>>Begin Spectral Data<<<<<
223.165	-9.31
223.4	-9.31
223.635	-9.31
223.869	-15.31
224.104	-13.31
224.338	-25.31
224.573	-29.31
224.808	-22.31
225.042	-4.31
225.277	-7.31
225.511	12.69
225.746	10.69
225.98	7.69
226.215	6.69
226.449	19.69
226.683	15.69
226.918	31.69
227.152	21.69
227.387	35.69
227.621	37.69
227.856	36.69
228.09	44.69
228.324	44.69
228.559	57.69
228.793	65.69
229.027	51.69
229.262	64.69
229.496	71.69
229.73	73.69
229.964	77.69
230.199	59.69
230.433	56.69
230.667	78.69
230.901	68.69
231.136	71.69
231.37	73.69
231.604	85.69
231.838	89.69
232.072	75.69
232.306	74.69
232.541	76.69
232.775	85.69
233.009	84.69
233.243	94.69
233.477	81.69
233.711	80.69
233.945	79.69
234.179	87.69
234.413	73.69
234.647	79.69
234.881	77.69
235.115	84.69
235.349	84.69
235.583	88.69
235.817	91.69
236.051	71.69
236.285	88.69
236.519	78.69
236.753	72.69
236.987	75.69
237.221	85.69
237.455	95.69
237.689	79.69
237.922	76.69
238.156	61.69
238.39	64.69
238.624	63.69
238.858	77.69
239.091	87.69
239.325	80.69
239.559	84.69
239.793	85.69
240.027	68.69
240.26	81.69
240.494	66.69
240.728	82.69
240.961	78.69
241.195	81.69
241.429	75.69
241.662	83.69
241.896	81.69
242.13	72.69
242.363	63.69
242.597	81.69
242.83	72.69
243.064	84.69
243.298	77.69
243.531	74.69
243.765	67.69
243.998	73.69
244.232	99.69
244.465	76.69
244.699	65.69
244.932	77.69
245.166	76.69
245.399	69.69
245.633	68.69
245.866	72.69
246.099	84.69
246.333	74.69
246.566	84.69
246.8	81.69
247.033	63.69
247.266	72.69
247.5	89.69
247.733	77.69
247.966	87.69
248.2	73.69
248.433	76.69
248.666	78.69
248.899	92.69
249.133	90.69
249.366	96.69
249.599	81.69
249.832	96.69
250.066	82.69
250.299	78.69
250.532	80.69
250.765	75.69
250.998	74.69
251.231	75.69
251.465	88.69
251.698	78.69
251.931	89.69
252.164	77.69
252.397	70.69
252.63	87.69
252.863	83.69
253.096	66.69
253.329	93.69
253.562	80.69
253.795	80.69
254.028	87.69
254.261	91.69
254.494	65.69
254.727	61.69
254.96	81.69
255.193	84.69
255.426	85.69
255.659	96.69
255.892	81.69
256.124	90.69
256.357	72.69
256.59	71.69
256.823	75.69
257.056	93.69
257.289	85.69
257.521	86.69
257.754	84.69
257.987	80.69
258.22	83.69
258.452	83.69
258.685	77.69
258.918	88.69
259.151	76.69
259.383	84.69
259.616	96.69
259.849	82.69
260.081	76.69
260.314	71.69
260.547	83.69
260.779	84.69
261.012	74.69
261.244	82.69
261.477	89.69
261.71	92.69
261.942	119.69
262.175	105.69
262.407	98.69
262.64	96.69
262.872	79.69
263.105	80.69
263.337	88.69
263.57	82.69
263.802	75.69
264.035	76.69
264.267	75.69
264.499	78.69
264.732	87.69
264.964	86.69
265.197	79.69
265.429	75.69
265.661	81.69
265.894	78.69
266.126	87.69
266.358	79.69
266.591	89.69
266.823	89.69
267.055	81.69
267.287	89.69
267.52	76.69
267.752	77.69
267.984	82.69
268.216	77.69
268.448	88.69
268.681	86.69
268.913	85.69
269.145	83.69
269.377	80.69
269.609	83.69
269.841	91.69
270.073	80.69
270.306	75.69
270.538	79.69
270.77	63.69
271.002	88.69
271.234	79.69
271.466	82.69
271.698	74.69
271.93	80.69
272.162	76.69
272.394	71.69
272.626	72.69
272.858	77.69
273.09	80.69
273.322	92.69
273.553	79.69
273.785	76.69
274.017	84.69
274.249	81.69
274.481	76.69
274.713	75.69
274.945	83.69
275.176	90.69
275.408	66.69
275.64	81.69
275.872	91.69
276.104	93.69
276.335	84.69
276.567	81.69
276.799	106.69
277.031	98.69
277.262	96.69
277.494	86.69
277.726	89.69
277.957	87.69
278.189	81.69
278.421	91.69
278.652	85.69
278.884	69.69
279.115	83.69
279.347	71.69
279.579	87.69
279.81	84.69
280.042	65.69
280.273	78.69
280.505	83.69
280.736	89.69
280.968	94.69
281.199	90.69
281.431	77.69
281.662	93.69
281.894	91.69
282.125	104.69
282.356	115.69
282.588	138.69
282.819	114.69
283.051	99.69
283.282	88.69
283.513	87.69
283.745	92.69
283.976	74.69
284.207	80.69
284.439	88.69
284.67	77.69
284.901	79.69
285.132	77.69
285.364	88.69
285.595	89.69
285.826	83.69
286.057	88.69
286.288	77.69
286.52	93.69
286.751	84.69
286.982	81.69
287.213	77.69
287.444	78.69
287.675	81.69
287.906	92.69
288.138	88.69
288.369	97.69
288.6	92.69
288.831	84.69
289.062	87.69
289.293	85.69
289.524	81.69
289.755	81.69
289.986	75.69
290.217	88.69
290.448	88.69
290.679	75.69
290.91	91.69
291.141	86.69
291.371	80.69
291.602	83.69
291.833	75.69
292.064	81.69
292.295	85.69
292.526	69.69
292.757	73.69
292.987	81.69
293.218	84.69
293.449	87.69
293.68	101.69
293.91	91.69
294.141	95.69
294.372	95.69
294.603	79.69
294.833	84.69
295.064	80.69
295.295	77.69
295.525	87.69
295.756	91.69
295.987	99.69
296.217	119.69
296.448	108.69
296.679	79.69
296.909	88.69
297.14	87.69
297.37	85.69
297.601	97.69
297.831	85.69
298.062	99.69
298.292	92.69
298.523	83.69
298.753	86.69
298.984	90.69
299.214	66.69
299.445	85.69
299.675	84.69
299.905	89.69
300.136	79.69
300.366	81.69
300.597	92.69
300.827	97.69
301.057	95.69
301.288	89.69
301.518	91.69
301.748	83.69
301.979	90.69
302.209	90.69
302.439	91.69
302.669	92.69
302.9	89.69
303.13	101.69
303.36	89.69
303.59	104.69
303.82	107.69
304.051	102.69
304.281	102.69
304.511	86.69
304.741	94.69
304.971	81.69
305.201	80.69
305.431	78.69
305.661	79.69
305.891	84.69
306.121	92.69
306.352	98.69
306.582	96.69
306.812	86.69
307.042	88.69
307.272	86.69
307.502	83.69
307.731	87.69
307.961	82.69
308.191	74.69
308.421	105.69
308.651	92.69
308.881	89.69
309.111	83.69
309.341	86.69
309.571	95.69
309.8	93.69
310.03	98.69
310.26	100.69
310.49	99.69
310.72	91.69
310.949	99.69
311.179	85.69
311.409	81.69
311.639	93.69
311.868	88.69
312.098	83.69
312.328	97.69
312.557	99.69
312.787	100.69
313.017	90.69
313.246	92.69
313.476	85.69
313.706	90.69
313.935	97.69
314.165	97.69
314.394	94.69
314.624	95.69
314.853	99.69
315.083	79.69
315.312	91.69
315.542	85.69
315.771	83.69
316.001	82.69
316.23	95.69
316.46	83.69
316.689	81.69
316.919	73.69
317.148	79.69
317.377	93.69
317.607	100.69
317.836	94.69
318.065	108.69
318.295	100.69
318.524	85.69
318.753	88.69
318.983	96.69
319.212	89.69
319.441	94.69
319.67	100.69
319.9	81.69
320.129	100.69
320.358	79.69
320.587	89.69
320.816	83.69
321.046	95.69
321.275	83.69
321.504	84.69
321.733	90.69
321.962	87.69
322.191	102.69
322.42	110.69
322.649	95.69
322.878	104.69
323.108	128.69
323.337	118.69
323.566	108.69
323.795	124.69
324.024	167.69
324.253	334.69
324.482	705.69
324.71	1356.69
324.939	1729.69
325.168	657.69
325.397	218.69
325.626	133.69
325.855	110.69
326.084	119.69
326.313	150.69
326.542	142.69
326.77	197.69
326.999	385.69
327.228	790.69
327.457	1367.69
327.686	1076.69
327.914	292.69
328.143	172.69
328.372	130.69
328.6	121.69
328.829	121.69
329.058	109.69
329.287	119.69
329.515	95.69
329.744	87.69
329.972	96.69
330.201	102.69
330.43	94.69
330.658	122.69
330.887	129.69
331.115	122.69
331.344	103.69
331.572	106.69
331.801	99.69
332.03	105.69
332.258	87.69
332.486	91.69
332.715	85.69
332.943	105.69
333.172	95.69
333.4	96.69
333.629	107.69
333.857	101.69
334.085	106.69
334.314	101.69
334.542	97.69
334.771	101.69
334.999	101.69
335.227	89.69
335.455	100.69
335.684	94.69
335.912	99.69
336.14	96.69
336.369	87.69
336.597	100.69
336.825	99.69
337.053	89.69
337.281	104.69
337.51	94.69
337.738	79.69
337.966	112.69
338.194	82.69
338.422	91.69
338.65	94.69
338.878	80.69
339.106	94.69
339.334	83.69
339.562	87.69
339.79	87.69
340.018	91.69
340.246	92.69
340.474	91.69
340.702	82.69
340.93	97.69
341.158	72.69
341.386	90.69
341.614	92.69
341.842	93.69
342.07	101.69
342.298	103.69
342.526	93.69
342.754	84.69
342.981	84.69
343.209	90.69
343.437	93.69
343.665	81.69
343.893	96.69
344.12	81.69
344.348	110.69
344.576	95.69
344.804	80.69
345.031	78.69
345.259	78.69
345.487	98.69
345.714	87.69
345.942	82.69
346.17	97.69
346.397	99.69
346.625	79.69
346.853	93.69
347.08	97.69
347.308	85.69
347.535	95.69
347.763	101.69
347.99	108.69
348.218	99.69
348.445	94.69
348.673	97.69
348.9	92.69
349.128	92.69
349.355	83.69
349.583	96.69
349.81	87.69
350.037	93.69
350.265	88.69
350.492	100.69
350.72	94.69
350.947	81.69
351.174	108.69
351.402	104.69
351.629	91.69
351.856	85.69
352.083	98.69
352.311	94.69
352.538	103.69
352.765	110.69
352.992	95.69
353.22	94.69
353.447	83.69
353.674	100.69
353.901	102.69
354.128	95.69
354.355	95.69
354.583	89.69
354.81	101.69
355.037	95.69
355.264	95.69
355.491	94.69
355.718	91.69
355.945	83.69
356.172	101.69
356.399	102.69
356.626	88.69
356.853	96.69
357.08	79.69
357.307	83.69
357.534	91.69
357.761	97.69
357.988	96.69
358.215	94.69
358.441	88.69
358.668	98.69
358.895	89.69
359.122	87.69
359.349	92.69
359.576	84.69
359.802	74.69
360.029	96.69
360.256	95.69
360.483	99.69
360.709	89.69
360.936	88.69
361.163	78.69
361.39	89.69
361.616	99.69
361.843	88.69
362.07	84.69
362.296	97.69
362.523	89.69
362.749	92.69
362.976	83.69
363.203	82.69
363.429	88.69
363.656	90.69
363.882	79.69
364.109	84.69
364.335	84.69
364.562	83.69
364.788	82.69
365.015	84.69
365.241	80.69
365.468	112.69
365.694	99.69
365.92	86.69
366.147	90.69
366.373	91.69
366.599	80.69
366.826	87.69
367.052	98.69
367.278	86.69
367.505	90.69
367.731	94.69
367.957	83.69
368.184	84.69
368.41	99.69
368.636	106.69
368.862	111.69
369.089	95.69
369.315	97.69
369.541	95.69
369.767	101.69
369.993	93.69
370.219	78.69
370.445	83.69
370.672	95.69
370.898	84.69
371.124	86.69
371.35	87.69
371.576	101.69
371.802	75.69
372.028	94.69
372.254	92.69
372.48	88.69
372.706	83.69
372.932	82.69
373.158	76.69
373.384	96.69
373.61	91.69
373.835	88.69
374.061	81.69
374.287	85.69
374.513	88.69
374.739	86.69
374.965	83.69
375.191	68.69
375.416	90.69
375.642	84.69
375.868	95.69
376.094	94.69
376.319	81.69
376.545	93.69
376.771	84.69
376.997	87.69
377.222	87.69
377.448	83.69
377.674	89.69
377.899	86.69
378.125	107.69
378.35	95.69
378.576	84.69
378.802	92.69
379.027	98.69
379.253	91.69
379.478	104.69
379.704	76.69
379.929	92.69
380.155	80.69
380.38	93.69
380.606	94.69
380.831	81.69
381.057	100.69
381.282	92.69
381.507	91.69
381.733	87.69
381.958	78.69
382.184	96.69
382.409	96.69
382.634	98.69
382.86	97.69
383.085	105.69
383.31	107.69
383.535	94.69
383.761	79.69
383.986	102.69
384.211	99.69
384.436	89.69
384.662	84.69
384.887	89.69
385.112	93.69
385.337	106.69
385.562	95.69
385.787	87.69
386.013	113.69
386.238	113.69
386.463	97.69
386.688	96.69
386.913	87.69
387.138	84.69
387.363	98.69
387.588	91.69
387.813	99.69
388.038	92.69
388.263	122.69
388.488	112.69
388.713	89.69
388.938	91.69
389.163	100.69
389.387	79.69
389.612	96.69
389.837	91.69
390.062	113.69
390.287	85.69
390.512	87.69
390.736	84.69
390.961	95.69
391.186	89.69
391.411	82.69
391.636	101.69
391.86	98.69
392.085	89.69
392.31	83.69
392.534	90.69
392.759	84.69
392.984	97.69
393.208	92.69
393.433	95.69
393.658	88.69
393.882	82.69
394.107	79.69
394.331	67.69
394.556	83.69
394.78	80.69
395.005	90.69
395.229	81.69
395.454	75.69
395.678	73.69
395.903	88.69
396.127	95.69
396.352	103.69
396.576	94.69
396.801	83.69
397.025	81.69
397.249	83.69
397.474	95.69
397.698	74.69
397.922	82.69
398.147	80.69
398.371	87.69
398.595	88.69
398.82	84.69
399.044	75.69
399.268	80.69
399.492	94.69
399.717	77.69
399.941	92.69
400.165	90.69
400.389	84.69
400.613	85.69
400.837	78.69
401.062	88.69
401.286	83.69
401.51	73.69
401.734	95.69
401.958	76.69
402.182	120.69
402.406	145.69
402.63	104.69
402.854	87.69
403.078	82.69
403.302	96.69
403.526	94.69
403.75	93.69
403.974	90.69
404.198	81.69
404.422	95.69
404.645	79.69
404.869	87.69
405.093	99.69
405.317	87.69
405.541	88.69
405.765	93.69
405.988	114.69
406.212	161.69
406.436	187.69
406.66	117.69
406.883	84.69
407.107	100.69
407.331	93.69
407.555	100.69
407.778	89.69
408.002	92.69
408.226	93.69
408.449	88.69
408.673	78.69
408.896	93.69
409.12	96.69
409.344	86.69
409.567	91.69
409.791	97.69
410.014	80.69
410.238	82.69
410.461	90.69
410.685	78.69
410.908	107.69
411.132	100.69
411.355	95.69
411.578	94.69
411.802	78.69
412.025	77.69
412.249	77.69
412.472	94.69
412.695	81.69
412.919	82.69
413.142	81.69
413.365	96.69
413.589	97.69
413.812	101.69
414.035	95.69
414.258	68.69
414.482	95.69
414.705	86.69
414.928	93.69
415.151	91.69
415.374	91.69
415.597	100.69
415.821	96.69
416.044	82.69
416.267	85.69
416.49	88.69
416.713	82.69
416.936	81.69
417.159	87.69
417.382	91.69
417.605	80.69
417.828	75.69
418.051	84.69
418.274	80.69
418.497	75.69
418.72	76.69
418.943	88.69
419.166	100.69
419.389	83.69
419.611	80.69
419.834	97.69
420.057	74.69
420.28	78.69
420.503	95.69
420.726	88.69
420.948	82.69
421.171	99.69
421.394	96.69
421.617	94.69
421.839	97.69
422.062	75.69
422.285	89.69
422.507	92.69
422.73	105.69
422.953	83.69
423.175	89.69
423.398	106.69
423.621	72.69
423.843	96.69
424.066	82.69
424.288	71.69
424.511	88.69
424.733	94.69
424.956	92.69
425.178	102.69
425.401	100.69
425.623	98.69
425.846	96.69
426.068	92.69
426.291	91.69
426.513	103.69
426.735	88.69
426.958	91.69
427.18	87.69
427.402	124.69
427.625	141.69
427.847	114.69
428.069	115.69
428.292	78.69
428.514	90.69
428.736	90.69
428.958	76.69
429.181	78.69
429.403	96.69
429.625	86.69
429.847	89.69
430.069	96.69
430.292	85.69
430.514	80.69
430.736	89.69
430.958	89.69
431.18	80.69
431.402	96.69
431.624	82.69
431.846	80.69
432.068	77.69
432.29	84.69
432.512	74.69
432.734	79.69
432.956	82.69
433.178	96.69
433.4	101.69
433.622	90.69
433.844	97.69
434.066	89.69
434.287	93.69
434.509	99.69
434.731	95.69
434.953	104.69
435.175	87.69
435.397	100.69
435.618	95.69
435.84	87.69
436.062	113.69
436.284	102.69
436.505	89.69
436.727	89.69
436.949	91.69
437.17	95.69
437.392	90.69
437.614	87.69
437.835	90.69
438.057	96.69
438.278	89.69
438.5	94.69
438.721	99.69
438.943	99.69
439.165	87.69
439.386	92.69
439.608	84.69
439.829	90.69
440.05	113.69
440.272	119.69
440.493	103.69
440.715	90.69
440.936	87.69
441.158	89.69
441.379	100.69
441.6	90.69
441.822	76.69
442.043	88.69
442.264	94.69
442.486	104.69
442.707	86.69
442.928	92.69
443.149	115.69
443.371	100.69
443.592	109.69
443.813	104.69
444.034	119.69
444.255	90.69
444.476	94.69
444.698	85.69
444.919	85.69
445.14	130.69
445.361	106.69
445.582	101.69
445.803	105.69
446.024	123.69
446.245	130.69
446.466	94.69
446.687	84.69
446.908	71.69
447.129	75.69
447.35	84.69
447.571	92.69
447.792	91.69
448.013	88.69
448.234	98.69
448.455	89.69
448.675	98.69
448.896	113.69
449.117	101.69
449.338	109.69
449.559	112.69
449.779	119.69
450	81.69
450.221	84.69
450.442	89.69
450.662	92.69
450.883	95.69
451.104	99.69
451.324	95.69
451.545	99.69
451.766	83.69
451.986	75.69
452.207	72.69
452.428	102.69
452.648	95.69
452.869	105.69
453.089	112.69
453.31	101.69
453.53	103.69
453.751	83.69
453.971	83.69
454.192	115.69
454.412	81.69
454.633	87.69
454.853	96.69
455.073	87.69
455.294	79.69
455.514	91.69
455.734	87.69
455.955	83.69
456.175	73.69
456.395	97.69
456.616	87.69
456.836	88.69
457.056	75.69
457.276	72.69
457.497	88.69
457.717	88.69
457.937	84.69
458.157	93.69
458.377	102.69
458.598	96.69
458.818	111.69
459.038	125.69
459.258	108.69
459.478	86.69
459.698	91.69
459.918	96.69
460.138	72.69
460.358	92.69
460.578	80.69
460.798	75.69
461.018	83.69
461.238	84.69
461.458	88.69
461.678	88.69
461.898	96.69
462.118	81.69
462.338	79.69
462.558	84.69
462.777	69.69
462.997	90.69
463.217	80.69
463.437	52.69
463.657	83.69
463.876	89.69
464.096	81.69
464.316	93.69
464.536	88.69
464.755	69.69
464.975	97.69
465.195	140.69
465.414	136.69
465.634	72.69
465.854	83.69
466.073	73.69
466.293	87.69
466.512	108.69
466.732	82.69
466.951	92.69
467.171	95.69
467.391	99.69
467.61	95.69
467.829	89.69
468.049	77.69
468.268	94.69
468.488	87.69
468.707	87.69
468.927	85.69
469.146	86.69
469.365	88.69
469.585	105.69
469.804	92.69
470.023	96.69
470.243	89.69
470.462	78.69
470.681	94.69
470.901	82.69
471.12	93.69
471.339	75.69
471.558	98.69
471.777	80.69
471.997	83.69
472.216	84.69
472.435	86.69
472.654	77.69
472.873	83.69
473.092	91.69
473.311	89.69
473.53	91.69
473.749	78.69
473.968	75.69
474.187	103.69
474.406	90.69
474.625	90.69
474.844	98.69
475.063	81.69
475.282	103.69
475.501	92.69
475.72	87.69
475.939	85.69
476.158	84.69
476.377	87.69
476.596	63.69
476.814	81.69
477.033	79.69
477.252	79.69
477.471	96.69
477.69	83.69
477.908	78.69
478.127	75.69
478.346	96.69
478.564	87.69
478.783	90.69
479.002	90.69
479.22	93.69
479.439	96.69
479.658	93.69
479.876	90.69
480.095	98.69
480.313	92.69
480.532	80.69
480.751	81.69
480.969	83.69
481.188	92.69
481.406	96.69
481.624	104.69
481.843	98.69
482.061	103.69
482.28	80.69
482.498	75.69
482.717	82.69
482.935	96.69
483.153	74.69
483.372	83.69
483.59	80.69
483.808	82.69
484.027	89.69
484.245	88.69
484.463	83.69
484.681	89.69
484.9	82.69
485.118	85.69
485.336	99.69
485.554	93.69
485.772	99.69
485.99	89.69
486.209	106.69
486.427	97.69
486.645	101.69
486.863	97.69
487.081	102.69
487.299	94.69
487.517	94.69
487.735	107.69
487.953	95.69
488.171	88.69
488.389	102.69
488.607	90.69
488.825	110.69
489.043	95.69
489.261	91.69
489.479	101.69
489.696	94.69
489.914	92.69
490.132	76.69
490.35	91.69
490.568	87.69
490.786	91.69
491.003	90.69
491.221	96.69
491.439	96.69
491.657	92.69
491.874	86.69
492.092	84.69
492.31	80.69
492.527	75.69
492.745	93.69
492.963	90.69
493.18	85.69
493.398	94.69
493.615	82.69
493.833	92.69
494.05	91.69
494.268	91.69
494.485	72.69
494.703	80.69
494.92	87.69
495.138	78.69
495.355	98.69
495.573	99.69
495.79	92.69
496.008	107.69
496.225	88.69
496.442	97.69
496.66	79.69
496.877	95.69
497.094	89.69
497.312	90.69
497.529	84.69
497.746	91.69
497.963	89.69
498.181	93.69
498.398	84.69
498.615	105.69
498.832	94.69
499.049	83.69
499.267	87.69
499.484	84.69
499.701	81.69
499.918	78.69
500.135	92.69
500.352	89.69
500.569	78.69
500.786	91.69
501.003	88.69
501.22	83.69
501.437	86.69
501.654	96.69
501.871	100.69
502.088	104.69
502.305	82.69
502.522	91.69
502.739	83.69
502.956	88.69
503.172	87.69
503.389	103.69
503.606	110.69
503.823	88.69
504.04	91.69
504.256	92.69
504.473	83.69
504.69	91.69
504.907	94.69
505.123	84.69
505.34	82.69
505.557	76.69
505.773	91.69
505.99	83.69
506.207	86.69
506.423	86.69
506.64	95.69
506.856	73.69
507.073	81.69
507.289	87.69
507.506	87.69
507.722	104.69
507.939	97.69
508.155	105.69
508.372	84.69
508.588	90.69
508.805	91.69
509.021	85.69
509.238	98.69
509.454	100.69
509.67	95.69
509.887	104.69
510.103	136.69
510.319	185.69
510.536	680.69
510.752	1976.69
510.968	568.69
511.184	142.69
511.401	119.69
511.617	93.69
511.833	84.69
512.049	90.69
512.265	88.69
512.481	105.69
512.698	108.69
512.914	93.69
513.13	91.69
513.346	92.69
513.562	93.69
513.778	81.69
513.994	76.69
514.21	100.69
514.426	116.69
514.642	116.69
514.858	102.69
515.074	153.69
515.29	361.69
515.506	1195.69
515.721	429.69
515.937	126.69
516.153	107.69
516.369	97.69
516.585	98.69
516.801	90.69
517.016	94.69
