Data from Uncirc_1992_H10_HRD10591_00081.txt Node
Date: Wed Jan 03 11:46:32 EST 2024
User: Yrep
Spectrometer: HR+D1059
Trigger mode: 1
Integration Time (sec): 1.000000E-1
Scans to average: 1
Electric dark correction enabled: true
Nonlinearity correction enabled: false
Boxcar width: 0
XAxis mode: Wavelengths
Number of Pixels in Spectrum: 2048
>>>>>Begin Spectral Data<<<<<
223.165	-11.75
223.4	-11.75
223.635	-11.75
223.869	-2.75
224.104	-28.75
224.338	-19.75
224.573	-17.75
224.808	-6.75
225.042	-3.75
225.277	-1.75
225.511	-4.75
225.746	-1.75
225.98	3.25
226.215	18.25
226.449	11.25
226.683	12.25
226.918	21.25
227.152	33.25
227.387	37.25
227.621	34.25
227.856	20.25
228.09	36.25
228.324	58.25
228.559	60.25
228.793	49.25
229.027	57.25
229.262	67.25
229.496	71.25
229.73	70.25
229.964	80.25
230.199	90.25
230.433	61.25
230.667	81.25
230.901	68.25
231.136	53.25
231.37	81.25
231.604	78.25
231.838	94.25
232.072	84.25
232.306	93.25
232.541	88.25
232.775	74.25
233.009	94.25
233.243	77.25
233.477	78.25
233.711	82.25
233.945	77.25
234.179	81.25
234.413	74.25
234.647	81.25
234.881	76.25
235.115	73.25
235.349	93.25
235.583	75.25
235.817	78.25
236.051	61.25
236.285	58.25
236.519	77.25
236.753	77.25
236.987	70.25
237.221	70.25
237.455	85.25
237.689	71.25
237.922	66.25
238.156	64.25
238.39	70.25
238.624	68.25
238.858	82.25
239.091	94.25
239.325	73.25
239.559	78.25
239.793	87.25
240.027	88.25
240.26	69.25
240.494	80.25
240.728	77.25
240.961	65.25
241.195	63.25
241.429	76.25
241.662	73.25
241.896	77.25
242.13	84.25
242.363	84.25
242.597	72.25
242.83	84.25
243.064	77.25
243.298	85.25
243.531	80.25
243.765	89.25
243.998	80.25
244.232	75.25
244.465	89.25
244.699	82.25
244.932	84.25
245.166	88.25
245.399	84.25
245.633	77.25
245.866	89.25
246.099	97.25
246.333	86.25
246.566	97.25
246.8	84.25
247.033	78.25
247.266	85.25
247.5	82.25
247.733	70.25
247.966	79.25
248.2	86.25
248.433	67.25
248.666	81.25
248.899	82.25
249.133	85.25
249.366	90.25
249.599	87.25
249.832	83.25
250.066	73.25
250.299	80.25
250.532	90.25
250.765	101.25
250.998	68.25
251.231	79.25
251.465	87.25
251.698	77.25
251.931	82.25
252.164	84.25
252.397	58.25
252.63	78.25
252.863	76.25
253.096	83.25
253.329	87.25
253.562	83.25
253.795	65.25
254.028	75.25
254.261	73.25
254.494	75.25
254.727	83.25
254.96	94.25
255.193	79.25
255.426	66.25
255.659	79.25
255.892	75.25
256.124	73.25
256.357	89.25
256.59	81.25
256.823	76.25
257.056	78.25
257.289	80.25
257.521	78.25
257.754	85.25
257.987	65.25
258.22	79.25
258.452	77.25
258.685	76.25
258.918	78.25
259.151	83.25
259.383	73.25
259.616	75.25
259.849	78.25
260.081	88.25
260.314	89.25
260.547	82.25
260.779	87.25
261.012	77.25
261.244	99.25
261.477	91.25
261.71	95.25
261.942	106.25
262.175	108.25
262.407	93.25
262.64	84.25
262.872	80.25
263.105	69.25
263.337	82.25
263.57	83.25
263.802	78.25
264.035	79.25
264.267	81.25
264.499	85.25
264.732	96.25
264.964	79.25
265.197	76.25
265.429	83.25
265.661	94.25
265.894	78.25
266.126	83.25
266.358	79.25
266.591	95.25
266.823	89.25
267.055	77.25
267.287	77.25
267.52	81.25
267.752	64.25
267.984	84.25
268.216	78.25
268.448	88.25
268.681	88.25
268.913	86.25
269.145	83.25
269.377	84.25
269.609	93.25
269.841	90.25
270.073	86.25
270.306	85.25
270.538	79.25
270.77	80.25
271.002	79.25
271.234	90.25
271.466	77.25
271.698	98.25
271.93	93.25
272.162	73.25
272.394	78.25
272.626	85.25
272.858	79.25
273.09	83.25
273.322	103.25
273.553	86.25
273.785	90.25
274.017	95.25
274.249	86.25
274.481	98.25
274.713	77.25
274.945	83.25
275.176	77.25
275.408	84.25
275.64	73.25
275.872	77.25
276.104	91.25
276.335	94.25
276.567	103.25
276.799	109.25
277.031	90.25
277.262	83.25
277.494	95.25
277.726	104.25
277.957	81.25
278.189	93.25
278.421	93.25
278.652	81.25
278.884	81.25
279.115	87.25
279.347	94.25
279.579	90.25
279.81	82.25
280.042	87.25
280.273	83.25
280.505	85.25
280.736	85.25
280.968	99.25
281.199	87.25
281.431	86.25
281.662	87.25
281.894	81.25
282.125	100.25
282.356	110.25
282.588	138.25
282.819	122.25
283.051	86.25
283.282	85.25
283.513	74.25
283.745	90.25
283.976	90.25
284.207	79.25
284.439	82.25
284.67	102.25
284.901	89.25
285.132	88.25
285.364	87.25
285.595	99.25
285.826	83.25
286.057	82.25
286.288	83.25
286.52	87.25
286.751	78.25
286.982	91.25
287.213	85.25
287.444	77.25
287.675	78.25
287.906	92.25
288.138	94.25
288.369	99.25
288.6	91.25
288.831	99.25
289.062	81.25
289.293	77.25
289.524	80.25
289.755	79.25
289.986	90.25
290.217	90.25
290.448	75.25
290.679	86.25
290.91	108.25
291.141	96.25
291.371	83.25
291.602	85.25
291.833	81.25
292.064	81.25
292.295	89.25
292.526	92.25
292.757	92.25
292.987	86.25
293.218	94.25
293.449	78.25
293.68	84.25
293.91	99.25
294.141	95.25
294.372	85.25
294.603	87.25
294.833	85.25
295.064	75.25
295.295	87.25
295.525	83.25
295.756	90.25
295.987	105.25
296.217	125.25
296.448	108.25
296.679	91.25
296.909	89.25
297.14	89.25
297.37	99.25
297.601	94.25
297.831	89.25
298.062	87.25
298.292	94.25
298.523	85.25
298.753	91.25
298.984	77.25
299.214	81.25
299.445	84.25
299.675	81.25
299.905	78.25
300.136	90.25
300.366	85.25
300.597	86.25
300.827	111.25
301.057	96.25
301.288	107.25
301.518	99.25
301.748	82.25
301.979	100.25
302.209	88.25
302.439	82.25
302.669	92.25
302.9	81.25
303.13	92.25
303.36	106.25
303.59	107.25
303.82	95.25
304.051	82.25
304.281	95.25
304.511	98.25
304.741	81.25
304.971	96.25
305.201	95.25
305.431	88.25
305.661	91.25
305.891	99.25
306.121	99.25
306.352	99.25
306.582	99.25
306.812	90.25
307.042	91.25
307.272	92.25
307.502	81.25
307.731	100.25
307.961	83.25
308.191	88.25
308.421	84.25
308.651	87.25
308.881	89.25
309.111	87.25
309.341	94.25
309.571	93.25
309.8	93.25
310.03	98.25
310.26	92.25
310.49	82.25
310.72	95.25
310.949	90.25
311.179	87.25
311.409	94.25
311.639	87.25
311.868	89.25
312.098	94.25
312.328	86.25
312.557	81.25
312.787	93.25
313.017	94.25
313.246	94.25
313.476	95.25
313.706	79.25
313.935	92.25
314.165	98.25
314.394	100.25
314.624	97.25
314.853	111.25
315.083	98.25
315.312	102.25
315.542	88.25
315.771	84.25
316.001	89.25
316.23	100.25
316.46	101.25
316.689	107.25
316.919	82.25
317.148	98.25
317.377	98.25
317.607	95.25
317.836	98.25
318.065	98.25
318.295	84.25
318.524	96.25
318.753	99.25
318.983	93.25
319.212	93.25
319.441	89.25
319.67	104.25
319.9	82.25
320.129	81.25
320.358	102.25
320.587	97.25
320.816	100.25
321.046	103.25
321.275	108.25
321.504	88.25
321.733	100.25
321.962	102.25
322.191	91.25
322.42	105.25
322.649	110.25
322.878	108.25
323.108	121.25
323.337	129.25
323.566	115.25
323.795	139.25
324.024	201.25
324.253	373.25
324.482	779.25
324.71	1561.25
324.939	2015.25
325.168	729.25
325.397	215.25
325.626	133.25
325.855	109.25
326.084	117.25
326.313	148.25
326.542	155.25
326.77	227.25
326.999	432.25
327.228	862.25
327.457	1570.25
327.686	1257.25
327.914	333.25
328.143	174.25
328.372	137.25
328.6	104.25
328.829	114.25
329.058	110.25
329.287	113.25
329.515	101.25
329.744	108.25
329.972	99.25
330.201	106.25
330.43	102.25
330.658	114.25
330.887	133.25
331.115	107.25
331.344	106.25
331.572	110.25
331.801	86.25
332.03	109.25
332.258	92.25
332.486	85.25
332.715	97.25
332.943	94.25
333.172	98.25
333.4	92.25
333.629	102.25
333.857	112.25
334.085	94.25
334.314	89.25
334.542	115.25
334.771	91.25
334.999	94.25
335.227	95.25
335.455	82.25
335.684	93.25
335.912	95.25
336.14	101.25
336.369	97.25
336.597	95.25
336.825	82.25
337.053	82.25
337.281	92.25
337.51	99.25
337.738	89.25
337.966	111.25
338.194	97.25
338.422	106.25
338.65	97.25
338.878	85.25
339.106	102.25
339.334	95.25
339.562	83.25
339.79	99.25
340.018	92.25
340.246	87.25
340.474	103.25
340.702	94.25
340.93	92.25
341.158	90.25
341.386	111.25
341.614	100.25
341.842	91.25
342.07	90.25
342.298	76.25
342.526	85.25
342.754	89.25
342.981	94.25
343.209	76.25
343.437	102.25
343.665	85.25
343.893	94.25
344.12	100.25
344.348	102.25
344.576	94.25
344.804	94.25
345.031	89.25
345.259	106.25
345.487	84.25
345.714	82.25
345.942	98.25
346.17	95.25
346.397	101.25
346.625	91.25
346.853	93.25
347.08	81.25
347.308	91.25
347.535	103.25
347.763	79.25
347.99	94.25
348.218	93.25
348.445	111.25
348.673	122.25
348.9	97.25
349.128	88.25
349.355	102.25
349.583	105.25
349.81	100.25
350.037	87.25
350.265	88.25
350.492	92.25
350.72	100.25
350.947	103.25
351.174	105.25
351.402	105.25
351.629	105.25
351.856	97.25
352.083	107.25
352.311	108.25
352.538	102.25
352.765	99.25
352.992	102.25
353.22	90.25
353.447	108.25
353.674	98.25
353.901	93.25
354.128	79.25
354.355	86.25
354.583	101.25
354.81	106.25
355.037	111.25
355.264	92.25
355.491	83.25
355.718	81.25
355.945	76.25
356.172	98.25
356.399	92.25
356.626	109.25
356.853	94.25
357.08	84.25
357.307	89.25
357.534	91.25
357.761	91.25
357.988	78.25
358.215	79.25
358.441	90.25
358.668	93.25
358.895	99.25
359.122	89.25
359.349	98.25
359.576	88.25
359.802	98.25
360.029	108.25
360.256	102.25
360.483	101.25
360.709	86.25
360.936	90.25
361.163	97.25
361.39	104.25
361.616	100.25
361.843	89.25
362.07	77.25
362.296	89.25
362.523	98.25
362.749	98.25
362.976	93.25
363.203	87.25
363.429	85.25
363.656	70.25
363.882	87.25
364.109	85.25
364.335	92.25
364.562	83.25
364.788	77.25
365.015	97.25
365.241	94.25
365.468	112.25
365.694	86.25
365.92	90.25
366.147	101.25
366.373	85.25
366.599	91.25
366.826	86.25
367.052	86.25
367.278	110.25
367.505	99.25
367.731	88.25
367.957	86.25
368.184	87.25
368.41	102.25
368.636	97.25
368.862	108.25
369.089	103.25
369.315	95.25
369.541	99.25
369.767	81.25
369.993	94.25
370.219	86.25
370.445	86.25
370.672	97.25
370.898	90.25
371.124	94.25
371.35	86.25
371.576	82.25
371.802	81.25
372.028	85.25
372.254	94.25
372.48	85.25
372.706	79.25
372.932	95.25
373.158	95.25
373.384	101.25
373.61	97.25
373.835	76.25
374.061	90.25
374.287	97.25
374.513	93.25
374.739	92.25
374.965	82.25
375.191	86.25
375.416	99.25
375.642	85.25
375.868	84.25
376.094	101.25
376.319	89.25
376.545	83.25
376.771	95.25
376.997	90.25
377.222	92.25
377.448	93.25
377.674	89.25
377.899	91.25
378.125	95.25
378.35	107.25
378.576	78.25
378.802	91.25
379.027	89.25
379.253	89.25
379.478	81.25
379.704	86.25
379.929	102.25
380.155	90.25
380.38	118.25
380.606	98.25
380.831	85.25
381.057	97.25
381.282	102.25
381.507	88.25
381.733	107.25
381.958	84.25
382.184	96.25
382.409	99.25
382.634	103.25
382.86	95.25
383.085	88.25
383.31	90.25
383.535	104.25
383.761	100.25
383.986	100.25
384.211	91.25
384.436	90.25
384.662	97.25
384.887	93.25
385.112	86.25
385.337	94.25
385.562	80.25
385.787	101.25
386.013	104.25
386.238	98.25
386.463	103.25
386.688	127.25
386.913	107.25
387.138	109.25
387.363	80.25
387.588	105.25
387.813	99.25
388.038	105.25
388.263	106.25
388.488	128.25
388.713	104.25
388.938	104.25
389.163	94.25
389.387	93.25
389.612	94.25
389.837	111.25
390.062	91.25
390.287	96.25
390.512	101.25
390.736	103.25
390.961	104.25
391.186	86.25
391.411	101.25
391.636	100.25
391.86	101.25
392.085	89.25
392.31	102.25
392.534	98.25
392.759	98.25
392.984	93.25
393.208	83.25
393.433	102.25
393.658	84.25
393.882	88.25
394.107	105.25
394.331	84.25
394.556	93.25
394.78	92.25
395.005	97.25
395.229	93.25
395.454	85.25
395.678	94.25
395.903	81.25
396.127	92.25
396.352	85.25
396.576	86.25
396.801	88.25
397.025	106.25
397.249	63.25
397.474	82.25
397.698	81.25
397.922	83.25
398.147	93.25
398.371	95.25
398.595	89.25
398.82	81.25
399.044	82.25
399.268	91.25
399.492	91.25
399.717	95.25
399.941	82.25
400.165	91.25
400.389	92.25
400.613	89.25
400.837	78.25
401.062	86.25
401.286	95.25
401.51	85.25
401.734	90.25
401.958	101.25
402.182	97.25
402.406	154.25
402.63	108.25
402.854	97.25
403.078	103.25
403.302	92.25
403.526	94.25
403.75	84.25
403.974	93.25
404.198	83.25
404.422	97.25
404.645	93.25
404.869	92.25
405.093	95.25
405.317	99.25
405.541	94.25
405.765	79.25
405.988	122.25
406.212	175.25
406.436	219.25
406.66	149.25
406.883	97.25
407.107	94.25
407.331	92.25
407.555	92.25
407.778	97.25
408.002	100.25
408.226	83.25
408.449	97.25
408.673	85.25
408.896	101.25
409.12	99.25
409.344	91.25
409.567	99.25
409.791	93.25
410.014	89.25
410.238	92.25
410.461	102.25
410.685	95.25
410.908	86.25
411.132	99.25
411.355	79.25
411.578	75.25
411.802	96.25
412.025	79.25
412.249	91.25
412.472	114.25
412.695	102.25
412.919	85.25
413.142	87.25
413.365	98.25
413.589	97.25
413.812	88.25
414.035	78.25
414.258	79.25
414.482	90.25
414.705	98.25
414.928	83.25
415.151	107.25
415.374	92.25
415.597	86.25
415.821	94.25
416.044	93.25
416.267	85.25
416.49	105.25
416.713	87.25
416.936	85.25
417.159	87.25
417.382	86.25
417.605	84.25
417.828	95.25
418.051	99.25
418.274	93.25
418.497	73.25
418.72	83.25
418.943	89.25
419.166	70.25
419.389	94.25
419.611	100.25
419.834	105.25
420.057	95.25
420.28	85.25
420.503	92.25
420.726	100.25
420.948	89.25
421.171	80.25
421.394	102.25
421.617	99.25
421.839	91.25
422.062	66.25
422.285	104.25
422.507	97.25
422.73	105.25
422.953	90.25
423.175	78.25
423.398	105.25
423.621	99.25
423.843	85.25
424.066	91.25
424.288	79.25
424.511	79.25
424.733	94.25
424.956	97.25
425.178	85.25
425.401	87.25
425.623	103.25
425.846	109.25
426.068	85.25
426.291	94.25
426.513	83.25
426.735	95.25
426.958	93.25
427.18	97.25
427.402	143.25
427.625	176.25
427.847	117.25
428.069	110.25
428.292	86.25
428.514	80.25
428.736	79.25
428.958	84.25
429.181	80.25
429.403	87.25
429.625	81.25
429.847	91.25
430.069	101.25
430.292	88.25
430.514	79.25
430.736	92.25
430.958	82.25
431.18	91.25
431.402	84.25
431.624	97.25
431.846	81.25
432.068	86.25
432.29	98.25
432.512	89.25
432.734	89.25
432.956	108.25
433.178	87.25
433.4	94.25
433.622	95.25
433.844	93.25
434.066	98.25
434.287	90.25
434.509	93.25
434.731	92.25
434.953	90.25
435.175	84.25
435.397	85.25
435.618	85.25
435.84	99.25
436.062	99.25
436.284	106.25
436.505	90.25
436.727	103.25
436.949	83.25
437.17	78.25
437.392	93.25
437.614	84.25
437.835	100.25
438.057	100.25
438.278	100.25
438.5	106.25
438.721	126.25
438.943	86.25
439.165	89.25
439.386	96.25
439.608	102.25
439.829	96.25
440.05	96.25
440.272	120.25
440.493	103.25
440.715	95.25
440.936	85.25
441.158	92.25
441.379	87.25
441.6	99.25
441.822	93.25
442.043	89.25
442.264	88.25
442.486	96.25
442.707	92.25
442.928	100.25
443.149	129.25
443.371	122.25
443.592	97.25
443.813	99.25
444.034	92.25
444.255	98.25
444.476	92.25
444.698	97.25
444.919	84.25
445.14	119.25
445.361	124.25
445.582	112.25
445.803	124.25
446.024	119.25
446.245	124.25
446.466	99.25
446.687	87.25
446.908	98.25
447.129	89.25
447.35	81.25
447.571	85.25
447.792	83.25
448.013	98.25
448.234	95.25
448.455	95.25
448.675	109.25
448.896	98.25
449.117	88.25
449.338	102.25
449.559	121.25
449.779	117.25
450	84.25
450.221	95.25
450.442	83.25
450.662	89.25
450.883	99.25
451.104	107.25
451.324	85.25
451.545	84.25
451.766	78.25
451.986	85.25
452.207	100.25
452.428	89.25
452.648	98.25
452.869	102.25
453.089	100.25
453.31	123.25
453.53	90.25
453.751	80.25
453.971	103.25
454.192	108.25
454.412	87.25
454.633	92.25
454.853	85.25
455.073	82.25
455.294	93.25
455.514	105.25
455.734	96.25
455.955	79.25
456.175	75.25
456.395	88.25
456.616	96.25
456.836	80.25
457.056	85.25
457.276	90.25
457.497	66.25
457.717	84.25
457.937	91.25
458.157	87.25
458.377	89.25
458.598	99.25
458.818	140.25
459.038	158.25
459.258	113.25
459.478	70.25
459.698	81.25
459.918	73.25
460.138	88.25
460.358	103.25
460.578	96.25
460.798	88.25
461.018	95.25
461.238	88.25
461.458	91.25
461.678	86.25
461.898	99.25
462.118	89.25
462.338	73.25
462.558	97.25
462.777	77.25
462.997	78.25
463.217	87.25
463.437	80.25
463.657	101.25
463.876	101.25
464.096	79.25
464.316	101.25
464.536	80.25
464.755	96.25
464.975	107.25
465.195	163.25
465.414	151.25
465.634	97.25
465.854	95.25
466.073	90.25
466.293	89.25
466.512	70.25
466.732	88.25
466.951	94.25
467.171	99.25
467.391	91.25
467.61	86.25
467.829	103.25
468.049	87.25
468.268	92.25
468.488	97.25
468.707	91.25
468.927	82.25
469.146	77.25
469.365	81.25
469.585	78.25
469.804	97.25
470.023	91.25
470.243	97.25
470.462	99.25
470.681	111.25
470.901	83.25
471.12	82.25
471.339	78.25
471.558	83.25
471.777	85.25
471.997	87.25
472.216	94.25
472.435	91.25
472.654	97.25
472.873	84.25
473.092	85.25
473.311	77.25
473.53	88.25
473.749	77.25
473.968	106.25
474.187	106.25
474.406	99.25
474.625	91.25
474.844	85.25
475.063	92.25
475.282	80.25
475.501	93.25
475.72	85.25
475.939	88.25
476.158	86.25
476.377	86.25
476.596	85.25
476.814	94.25
477.033	98.25
477.252	104.25
477.471	93.25
477.69	101.25
477.908	86.25
478.127	82.25
478.346	93.25
478.564	88.25
478.783	98.25
479.002	96.25
479.22	98.25
479.439	108.25
479.658	104.25
479.876	96.25
480.095	85.25
480.313	79.25
480.532	85.25
480.751	93.25
480.969	79.25
481.188	92.25
481.406	99.25
481.624	84.25
481.843	84.25
482.061	75.25
482.28	84.25
482.498	89.25
482.717	90.25
482.935	90.25
483.153	82.25
483.372	92.25
483.59	102.25
483.808	86.25
484.027	81.25
484.245	93.25
484.463	98.25
484.681	88.25
484.9	86.25
485.118	105.25
485.336	97.25
485.554	102.25
485.772	97.25
485.99	98.25
486.209	90.25
486.427	94.25
486.645	99.25
486.863	100.25
487.081	101.25
487.299	110.25
487.517	87.25
487.735	106.25
487.953	89.25
488.171	100.25
488.389	89.25
488.607	96.25
488.825	91.25
489.043	79.25
489.261	88.25
489.479	90.25
489.696	88.25
489.914	82.25
490.132	87.25
490.35	90.25
490.568	89.25
490.786	81.25
491.003	89.25
491.221	90.25
491.439	96.25
491.657	102.25
491.874	91.25
492.092	84.25
492.31	93.25
492.527	93.25
492.745	90.25
492.963	79.25
493.18	87.25
493.398	89.25
493.615	89.25
493.833	99.25
494.05	86.25
494.268	89.25
494.485	79.25
494.703	95.25
494.92	102.25
495.138	90.25
495.355	91.25
495.573	85.25
495.79	91.25
496.008	89.25
496.225	88.25
496.442	95.25
496.66	103.25
496.877	81.25
497.094	88.25
497.312	91.25
497.529	81.25
497.746	92.25
497.963	98.25
498.181	89.25
498.398	94.25
498.615	102.25
498.832	103.25
499.049	94.25
499.267	92.25
499.484	87.25
499.701	85.25
499.918	100.25
500.135	85.25
500.352	98.25
500.569	82.25
500.786	93.25
501.003	94.25
501.22	87.25
501.437	89.25
501.654	104.25
501.871	94.25
502.088	91.25
502.305	82.25
502.522	99.25
502.739	85.25
502.956	95.25
503.172	92.25
503.389	99.25
503.606	111.25
503.823	94.25
504.04	99.25
504.256	94.25
504.473	75.25
504.69	83.25
504.907	101.25
505.123	87.25
505.34	91.25
505.557	85.25
505.773	96.25
505.99	79.25
506.207	86.25
506.423	88.25
506.64	111.25
506.856	88.25
507.073	91.25
507.289	86.25
507.506	91.25
507.722	105.25
507.939	99.25
508.155	75.25
508.372	95.25
508.588	107.25
508.805	98.25
509.021	106.25
509.238	94.25
509.454	93.25
509.67	91.25
509.887	103.25
510.103	141.25
510.319	221.25
510.536	740.25
510.752	2282.25
510.968	637.25
511.184	132.25
511.401	114.25
511.617	114.25
511.833	94.25
512.049	90.25
512.265	94.25
512.481	96.25
512.698	71.25
512.914	91.25
513.13	101.25
513.346	90.25
513.562	98.25
513.778	96.25
513.994	92.25
514.21	107.25
514.426	118.25
514.642	135.25
514.858	119.25
515.074	162.25
515.29	430.25
515.506	1385.25
515.721	509.25
515.937	153.25
516.153	107.25
