Data from Uncirc_1992_H10_HRD10591_00091.txt Node
Date: Wed Jan 03 11:46:34 EST 2024
User: Yrep
Spectrometer: HR+D1059
Trigger mode: 1
Integration Time (sec): 1.000000E-1
Scans to average: 1
Electric dark correction enabled: true
Nonlinearity correction enabled: false
Boxcar width: 0
XAxis mode: Wavelengths
Number of Pixels in Spectrum: 2048
>>>>>Begin Spectral Data<<<<<
223.165	-26.81
223.4	-26.81
223.635	-26.81
223.869	-10.81
224.104	-17.81
224.338	-11.81
224.573	-7.81
224.808	-6.81
225.042	-6.81
225.277	-3.81
225.511	-12.81
225.746	6.19
225.98	12.19
226.215	4.19
226.449	4.19
226.683	12.19
226.918	38.19
227.152	28.19
227.387	39.19
227.621	43.19
227.856	52.19
228.09	51.19
228.324	58.19
228.559	65.19
228.793	58.19
229.027	64.19
229.262	69.19
229.496	54.19
229.73	61.19
229.964	83.19
230.199	56.19
230.433	76.19
230.667	81.19
230.901	79.19
231.136	62.19
231.37	74.19
231.604	72.19
231.838	84.19
232.072	85.19
232.306	83.19
232.541	77.19
232.775	66.19
233.009	76.19
233.243	81.19
233.477	84.19
233.711	77.19
233.945	89.19
234.179	67.19
234.413	86.19
234.647	84.19
234.881	77.19
235.115	82.19
235.349	67.19
235.583	64.19
235.817	81.19
236.051	67.19
236.285	76.19
236.519	87.19
236.753	60.19
236.987	84.19
237.221	87.19
237.455	84.19
237.689	77.19
237.922	75.19
238.156	73.19
238.39	74.19
238.624	61.19
238.858	92.19
239.091	86.19
239.325	70.19
239.559	90.19
239.793	70.19
240.027	70.19
240.26	79.19
240.494	81.19
240.728	81.19
240.961	72.19
241.195	73.19
241.429	77.19
241.662	71.19
241.896	73.19
242.13	74.19
242.363	85.19
242.597	74.19
242.83	86.19
243.064	87.19
243.298	78.19
243.531	62.19
243.765	88.19
243.998	76.19
244.232	64.19
244.465	101.19
244.699	84.19
244.932	72.19
245.166	68.19
245.399	69.19
245.633	74.19
245.866	80.19
246.099	68.19
246.333	76.19
246.566	76.19
246.8	82.19
247.033	78.19
247.266	77.19
247.5	74.19
247.733	80.19
247.966	70.19
248.2	72.19
248.433	82.19
248.666	85.19
248.899	85.19
249.133	75.19
249.366	93.19
249.599	82.19
249.832	86.19
250.066	78.19
250.299	79.19
250.532	80.19
250.765	83.19
250.998	83.19
251.231	69.19
251.465	84.19
251.698	64.19
251.931	61.19
252.164	83.19
252.397	83.19
252.63	79.19
252.863	84.19
253.096	81.19
253.329	79.19
253.562	84.19
253.795	90.19
254.028	89.19
254.261	84.19
254.494	84.19
254.727	107.19
254.96	90.19
255.193	82.19
255.426	66.19
255.659	76.19
255.892	86.19
256.124	83.19
256.357	78.19
256.59	83.19
256.823	67.19
257.056	79.19
257.289	74.19
257.521	84.19
257.754	76.19
257.987	77.19
258.22	75.19
258.452	75.19
258.685	82.19
258.918	82.19
259.151	87.19
259.383	96.19
259.616	75.19
259.849	82.19
260.081	96.19
260.314	83.19
260.547	82.19
260.779	79.19
261.012	76.19
261.244	92.19
261.477	91.19
261.71	101.19
261.942	106.19
262.175	111.19
262.407	85.19
262.64	77.19
262.872	79.19
263.105	70.19
263.337	79.19
263.57	93.19
263.802	88.19
264.035	91.19
264.267	84.19
264.499	82.19
264.732	80.19
264.964	69.19
265.197	76.19
265.429	83.19
265.661	79.19
265.894	81.19
266.126	89.19
266.358	93.19
266.591	80.19
266.823	76.19
267.055	70.19
267.287	88.19
267.52	78.19
267.752	90.19
267.984	89.19
268.216	85.19
268.448	83.19
268.681	71.19
268.913	97.19
269.145	93.19
269.377	82.19
269.609	80.19
269.841	86.19
270.073	89.19
270.306	84.19
270.538	69.19
270.77	99.19
271.002	76.19
271.234	75.19
271.466	80.19
271.698	87.19
271.93	82.19
272.162	73.19
272.394	78.19
272.626	87.19
272.858	92.19
273.09	79.19
273.322	77.19
273.553	82.19
273.785	77.19
274.017	78.19
274.249	77.19
274.481	89.19
274.713	89.19
274.945	83.19
275.176	98.19
275.408	100.19
275.64	76.19
275.872	83.19
276.104	83.19
276.335	96.19
276.567	87.19
276.799	101.19
277.031	92.19
277.262	90.19
277.494	89.19
277.726	112.19
277.957	85.19
278.189	99.19
278.421	86.19
278.652	82.19
278.884	83.19
279.115	99.19
279.347	90.19
279.579	91.19
279.81	102.19
280.042	94.19
280.273	68.19
280.505	88.19
280.736	78.19
280.968	102.19
281.199	87.19
281.431	84.19
281.662	93.19
281.894	93.19
282.125	97.19
282.356	114.19
282.588	118.19
282.819	107.19
283.051	100.19
283.282	84.19
283.513	84.19
283.745	83.19
283.976	86.19
284.207	93.19
284.439	88.19
284.67	106.19
284.901	87.19
285.132	88.19
285.364	91.19
285.595	93.19
285.826	93.19
286.057	81.19
286.288	87.19
286.52	84.19
286.751	85.19
286.982	83.19
287.213	92.19
287.444	91.19
287.675	90.19
287.906	94.19
288.138	91.19
288.369	87.19
288.6	97.19
288.831	90.19
289.062	93.19
289.293	95.19
289.524	105.19
289.755	109.19
289.986	95.19
290.217	93.19
290.448	91.19
290.679	77.19
290.91	100.19
291.141	86.19
291.371	76.19
291.602	93.19
291.833	90.19
292.064	88.19
292.295	88.19
292.526	79.19
292.757	86.19
292.987	89.19
293.218	87.19
293.449	94.19
293.68	85.19
293.91	83.19
294.141	83.19
294.372	89.19
294.603	79.19
294.833	92.19
295.064	74.19
295.295	94.19
295.525	94.19
295.756	97.19
295.987	98.19
296.217	132.19
296.448	97.19
296.679	106.19
296.909	94.19
297.14	97.19
297.37	101.19
297.601	84.19
297.831	74.19
298.062	86.19
298.292	81.19
298.523	91.19
298.753	79.19
298.984	78.19
299.214	93.19
299.445	111.19
299.675	101.19
299.905	98.19
300.136	91.19
300.366	84.19
300.597	91.19
300.827	99.19
301.057	97.19
301.288	96.19
301.518	100.19
301.748	88.19
301.979	90.19
302.209	96.19
302.439	88.19
302.669	83.19
302.9	89.19
303.13	87.19
303.36	91.19
303.59	91.19
303.82	108.19
304.051	92.19
304.281	93.19
304.511	63.19
304.741	80.19
304.971	92.19
305.201	93.19
305.431	95.19
305.661	88.19
305.891	88.19
306.121	75.19
306.352	92.19
306.582	114.19
306.812	92.19
307.042	102.19
307.272	101.19
307.502	99.19
307.731	79.19
307.961	98.19
308.191	100.19
308.421	91.19
308.651	89.19
308.881	77.19
309.111	87.19
309.341	84.19
309.571	98.19
309.8	91.19
310.03	93.19
310.26	85.19
310.49	80.19
310.72	96.19
310.949	102.19
311.179	95.19
311.409	88.19
311.639	90.19
311.868	98.19
312.098	102.19
312.328	90.19
312.557	99.19
312.787	90.19
313.017	108.19
313.246	83.19
313.476	81.19
313.706	91.19
313.935	98.19
314.165	102.19
314.394	94.19
314.624	98.19
314.853	101.19
315.083	73.19
315.312	85.19
315.542	74.19
315.771	89.19
316.001	87.19
316.23	86.19
316.46	75.19
316.689	91.19
316.919	103.19
317.148	90.19
317.377	102.19
317.607	102.19
317.836	102.19
318.065	98.19
318.295	90.19
318.524	81.19
318.753	91.19
318.983	86.19
319.212	105.19
319.441	106.19
319.67	100.19
319.9	84.19
320.129	90.19
320.358	98.19
320.587	92.19
320.816	102.19
321.046	101.19
321.275	92.19
321.504	84.19
321.733	101.19
321.962	98.19
322.191	98.19
322.42	103.19
322.649	89.19
322.878	94.19
323.108	91.19
323.337	108.19
323.566	127.19
323.795	137.19
324.024	196.19
324.253	334.19
324.482	726.19
324.71	1412.19
324.939	1809.19
325.168	688.19
325.397	217.19
325.626	129.19
325.855	115.19
326.084	124.19
326.313	123.19
326.542	161.19
326.77	209.19
326.999	408.19
327.228	773.19
327.457	1409.19
327.686	1109.19
327.914	326.19
328.143	167.19
328.372	122.19
328.6	114.19
328.829	116.19
329.058	114.19
329.287	114.19
329.515	98.19
329.744	109.19
329.972	105.19
330.201	102.19
330.43	101.19
330.658	101.19
330.887	120.19
331.115	117.19
331.344	102.19
331.572	88.19
331.801	86.19
332.03	96.19
332.258	109.19
332.486	91.19
332.715	81.19
332.943	85.19
333.172	95.19
333.4	93.19
333.629	110.19
333.857	111.19
334.085	98.19
334.314	107.19
334.542	112.19
334.771	94.19
334.999	97.19
335.227	93.19
335.455	97.19
335.684	109.19
335.912	105.19
336.14	112.19
336.369	110.19
336.597	96.19
336.825	77.19
337.053	88.19
337.281	92.19
337.51	84.19
337.738	102.19
337.966	89.19
338.194	85.19
338.422	83.19
338.65	97.19
338.878	85.19
339.106	100.19
339.334	100.19
339.562	81.19
339.79	76.19
340.018	88.19
340.246	78.19
340.474	99.19
340.702	85.19
340.93	87.19
341.158	100.19
341.386	97.19
341.614	96.19
341.842	95.19
342.07	100.19
342.298	95.19
342.526	90.19
342.754	86.19
342.981	93.19
343.209	96.19
343.437	97.19
343.665	81.19
343.893	96.19
344.12	88.19
344.348	82.19
344.576	87.19
344.804	91.19
345.031	87.19
345.259	101.19
345.487	94.19
345.714	91.19
345.942	101.19
346.17	84.19
346.397	93.19
346.625	90.19
346.853	74.19
347.08	91.19
347.308	97.19
347.535	97.19
347.763	98.19
347.99	93.19
348.218	101.19
348.445	103.19
348.673	96.19
348.9	99.19
349.128	89.19
349.355	93.19
349.583	105.19
349.81	102.19
350.037	90.19
350.265	102.19
350.492	88.19
350.72	98.19
350.947	100.19
351.174	99.19
351.402	93.19
351.629	98.19
351.856	96.19
352.083	97.19
352.311	99.19
352.538	104.19
352.765	112.19
352.992	115.19
353.22	109.19
353.447	104.19
353.674	113.19
353.901	100.19
354.128	94.19
354.355	88.19
354.583	94.19
354.81	87.19
355.037	104.19
355.264	83.19
355.491	94.19
355.718	97.19
355.945	101.19
356.172	90.19
356.399	102.19
356.626	111.19
356.853	88.19
357.08	93.19
357.307	88.19
357.534	94.19
357.761	80.19
357.988	103.19
358.215	108.19
358.441	76.19
358.668	74.19
358.895	87.19
359.122	89.19
359.349	91.19
359.576	78.19
359.802	95.19
360.029	106.19
360.256	91.19
360.483	90.19
360.709	86.19
360.936	79.19
361.163	101.19
361.39	101.19
361.616	100.19
361.843	83.19
362.07	100.19
362.296	92.19
362.523	78.19
362.749	95.19
362.976	103.19
363.203	105.19
363.429	79.19
363.656	102.19
363.882	96.19
364.109	83.19
364.335	92.19
364.562	103.19
364.788	86.19
365.015	100.19
365.241	100.19
365.468	97.19
365.694	88.19
365.92	69.19
366.147	85.19
366.373	96.19
366.599	82.19
366.826	102.19
367.052	94.19
367.278	100.19
367.505	76.19
367.731	90.19
367.957	92.19
368.184	97.19
368.41	99.19
368.636	111.19
368.862	121.19
369.089	100.19
369.315	89.19
369.541	81.19
369.767	92.19
369.993	92.19
370.219	81.19
370.445	89.19
370.672	92.19
370.898	89.19
371.124	84.19
371.35	92.19
371.576	89.19
371.802	86.19
372.028	103.19
372.254	84.19
372.48	85.19
372.706	71.19
372.932	90.19
373.158	68.19
373.384	91.19
373.61	100.19
373.835	86.19
374.061	92.19
374.287	88.19
374.513	86.19
374.739	104.19
374.965	69.19
375.191	81.19
375.416	80.19
375.642	75.19
375.868	95.19
376.094	90.19
376.319	87.19
376.545	90.19
376.771	93.19
376.997	92.19
377.222	88.19
377.448	75.19
377.674	80.19
377.899	78.19
378.125	86.19
378.35	96.19
378.576	71.19
378.802	92.19
379.027	81.19
379.253	100.19
379.478	88.19
379.704	87.19
379.929	97.19
380.155	91.19
380.38	77.19
380.606	100.19
380.831	94.19
381.057	94.19
381.282	97.19
381.507	94.19
381.733	92.19
381.958	96.19
382.184	90.19
382.409	99.19
382.634	107.19
382.86	97.19
383.085	95.19
383.31	97.19
383.535	90.19
383.761	80.19
383.986	89.19
384.211	82.19
384.436	93.19
384.662	89.19
384.887	88.19
385.112	90.19
385.337	100.19
385.562	94.19
385.787	105.19
386.013	108.19
386.238	94.19
386.463	89.19
386.688	108.19
386.913	87.19
387.138	103.19
387.363	94.19
387.588	85.19
387.813	103.19
388.038	90.19
388.263	100.19
388.488	98.19
388.713	104.19
388.938	98.19
389.163	86.19
389.387	102.19
389.612	89.19
389.837	102.19
390.062	84.19
390.287	99.19
390.512	83.19
390.736	95.19
390.961	92.19
391.186	85.19
391.411	91.19
391.636	83.19
391.86	81.19
392.085	93.19
392.31	79.19
392.534	76.19
392.759	77.19
392.984	83.19
393.208	93.19
393.433	88.19
393.658	84.19
393.882	81.19
394.107	83.19
394.331	79.19
394.556	86.19
394.78	72.19
395.005	92.19
395.229	90.19
395.454	82.19
395.678	86.19
395.903	86.19
396.127	60.19
396.352	75.19
396.576	79.19
396.801	86.19
397.025	84.19
397.249	85.19
397.474	90.19
397.698	92.19
397.922	92.19
398.147	76.19
398.371	85.19
398.595	90.19
398.82	73.19
399.044	81.19
399.268	83.19
399.492	82.19
399.717	87.19
399.941	95.19
400.165	84.19
400.389	80.19
400.613	85.19
400.837	82.19
401.062	96.19
401.286	90.19
401.51	75.19
401.734	85.19
401.958	87.19
402.182	120.19
402.406	149.19
402.63	110.19
402.854	108.19
403.078	99.19
403.302	76.19
403.526	94.19
403.75	89.19
403.974	90.19
404.198	68.19
404.422	78.19
404.645	86.19
404.869	81.19
405.093	91.19
405.317	92.19
405.541	95.19
405.765	95.19
405.988	100.19
406.212	157.19
406.436	190.19
406.66	132.19
406.883	92.19
407.107	82.19
407.331	98.19
407.555	91.19
407.778	94.19
408.002	89.19
408.226	90.19
408.449	89.19
408.673	84.19
408.896	102.19
409.12	98.19
409.344	80.19
409.567	98.19
409.791	92.19
410.014	93.19
410.238	94.19
410.461	82.19
410.685	85.19
410.908	88.19
411.132	94.19
411.355	95.19
411.578	79.19
411.802	75.19
412.025	92.19
412.249	99.19
412.472	80.19
412.695	91.19
412.919	80.19
413.142	81.19
413.365	84.19
413.589	80.19
413.812	98.19
414.035	75.19
414.258	92.19
414.482	89.19
414.705	84.19
414.928	81.19
415.151	80.19
415.374	94.19
415.597	89.19
415.821	89.19
416.044	91.19
416.267	86.19
416.49	82.19
416.713	80.19
416.936	89.19
417.159	81.19
417.382	91.19
417.605	90.19
417.828	66.19
418.051	83.19
418.274	94.19
418.497	80.19
418.72	78.19
418.943	88.19
419.166	83.19
419.389	91.19
419.611	89.19
419.834	81.19
420.057	93.19
420.28	89.19
420.503	99.19
420.726	85.19
420.948	93.19
421.171	102.19
421.394	90.19
421.617	90.19
421.839	87.19
422.062	84.19
422.285	94.19
422.507	89.19
422.73	87.19
422.953	96.19
423.175	80.19
423.398	81.19
423.621	93.19
423.843	85.19
424.066	83.19
424.288	89.19
424.511	90.19
424.733	95.19
424.956	111.19
425.178	99.19
425.401	92.19
425.623	84.19
425.846	88.19
426.068	81.19
426.291	84.19
426.513	91.19
426.735	99.19
426.958	92.19
427.18	100.19
427.402	129.19
427.625	142.19
427.847	120.19
428.069	91.19
428.292	81.19
428.514	90.19
428.736	89.19
428.958	84.19
429.181	84.19
429.403	86.19
429.625	86.19
429.847	89.19
430.069	89.19
430.292	101.19
430.514	76.19
430.736	83.19
430.958	101.19
431.18	95.19
431.402	83.19
431.624	89.19
431.846	89.19
432.068	85.19
432.29	85.19
432.512	78.19
432.734	80.19
432.956	85.19
433.178	97.19
433.4	93.19
433.622	85.19
433.844	81.19
434.066	77.19
434.287	94.19
434.509	85.19
434.731	94.19
434.953	73.19
435.175	86.19
435.397	77.19
435.618	84.19
435.84	96.19
436.062	113.19
436.284	102.19
436.505	100.19
436.727	98.19
436.949	87.19
437.17	91.19
437.392	95.19
437.614	72.19
437.835	102.19
438.057	106.19
438.278	99.19
438.5	96.19
438.721	104.19
438.943	97.19
439.165	83.19
439.386	94.19
439.608	86.19
439.829	81.19
440.05	115.19
440.272	122.19
440.493	95.19
440.715	89.19
440.936	94.19
441.158	91.19
441.379	76.19
441.6	84.19
441.822	92.19
442.043	88.19
442.264	102.19
442.486	92.19
442.707	91.19
442.928	96.19
443.149	116.19
443.371	120.19
443.592	95.19
443.813	91.19
444.034	99.19
444.255	98.19
444.476	75.19
444.698	76.19
444.919	79.19
445.14	130.19
445.361	123.19
445.582	109.19
445.803	111.19
446.024	117.19
446.245	112.19
446.466	95.19
446.687	86.19
446.908	83.19
447.129	93.19
447.35	80.19
447.571	72.19
447.792	83.19
448.013	88.19
448.234	93.19
448.455	105.19
448.675	103.19
448.896	101.19
449.117	107.19
449.338	98.19
449.559	110.19
449.779	115.19
450	97.19
450.221	86.19
450.442	86.19
450.662	86.19
450.883	96.19
451.104	110.19
451.324	92.19
451.545	86.19
451.766	86.19
451.986	91.19
452.207	94.19
452.428	96.19
452.648	104.19
452.869	89.19
453.089	118.19
453.31	97.19
453.53	88.19
453.751	90.19
453.971	105.19
454.192	106.19
454.412	93.19
454.633	74.19
454.853	83.19
455.073	85.19
455.294	91.19
455.514	84.19
455.734	97.19
455.955	84.19
456.175	87.19
456.395	102.19
456.616	77.19
456.836	88.19
457.056	77.19
457.276	74.19
457.497	90.19
457.717	82.19
457.937	88.19
458.157	68.19
458.377	92.19
458.598	109.19
458.818	137.19
459.038	134.19
459.258	102.19
459.478	74.19
459.698	81.19
459.918	105.19
460.138	89.19
460.358	86.19
460.578	95.19
460.798	81.19
461.018	90.19
461.238	85.19
461.458	76.19
461.678	83.19
461.898	87.19
462.118	85.19
462.338	84.19
462.558	68.19
462.777	86.19
462.997	95.19
463.217	81.19
463.437	87.19
463.657	81.19
463.876	93.19
464.096	84.19
464.316	89.19
464.536	95.19
464.755	92.19
464.975	94.19
465.195	150.19
465.414	136.19
465.634	93.19
465.854	92.19
466.073	100.19
466.293	92.19
466.512	83.19
466.732	79.19
466.951	87.19
467.171	86.19
467.391	91.19
467.61	82.19
467.829	102.19
468.049	89.19
468.268	89.19
468.488	76.19
468.707	78.19
468.927	97.19
469.146	101.19
469.365	82.19
469.585	80.19
469.804	80.19
470.023	90.19
470.243	80.19
470.462	90.19
470.681	82.19
470.901	86.19
471.12	92.19
471.339	87.19
471.558	69.19
471.777	85.19
471.997	91.19
472.216	88.19
472.435	80.19
472.654	83.19
472.873	94.19
473.092	87.19
473.311	84.19
473.53	89.19
473.749	98.19
473.968	93.19
474.187	96.19
474.406	90.19
474.625	85.19
474.844	97.19
475.063	74.19
475.282	88.19
475.501	90.19
475.72	81.19
475.939	84.19
476.158	82.19
476.377	90.19
476.596	86.19
476.814	94.19
477.033	96.19
477.252	91.19
477.471	85.19
477.69	85.19
477.908	91.19
478.127	77.19
478.346	90.19
478.564	86.19
478.783	97.19
479.002	78.19
479.22	88.19
479.439	97.19
479.658	101.19
479.876	86.19
480.095	94.19
480.313	92.19
480.532	86.19
480.751	89.19
480.969	81.19
481.188	108.19
481.406	101.19
481.624	80.19
481.843	84.19
482.061	73.19
482.28	89.19
482.498	88.19
482.717	83.19
482.935	91.19
483.153	93.19
483.372	93.19
483.59	85.19
483.808	87.19
484.027	82.19
484.245	93.19
484.463	101.19
484.681	94.19
484.9	79.19
485.118	109.19
485.336	95.19
485.554	99.19
485.772	106.19
485.99	98.19
486.209	100.19
486.427	93.19
486.645	105.19
486.863	101.19
487.081	105.19
487.299	96.19
487.517	89.19
487.735	89.19
487.953	96.19
488.171	100.19
488.389	105.19
488.607	86.19
488.825	100.19
489.043	94.19
489.261	85.19
489.479	92.19
489.696	89.19
489.914	86.19
490.132	78.19
490.35	83.19
490.568	88.19
490.786	91.19
491.003	86.19
491.221	91.19
491.439	88.19
491.657	98.19
491.874	97.19
492.092	94.19
492.31	91.19
492.527	94.19
492.745	78.19
492.963	82.19
493.18	91.19
493.398	87.19
493.615	96.19
493.833	99.19
494.05	90.19
494.268	89.19
494.485	90.19
494.703	97.19
494.92	101.19
495.138	98.19
495.355	92.19
495.573	89.19
495.79	91.19
496.008	97.19
496.225	77.19
496.442	95.19
496.66	101.19
496.877	92.19
497.094	92.19
497.312	83.19
497.529	96.19
497.746	91.19
497.963	92.19
498.181	90.19
498.398	85.19
498.615	98.19
498.832	93.19
499.049	91.19
499.267	89.19
499.484	90.19
499.701	84.19
499.918	92.19
500.135	97.19
500.352	90.19
500.569	103.19
500.786	96.19
501.003	88.19
501.22	96.19
501.437	96.19
501.654	88.19
501.871	95.19
502.088	92.19
502.305	99.19
502.522	77.19
502.739	95.19
502.956	78.19
503.172	88.19
503.389	93.19
503.606	109.19
503.823	79.19
504.04	85.19
504.256	99.19
504.473	98.19
504.69	91.19
504.907	96.19
505.123	85.19
505.34	90.19
505.557	98.19
505.773	85.19
505.99	84.19
506.207	84.19
506.423	78.19
506.64	84.19
506.856	85.19
507.073	88.19
507.289	86.19
507.506	80.19
507.722	105.19
507.939	104.19
508.155	96.19
508.372	91.19
508.588	91.19
508.805	82.19
509.021	83.19
509.238	92.19
509.454	95.19
509.67	99.19
509.887	108.19
510.103	132.19
510.319	194.19
510.536	698.19
510.752	2055.19
510.968	594.19
511.184	139.19
511.401	122.19
511.617	108.19
511.833	94.19
512.049	97.19
512.265	81.19
512.481	93.19
512.698	76.19
512.914	97.19
513.13	90.19
513.346	89.19
513.562	98.19
513.778	91.19
513.994	99.19
514.21	99.19
514.426	118.19
514.642	137.19
514.858	124.19
515.074	167.19
515.29	398.19
515.506	1199.19
515.721	431.19
515.937	140.19
516.153	116.19
516.369	92.19
516.585	105.19
