Data from Uncirc_1992_H10_HRD10591_00047.txt Node
Date: Wed Jan 03 11:46:25 EST 2024
User: Yrep
Spectrometer: HR+D1059
Trigger mode: 1
Integration Time (sec): 1.000000E-1
Scans to average: 1
Electric dark correction enabled: true
Nonlinearity correction enabled: false
Boxcar width: 0
XAxis mode: Wavelengths
Number of Pixels in Spectrum: 2048
>>>>>Begin Spectral Data<<<<<
223.165	-19.75
223.4	-19.75
223.635	-19.75
223.869	-14.75
224.104	-12.75
224.338	-10.75
224.573	-15.75
224.808	-17.75
225.042	-21.75
225.277	-0.75
225.511	-5.75
225.746	6.25
225.98	16.25
226.215	24.25
226.449	10.25
226.683	17.25
226.918	29.25
227.152	16.25
227.387	43.25
227.621	41.25
227.856	48.25
228.09	46.25
228.324	65.25
228.559	69.25
228.793	50.25
229.027	51.25
229.262	62.25
229.496	57.25
229.73	71.25
229.964	68.25
230.199	81.25
230.433	74.25
230.667	66.25
230.901	79.25
231.136	67.25
231.37	83.25
231.604	69.25
231.838	77.25
232.072	91.25
232.306	86.25
232.541	81.25
232.775	89.25
233.009	75.25
233.243	87.25
233.477	75.25
233.711	84.25
233.945	77.25
234.179	76.25
234.413	83.25
234.647	71.25
234.881	67.25
235.115	92.25
235.349	90.25
235.583	71.25
235.817	96.25
236.051	87.25
236.285	70.25
236.519	81.25
236.753	72.25
236.987	59.25
237.221	75.25
237.455	80.25
237.689	73.25
237.922	67.25
238.156	67.25
238.39	71.25
238.624	71.25
238.858	72.25
239.091	65.25
239.325	74.25
239.559	81.25
239.793	83.25
240.027	71.25
240.26	73.25
240.494	74.25
240.728	68.25
240.961	72.25
241.195	77.25
241.429	52.25
241.662	68.25
241.896	71.25
242.13	67.25
242.363	74.25
242.597	75.25
242.83	81.25
243.064	86.25
243.298	82.25
243.531	68.25
243.765	65.25
243.998	77.25
244.232	83.25
244.465	72.25
244.699	62.25
244.932	62.25
245.166	90.25
245.399	90.25
245.633	94.25
245.866	74.25
246.099	82.25
246.333	84.25
246.566	65.25
246.8	78.25
247.033	81.25
247.266	77.25
247.5	81.25
247.733	75.25
247.966	86.25
248.2	66.25
248.433	81.25
248.666	69.25
248.899	81.25
249.133	103.25
249.366	82.25
249.599	80.25
249.832	77.25
250.066	91.25
250.299	87.25
250.532	79.25
250.765	68.25
250.998	93.25
251.231	72.25
251.465	79.25
251.698	83.25
251.931	74.25
252.164	67.25
252.397	95.25
252.63	91.25
252.863	69.25
253.096	71.25
253.329	63.25
253.562	87.25
253.795	75.25
254.028	80.25
254.261	84.25
254.494	68.25
254.727	83.25
254.96	67.25
255.193	76.25
255.426	74.25
255.659	76.25
255.892	95.25
256.124	78.25
256.357	85.25
256.59	84.25
256.823	79.25
257.056	85.25
257.289	91.25
257.521	79.25
257.754	74.25
257.987	84.25
258.22	74.25
258.452	75.25
258.685	84.25
258.918	80.25
259.151	80.25
259.383	84.25
259.616	74.25
259.849	81.25
260.081	84.25
260.314	79.25
260.547	85.25
260.779	73.25
261.012	77.25
261.244	88.25
261.477	91.25
261.71	85.25
261.942	94.25
262.175	108.25
262.407	89.25
262.64	83.25
262.872	77.25
263.105	99.25
263.337	87.25
263.57	79.25
263.802	97.25
264.035	78.25
264.267	86.25
264.499	95.25
264.732	76.25
264.964	83.25
265.197	90.25
265.429	84.25
265.661	81.25
265.894	82.25
266.126	68.25
266.358	79.25
266.591	73.25
266.823	84.25
267.055	81.25
267.287	79.25
267.52	71.25
267.752	83.25
267.984	89.25
268.216	88.25
268.448	81.25
268.681	85.25
268.913	71.25
269.145	68.25
269.377	79.25
269.609	78.25
269.841	92.25
270.073	80.25
270.306	85.25
270.538	77.25
270.77	75.25
271.002	75.25
271.234	84.25
271.466	86.25
271.698	76.25
271.93	86.25
272.162	66.25
272.394	70.25
272.626	79.25
272.858	74.25
273.09	77.25
273.322	87.25
273.553	98.25
273.785	94.25
274.017	75.25
274.249	81.25
274.481	84.25
274.713	88.25
274.945	84.25
275.176	77.25
275.408	77.25
275.64	93.25
275.872	84.25
276.104	79.25
276.335	94.25
276.567	92.25
276.799	106.25
277.031	101.25
277.262	84.25
277.494	85.25
277.726	92.25
277.957	73.25
278.189	80.25
278.421	89.25
278.652	69.25
278.884	84.25
279.115	87.25
279.347	83.25
279.579	90.25
279.81	83.25
280.042	87.25
280.273	90.25
280.505	75.25
280.736	74.25
280.968	89.25
281.199	95.25
281.431	100.25
281.662	86.25
281.894	95.25
282.125	93.25
282.356	102.25
282.588	114.25
282.819	101.25
283.051	90.25
283.282	80.25
283.513	84.25
283.745	81.25
283.976	81.25
284.207	82.25
284.439	79.25
284.67	87.25
284.901	76.25
285.132	79.25
285.364	78.25
285.595	77.25
285.826	82.25
286.057	78.25
286.288	75.25
286.52	72.25
286.751	89.25
286.982	75.25
287.213	93.25
287.444	80.25
287.675	81.25
287.906	80.25
288.138	84.25
288.369	92.25
288.6	87.25
288.831	84.25
289.062	84.25
289.293	76.25
289.524	96.25
289.755	88.25
289.986	90.25
290.217	80.25
290.448	79.25
290.679	85.25
290.91	86.25
291.141	81.25
291.371	89.25
291.602	93.25
291.833	90.25
292.064	92.25
292.295	68.25
292.526	83.25
292.757	76.25
292.987	89.25
293.218	88.25
293.449	80.25
293.68	75.25
293.91	89.25
294.141	88.25
294.372	75.25
294.603	72.25
294.833	91.25
295.064	87.25
295.295	88.25
295.525	88.25
295.756	97.25
295.987	113.25
296.217	106.25
296.448	125.25
296.679	83.25
296.909	85.25
297.14	89.25
297.37	78.25
297.601	84.25
297.831	69.25
298.062	85.25
298.292	92.25
298.523	73.25
298.753	78.25
298.984	91.25
299.214	90.25
299.445	83.25
299.675	99.25
299.905	97.25
300.136	83.25
300.366	78.25
300.597	87.25
300.827	90.25
301.057	96.25
301.288	90.25
301.518	98.25
301.748	87.25
301.979	88.25
302.209	91.25
302.439	91.25
302.669	76.25
302.9	77.25
303.13	101.25
303.36	95.25
303.59	90.25
303.82	99.25
304.051	84.25
304.281	89.25
304.511	93.25
304.741	88.25
304.971	83.25
305.201	83.25
305.431	95.25
305.661	79.25
305.891	75.25
306.121	72.25
306.352	87.25
306.582	87.25
306.812	76.25
307.042	80.25
307.272	97.25
307.502	82.25
307.731	88.25
307.961	78.25
308.191	75.25
308.421	80.25
308.651	77.25
308.881	85.25
309.111	75.25
309.341	100.25
309.571	89.25
309.8	91.25
310.03	97.25
310.26	94.25
310.49	91.25
310.72	75.25
310.949	105.25
311.179	94.25
311.409	90.25
311.639	87.25
311.868	105.25
312.098	108.25
312.328	91.25
312.557	96.25
312.787	108.25
313.017	101.25
313.246	91.25
313.476	91.25
313.706	81.25
313.935	88.25
314.165	90.25
314.394	93.25
314.624	96.25
314.853	84.25
315.083	92.25
315.312	98.25
315.542	91.25
315.771	77.25
316.001	86.25
316.23	104.25
316.46	96.25
316.689	75.25
316.919	81.25
317.148	89.25
317.377	99.25
317.607	100.25
317.836	91.25
318.065	89.25
318.295	92.25
318.524	103.25
318.753	83.25
318.983	92.25
319.212	87.25
319.441	91.25
319.67	93.25
319.9	100.25
320.129	95.25
320.358	89.25
320.587	75.25
320.816	79.25
321.046	95.25
321.275	89.25
321.504	90.25
321.733	82.25
321.962	92.25
322.191	99.25
322.42	93.25
322.649	111.25
322.878	104.25
323.108	101.25
323.337	110.25
323.566	117.25
323.795	131.25
324.024	183.25
324.253	317.25
324.482	645.25
324.71	1290.25
324.939	1662.25
325.168	640.25
325.397	214.25
325.626	143.25
325.855	127.25
326.084	104.25
326.313	103.25
326.542	153.25
326.77	192.25
326.999	368.25
327.228	706.25
327.457	1274.25
327.686	1019.25
327.914	277.25
328.143	164.25
328.372	127.25
328.6	106.25
328.829	111.25
329.058	115.25
329.287	109.25
329.515	95.25
329.744	93.25
329.972	89.25
330.201	85.25
330.43	98.25
330.658	116.25
330.887	119.25
331.115	111.25
331.344	85.25
331.572	88.25
331.801	94.25
332.03	88.25
332.258	103.25
332.486	90.25
332.715	88.25
332.943	87.25
333.172	89.25
333.4	80.25
333.629	107.25
333.857	107.25
334.085	95.25
334.314	90.25
334.542	87.25
334.771	96.25
334.999	92.25
335.227	90.25
335.455	88.25
335.684	99.25
335.912	93.25
336.14	89.25
336.369	96.25
336.597	84.25
336.825	81.25
337.053	98.25
337.281	98.25
337.51	85.25
337.738	85.25
337.966	96.25
338.194	83.25
338.422	86.25
338.65	97.25
338.878	73.25
339.106	71.25
339.334	86.25
339.562	86.25
339.79	78.25
340.018	77.25
340.246	89.25
340.474	83.25
340.702	94.25
340.93	89.25
341.158	89.25
341.386	88.25
341.614	81.25
341.842	82.25
342.07	92.25
342.298	78.25
342.526	90.25
342.754	91.25
342.981	104.25
343.209	71.25
343.437	107.25
343.665	92.25
343.893	88.25
344.12	83.25
344.348	79.25
344.576	90.25
344.804	91.25
345.031	81.25
345.259	96.25
345.487	83.25
345.714	95.25
345.942	88.25
346.17	97.25
346.397	82.25
346.625	85.25
346.853	90.25
347.08	85.25
347.308	102.25
347.535	88.25
347.763	100.25
347.99	92.25
348.218	82.25
348.445	85.25
348.673	82.25
348.9	91.25
349.128	100.25
349.355	93.25
349.583	83.25
349.81	80.25
350.037	77.25
350.265	94.25
350.492	89.25
350.72	89.25
350.947	115.25
351.174	99.25
351.402	94.25
351.629	104.25
351.856	98.25
352.083	102.25
352.311	107.25
352.538	98.25
352.765	91.25
352.992	98.25
353.22	102.25
353.447	102.25
353.674	106.25
353.901	90.25
354.128	96.25
354.355	108.25
354.583	97.25
354.81	89.25
355.037	101.25
355.264	106.25
355.491	93.25
355.718	91.25
355.945	94.25
356.172	95.25
356.399	91.25
356.626	92.25
356.853	101.25
357.08	88.25
357.307	94.25
357.534	88.25
357.761	96.25
357.988	96.25
358.215	82.25
358.441	82.25
358.668	82.25
358.895	84.25
359.122	85.25
359.349	78.25
359.576	88.25
359.802	83.25
360.029	98.25
360.256	100.25
360.483	107.25
360.709	95.25
360.936	99.25
361.163	94.25
361.39	96.25
361.616	94.25
361.843	85.25
362.07	95.25
362.296	89.25
362.523	86.25
362.749	96.25
362.976	87.25
363.203	83.25
363.429	83.25
363.656	87.25
363.882	100.25
364.109	93.25
364.335	85.25
364.562	79.25
364.788	88.25
365.015	67.25
365.241	88.25
365.468	105.25
365.694	79.25
365.92	80.25
366.147	80.25
366.373	91.25
366.599	84.25
366.826	79.25
367.052	77.25
367.278	76.25
367.505	88.25
367.731	98.25
367.957	90.25
368.184	96.25
368.41	101.25
368.636	99.25
368.862	110.25
369.089	106.25
369.315	90.25
369.541	90.25
369.767	89.25
369.993	86.25
370.219	98.25
370.445	84.25
370.672	84.25
370.898	82.25
371.124	81.25
371.35	92.25
371.576	70.25
371.802	89.25
372.028	75.25
372.254	86.25
372.48	76.25
372.706	83.25
372.932	84.25
373.158	86.25
373.384	89.25
373.61	89.25
373.835	83.25
374.061	97.25
374.287	94.25
374.513	83.25
374.739	88.25
374.965	87.25
375.191	90.25
375.416	83.25
375.642	93.25
375.868	93.25
376.094	82.25
376.319	83.25
376.545	92.25
376.771	75.25
376.997	96.25
377.222	85.25
377.448	81.25
377.674	78.25
377.899	80.25
378.125	84.25
378.35	91.25
378.576	95.25
378.802	77.25
379.027	91.25
379.253	83.25
379.478	79.25
379.704	67.25
379.929	90.25
380.155	85.25
380.38	96.25
380.606	88.25
380.831	92.25
381.057	87.25
381.282	95.25
381.507	89.25
381.733	88.25
381.958	100.25
382.184	104.25
382.409	99.25
382.634	97.25
382.86	85.25
383.085	94.25
383.31	97.25
383.535	96.25
383.761	106.25
383.986	90.25
384.211	88.25
384.436	85.25
384.662	89.25
384.887	103.25
385.112	98.25
385.337	98.25
385.562	97.25
385.787	104.25
386.013	107.25
386.238	90.25
386.463	97.25
386.688	101.25
386.913	109.25
387.138	103.25
387.363	98.25
387.588	95.25
387.813	105.25
388.038	97.25
388.263	101.25
388.488	97.25
388.713	78.25
388.938	93.25
389.163	92.25
389.387	87.25
389.612	84.25
389.837	88.25
390.062	88.25
390.287	86.25
390.512	79.25
390.736	87.25
390.961	95.25
391.186	104.25
391.411	106.25
391.636	89.25
391.86	86.25
392.085	82.25
392.31	73.25
392.534	73.25
392.759	94.25
392.984	103.25
393.208	79.25
393.433	81.25
393.658	103.25
393.882	91.25
394.107	83.25
394.331	90.25
394.556	74.25
394.78	82.25
395.005	83.25
395.229	93.25
395.454	83.25
395.678	84.25
395.903	83.25
396.127	89.25
396.352	83.25
396.576	77.25
396.801	95.25
397.025	86.25
397.249	81.25
397.474	78.25
397.698	86.25
397.922	82.25
398.147	83.25
398.371	66.25
398.595	72.25
398.82	79.25
399.044	90.25
399.268	92.25
399.492	103.25
399.717	94.25
399.941	92.25
400.165	92.25
400.389	76.25
400.613	84.25
400.837	80.25
401.062	79.25
401.286	91.25
401.51	91.25
401.734	82.25
401.958	87.25
402.182	115.25
402.406	129.25
402.63	92.25
402.854	90.25
403.078	81.25
403.302	94.25
403.526	92.25
403.75	84.25
403.974	110.25
404.198	71.25
404.422	79.25
404.645	83.25
404.869	99.25
405.093	91.25
405.317	87.25
405.541	84.25
405.765	89.25
405.988	111.25
406.212	165.25
406.436	193.25
406.66	124.25
406.883	95.25
407.107	85.25
407.331	88.25
407.555	83.25
407.778	97.25
408.002	74.25
408.226	92.25
408.449	76.25
408.673	79.25
408.896	76.25
409.12	88.25
409.344	79.25
409.567	86.25
409.791	80.25
410.014	95.25
410.238	97.25
410.461	90.25
410.685	89.25
410.908	88.25
411.132	97.25
411.355	96.25
411.578	98.25
411.802	99.25
412.025	87.25
412.249	83.25
412.472	83.25
412.695	82.25
412.919	83.25
413.142	81.25
413.365	87.25
413.589	90.25
413.812	89.25
414.035	95.25
414.258	96.25
414.482	78.25
414.705	84.25
414.928	89.25
415.151	90.25
415.374	86.25
415.597	89.25
415.821	77.25
416.044	84.25
416.267	88.25
416.49	87.25
416.713	92.25
416.936	85.25
417.159	90.25
417.382	79.25
417.605	93.25
417.828	91.25
418.051	86.25
418.274	98.25
418.497	84.25
418.72	95.25
418.943	85.25
419.166	82.25
419.389	92.25
419.611	78.25
419.834	91.25
420.057	88.25
420.28	72.25
420.503	90.25
420.726	93.25
420.948	91.25
421.171	97.25
421.394	96.25
421.617	101.25
421.839	99.25
422.062	102.25
422.285	96.25
422.507	101.25
422.73	109.25
422.953	99.25
423.175	97.25
423.398	87.25
423.621	79.25
423.843	91.25
424.066	87.25
424.288	75.25
424.511	91.25
424.733	90.25
424.956	102.25
425.178	79.25
425.401	101.25
425.623	109.25
425.846	94.25
426.068	98.25
426.291	80.25
426.513	80.25
426.735	77.25
426.958	94.25
427.18	95.25
427.402	124.25
427.625	140.25
427.847	96.25
428.069	97.25
428.292	79.25
428.514	77.25
428.736	76.25
428.958	80.25
429.181	76.25
429.403	79.25
429.625	77.25
429.847	84.25
430.069	92.25
430.292	101.25
430.514	88.25
430.736	85.25
430.958	83.25
431.18	68.25
431.402	71.25
431.624	68.25
431.846	81.25
432.068	72.25
432.29	76.25
432.512	75.25
432.734	93.25
432.956	87.25
433.178	85.25
433.4	87.25
433.622	88.25
433.844	72.25
434.066	73.25
434.287	88.25
434.509	102.25
434.731	72.25
434.953	76.25
435.175	88.25
435.397	82.25
435.618	91.25
435.84	108.25
436.062	107.25
436.284	97.25
436.505	92.25
436.727	99.25
436.949	93.25
437.17	89.25
437.392	81.25
437.614	96.25
437.835	95.25
438.057	102.25
438.278	97.25
438.5	96.25
438.721	102.25
438.943	87.25
439.165	88.25
439.386	85.25
439.608	79.25
439.829	92.25
440.05	105.25
440.272	119.25
440.493	86.25
440.715	79.25
440.936	86.25
441.158	86.25
441.379	89.25
441.6	98.25
441.822	93.25
442.043	87.25
442.264	89.25
442.486	98.25
442.707	101.25
442.928	104.25
443.149	111.25
443.371	129.25
443.592	108.25
443.813	107.25
444.034	100.25
444.255	100.25
444.476	84.25
444.698	91.25
444.919	77.25
445.14	133.25
445.361	107.25
445.582	101.25
445.803	110.25
446.024	123.25
446.245	113.25
446.466	83.25
446.687	90.25
446.908	81.25
447.129	84.25
447.35	89.25
447.571	99.25
447.792	87.25
448.013	86.25
448.234	102.25
448.455	92.25
448.675	96.25
448.896	104.25
449.117	85.25
449.338	89.25
449.559	113.25
449.779	112.25
450	93.25
450.221	88.25
450.442	95.25
450.662	93.25
450.883	101.25
451.104	85.25
451.324	73.25
451.545	87.25
451.766	88.25
451.986	97.25
452.207	93.25
452.428	77.25
452.648	81.25
452.869	110.25
453.089	99.25
453.31	102.25
453.53	91.25
453.751	83.25
453.971	90.25
454.192	97.25
454.412	81.25
454.633	83.25
454.853	92.25
455.073	73.25
455.294	101.25
455.514	88.25
455.734	90.25
455.955	81.25
456.175	80.25
456.395	79.25
456.616	90.25
456.836	94.25
457.056	83.25
457.276	73.25
457.497	87.25
457.717	84.25
457.937	84.25
458.157	90.25
458.377	104.25
458.598	89.25
458.818	96.25
459.038	132.25
459.258	105.25
459.478	100.25
459.698	92.25
459.918	86.25
460.138	68.25
460.358	83.25
460.578	89.25
460.798	92.25
461.018	84.25
461.238	63.25
461.458	79.25
461.678	76.25
461.898	76.25
462.118	91.25
462.338	88.25
462.558	77.25
462.777	75.25
462.997	84.25
463.217	84.25
463.437	67.25
463.657	81.25
463.876	95.25
464.096	77.25
464.316	82.25
464.536	84.25
464.755	96.25
464.975	105.25
465.195	132.25
465.414	131.25
465.634	90.25
465.854	78.25
466.073	81.25
466.293	77.25
466.512	84.25
466.732	80.25
466.951	85.25
467.171	71.25
467.391	89.25
467.61	102.25
467.829	89.25
468.049	89.25
468.268	87.25
468.488	93.25
468.707	78.25
468.927	83.25
469.146	74.25
469.365	85.25
469.585	91.25
469.804	89.25
470.023	83.25
470.243	93.25
470.462	91.25
470.681	90.25
470.901	92.25
471.12	90.25
471.339	79.25
471.558	87.25
471.777	92.25
471.997	78.25
472.216	74.25
472.435	88.25
472.654	83.25
472.873	82.25
473.092	79.25
473.311	77.25
473.53	87.25
473.749	97.25
473.968	96.25
474.187	83.25
474.406	97.25
474.625	81.25
474.844	69.25
475.063	81.25
475.282	85.25
475.501	87.25
475.72	81.25
475.939	80.25
476.158	77.25
476.377	75.25
476.596	87.25
476.814	93.25
477.033	88.25
477.252	92.25
477.471	94.25
477.69	99.25
477.908	94.25
478.127	82.25
478.346	91.25
478.564	83.25
478.783	86.25
479.002	99.25
479.22	90.25
479.439	100.25
479.658	98.25
479.876	101.25
480.095	83.25
480.313	73.25
480.532	77.25
480.751	79.25
480.969	91.25
481.188	91.25
481.406	85.25
481.624	85.25
481.843	80.25
482.061	62.25
482.28	92.25
482.498	81.25
482.717	79.25
482.935	80.25
483.153	98.25
483.372	85.25
483.59	92.25
483.808	90.25
484.027	86.25
484.245	75.25
484.463	85.25
484.681	113.25
484.9	87.25
485.118	95.25
485.336	87.25
485.554	77.25
485.772	87.25
485.99	99.25
486.209	103.25
486.427	94.25
486.645	96.25
486.863	92.25
487.081	90.25
487.299	94.25
487.517	87.25
487.735	99.25
487.953	93.25
488.171	104.25
488.389	96.25
488.607	71.25
488.825	83.25
489.043	96.25
489.261	85.25
489.479	87.25
489.696	83.25
489.914	84.25
490.132	82.25
490.35	95.25
490.568	83.25
490.786	94.25
491.003	81.25
491.221	91.25
491.439	81.25
491.657	96.25
491.874	88.25
492.092	93.25
492.31	91.25
492.527	105.25
492.745	91.25
492.963	81.25
493.18	96.25
493.398	82.25
493.615	90.25
493.833	91.25
494.05	75.25
494.268	82.25
494.485	95.25
494.703	92.25
494.92	88.25
495.138	89.25
495.355	94.25
495.573	84.25
495.79	90.25
496.008	85.25
496.225	98.25
496.442	89.25
496.66	100.25
496.877	97.25
497.094	86.25
497.312	64.25
497.529	74.25
497.746	82.25
497.963	94.25
498.181	75.25
498.398	93.25
498.615	94.25
498.832	99.25
499.049	82.25
499.267	83.25
499.484	72.25
499.701	84.25
499.918	92.25
500.135	83.25
500.352	91.25
500.569	97.25
500.786	92.25
501.003	90.25
501.22	84.25
501.437	99.25
501.654	77.25
501.871	95.25
502.088	83.25
502.305	89.25
502.522	84.25
502.739	88.25
502.956	100.25
503.172	92.25
503.389	82.25
503.606	102.25
503.823	81.25
504.04	95.25
504.256	94.25
504.473	92.25
504.69	91.25
504.907	82.25
505.123	79.25
505.34	79.25
505.557	86.25
505.773	81.25
505.99	71.25
506.207	91.25
506.423	79.25
506.64	89.25
506.856	98.25
507.073	102.25
507.289	93.25
507.506	96.25
507.722	116.25
507.939	92.25
508.155	98.25
508.372	96.25
508.588	81.25
508.805	92.25
509.021	90.25
509.238	96.25
509.454	93.25
509.67	107.25
509.887	102.25
510.103	127.25
510.319	183.25
510.536	645.25
510.752	1955.25
510.968	535.25
511.184	141.25
511.401	106.25
511.617	102.25
511.833	78.25
512.049	85.25
512.265	92.25
512.481	108.25
512.698	96.25
512.914	84.25
513.13	95.25
513.346	87.25
513.562	82.25
513.778	89.25
513.994	82.25
514.21	81.25
514.426	107.25
514.642	127.25
514.858	109.25
515.074	142.25
515.29	374.25
515.506	1152.25
515.721	415.25
515.937	134.25
516.153	105.25
516.369	97.25
516.585	101.25
516.801	83.25
517.016	104.25
517.232	88.25
517.448	80.25
