Data from Uncirc_1992_H10_HRD10591_00032.txt Node
Date: Wed Jan 03 11:46:22 EST 2024
User: Yrep
Spectrometer: HR+D1059
Trigger mode: 1
Integration Time (sec): 1.000000E-1
Scans to average: 1
Electric dark correction enabled: true
Nonlinearity correction enabled: false
Boxcar width: 0
XAxis mode: Wavelengths
Number of Pixels in Spectrum: 2048
>>>>>Begin Spectral Data<<<<<
223.165	-15.94
223.4	-15.94
223.635	-15.94
223.869	-24.94
224.104	-26.94
224.338	-27.94
224.573	-13.94
224.808	-2.94
225.042	-3.94
225.277	2.06
225.511	-2.94
225.746	3.06
225.98	5.06
226.215	16.06
226.449	22.06
226.683	23.06
226.918	24.06
227.152	24.06
227.387	36.06
227.621	46.06
227.856	38.06
228.09	44.06
228.324	51.06
228.559	65.06
228.793	65.06
229.027	78.06
229.262	69.06
229.496	65.06
229.73	71.06
229.964	64.06
230.199	77.06
230.433	86.06
230.667	90.06
230.901	71.06
231.136	62.06
231.37	67.06
231.604	73.06
231.838	74.06
232.072	75.06
232.306	99.06
232.541	80.06
232.775	80.06
233.009	84.06
233.243	79.06
233.477	77.06
233.711	79.06
233.945	77.06
234.179	76.06
234.413	88.06
234.647	93.06
234.881	84.06
235.115	84.06
235.349	75.06
235.583	83.06
235.817	88.06
236.051	78.06
236.285	79.06
236.519	67.06
236.753	90.06
236.987	76.06
237.221	80.06
237.455	86.06
237.689	79.06
237.922	74.06
238.156	79.06
238.39	67.06
238.624	71.06
238.858	78.06
239.091	79.06
239.325	76.06
239.559	68.06
239.793	99.06
240.027	90.06
240.26	80.06
240.494	69.06
240.728	71.06
240.961	69.06
241.195	93.06
241.429	76.06
241.662	85.06
241.896	74.06
242.13	67.06
242.363	66.06
242.597	75.06
242.83	74.06
243.064	83.06
243.298	78.06
243.531	79.06
243.765	80.06
243.998	96.06
244.232	76.06
244.465	74.06
244.699	86.06
244.932	67.06
245.166	93.06
245.399	86.06
245.633	78.06
245.866	76.06
246.099	80.06
246.333	78.06
246.566	75.06
246.8	82.06
247.033	87.06
247.266	78.06
247.5	78.06
247.733	82.06
247.966	80.06
248.2	86.06
248.433	74.06
248.666	79.06
248.899	88.06
249.133	100.06
249.366	99.06
249.599	98.06
249.832	86.06
250.066	90.06
250.299	83.06
250.532	66.06
250.765	79.06
250.998	78.06
251.231	72.06
251.465	87.06
251.698	90.06
251.931	79.06
252.164	85.06
252.397	80.06
252.63	87.06
252.863	93.06
253.096	77.06
253.329	77.06
253.562	88.06
253.795	82.06
254.028	71.06
254.261	76.06
254.494	65.06
254.727	83.06
254.96	84.06
255.193	80.06
255.426	78.06
255.659	82.06
255.892	73.06
256.124	85.06
256.357	81.06
256.59	91.06
256.823	78.06
257.056	83.06
257.289	84.06
257.521	91.06
257.754	82.06
257.987	82.06
258.22	81.06
258.452	80.06
258.685	101.06
258.918	90.06
259.151	82.06
259.383	76.06
259.616	79.06
259.849	86.06
260.081	80.06
260.314	78.06
260.547	68.06
260.779	62.06
261.012	88.06
261.244	93.06
261.477	92.06
261.71	84.06
261.942	118.06
262.175	100.06
262.407	80.06
262.64	86.06
262.872	84.06
263.105	82.06
263.337	80.06
263.57	91.06
263.802	88.06
264.035	95.06
264.267	100.06
264.499	86.06
264.732	87.06
264.964	84.06
265.197	81.06
265.429	90.06
265.661	92.06
265.894	82.06
266.126	84.06
266.358	93.06
266.591	89.06
266.823	76.06
267.055	97.06
267.287	107.06
267.52	82.06
267.752	94.06
267.984	109.06
268.216	79.06
268.448	75.06
268.681	83.06
268.913	81.06
269.145	77.06
269.377	81.06
269.609	93.06
269.841	90.06
270.073	67.06
270.306	93.06
270.538	86.06
270.77	85.06
271.002	88.06
271.234	92.06
271.466	80.06
271.698	93.06
271.93	77.06
272.162	92.06
272.394	79.06
272.626	79.06
272.858	71.06
273.09	85.06
273.322	89.06
273.553	87.06
273.785	91.06
274.017	94.06
274.249	82.06
274.481	72.06
274.713	86.06
274.945	96.06
275.176	97.06
275.408	78.06
275.64	91.06
275.872	100.06
276.104	98.06
276.335	95.06
276.567	89.06
276.799	94.06
277.031	92.06
277.262	107.06
277.494	95.06
277.726	90.06
277.957	91.06
278.189	92.06
278.421	76.06
278.652	81.06
278.884	80.06
279.115	81.06
279.347	88.06
279.579	95.06
279.81	92.06
280.042	80.06
280.273	76.06
280.505	80.06
280.736	85.06
280.968	90.06
281.199	97.06
281.431	96.06
281.662	89.06
281.894	85.06
282.125	92.06
282.356	124.06
282.588	118.06
282.819	108.06
283.051	86.06
283.282	94.06
283.513	80.06
283.745	92.06
283.976	91.06
284.207	76.06
284.439	92.06
284.67	101.06
284.901	82.06
285.132	71.06
285.364	84.06
285.595	86.06
285.826	82.06
286.057	79.06
286.288	98.06
286.52	98.06
286.751	80.06
286.982	69.06
287.213	84.06
287.444	85.06
287.675	88.06
287.906	103.06
288.138	98.06
288.369	92.06
288.6	100.06
288.831	86.06
289.062	84.06
289.293	87.06
289.524	89.06
289.755	87.06
289.986	90.06
290.217	86.06
290.448	106.06
290.679	99.06
290.91	100.06
291.141	90.06
291.371	80.06
291.602	93.06
291.833	98.06
292.064	88.06
292.295	86.06
292.526	86.06
292.757	79.06
292.987	88.06
293.218	99.06
293.449	90.06
293.68	81.06
293.91	87.06
294.141	93.06
294.372	99.06
294.603	94.06
294.833	95.06
295.064	93.06
295.295	84.06
295.525	90.06
295.756	93.06
295.987	102.06
296.217	131.06
296.448	107.06
296.679	96.06
296.909	84.06
297.14	96.06
297.37	89.06
297.601	92.06
297.831	91.06
298.062	98.06
298.292	100.06
298.523	95.06
298.753	85.06
298.984	90.06
299.214	90.06
299.445	102.06
299.675	89.06
299.905	95.06
300.136	101.06
300.366	94.06
300.597	96.06
300.827	96.06
301.057	93.06
301.288	114.06
301.518	98.06
301.748	90.06
301.979	102.06
302.209	87.06
302.439	85.06
302.669	86.06
302.9	102.06
303.13	100.06
303.36	115.06
303.59	103.06
303.82	102.06
304.051	96.06
304.281	103.06
304.511	104.06
304.741	86.06
304.971	88.06
305.201	82.06
305.431	84.06
305.661	86.06
305.891	93.06
306.121	93.06
306.352	107.06
306.582	107.06
306.812	96.06
307.042	103.06
307.272	79.06
307.502	93.06
307.731	86.06
307.961	95.06
308.191	103.06
308.421	106.06
308.651	86.06
308.881	77.06
309.111	76.06
309.341	99.06
309.571	94.06
309.8	96.06
310.03	106.06
310.26	96.06
310.49	99.06
310.72	94.06
310.949	97.06
311.179	91.06
311.409	106.06
311.639	92.06
311.868	100.06
312.098	97.06
312.328	95.06
312.557	94.06
312.787	103.06
313.017	107.06
313.246	110.06
313.476	87.06
313.706	95.06
313.935	95.06
314.165	91.06
314.394	107.06
314.624	95.06
314.853	84.06
315.083	84.06
315.312	91.06
315.542	89.06
315.771	91.06
316.001	84.06
316.23	83.06
316.46	84.06
316.689	96.06
316.919	97.06
317.148	80.06
317.377	86.06
317.607	101.06
317.836	90.06
318.065	86.06
318.295	86.06
318.524	99.06
318.753	106.06
318.983	91.06
319.212	96.06
319.441	93.06
319.67	105.06
319.9	95.06
320.129	95.06
320.358	94.06
320.587	105.06
320.816	101.06
321.046	97.06
321.275	100.06
321.504	102.06
321.733	103.06
321.962	94.06
322.191	87.06
322.42	120.06
322.649	109.06
322.878	101.06
323.108	117.06
323.337	123.06
323.566	114.06
323.795	129.06
324.024	187.06
324.253	335.06
324.482	666.06
324.71	1378.06
324.939	1740.06
325.168	662.06
325.397	221.06
325.626	147.06
325.855	112.06
326.084	105.06
326.313	133.06
326.542	139.06
326.77	209.06
326.999	381.06
327.228	777.06
327.457	1407.06
327.686	1089.06
327.914	322.06
328.143	165.06
328.372	146.06
328.6	110.06
328.829	110.06
329.058	101.06
329.287	123.06
329.515	114.06
329.744	108.06
329.972	106.06
330.201	94.06
330.43	87.06
330.658	105.06
330.887	120.06
331.115	106.06
331.344	107.06
331.572	89.06
331.801	91.06
332.03	102.06
332.258	108.06
332.486	89.06
332.715	100.06
332.943	108.06
333.172	92.06
333.4	112.06
333.629	92.06
333.857	95.06
334.085	97.06
334.314	94.06
334.542	105.06
334.771	90.06
334.999	85.06
335.227	95.06
335.455	87.06
335.684	80.06
335.912	105.06
336.14	93.06
336.369	97.06
336.597	99.06
336.825	98.06
337.053	102.06
337.281	67.06
337.51	91.06
337.738	100.06
337.966	101.06
338.194	98.06
338.422	103.06
338.65	95.06
338.878	92.06
339.106	77.06
339.334	98.06
339.562	94.06
339.79	87.06
340.018	83.06
340.246	107.06
340.474	79.06
340.702	94.06
340.93	95.06
341.158	92.06
341.386	96.06
341.614	97.06
341.842	91.06
342.07	92.06
342.298	86.06
342.526	74.06
342.754	82.06
342.981	94.06
343.209	95.06
343.437	110.06
343.665	84.06
343.893	95.06
344.12	89.06
344.348	87.06
344.576	100.06
344.804	102.06
345.031	92.06
345.259	101.06
345.487	100.06
345.714	92.06
345.942	98.06
346.17	96.06
346.397	104.06
346.625	98.06
346.853	86.06
347.08	69.06
347.308	97.06
347.535	100.06
347.763	91.06
347.99	96.06
348.218	102.06
348.445	100.06
348.673	87.06
348.9	92.06
349.128	101.06
349.355	86.06
349.583	92.06
349.81	96.06
350.037	112.06
350.265	83.06
350.492	112.06
350.72	102.06
350.947	103.06
351.174	116.06
351.402	124.06
351.629	105.06
351.856	100.06
352.083	94.06
352.311	98.06
352.538	108.06
352.765	99.06
352.992	88.06
353.22	113.06
353.447	101.06
353.674	110.06
353.901	102.06
354.128	88.06
354.355	95.06
354.583	104.06
354.81	103.06
355.037	103.06
355.264	76.06
355.491	92.06
355.718	99.06
355.945	78.06
356.172	92.06
356.399	120.06
356.626	76.06
356.853	107.06
357.08	99.06
357.307	93.06
357.534	103.06
357.761	87.06
357.988	95.06
358.215	107.06
358.441	104.06
358.668	101.06
358.895	88.06
359.122	87.06
359.349	94.06
359.576	91.06
359.802	88.06
360.029	103.06
360.256	111.06
360.483	110.06
360.709	90.06
360.936	90.06
361.163	105.06
361.39	89.06
361.616	96.06
361.843	80.06
362.07	95.06
362.296	99.06
362.523	95.06
362.749	76.06
362.976	91.06
363.203	79.06
363.429	92.06
363.656	80.06
363.882	78.06
364.109	86.06
364.335	103.06
364.562	90.06
364.788	93.06
365.015	88.06
365.241	96.06
365.468	92.06
365.694	104.06
365.92	95.06
366.147	96.06
366.373	84.06
366.599	80.06
366.826	76.06
367.052	92.06
367.278	87.06
367.505	89.06
367.731	81.06
367.957	114.06
368.184	94.06
368.41	107.06
368.636	112.06
368.862	118.06
369.089	105.06
369.315	100.06
369.541	96.06
369.767	94.06
369.993	92.06
370.219	96.06
370.445	90.06
370.672	93.06
370.898	90.06
371.124	72.06
371.35	98.06
371.576	84.06
371.802	97.06
372.028	90.06
372.254	87.06
372.48	95.06
372.706	98.06
372.932	94.06
373.158	78.06
373.384	88.06
373.61	87.06
373.835	86.06
374.061	99.06
374.287	98.06
374.513	108.06
374.739	94.06
374.965	83.06
375.191	94.06
375.416	92.06
375.642	93.06
375.868	102.06
376.094	102.06
376.319	94.06
376.545	86.06
376.771	94.06
376.997	90.06
377.222	111.06
377.448	103.06
377.674	95.06
377.899	92.06
378.125	98.06
378.35	93.06
378.576	86.06
378.802	98.06
379.027	84.06
379.253	82.06
379.478	87.06
379.704	107.06
379.929	109.06
380.155	101.06
380.38	88.06
380.606	82.06
380.831	93.06
381.057	95.06
381.282	101.06
381.507	86.06
381.733	106.06
381.958	91.06
382.184	99.06
382.409	105.06
382.634	98.06
382.86	88.06
383.085	97.06
383.31	90.06
383.535	106.06
383.761	90.06
383.986	104.06
384.211	99.06
384.436	94.06
384.662	96.06
384.887	96.06
385.112	104.06
385.337	122.06
385.562	97.06
385.787	97.06
386.013	114.06
386.238	112.06
386.463	107.06
386.688	118.06
386.913	100.06
387.138	118.06
387.363	112.06
387.588	110.06
387.813	100.06
388.038	115.06
388.263	110.06
388.488	115.06
388.713	96.06
388.938	96.06
389.163	97.06
389.387	91.06
389.612	96.06
389.837	93.06
390.062	92.06
390.287	92.06
390.512	88.06
390.736	103.06
390.961	90.06
391.186	104.06
391.411	104.06
391.636	85.06
391.86	91.06
392.085	93.06
392.31	75.06
392.534	91.06
392.759	93.06
392.984	89.06
393.208	94.06
393.433	95.06
393.658	87.06
393.882	91.06
394.107	85.06
394.331	97.06
394.556	93.06
394.78	84.06
395.005	83.06
395.229	83.06
395.454	81.06
395.678	83.06
395.903	90.06
396.127	85.06
396.352	85.06
396.576	91.06
396.801	99.06
397.025	89.06
397.249	80.06
397.474	93.06
397.698	81.06
397.922	75.06
398.147	92.06
398.371	87.06
398.595	86.06
398.82	88.06
399.044	93.06
399.268	94.06
399.492	79.06
399.717	90.06
399.941	100.06
400.165	96.06
400.389	76.06
400.613	93.06
400.837	94.06
401.062	94.06
401.286	86.06
401.51	97.06
401.734	95.06
401.958	105.06
402.182	130.06
402.406	152.06
402.63	102.06
402.854	81.06
403.078	76.06
403.302	76.06
403.526	89.06
403.75	84.06
403.974	90.06
404.198	104.06
404.422	86.06
404.645	80.06
404.869	100.06
405.093	94.06
405.317	85.06
405.541	94.06
405.765	111.06
405.988	111.06
406.212	147.06
406.436	198.06
406.66	135.06
406.883	99.06
407.107	96.06
407.331	80.06
407.555	90.06
407.778	97.06
408.002	87.06
408.226	99.06
408.449	88.06
408.673	76.06
408.896	96.06
409.12	110.06
409.344	92.06
409.567	92.06
409.791	90.06
410.014	90.06
410.238	81.06
410.461	104.06
410.685	99.06
410.908	119.06
411.132	112.06
411.355	105.06
411.578	102.06
411.802	103.06
412.025	80.06
412.249	86.06
412.472	93.06
412.695	82.06
412.919	86.06
413.142	90.06
413.365	87.06
413.589	84.06
413.812	93.06
414.035	106.06
414.258	99.06
414.482	94.06
414.705	95.06
414.928	90.06
415.151	91.06
415.374	91.06
415.597	98.06
415.821	84.06
416.044	87.06
416.267	83.06
416.49	89.06
416.713	94.06
416.936	94.06
417.159	98.06
417.382	83.06
417.605	93.06
417.828	102.06
418.051	84.06
418.274	91.06
418.497	91.06
418.72	97.06
418.943	104.06
419.166	95.06
419.389	101.06
419.611	85.06
419.834	109.06
420.057	86.06
420.28	98.06
420.503	87.06
420.726	98.06
420.948	90.06
421.171	92.06
421.394	82.06
421.617	103.06
421.839	80.06
422.062	89.06
422.285	90.06
422.507	97.06
422.73	87.06
422.953	92.06
423.175	87.06
423.398	84.06
423.621	84.06
423.843	82.06
424.066	83.06
424.288	91.06
424.511	91.06
424.733	95.06
424.956	92.06
425.178	98.06
425.401	96.06
425.623	96.06
425.846	102.06
426.068	91.06
426.291	97.06
426.513	86.06
426.735	86.06
426.958	86.06
427.18	86.06
427.402	126.06
427.625	133.06
427.847	130.06
428.069	99.06
428.292	78.06
428.514	90.06
428.736	78.06
428.958	76.06
429.181	87.06
429.403	94.06
429.625	92.06
429.847	88.06
430.069	90.06
430.292	91.06
430.514	87.06
430.736	88.06
430.958	79.06
431.18	91.06
431.402	88.06
431.624	104.06
431.846	95.06
432.068	80.06
432.29	83.06
432.512	90.06
432.734	80.06
432.956	99.06
433.178	99.06
433.4	91.06
433.622	94.06
433.844	98.06
434.066	87.06
434.287	100.06
434.509	76.06
434.731	98.06
434.953	108.06
435.175	103.06
435.397	90.06
435.618	78.06
435.84	86.06
436.062	94.06
436.284	93.06
436.505	94.06
436.727	90.06
436.949	99.06
437.17	83.06
437.392	78.06
437.614	82.06
437.835	101.06
438.057	96.06
438.278	104.06
438.5	101.06
438.721	102.06
438.943	112.06
439.165	98.06
439.386	84.06
439.608	90.06
439.829	86.06
440.05	126.06
440.272	118.06
440.493	95.06
440.715	95.06
440.936	97.06
441.158	83.06
441.379	77.06
441.6	77.06
441.822	90.06
442.043	90.06
442.264	99.06
442.486	102.06
442.707	87.06
442.928	109.06
443.149	120.06
443.371	116.06
443.592	109.06
443.813	114.06
444.034	100.06
444.255	88.06
444.476	84.06
444.698	93.06
444.919	84.06
445.14	140.06
445.361	111.06
445.582	108.06
445.803	116.06
446.024	119.06
446.245	130.06
446.466	112.06
446.687	93.06
446.908	99.06
447.129	87.06
447.35	85.06
447.571	87.06
447.792	83.06
448.013	93.06
448.234	123.06
448.455	101.06
448.675	104.06
448.896	97.06
449.117	84.06
449.338	112.06
449.559	113.06
449.779	111.06
450	98.06
450.221	91.06
450.442	91.06
450.662	87.06
450.883	104.06
451.104	118.06
451.324	96.06
451.545	86.06
451.766	99.06
451.986	82.06
452.207	78.06
452.428	97.06
452.648	97.06
452.869	91.06
453.089	112.06
453.31	116.06
453.53	101.06
453.751	85.06
453.971	101.06
454.192	115.06
454.412	100.06
454.633	83.06
454.853	88.06
455.073	78.06
455.294	105.06
455.514	96.06
455.734	99.06
455.955	89.06
456.175	93.06
456.395	86.06
456.616	62.06
456.836	85.06
457.056	68.06
457.276	76.06
457.497	85.06
457.717	78.06
457.937	83.06
458.157	88.06
458.377	93.06
458.598	100.06
458.818	121.06
459.038	141.06
459.258	104.06
459.478	71.06
459.698	88.06
459.918	90.06
460.138	94.06
460.358	89.06
460.578	98.06
460.798	94.06
461.018	85.06
461.238	81.06
461.458	84.06
461.678	83.06
461.898	85.06
462.118	92.06
462.338	88.06
462.558	91.06
462.777	90.06
462.997	86.06
463.217	87.06
463.437	86.06
463.657	90.06
463.876	85.06
464.096	94.06
464.316	88.06
464.536	96.06
464.755	112.06
464.975	108.06
465.195	146.06
465.414	126.06
465.634	104.06
465.854	103.06
466.073	93.06
466.293	91.06
466.512	90.06
466.732	94.06
466.951	84.06
467.171	93.06
467.391	115.06
467.61	93.06
467.829	94.06
468.049	85.06
468.268	79.06
468.488	95.06
468.707	78.06
468.927	83.06
469.146	82.06
469.365	91.06
469.585	92.06
469.804	95.06
470.023	99.06
470.243	96.06
470.462	100.06
470.681	91.06
470.901	85.06
471.12	84.06
471.339	88.06
471.558	84.06
471.777	79.06
471.997	104.06
472.216	90.06
472.435	99.06
472.654	91.06
472.873	82.06
473.092	85.06
473.311	84.06
473.53	75.06
473.749	97.06
473.968	106.06
474.187	95.06
474.406	110.06
474.625	83.06
474.844	79.06
475.063	98.06
475.282	87.06
475.501	86.06
475.72	84.06
475.939	91.06
476.158	95.06
476.377	83.06
476.596	87.06
476.814	94.06
477.033	82.06
477.252	76.06
477.471	98.06
477.69	89.06
477.908	102.06
478.127	92.06
478.346	87.06
478.564	86.06
478.783	84.06
479.002	97.06
479.22	76.06
479.439	91.06
479.658	95.06
479.876	98.06
480.095	88.06
480.313	98.06
480.532	87.06
480.751	92.06
480.969	80.06
481.188	108.06
481.406	97.06
481.624	117.06
481.843	110.06
482.061	86.06
482.28	90.06
482.498	100.06
482.717	94.06
482.935	100.06
483.153	88.06
483.372	92.06
483.59	95.06
483.808	95.06
484.027	96.06
484.245	99.06
484.463	99.06
484.681	106.06
484.9	92.06
485.118	103.06
485.336	91.06
485.554	95.06
485.772	110.06
485.99	100.06
486.209	106.06
486.427	103.06
486.645	98.06
486.863	92.06
487.081	99.06
487.299	84.06
487.517	93.06
487.735	93.06
487.953	81.06
488.171	80.06
488.389	105.06
488.607	101.06
488.825	91.06
489.043	86.06
489.261	94.06
489.479	86.06
489.696	79.06
489.914	94.06
490.132	88.06
490.35	93.06
490.568	87.06
490.786	97.06
491.003	89.06
491.221	96.06
491.439	87.06
491.657	99.06
491.874	106.06
492.092	103.06
492.31	99.06
492.527	102.06
492.745	96.06
492.963	106.06
493.18	84.06
493.398	90.06
493.615	101.06
493.833	99.06
494.05	95.06
494.268	93.06
494.485	97.06
494.703	94.06
494.92	104.06
495.138	95.06
495.355	100.06
495.573	84.06
495.79	102.06
496.008	91.06
496.225	103.06
496.442	99.06
496.66	91.06
496.877	97.06
497.094	92.06
497.312	90.06
497.529	90.06
497.746	81.06
497.963	97.06
498.181	101.06
498.398	105.06
498.615	109.06
498.832	95.06
499.049	92.06
499.267	86.06
499.484	103.06
499.701	87.06
499.918	98.06
500.135	87.06
500.352	92.06
500.569	100.06
500.786	94.06
501.003	94.06
501.22	96.06
501.437	96.06
501.654	90.06
501.871	101.06
502.088	80.06
502.305	81.06
502.522	95.06
502.739	110.06
502.956	108.06
503.172	76.06
503.389	102.06
503.606	98.06
503.823	82.06
504.04	91.06
504.256	88.06
504.473	86.06
504.69	97.06
504.907	87.06
505.123	88.06
505.34	91.06
505.557	100.06
505.773	88.06
505.99	85.06
506.207	99.06
506.423	93.06
506.64	100.06
506.856	92.06
507.073	81.06
507.289	96.06
507.506	100.06
507.722	105.06
507.939	107.06
508.155	99.06
508.372	89.06
508.588	97.06
508.805	100.06
509.021	94.06
509.238	111.06
509.454	93.06
509.67	90.06
509.887	111.06
510.103	135.06
510.319	198.06
510.536	684.06
510.752	1994.06
510.968	526.06
511.184	146.06
511.401	92.06
511.617	86.06
511.833	91.06
512.049	94.06
512.265	96.06
512.481	87.06
512.698	83.06
512.914	93.06
513.13	92.06
513.346	98.06
513.562	97.06
513.778	97.06
513.994	93.06
514.21	93.06
514.426	112.06
514.642	118.06
514.858	122.06
515.074	153.06
515.29	386.06
515.506	1185.06
515.721	434.06
