Data from Uncirc_1992_H10_HRD10591_00023.txt Node
Date: Wed Jan 03 11:46:20 EST 2024
User: Yrep
Spectrometer: HR+D1059
Trigger mode: 1
Integration Time (sec): 1.000000E-1
Scans to average: 1
Electric dark correction enabled: true
Nonlinearity correction enabled: false
Boxcar width: 0
XAxis mode: Wavelengths
Number of Pixels in Spectrum: 2048
>>>>>Begin Spectral Data<<<<<
223.165	-18.38
223.4	-18.38
223.635	-18.38
223.869	-29.38
224.104	-20.38
224.338	-17.38
224.573	-12.38
224.808	-7.38
225.042	-17.38
225.277	1.62
225.511	5.62
225.746	0.62
225.98	11.62
226.215	13.62
226.449	17.62
226.683	22.62
226.918	19.62
227.152	29.62
227.387	35.62
227.621	33.62
227.856	26.62
228.09	29.62
228.324	49.62
228.559	47.62
228.793	56.62
229.027	60.62
229.262	56.62
229.496	66.62
229.73	74.62
229.964	83.62
230.199	71.62
230.433	63.62
230.667	79.62
230.901	79.62
231.136	75.62
231.37	76.62
231.604	78.62
231.838	72.62
232.072	60.62
232.306	71.62
232.541	81.62
232.775	81.62
233.009	72.62
233.243	60.62
233.477	67.62
233.711	84.62
233.945	82.62
234.179	80.62
234.413	70.62
234.647	69.62
234.881	61.62
235.115	90.62
235.349	71.62
235.583	62.62
235.817	71.62
236.051	80.62
236.285	53.62
236.519	73.62
236.753	48.62
236.987	63.62
237.221	88.62
237.455	80.62
237.689	73.62
237.922	74.62
238.156	77.62
238.39	69.62
238.624	70.62
238.858	73.62
239.091	75.62
239.325	73.62
239.559	69.62
239.793	62.62
240.027	81.62
240.26	76.62
240.494	76.62
240.728	74.62
240.961	82.62
241.195	70.62
241.429	78.62
241.662	73.62
241.896	61.62
242.13	68.62
242.363	74.62
242.597	69.62
242.83	97.62
243.064	88.62
243.298	67.62
243.531	66.62
243.765	67.62
243.998	73.62
244.232	60.62
244.465	73.62
244.699	77.62
244.932	65.62
245.166	72.62
245.399	60.62
245.633	77.62
245.866	60.62
246.099	53.62
246.333	82.62
246.566	73.62
246.8	59.62
247.033	83.62
247.266	71.62
247.5	66.62
247.733	68.62
247.966	69.62
248.2	63.62
248.433	70.62
248.666	76.62
248.899	73.62
249.133	75.62
249.366	87.62
249.599	93.62
249.832	65.62
250.066	83.62
250.299	73.62
250.532	76.62
250.765	81.62
250.998	72.62
251.231	74.62
251.465	70.62
251.698	80.62
251.931	78.62
252.164	76.62
252.397	81.62
252.63	74.62
252.863	73.62
253.096	86.62
253.329	83.62
253.562	79.62
253.795	77.62
254.028	60.62
254.261	79.62
254.494	81.62
254.727	85.62
254.96	75.62
255.193	85.62
255.426	77.62
255.659	77.62
255.892	57.62
256.124	73.62
256.357	82.62
256.59	78.62
256.823	84.62
257.056	85.62
257.289	78.62
257.521	85.62
257.754	90.62
257.987	88.62
258.22	81.62
258.452	73.62
258.685	71.62
258.918	80.62
259.151	77.62
259.383	74.62
259.616	75.62
259.849	89.62
260.081	81.62
260.314	59.62
260.547	85.62
260.779	52.62
261.012	79.62
261.244	65.62
261.477	82.62
261.71	86.62
261.942	110.62
262.175	103.62
262.407	82.62
262.64	77.62
262.872	76.62
263.105	88.62
263.337	75.62
263.57	78.62
263.802	75.62
264.035	82.62
264.267	83.62
264.499	90.62
264.732	81.62
264.964	89.62
265.197	73.62
265.429	76.62
265.661	94.62
265.894	88.62
266.126	90.62
266.358	77.62
266.591	86.62
266.823	82.62
267.055	95.62
267.287	87.62
267.52	82.62
267.752	86.62
267.984	81.62
268.216	62.62
268.448	82.62
268.681	87.62
268.913	74.62
269.145	73.62
269.377	87.62
269.609	63.62
269.841	78.62
270.073	74.62
270.306	73.62
270.538	94.62
270.77	70.62
271.002	86.62
271.234	89.62
271.466	94.62
271.698	85.62
271.93	77.62
272.162	78.62
272.394	69.62
272.626	57.62
272.858	60.62
273.09	88.62
273.322	90.62
273.553	77.62
273.785	70.62
274.017	69.62
274.249	75.62
274.481	69.62
274.713	71.62
274.945	88.62
275.176	78.62
275.408	86.62
275.64	82.62
275.872	80.62
276.104	87.62
276.335	86.62
276.567	93.62
276.799	103.62
277.031	90.62
277.262	69.62
277.494	82.62
277.726	84.62
277.957	83.62
278.189	81.62
278.421	94.62
278.652	85.62
278.884	78.62
279.115	85.62
279.347	94.62
279.579	82.62
279.81	92.62
280.042	80.62
280.273	82.62
280.505	88.62
280.736	83.62
280.968	82.62
281.199	84.62
281.431	89.62
281.662	94.62
281.894	95.62
282.125	89.62
282.356	89.62
282.588	122.62
282.819	106.62
283.051	88.62
283.282	78.62
283.513	75.62
283.745	89.62
283.976	94.62
284.207	69.62
284.439	75.62
284.67	87.62
284.901	83.62
285.132	78.62
285.364	89.62
285.595	90.62
285.826	94.62
286.057	86.62
286.288	78.62
286.52	72.62
286.751	74.62
286.982	79.62
287.213	77.62
287.444	74.62
287.675	88.62
287.906	78.62
288.138	85.62
288.369	81.62
288.6	89.62
288.831	81.62
289.062	69.62
289.293	67.62
289.524	65.62
289.755	85.62
289.986	89.62
290.217	105.62
290.448	83.62
290.679	73.62
290.91	89.62
291.141	81.62
291.371	90.62
291.602	84.62
291.833	85.62
292.064	82.62
292.295	78.62
292.526	66.62
292.757	83.62
292.987	74.62
293.218	89.62
293.449	85.62
293.68	73.62
293.91	82.62
294.141	92.62
294.372	69.62
294.603	89.62
294.833	89.62
295.064	88.62
295.295	94.62
295.525	82.62
295.756	94.62
295.987	116.62
296.217	106.62
296.448	102.62
296.679	90.62
296.909	86.62
297.14	81.62
297.37	80.62
297.601	67.62
297.831	80.62
298.062	88.62
298.292	86.62
298.523	77.62
298.753	79.62
298.984	80.62
299.214	71.62
299.445	94.62
299.675	77.62
299.905	101.62
300.136	77.62
300.366	75.62
300.597	79.62
300.827	91.62
301.057	74.62
301.288	88.62
301.518	99.62
301.748	102.62
301.979	90.62
302.209	100.62
302.439	85.62
302.669	78.62
302.9	90.62
303.13	83.62
303.36	93.62
303.59	89.62
303.82	90.62
304.051	90.62
304.281	94.62
304.511	93.62
304.741	82.62
304.971	78.62
305.201	87.62
305.431	94.62
305.661	77.62
305.891	77.62
306.121	85.62
306.352	87.62
306.582	98.62
306.812	96.62
307.042	81.62
307.272	98.62
307.502	93.62
307.731	84.62
307.961	88.62
308.191	87.62
308.421	94.62
308.651	104.62
308.881	88.62
309.111	82.62
309.341	86.62
309.571	96.62
309.8	90.62
310.03	81.62
310.26	97.62
310.49	95.62
310.72	88.62
310.949	84.62
311.179	105.62
311.409	83.62
311.639	84.62
311.868	93.62
312.098	95.62
312.328	87.62
312.557	81.62
312.787	90.62
313.017	90.62
313.246	86.62
313.476	86.62
313.706	90.62
313.935	95.62
314.165	79.62
314.394	89.62
314.624	84.62
314.853	91.62
315.083	88.62
315.312	90.62
315.542	91.62
315.771	77.62
316.001	80.62
316.23	75.62
316.46	83.62
316.689	90.62
316.919	96.62
317.148	101.62
317.377	85.62
317.607	91.62
317.836	73.62
318.065	86.62
318.295	99.62
318.524	91.62
318.753	95.62
318.983	89.62
319.212	90.62
319.441	95.62
319.67	94.62
319.9	80.62
320.129	92.62
320.358	96.62
320.587	95.62
320.816	75.62
321.046	95.62
321.275	80.62
321.504	89.62
321.733	78.62
321.962	93.62
322.191	103.62
322.42	96.62
322.649	99.62
322.878	81.62
323.108	97.62
323.337	103.62
323.566	96.62
323.795	136.62
324.024	161.62
324.253	292.62
324.482	610.62
324.71	1200.62
324.939	1564.62
325.168	606.62
325.397	190.62
325.626	132.62
325.855	96.62
326.084	101.62
326.313	108.62
326.542	125.62
326.77	169.62
326.999	352.62
327.228	703.62
327.457	1248.62
327.686	985.62
327.914	296.62
328.143	151.62
328.372	135.62
328.6	110.62
328.829	103.62
329.058	97.62
329.287	106.62
329.515	97.62
329.744	90.62
329.972	94.62
330.201	95.62
330.43	99.62
330.658	106.62
330.887	110.62
331.115	102.62
331.344	96.62
331.572	85.62
331.801	93.62
332.03	97.62
332.258	96.62
332.486	88.62
332.715	85.62
332.943	82.62
333.172	95.62
333.4	86.62
333.629	83.62
333.857	96.62
334.085	86.62
334.314	88.62
334.542	88.62
334.771	90.62
334.999	106.62
335.227	85.62
335.455	79.62
335.684	102.62
335.912	92.62
336.14	86.62
336.369	96.62
336.597	88.62
336.825	87.62
337.053	84.62
337.281	89.62
337.51	91.62
337.738	88.62
337.966	94.62
338.194	87.62
338.422	95.62
338.65	91.62
338.878	89.62
339.106	89.62
339.334	83.62
339.562	99.62
339.79	94.62
340.018	76.62
340.246	106.62
340.474	91.62
340.702	99.62
340.93	76.62
341.158	98.62
341.386	89.62
341.614	86.62
341.842	93.62
342.07	94.62
342.298	85.62
342.526	82.62
342.754	83.62
342.981	99.62
343.209	92.62
343.437	100.62
343.665	84.62
343.893	92.62
344.12	80.62
344.348	60.62
344.576	74.62
344.804	76.62
345.031	79.62
345.259	90.62
345.487	89.62
345.714	95.62
345.942	101.62
346.17	81.62
346.397	80.62
346.625	80.62
346.853	85.62
347.08	91.62
347.308	81.62
347.535	101.62
347.763	91.62
347.99	100.62
348.218	101.62
348.445	99.62
348.673	92.62
348.9	89.62
349.128	94.62
349.355	97.62
349.583	87.62
349.81	88.62
350.037	98.62
350.265	93.62
350.492	86.62
350.72	92.62
350.947	78.62
351.174	98.62
351.402	100.62
351.629	117.62
351.856	91.62
352.083	96.62
352.311	101.62
352.538	92.62
352.765	100.62
352.992	99.62
353.22	110.62
353.447	102.62
353.674	93.62
353.901	92.62
354.128	101.62
354.355	96.62
354.583	96.62
354.81	91.62
355.037	88.62
355.264	89.62
355.491	105.62
355.718	85.62
355.945	83.62
356.172	93.62
356.399	88.62
356.626	96.62
356.853	89.62
357.08	87.62
357.307	96.62
357.534	94.62
357.761	80.62
357.988	96.62
358.215	112.62
358.441	83.62
358.668	89.62
358.895	77.62
359.122	73.62
359.349	70.62
359.576	83.62
359.802	91.62
360.029	107.62
360.256	80.62
360.483	86.62
360.709	87.62
360.936	83.62
361.163	89.62
361.39	100.62
361.616	81.62
361.843	70.62
362.07	88.62
362.296	83.62
362.523	93.62
362.749	87.62
362.976	89.62
363.203	92.62
363.429	82.62
363.656	98.62
363.882	91.62
364.109	100.62
364.335	82.62
364.562	95.62
364.788	82.62
365.015	93.62
365.241	84.62
365.468	96.62
365.694	90.62
365.92	88.62
366.147	105.62
366.373	96.62
366.599	72.62
366.826	78.62
367.052	93.62
367.278	95.62
367.505	98.62
367.731	92.62
367.957	88.62
368.184	90.62
368.41	87.62
368.636	104.62
368.862	109.62
369.089	97.62
369.315	92.62
369.541	84.62
369.767	82.62
369.993	73.62
370.219	82.62
370.445	84.62
370.672	89.62
370.898	88.62
371.124	85.62
371.35	86.62
371.576	81.62
371.802	77.62
372.028	93.62
372.254	96.62
372.48	85.62
372.706	74.62
372.932	82.62
373.158	87.62
373.384	85.62
373.61	86.62
373.835	91.62
374.061	66.62
374.287	76.62
374.513	91.62
374.739	86.62
374.965	102.62
375.191	91.62
375.416	73.62
375.642	81.62
375.868	80.62
376.094	87.62
376.319	90.62
376.545	79.62
376.771	100.62
376.997	81.62
377.222	74.62
377.448	109.62
377.674	84.62
377.899	77.62
378.125	78.62
378.35	85.62
378.576	96.62
378.802	80.62
379.027	83.62
379.253	92.62
379.478	72.62
379.704	89.62
379.929	100.62
380.155	75.62
380.38	81.62
380.606	85.62
380.831	84.62
381.057	87.62
381.282	88.62
381.507	96.62
381.733	106.62
381.958	85.62
382.184	85.62
382.409	80.62
382.634	89.62
382.86	102.62
383.085	99.62
383.31	88.62
383.535	98.62
383.761	87.62
383.986	99.62
384.211	94.62
384.436	78.62
384.662	97.62
384.887	86.62
385.112	90.62
385.337	86.62
385.562	94.62
385.787	91.62
386.013	96.62
386.238	105.62
386.463	89.62
386.688	92.62
386.913	102.62
387.138	109.62
387.363	96.62
387.588	93.62
387.813	78.62
388.038	103.62
388.263	104.62
388.488	100.62
388.713	93.62
388.938	91.62
389.163	92.62
389.387	96.62
389.612	81.62
389.837	80.62
390.062	82.62
390.287	105.62
390.512	88.62
390.736	92.62
390.961	89.62
391.186	86.62
391.411	83.62
391.636	88.62
391.86	98.62
392.085	96.62
392.31	86.62
392.534	75.62
392.759	81.62
392.984	87.62
393.208	82.62
393.433	94.62
393.658	86.62
393.882	71.62
394.107	88.62
394.331	83.62
394.556	76.62
394.78	82.62
395.005	91.62
395.229	75.62
395.454	82.62
395.678	95.62
395.903	82.62
396.127	89.62
396.352	81.62
396.576	71.62
396.801	78.62
397.025	85.62
397.249	69.62
397.474	94.62
397.698	83.62
397.922	90.62
398.147	88.62
398.371	69.62
398.595	62.62
398.82	92.62
399.044	91.62
399.268	87.62
399.492	87.62
399.717	81.62
399.941	73.62
400.165	88.62
400.389	76.62
400.613	81.62
400.837	86.62
401.062	97.62
401.286	83.62
401.51	95.62
401.734	68.62
401.958	87.62
402.182	102.62
402.406	122.62
402.63	96.62
402.854	81.62
403.078	83.62
403.302	94.62
403.526	107.62
403.75	86.62
403.974	83.62
404.198	91.62
404.422	85.62
404.645	81.62
404.869	91.62
405.093	93.62
405.317	95.62
405.541	89.62
405.765	87.62
405.988	110.62
406.212	140.62
406.436	177.62
406.66	124.62
406.883	94.62
407.107	88.62
407.331	90.62
407.555	83.62
407.778	90.62
408.002	83.62
408.226	96.62
408.449	83.62
408.673	84.62
408.896	98.62
409.12	99.62
409.344	79.62
409.567	80.62
409.791	97.62
410.014	104.62
410.238	85.62
410.461	91.62
410.685	80.62
410.908	99.62
411.132	99.62
411.355	96.62
411.578	94.62
411.802	75.62
412.025	81.62
412.249	89.62
412.472	93.62
412.695	78.62
412.919	90.62
413.142	76.62
413.365	83.62
413.589	79.62
413.812	83.62
414.035	87.62
414.258	86.62
414.482	98.62
414.705	91.62
414.928	85.62
415.151	89.62
415.374	83.62
415.597	86.62
415.821	81.62
416.044	79.62
416.267	97.62
416.49	98.62
416.713	94.62
416.936	87.62
417.159	80.62
417.382	73.62
417.605	93.62
417.828	75.62
418.051	78.62
418.274	93.62
418.497	80.62
418.72	87.62
418.943	88.62
419.166	73.62
419.389	73.62
419.611	83.62
419.834	94.62
420.057	73.62
420.28	83.62
420.503	82.62
420.726	91.62
420.948	91.62
421.171	78.62
421.394	103.62
421.617	92.62
421.839	71.62
422.062	81.62
422.285	94.62
422.507	91.62
422.73	93.62
422.953	81.62
423.175	91.62
423.398	85.62
423.621	90.62
423.843	74.62
424.066	75.62
424.288	80.62
424.511	88.62
424.733	102.62
424.956	105.62
425.178	83.62
425.401	84.62
425.623	82.62
425.846	73.62
426.068	85.62
426.291	86.62
426.513	70.62
426.735	86.62
426.958	93.62
427.18	90.62
427.402	114.62
427.625	136.62
427.847	115.62
428.069	95.62
428.292	67.62
428.514	87.62
428.736	80.62
428.958	92.62
429.181	86.62
429.403	81.62
429.625	76.62
429.847	79.62
430.069	91.62
430.292	94.62
430.514	87.62
430.736	87.62
430.958	86.62
431.18	86.62
431.402	87.62
431.624	79.62
431.846	75.62
432.068	87.62
432.29	87.62
432.512	97.62
432.734	80.62
432.956	91.62
433.178	88.62
433.4	96.62
433.622	78.62
433.844	67.62
434.066	88.62
434.287	87.62
434.509	90.62
434.731	73.62
434.953	90.62
435.175	82.62
435.397	90.62
435.618	76.62
435.84	81.62
436.062	112.62
436.284	91.62
436.505	106.62
436.727	95.62
436.949	85.62
437.17	94.62
437.392	81.62
437.614	86.62
437.835	96.62
438.057	104.62
438.278	94.62
438.5	96.62
438.721	94.62
438.943	92.62
439.165	65.62
439.386	77.62
439.608	91.62
439.829	90.62
440.05	102.62
440.272	114.62
440.493	101.62
440.715	77.62
440.936	83.62
441.158	82.62
441.379	86.62
441.6	92.62
441.822	86.62
442.043	82.62
442.264	97.62
442.486	83.62
442.707	85.62
442.928	105.62
443.149	106.62
443.371	102.62
443.592	87.62
443.813	107.62
444.034	101.62
444.255	102.62
444.476	81.62
444.698	84.62
444.919	93.62
445.14	132.62
445.361	132.62
445.582	105.62
445.803	123.62
446.024	109.62
446.245	101.62
446.466	95.62
446.687	79.62
446.908	79.62
447.129	78.62
447.35	82.62
447.571	86.62
447.792	97.62
448.013	98.62
448.234	110.62
448.455	98.62
448.675	97.62
448.896	102.62
449.117	104.62
449.338	86.62
449.559	105.62
449.779	107.62
450	90.62
450.221	74.62
450.442	77.62
450.662	92.62
450.883	102.62
451.104	83.62
451.324	69.62
451.545	77.62
451.766	84.62
451.986	88.62
452.207	82.62
452.428	88.62
452.648	85.62
452.869	106.62
453.089	109.62
453.31	99.62
453.53	93.62
453.751	89.62
453.971	98.62
454.192	104.62
454.412	79.62
454.633	78.62
454.853	71.62
455.073	94.62
455.294	87.62
455.514	92.62
455.734	79.62
455.955	83.62
456.175	77.62
456.395	81.62
456.616	89.62
456.836	63.62
457.056	86.62
457.276	89.62
457.497	75.62
457.717	72.62
457.937	79.62
458.157	79.62
458.377	62.62
458.598	93.62
458.818	115.62
459.038	131.62
459.258	99.62
459.478	78.62
459.698	72.62
459.918	86.62
460.138	77.62
460.358	76.62
460.578	79.62
460.798	79.62
461.018	80.62
461.238	86.62
461.458	89.62
461.678	78.62
461.898	85.62
462.118	88.62
462.338	78.62
462.558	91.62
462.777	73.62
462.997	84.62
463.217	77.62
463.437	76.62
463.657	94.62
463.876	87.62
464.096	83.62
464.316	90.62
464.536	96.62
464.755	95.62
464.975	90.62
465.195	130.62
465.414	129.62
465.634	98.62
465.854	89.62
466.073	90.62
466.293	88.62
466.512	81.62
466.732	73.62
466.951	90.62
467.171	93.62
467.391	81.62
467.61	101.62
467.829	89.62
468.049	92.62
468.268	71.62
468.488	93.62
468.707	78.62
468.927	86.62
469.146	88.62
469.365	82.62
469.585	89.62
469.804	103.62
470.023	89.62
470.243	92.62
470.462	77.62
470.681	91.62
470.901	94.62
471.12	76.62
471.339	77.62
471.558	82.62
471.777	87.62
471.997	90.62
472.216	91.62
472.435	96.62
472.654	74.62
472.873	74.62
473.092	80.62
473.311	94.62
473.53	76.62
473.749	88.62
473.968	90.62
474.187	83.62
474.406	87.62
474.625	80.62
474.844	85.62
475.063	81.62
475.282	77.62
475.501	82.62
475.72	83.62
475.939	88.62
476.158	75.62
476.377	77.62
476.596	78.62
476.814	93.62
477.033	88.62
477.252	83.62
477.471	78.62
477.69	85.62
477.908	93.62
478.127	86.62
478.346	85.62
478.564	91.62
478.783	99.62
479.002	90.62
479.22	82.62
479.439	95.62
479.658	95.62
479.876	87.62
480.095	72.62
480.313	89.62
480.532	95.62
480.751	94.62
480.969	77.62
481.188	83.62
481.406	82.62
481.624	90.62
481.843	81.62
482.061	85.62
482.28	81.62
482.498	88.62
482.717	89.62
482.935	79.62
483.153	85.62
483.372	82.62
483.59	80.62
483.808	89.62
484.027	101.62
484.245	84.62
484.463	95.62
484.681	88.62
484.9	82.62
485.118	100.62
485.336	87.62
485.554	95.62
485.772	73.62
485.99	118.62
486.209	99.62
486.427	104.62
486.645	98.62
486.863	100.62
487.081	86.62
487.299	93.62
487.517	77.62
487.735	98.62
487.953	94.62
488.171	98.62
488.389	86.62
488.607	96.62
488.825	95.62
489.043	94.62
489.261	84.62
489.479	81.62
489.696	85.62
489.914	91.62
490.132	98.62
490.35	86.62
490.568	86.62
490.786	76.62
491.003	81.62
491.221	80.62
491.439	87.62
491.657	85.62
491.874	77.62
492.092	74.62
492.31	91.62
492.527	92.62
492.745	88.62
492.963	94.62
493.18	79.62
493.398	98.62
493.615	84.62
493.833	88.62
494.05	83.62
494.268	71.62
494.485	79.62
494.703	76.62
494.92	84.62
495.138	77.62
495.355	91.62
495.573	95.62
495.79	92.62
496.008	91.62
496.225	88.62
496.442	75.62
496.66	88.62
496.877	78.62
497.094	93.62
497.312	81.62
497.529	80.62
497.746	98.62
497.963	78.62
498.181	82.62
498.398	84.62
498.615	95.62
498.832	95.62
499.049	76.62
499.267	82.62
499.484	85.62
499.701	89.62
499.918	80.62
500.135	95.62
500.352	96.62
500.569	96.62
500.786	87.62
501.003	93.62
501.22	80.62
501.437	89.62
501.654	100.62
501.871	94.62
502.088	94.62
502.305	95.62
502.522	93.62
502.739	90.62
502.956	82.62
503.172	81.62
503.389	91.62
503.606	106.62
503.823	90.62
504.04	88.62
504.256	89.62
504.473	85.62
504.69	77.62
504.907	87.62
505.123	79.62
505.34	96.62
505.557	87.62
505.773	87.62
505.99	78.62
506.207	93.62
506.423	90.62
506.64	82.62
506.856	93.62
507.073	101.62
507.289	82.62
507.506	85.62
507.722	98.62
507.939	101.62
508.155	94.62
508.372	98.62
508.588	87.62
508.805	101.62
509.021	87.62
509.238	93.62
509.454	80.62
509.67	86.62
509.887	99.62
510.103	122.62
510.319	180.62
510.536	611.62
510.752	1784.62
510.968	524.62
511.184	149.62
511.401	108.62
511.617	99.62
511.833	90.62
512.049	81.62
512.265	85.62
512.481	82.62
512.698	80.62
512.914	75.62
513.13	81.62
513.346	74.62
513.562	79.62
513.778	110.62
513.994	91.62
514.21	105.62
514.426	99.62
514.642	108.62
514.858	107.62
515.074	133.62
515.29	344.62
515.506	1066.62
515.721	415.62
515.937	140.62
516.153	98.62
516.369	75.62
516.585	83.62
516.801	94.62
517.016	82.62
517.232	97.62
517.448	81.62
517.664	91.62
517.879	102.62
