Data from Uncirc_1992_H10_HRD10591_00024.txt Node
Date: Wed Jan 03 11:46:21 EST 2024
User: Yrep
Spectrometer: HR+D1059
Trigger mode: 1
Integration Time (sec): 1.000000E-1
Scans to average: 1
Electric dark correction enabled: true
Nonlinearity correction enabled: false
Boxcar width: 0
XAxis mode: Wavelengths
Number of Pixels in Spectrum: 2048
>>>>>Begin Spectral Data<<<<<
223.165	-29.56
223.4	-29.56
223.635	-29.56
223.869	-19.56
224.104	-33.56
224.338	1.44
224.573	-6.56
224.808	-18.56
225.042	-17.56
225.277	-7.56
225.511	3.44
225.746	3.44
225.98	-4.56
226.215	-3.56
226.449	28.44
226.683	40.44
226.918	31.44
227.152	32.44
227.387	32.44
227.621	46.44
227.856	42.44
228.09	45.44
228.324	66.44
228.559	64.44
228.793	65.44
229.027	67.44
229.262	60.44
229.496	84.44
229.73	74.44
229.964	71.44
230.199	89.44
230.433	74.44
230.667	75.44
230.901	78.44
231.136	83.44
231.37	88.44
231.604	84.44
231.838	94.44
232.072	83.44
232.306	83.44
232.541	82.44
232.775	81.44
233.009	85.44
233.243	78.44
233.477	85.44
233.711	78.44
233.945	76.44
234.179	84.44
234.413	71.44
234.647	73.44
234.881	73.44
235.115	68.44
235.349	64.44
235.583	78.44
235.817	80.44
236.051	77.44
236.285	72.44
236.519	67.44
236.753	92.44
236.987	80.44
237.221	66.44
237.455	83.44
237.689	83.44
237.922	80.44
238.156	87.44
238.39	69.44
238.624	59.44
238.858	82.44
239.091	94.44
239.325	87.44
239.559	87.44
239.793	79.44
240.027	81.44
240.26	64.44
240.494	84.44
240.728	80.44
240.961	80.44
241.195	83.44
241.429	68.44
241.662	78.44
241.896	78.44
242.13	56.44
242.363	77.44
242.597	72.44
242.83	72.44
243.064	77.44
243.298	76.44
243.531	80.44
243.765	70.44
243.998	76.44
244.232	82.44
244.465	85.44
244.699	86.44
244.932	71.44
245.166	77.44
245.399	80.44
245.633	72.44
245.866	79.44
246.099	73.44
246.333	76.44
246.566	86.44
246.8	88.44
247.033	69.44
247.266	73.44
247.5	82.44
247.733	88.44
247.966	83.44
248.2	80.44
248.433	73.44
248.666	85.44
248.899	82.44
249.133	87.44
249.366	77.44
249.599	92.44
249.832	77.44
250.066	66.44
250.299	76.44
250.532	82.44
250.765	75.44
250.998	83.44
251.231	81.44
251.465	79.44
251.698	76.44
251.931	85.44
252.164	90.44
252.397	75.44
252.63	73.44
252.863	74.44
253.096	79.44
253.329	83.44
253.562	86.44
253.795	67.44
254.028	77.44
254.261	84.44
254.494	87.44
254.727	84.44
254.96	90.44
255.193	80.44
255.426	80.44
255.659	84.44
255.892	98.44
256.124	78.44
256.357	74.44
256.59	85.44
256.823	92.44
257.056	78.44
257.289	81.44
257.521	82.44
257.754	97.44
257.987	86.44
258.22	85.44
258.452	98.44
258.685	76.44
258.918	75.44
259.151	79.44
259.383	87.44
259.616	72.44
259.849	76.44
260.081	81.44
260.314	80.44
260.547	90.44
260.779	77.44
261.012	88.44
261.244	87.44
261.477	90.44
261.71	98.44
261.942	94.44
262.175	99.44
262.407	90.44
262.64	78.44
262.872	81.44
263.105	70.44
263.337	77.44
263.57	87.44
263.802	72.44
264.035	67.44
264.267	84.44
264.499	65.44
264.732	86.44
264.964	81.44
265.197	80.44
265.429	85.44
265.661	95.44
265.894	69.44
266.126	88.44
266.358	79.44
266.591	98.44
266.823	70.44
267.055	73.44
267.287	92.44
267.52	72.44
267.752	78.44
267.984	74.44
268.216	89.44
268.448	82.44
268.681	94.44
268.913	89.44
269.145	72.44
269.377	99.44
269.609	83.44
269.841	77.44
270.073	78.44
270.306	84.44
270.538	94.44
270.77	88.44
271.002	75.44
271.234	83.44
271.466	82.44
271.698	70.44
271.93	80.44
272.162	77.44
272.394	85.44
272.626	76.44
272.858	78.44
273.09	76.44
273.322	76.44
273.553	76.44
273.785	77.44
274.017	94.44
274.249	78.44
274.481	96.44
274.713	90.44
274.945	78.44
275.176	86.44
275.408	91.44
275.64	81.44
275.872	69.44
276.104	84.44
276.335	91.44
276.567	83.44
276.799	74.44
277.031	102.44
277.262	99.44
277.494	81.44
277.726	82.44
277.957	92.44
278.189	82.44
278.421	85.44
278.652	78.44
278.884	86.44
279.115	83.44
279.347	85.44
279.579	84.44
279.81	95.44
280.042	94.44
280.273	89.44
280.505	84.44
280.736	84.44
280.968	109.44
281.199	76.44
281.431	89.44
281.662	86.44
281.894	80.44
282.125	78.44
282.356	103.44
282.588	129.44
282.819	103.44
283.051	81.44
283.282	81.44
283.513	81.44
283.745	89.44
283.976	84.44
284.207	80.44
284.439	74.44
284.67	89.44
284.901	93.44
285.132	83.44
285.364	67.44
285.595	77.44
285.826	86.44
286.057	95.44
286.288	93.44
286.52	91.44
286.751	89.44
286.982	86.44
287.213	97.44
287.444	89.44
287.675	77.44
287.906	95.44
288.138	96.44
288.369	84.44
288.6	85.44
288.831	84.44
289.062	97.44
289.293	96.44
289.524	85.44
289.755	96.44
289.986	93.44
290.217	92.44
290.448	77.44
290.679	77.44
290.91	92.44
291.141	95.44
291.371	88.44
291.602	80.44
291.833	88.44
292.064	84.44
292.295	84.44
292.526	78.44
292.757	90.44
292.987	78.44
293.218	83.44
293.449	82.44
293.68	77.44
293.91	78.44
294.141	85.44
294.372	79.44
294.603	73.44
294.833	81.44
295.064	86.44
295.295	84.44
295.525	105.44
295.756	106.44
295.987	113.44
296.217	126.44
296.448	104.44
296.679	94.44
296.909	94.44
297.14	90.44
297.37	91.44
297.601	94.44
297.831	82.44
298.062	97.44
298.292	96.44
298.523	91.44
298.753	97.44
298.984	82.44
299.214	88.44
299.445	87.44
299.675	100.44
299.905	97.44
300.136	91.44
300.366	91.44
300.597	83.44
300.827	98.44
301.057	93.44
301.288	97.44
301.518	80.44
301.748	97.44
301.979	99.44
302.209	93.44
302.439	88.44
302.669	96.44
302.9	84.44
303.13	90.44
303.36	80.44
303.59	90.44
303.82	90.44
304.051	93.44
304.281	81.44
304.511	92.44
304.741	81.44
304.971	76.44
305.201	88.44
305.431	74.44
305.661	97.44
305.891	86.44
306.121	97.44
306.352	86.44
306.582	96.44
306.812	90.44
307.042	95.44
307.272	91.44
307.502	96.44
307.731	94.44
307.961	85.44
308.191	96.44
308.421	76.44
308.651	92.44
308.881	91.44
309.111	81.44
309.341	97.44
309.571	80.44
309.8	89.44
310.03	97.44
310.26	96.44
310.49	94.44
310.72	102.44
310.949	104.44
311.179	95.44
311.409	94.44
311.639	85.44
311.868	85.44
312.098	103.44
312.328	110.44
312.557	96.44
312.787	107.44
313.017	95.44
313.246	91.44
313.476	84.44
313.706	91.44
313.935	104.44
314.165	99.44
314.394	95.44
314.624	95.44
314.853	95.44
315.083	83.44
315.312	85.44
315.542	88.44
315.771	84.44
316.001	84.44
316.23	77.44
316.46	90.44
316.689	83.44
316.919	88.44
317.148	78.44
317.377	85.44
317.607	100.44
317.836	101.44
318.065	89.44
318.295	92.44
318.524	95.44
318.753	90.44
318.983	88.44
319.212	93.44
319.441	110.44
319.67	108.44
319.9	90.44
320.129	99.44
320.358	88.44
320.587	97.44
320.816	98.44
321.046	89.44
321.275	89.44
321.504	92.44
321.733	91.44
321.962	94.44
322.191	87.44
322.42	104.44
322.649	109.44
322.878	102.44
323.108	108.44
323.337	128.44
323.566	126.44
323.795	138.44
324.024	188.44
324.253	343.44
324.482	703.44
324.71	1387.44
324.939	1807.44
325.168	669.44
325.397	212.44
325.626	142.44
325.855	107.44
326.084	110.44
326.313	106.44
326.542	137.44
326.77	204.44
326.999	394.44
327.228	801.44
327.457	1432.44
327.686	1121.44
327.914	315.44
328.143	166.44
328.372	123.44
328.6	119.44
328.829	103.44
329.058	125.44
329.287	119.44
329.515	101.44
329.744	98.44
329.972	90.44
330.201	98.44
330.43	95.44
330.658	108.44
330.887	123.44
331.115	99.44
331.344	99.44
331.572	102.44
331.801	105.44
332.03	97.44
332.258	94.44
332.486	97.44
332.715	75.44
332.943	86.44
333.172	90.44
333.4	94.44
333.629	90.44
333.857	111.44
334.085	103.44
334.314	89.44
334.542	84.44
334.771	92.44
334.999	98.44
335.227	103.44
335.455	73.44
335.684	88.44
335.912	98.44
336.14	105.44
336.369	79.44
336.597	93.44
336.825	92.44
337.053	92.44
337.281	95.44
337.51	78.44
337.738	88.44
337.966	92.44
338.194	94.44
338.422	95.44
338.65	97.44
338.878	90.44
339.106	89.44
339.334	96.44
339.562	92.44
339.79	81.44
340.018	78.44
340.246	88.44
340.474	77.44
340.702	84.44
340.93	93.44
341.158	95.44
341.386	83.44
341.614	85.44
341.842	84.44
342.07	97.44
342.298	83.44
342.526	87.44
342.754	90.44
342.981	68.44
343.209	75.44
343.437	97.44
343.665	94.44
343.893	96.44
344.12	85.44
344.348	81.44
344.576	89.44
344.804	97.44
345.031	96.44
345.259	89.44
345.487	96.44
345.714	86.44
345.942	97.44
346.17	88.44
346.397	84.44
346.625	92.44
346.853	86.44
347.08	93.44
347.308	101.44
347.535	93.44
347.763	97.44
347.99	87.44
348.218	94.44
348.445	94.44
348.673	96.44
348.9	90.44
349.128	91.44
349.355	93.44
349.583	99.44
349.81	102.44
350.037	95.44
350.265	95.44
350.492	98.44
350.72	101.44
350.947	101.44
351.174	124.44
351.402	86.44
351.629	113.44
351.856	99.44
352.083	97.44
352.311	100.44
352.538	114.44
352.765	106.44
352.992	106.44
353.22	104.44
353.447	93.44
353.674	90.44
353.901	83.44
354.128	82.44
354.355	86.44
354.583	109.44
354.81	99.44
355.037	94.44
355.264	85.44
355.491	92.44
355.718	93.44
355.945	107.44
356.172	85.44
356.399	90.44
356.626	94.44
356.853	98.44
357.08	82.44
357.307	102.44
357.534	104.44
357.761	95.44
357.988	92.44
358.215	90.44
358.441	98.44
358.668	86.44
358.895	85.44
359.122	91.44
359.349	96.44
359.576	99.44
359.802	95.44
360.029	95.44
360.256	103.44
360.483	90.44
360.709	84.44
360.936	96.44
361.163	89.44
361.39	75.44
361.616	94.44
361.843	92.44
362.07	97.44
362.296	94.44
362.523	76.44
362.749	87.44
362.976	92.44
363.203	87.44
363.429	95.44
363.656	93.44
363.882	91.44
364.109	100.44
364.335	98.44
364.562	81.44
364.788	99.44
365.015	93.44
365.241	97.44
365.468	108.44
365.694	109.44
365.92	114.44
366.147	89.44
366.373	97.44
366.599	81.44
366.826	91.44
367.052	93.44
367.278	93.44
367.505	92.44
367.731	98.44
367.957	84.44
368.184	92.44
368.41	113.44
368.636	124.44
368.862	122.44
369.089	97.44
369.315	104.44
369.541	90.44
369.767	95.44
369.993	88.44
370.219	94.44
370.445	100.44
370.672	88.44
370.898	78.44
371.124	88.44
371.35	75.44
371.576	75.44
371.802	89.44
372.028	88.44
372.254	101.44
372.48	95.44
372.706	100.44
372.932	89.44
373.158	89.44
373.384	92.44
373.61	100.44
373.835	84.44
374.061	77.44
374.287	82.44
374.513	87.44
374.739	78.44
374.965	96.44
375.191	93.44
375.416	79.44
375.642	88.44
375.868	83.44
376.094	83.44
376.319	67.44
376.545	85.44
376.771	94.44
376.997	90.44
377.222	100.44
377.448	97.44
377.674	76.44
377.899	84.44
378.125	95.44
378.35	88.44
378.576	105.44
378.802	81.44
379.027	101.44
379.253	95.44
379.478	79.44
379.704	93.44
379.929	90.44
380.155	76.44
380.38	90.44
380.606	95.44
380.831	96.44
381.057	98.44
381.282	90.44
381.507	92.44
381.733	106.44
381.958	93.44
382.184	106.44
382.409	79.44
382.634	102.44
382.86	89.44
383.085	87.44
383.31	91.44
383.535	101.44
383.761	92.44
383.986	105.44
384.211	88.44
384.436	104.44
384.662	105.44
384.887	83.44
385.112	112.44
385.337	108.44
385.562	93.44
385.787	88.44
386.013	107.44
386.238	117.44
386.463	95.44
386.688	99.44
386.913	97.44
387.138	102.44
387.363	110.44
387.588	96.44
387.813	92.44
388.038	108.44
388.263	102.44
388.488	116.44
388.713	102.44
388.938	99.44
389.163	92.44
389.387	89.44
389.612	93.44
389.837	92.44
390.062	83.44
390.287	104.44
390.512	84.44
390.736	94.44
390.961	86.44
391.186	99.44
391.411	103.44
391.636	108.44
391.86	84.44
392.085	78.44
392.31	86.44
392.534	84.44
392.759	77.44
392.984	88.44
393.208	87.44
393.433	100.44
393.658	84.44
393.882	91.44
394.107	102.44
394.331	95.44
394.556	89.44
394.78	98.44
395.005	84.44
395.229	84.44
395.454	80.44
395.678	99.44
395.903	91.44
396.127	96.44
396.352	96.44
396.576	87.44
396.801	90.44
397.025	96.44
397.249	76.44
397.474	83.44
397.698	86.44
397.922	94.44
398.147	85.44
398.371	89.44
398.595	83.44
398.82	83.44
399.044	86.44
399.268	96.44
399.492	93.44
399.717	72.44
399.941	95.44
400.165	88.44
400.389	84.44
400.613	86.44
400.837	77.44
401.062	94.44
401.286	83.44
401.51	82.44
401.734	82.44
401.958	93.44
402.182	129.44
402.406	163.44
402.63	102.44
402.854	85.44
403.078	80.44
403.302	89.44
403.526	93.44
403.75	97.44
403.974	84.44
404.198	81.44
404.422	90.44
404.645	83.44
404.869	76.44
405.093	100.44
405.317	99.44
405.541	92.44
405.765	95.44
405.988	101.44
406.212	152.44
406.436	193.44
406.66	123.44
406.883	101.44
407.107	105.44
407.331	93.44
407.555	95.44
407.778	105.44
408.002	105.44
408.226	73.44
408.449	71.44
408.673	91.44
408.896	102.44
409.12	87.44
409.344	79.44
409.567	80.44
409.791	92.44
410.014	98.44
410.238	110.44
410.461	87.44
410.685	88.44
410.908	108.44
411.132	93.44
411.355	105.44
411.578	91.44
411.802	91.44
412.025	84.44
412.249	92.44
412.472	84.44
412.695	89.44
412.919	91.44
413.142	88.44
413.365	75.44
413.589	86.44
413.812	94.44
414.035	102.44
414.258	72.44
414.482	90.44
414.705	81.44
414.928	86.44
415.151	100.44
415.374	93.44
415.597	91.44
415.821	97.44
416.044	101.44
416.267	109.44
416.49	91.44
416.713	84.44
416.936	97.44
417.159	81.44
417.382	92.44
417.605	83.44
417.828	100.44
418.051	87.44
418.274	83.44
418.497	85.44
418.72	68.44
418.943	84.44
419.166	106.44
419.389	87.44
419.611	83.44
419.834	91.44
420.057	86.44
420.28	89.44
420.503	84.44
420.726	106.44
420.948	101.44
421.171	84.44
421.394	98.44
421.617	87.44
421.839	88.44
422.062	98.44
422.285	79.44
422.507	98.44
422.73	110.44
422.953	99.44
423.175	100.44
423.398	90.44
423.621	98.44
423.843	79.44
424.066	89.44
424.288	72.44
424.511	99.44
424.733	80.44
424.956	83.44
425.178	80.44
425.401	94.44
425.623	92.44
425.846	88.44
426.068	91.44
426.291	78.44
426.513	96.44
426.735	98.44
426.958	88.44
427.18	94.44
427.402	120.44
427.625	127.44
427.847	101.44
428.069	98.44
428.292	102.44
428.514	94.44
428.736	90.44
428.958	111.44
429.181	106.44
429.403	84.44
429.625	89.44
429.847	97.44
430.069	82.44
430.292	99.44
430.514	88.44
430.736	93.44
430.958	85.44
431.18	96.44
431.402	84.44
431.624	102.44
431.846	82.44
432.068	73.44
432.29	85.44
432.512	101.44
432.734	80.44
432.956	89.44
433.178	90.44
433.4	93.44
433.622	88.44
433.844	79.44
434.066	69.44
434.287	80.44
434.509	83.44
434.731	80.44
434.953	88.44
435.175	80.44
435.397	88.44
435.618	96.44
435.84	95.44
436.062	90.44
436.284	101.44
436.505	83.44
436.727	94.44
436.949	100.44
437.17	90.44
437.392	89.44
437.614	90.44
437.835	120.44
438.057	110.44
438.278	97.44
438.5	101.44
438.721	98.44
438.943	96.44
439.165	94.44
439.386	85.44
439.608	102.44
439.829	92.44
440.05	113.44
440.272	125.44
440.493	92.44
440.715	77.44
440.936	86.44
441.158	93.44
441.379	91.44
441.6	88.44
441.822	101.44
442.043	83.44
442.264	94.44
442.486	102.44
442.707	94.44
442.928	97.44
443.149	123.44
443.371	122.44
443.592	104.44
443.813	110.44
444.034	89.44
444.255	89.44
444.476	89.44
444.698	96.44
444.919	85.44
445.14	156.44
445.361	120.44
445.582	108.44
445.803	120.44
446.024	117.44
446.245	113.44
446.466	105.44
446.687	92.44
446.908	88.44
447.129	95.44
447.35	85.44
447.571	84.44
447.792	91.44
448.013	117.44
448.234	80.44
448.455	90.44
448.675	109.44
448.896	116.44
449.117	92.44
449.338	85.44
449.559	108.44
449.779	119.44
450	96.44
450.221	87.44
450.442	71.44
450.662	100.44
450.883	107.44
451.104	94.44
451.324	96.44
451.545	86.44
451.766	90.44
451.986	88.44
452.207	93.44
452.428	90.44
452.648	93.44
452.869	105.44
453.089	103.44
453.31	101.44
453.53	78.44
453.751	102.44
453.971	112.44
454.192	99.44
454.412	98.44
454.633	99.44
454.853	82.44
455.073	66.44
455.294	90.44
455.514	102.44
455.734	85.44
455.955	74.44
456.175	99.44
456.395	85.44
456.616	94.44
456.836	82.44
457.056	72.44
457.276	88.44
457.497	68.44
457.717	84.44
457.937	98.44
458.157	86.44
458.377	84.44
458.598	108.44
458.818	146.44
459.038	125.44
459.258	106.44
459.478	73.44
459.698	78.44
459.918	88.44
460.138	86.44
460.358	83.44
460.578	77.44
460.798	90.44
461.018	86.44
461.238	94.44
461.458	95.44
461.678	73.44
461.898	75.44
462.118	93.44
462.338	75.44
462.558	84.44
462.777	86.44
462.997	87.44
463.217	81.44
463.437	88.44
463.657	80.44
463.876	87.44
464.096	75.44
464.316	98.44
464.536	80.44
464.755	96.44
464.975	84.44
465.195	135.44
465.414	133.44
465.634	89.44
465.854	80.44
466.073	92.44
466.293	80.44
466.512	95.44
466.732	80.44
466.951	87.44
467.171	92.44
467.391	101.44
467.61	105.44
467.829	96.44
468.049	92.44
468.268	88.44
468.488	80.44
468.707	93.44
468.927	81.44
469.146	83.44
469.365	96.44
469.585	98.44
469.804	101.44
470.023	78.44
470.243	83.44
470.462	95.44
470.681	96.44
470.901	94.44
471.12	90.44
471.339	79.44
471.558	79.44
471.777	85.44
471.997	77.44
472.216	84.44
472.435	92.44
472.654	93.44
472.873	94.44
473.092	94.44
473.311	82.44
473.53	83.44
473.749	88.44
473.968	96.44
474.187	96.44
474.406	84.44
474.625	88.44
474.844	85.44
475.063	80.44
475.282	88.44
475.501	83.44
475.72	89.44
475.939	74.44
476.158	92.44
476.377	90.44
476.596	93.44
476.814	94.44
477.033	88.44
477.252	76.44
477.471	88.44
477.69	96.44
477.908	83.44
478.127	93.44
478.346	83.44
478.564	99.44
478.783	96.44
479.002	86.44
479.22	98.44
479.439	94.44
479.658	107.44
479.876	103.44
480.095	87.44
480.313	81.44
480.532	84.44
480.751	67.44
480.969	97.44
481.188	94.44
481.406	83.44
481.624	89.44
481.843	78.44
482.061	99.44
482.28	72.44
482.498	97.44
482.717	84.44
482.935	78.44
483.153	81.44
483.372	96.44
483.59	82.44
483.808	79.44
484.027	84.44
484.245	97.44
484.463	86.44
484.681	93.44
484.9	83.44
485.118	97.44
485.336	97.44
485.554	97.44
485.772	93.44
485.99	95.44
486.209	99.44
486.427	90.44
486.645	105.44
486.863	109.44
487.081	86.44
487.299	100.44
487.517	98.44
487.735	85.44
487.953	77.44
488.171	86.44
488.389	94.44
488.607	98.44
488.825	95.44
489.043	95.44
489.261	94.44
489.479	95.44
489.696	92.44
489.914	101.44
490.132	99.44
490.35	96.44
490.568	92.44
490.786	80.44
491.003	86.44
491.221	98.44
491.439	75.44
491.657	88.44
491.874	84.44
492.092	82.44
492.31	82.44
492.527	95.44
492.745	86.44
492.963	91.44
493.18	98.44
493.398	90.44
493.615	95.44
493.833	94.44
494.05	78.44
494.268	94.44
494.485	100.44
494.703	81.44
494.92	86.44
495.138	91.44
495.355	90.44
495.573	81.44
495.79	92.44
496.008	100.44
496.225	81.44
496.442	73.44
496.66	104.44
496.877	88.44
497.094	102.44
497.312	68.44
497.529	89.44
497.746	100.44
497.963	90.44
498.181	92.44
498.398	77.44
498.615	90.44
498.832	100.44
499.049	86.44
499.267	93.44
499.484	91.44
499.701	72.44
499.918	80.44
500.135	90.44
500.352	81.44
500.569	81.44
500.786	83.44
501.003	95.44
501.22	85.44
501.437	80.44
501.654	86.44
501.871	92.44
502.088	98.44
502.305	92.44
502.522	93.44
502.739	93.44
502.956	91.44
503.172	92.44
503.389	93.44
503.606	96.44
503.823	84.44
504.04	91.44
504.256	95.44
504.473	88.44
504.69	86.44
504.907	93.44
505.123	85.44
505.34	86.44
505.557	104.44
505.773	92.44
505.99	87.44
506.207	90.44
506.423	97.44
506.64	90.44
506.856	80.44
507.073	79.44
507.289	94.44
507.506	74.44
507.722	110.44
507.939	109.44
508.155	84.44
508.372	101.44
508.588	91.44
508.805	90.44
509.021	99.44
509.238	109.44
509.454	116.44
509.67	110.44
509.887	121.44
510.103	130.44
510.319	201.44
510.536	672.44
510.752	2036.44
510.968	544.44
511.184	136.44
511.401	114.44
511.617	86.44
511.833	86.44
512.049	95.44
512.265	84.44
512.481	84.44
512.698	65.44
512.914	80.44
513.13	93.44
513.346	98.44
513.562	93.44
513.778	99.44
513.994	93.44
514.21	89.44
514.426	109.44
514.642	123.44
514.858	139.44
515.074	156.44
515.29	378.44
515.506	1164.44
515.721	438.44
515.937	124.44
516.153	101.44
516.369	92.44
516.585	76.44
516.801	86.44
