Data from Uncirc_1992_H10_HRD10591_00021.txt Node
Date: Wed Jan 03 11:46:20 EST 2024
User: Yrep
Spectrometer: HR+D1059
Trigger mode: 1
Integration Time (sec): 1.000000E-1
Scans to average: 1
Electric dark correction enabled: true
Nonlinearity correction enabled: false
Boxcar width: 0
XAxis mode: Wavelengths
Number of Pixels in Spectrum: 2048
>>>>>Begin Spectral Data<<<<<
223.165	-23.5
223.4	-23.5
223.635	-23.5
223.869	-12.5
224.104	-16.5
224.338	-12.5
224.573	-17.5
224.808	-7.5
225.042	-5.5
225.277	1.5
225.511	2.5
225.746	-1.5
225.98	-2.5
226.215	17.5
226.449	19.5
226.683	20.5
226.918	19.5
227.152	18.5
227.387	52.5
227.621	30.5
227.856	49.5
228.09	44.5
228.324	59.5
228.559	70.5
228.793	56.5
229.027	62.5
229.262	69.5
229.496	65.5
229.73	81.5
229.964	86.5
230.199	87.5
230.433	71.5
230.667	95.5
230.901	82.5
231.136	81.5
231.37	77.5
231.604	85.5
231.838	81.5
232.072	82.5
232.306	87.5
232.541	92.5
232.775	86.5
233.009	83.5
233.243	80.5
233.477	90.5
233.711	99.5
233.945	79.5
234.179	66.5
234.413	90.5
234.647	71.5
234.881	89.5
235.115	83.5
235.349	85.5
235.583	77.5
235.817	83.5
236.051	88.5
236.285	86.5
236.519	87.5
236.753	88.5
236.987	78.5
237.221	98.5
237.455	70.5
237.689	85.5
237.922	81.5
238.156	86.5
238.39	62.5
238.624	70.5
238.858	81.5
239.091	82.5
239.325	83.5
239.559	93.5
239.793	82.5
240.027	75.5
240.26	95.5
240.494	84.5
240.728	91.5
240.961	74.5
241.195	93.5
241.429	81.5
241.662	72.5
241.896	72.5
242.13	71.5
242.363	88.5
242.597	84.5
242.83	82.5
243.064	87.5
243.298	82.5
243.531	69.5
243.765	70.5
243.998	82.5
244.232	74.5
244.465	79.5
244.699	97.5
244.932	94.5
245.166	101.5
245.399	93.5
245.633	91.5
245.866	81.5
246.099	78.5
246.333	82.5
246.566	72.5
246.8	83.5
247.033	96.5
247.266	75.5
247.5	80.5
247.733	95.5
247.966	85.5
248.2	88.5
248.433	79.5
248.666	86.5
248.899	67.5
249.133	97.5
249.366	99.5
249.599	95.5
249.832	98.5
250.066	88.5
250.299	97.5
250.532	97.5
250.765	85.5
250.998	93.5
251.231	94.5
251.465	101.5
251.698	83.5
251.931	86.5
252.164	72.5
252.397	72.5
252.63	80.5
252.863	77.5
253.096	85.5
253.329	96.5
253.562	93.5
253.795	80.5
254.028	90.5
254.261	105.5
254.494	82.5
254.727	91.5
254.96	100.5
255.193	79.5
255.426	74.5
255.659	80.5
255.892	72.5
256.124	74.5
256.357	73.5
256.59	89.5
256.823	77.5
257.056	93.5
257.289	81.5
257.521	93.5
257.754	81.5
257.987	79.5
258.22	90.5
258.452	101.5
258.685	92.5
258.918	88.5
259.151	89.5
259.383	83.5
259.616	93.5
259.849	87.5
260.081	96.5
260.314	75.5
260.547	94.5
260.779	103.5
261.012	83.5
261.244	96.5
261.477	97.5
261.71	112.5
261.942	117.5
262.175	107.5
262.407	100.5
262.64	101.5
262.872	86.5
263.105	95.5
263.337	106.5
263.57	96.5
263.802	74.5
264.035	91.5
264.267	89.5
264.499	83.5
264.732	82.5
264.964	89.5
265.197	89.5
265.429	78.5
265.661	89.5
265.894	86.5
266.126	90.5
266.358	79.5
266.591	90.5
266.823	92.5
267.055	88.5
267.287	87.5
267.52	92.5
267.752	97.5
267.984	78.5
268.216	81.5
268.448	87.5
268.681	85.5
268.913	98.5
269.145	100.5
269.377	90.5
269.609	94.5
269.841	82.5
270.073	85.5
270.306	80.5
270.538	94.5
270.77	87.5
271.002	87.5
271.234	89.5
271.466	85.5
271.698	81.5
271.93	89.5
272.162	85.5
272.394	88.5
272.626	80.5
272.858	85.5
273.09	101.5
273.322	91.5
273.553	102.5
273.785	86.5
274.017	99.5
274.249	75.5
274.481	83.5
274.713	75.5
274.945	98.5
275.176	88.5
275.408	95.5
275.64	86.5
275.872	88.5
276.104	94.5
276.335	85.5
276.567	101.5
276.799	107.5
277.031	93.5
277.262	95.5
277.494	96.5
277.726	105.5
277.957	86.5
278.189	97.5
278.421	96.5
278.652	99.5
278.884	79.5
279.115	106.5
279.347	85.5
279.579	82.5
279.81	74.5
280.042	90.5
280.273	77.5
280.505	82.5
280.736	81.5
280.968	79.5
281.199	89.5
281.431	93.5
281.662	94.5
281.894	92.5
282.125	87.5
282.356	113.5
282.588	130.5
282.819	110.5
283.051	98.5
283.282	106.5
283.513	110.5
283.745	98.5
283.976	85.5
284.207	94.5
284.439	93.5
284.67	87.5
284.901	78.5
285.132	90.5
285.364	94.5
285.595	93.5
285.826	106.5
286.057	116.5
286.288	97.5
286.52	103.5
286.751	97.5
286.982	85.5
287.213	91.5
287.444	90.5
287.675	98.5
287.906	111.5
288.138	107.5
288.369	91.5
288.6	91.5
288.831	91.5
289.062	99.5
289.293	92.5
289.524	75.5
289.755	86.5
289.986	83.5
290.217	94.5
290.448	89.5
290.679	89.5
290.91	91.5
291.141	93.5
291.371	81.5
291.602	89.5
291.833	83.5
292.064	81.5
292.295	85.5
292.526	92.5
292.757	91.5
292.987	81.5
293.218	93.5
293.449	90.5
293.68	89.5
293.91	99.5
294.141	99.5
294.372	98.5
294.603	90.5
294.833	91.5
295.064	98.5
295.295	96.5
295.525	81.5
295.756	117.5
295.987	130.5
296.217	137.5
296.448	114.5
296.679	85.5
296.909	95.5
297.14	90.5
297.37	90.5
297.601	73.5
297.831	96.5
298.062	79.5
298.292	98.5
298.523	83.5
298.753	95.5
298.984	87.5
299.214	85.5
299.445	95.5
299.675	98.5
299.905	102.5
300.136	101.5
300.366	75.5
300.597	91.5
300.827	91.5
301.057	86.5
301.288	110.5
301.518	90.5
301.748	97.5
301.979	105.5
302.209	95.5
302.439	89.5
302.669	94.5
302.9	77.5
303.13	93.5
303.36	92.5
303.59	109.5
303.82	98.5
304.051	107.5
304.281	88.5
304.511	106.5
304.741	98.5
304.971	101.5
305.201	91.5
305.431	102.5
305.661	84.5
305.891	102.5
306.121	93.5
306.352	101.5
306.582	93.5
306.812	86.5
307.042	87.5
307.272	99.5
307.502	101.5
307.731	113.5
307.961	83.5
308.191	98.5
308.421	91.5
308.651	104.5
308.881	90.5
309.111	87.5
309.341	110.5
309.571	95.5
309.8	97.5
310.03	99.5
310.26	104.5
310.49	95.5
310.72	91.5
310.949	94.5
311.179	80.5
311.409	92.5
311.639	99.5
311.868	100.5
312.098	101.5
312.328	97.5
312.557	100.5
312.787	111.5
313.017	103.5
313.246	97.5
313.476	88.5
313.706	100.5
313.935	86.5
314.165	111.5
314.394	103.5
314.624	99.5
314.853	98.5
315.083	87.5
315.312	93.5
315.542	98.5
315.771	101.5
316.001	98.5
316.23	83.5
316.46	87.5
316.689	96.5
316.919	94.5
317.148	101.5
317.377	94.5
317.607	102.5
317.836	106.5
318.065	97.5
318.295	96.5
318.524	107.5
318.753	104.5
318.983	98.5
319.212	104.5
319.441	104.5
319.67	106.5
319.9	82.5
320.129	92.5
320.358	107.5
320.587	93.5
320.816	99.5
321.046	101.5
321.275	94.5
321.504	112.5
321.733	101.5
321.962	111.5
322.191	103.5
322.42	99.5
322.649	105.5
322.878	96.5
323.108	108.5
323.337	114.5
323.566	135.5
323.795	135.5
324.024	169.5
324.253	326.5
324.482	687.5
324.71	1331.5
324.939	1737.5
325.168	659.5
325.397	229.5
325.626	164.5
325.855	123.5
326.084	127.5
326.313	132.5
326.542	143.5
326.77	210.5
326.999	411.5
327.228	774.5
327.457	1375.5
327.686	1096.5
327.914	319.5
328.143	192.5
328.372	133.5
328.6	113.5
328.829	112.5
329.058	128.5
329.287	110.5
329.515	95.5
329.744	90.5
329.972	106.5
330.201	110.5
330.43	111.5
330.658	131.5
330.887	129.5
331.115	111.5
331.344	110.5
331.572	110.5
331.801	121.5
332.03	100.5
332.258	111.5
332.486	96.5
332.715	89.5
332.943	89.5
333.172	91.5
333.4	90.5
333.629	96.5
333.857	110.5
334.085	105.5
334.314	92.5
334.542	87.5
334.771	93.5
334.999	103.5
335.227	81.5
335.455	103.5
335.684	90.5
335.912	89.5
336.14	105.5
336.369	98.5
336.597	102.5
336.825	99.5
337.053	94.5
337.281	95.5
337.51	90.5
337.738	94.5
337.966	97.5
338.194	84.5
338.422	113.5
338.65	76.5
338.878	77.5
339.106	88.5
339.334	89.5
339.562	98.5
339.79	101.5
340.018	105.5
340.246	94.5
340.474	99.5
340.702	91.5
340.93	111.5
341.158	102.5
341.386	107.5
341.614	103.5
341.842	109.5
342.07	95.5
342.298	107.5
342.526	98.5
342.754	93.5
342.981	101.5
343.209	97.5
343.437	109.5
343.665	82.5
343.893	93.5
344.12	103.5
344.348	93.5
344.576	83.5
344.804	86.5
345.031	93.5
345.259	95.5
345.487	93.5
345.714	106.5
345.942	114.5
346.17	105.5
346.397	92.5
346.625	105.5
346.853	101.5
347.08	94.5
347.308	90.5
347.535	100.5
347.763	112.5
347.99	107.5
348.218	102.5
348.445	101.5
348.673	97.5
348.9	91.5
349.128	91.5
349.355	92.5
349.583	99.5
349.81	105.5
350.037	93.5
350.265	91.5
350.492	99.5
350.72	94.5
350.947	97.5
351.174	113.5
351.402	115.5
351.629	116.5
351.856	102.5
352.083	96.5
352.311	89.5
352.538	97.5
352.765	109.5
352.992	101.5
353.22	103.5
353.447	107.5
353.674	105.5
353.901	113.5
354.128	98.5
354.355	104.5
354.583	94.5
354.81	94.5
355.037	113.5
355.264	103.5
355.491	84.5
355.718	89.5
355.945	108.5
356.172	111.5
356.399	102.5
356.626	88.5
356.853	106.5
357.08	95.5
357.307	101.5
357.534	98.5
357.761	108.5
357.988	86.5
358.215	94.5
358.441	92.5
358.668	89.5
358.895	93.5
359.122	89.5
359.349	91.5
359.576	91.5
359.802	109.5
360.029	108.5
360.256	111.5
360.483	113.5
360.709	95.5
360.936	115.5
361.163	103.5
361.39	97.5
361.616	98.5
361.843	100.5
362.07	89.5
362.296	97.5
362.523	87.5
362.749	101.5
362.976	87.5
363.203	91.5
363.429	93.5
363.656	98.5
363.882	98.5
364.109	86.5
364.335	89.5
364.562	100.5
364.788	94.5
365.015	98.5
365.241	90.5
365.468	107.5
365.694	100.5
365.92	91.5
366.147	83.5
366.373	100.5
366.599	103.5
366.826	79.5
367.052	93.5
367.278	86.5
367.505	86.5
367.731	86.5
367.957	96.5
368.184	94.5
368.41	100.5
368.636	110.5
368.862	117.5
369.089	109.5
369.315	102.5
369.541	96.5
369.767	97.5
369.993	98.5
370.219	102.5
370.445	86.5
370.672	101.5
370.898	96.5
371.124	85.5
371.35	94.5
371.576	107.5
371.802	97.5
372.028	92.5
372.254	93.5
372.48	91.5
372.706	101.5
372.932	85.5
373.158	104.5
373.384	102.5
373.61	94.5
373.835	102.5
374.061	97.5
374.287	91.5
374.513	83.5
374.739	89.5
374.965	101.5
375.191	90.5
375.416	93.5
375.642	94.5
375.868	98.5
376.094	101.5
376.319	93.5
376.545	101.5
376.771	85.5
376.997	93.5
377.222	94.5
377.448	87.5
377.674	99.5
377.899	86.5
378.125	104.5
378.35	95.5
378.576	87.5
378.802	88.5
379.027	105.5
379.253	107.5
379.478	98.5
379.704	93.5
379.929	101.5
380.155	105.5
380.38	94.5
380.606	86.5
380.831	92.5
381.057	87.5
381.282	99.5
381.507	91.5
381.733	96.5
381.958	95.5
382.184	96.5
382.409	107.5
382.634	104.5
382.86	112.5
383.085	97.5
383.31	107.5
383.535	106.5
383.761	111.5
383.986	114.5
384.211	87.5
384.436	107.5
384.662	99.5
384.887	99.5
385.112	101.5
385.337	115.5
385.562	105.5
385.787	114.5
386.013	98.5
386.238	114.5
386.463	107.5
386.688	98.5
386.913	96.5
387.138	106.5
387.363	103.5
387.588	101.5
387.813	106.5
388.038	120.5
388.263	97.5
388.488	125.5
388.713	96.5
388.938	97.5
389.163	105.5
389.387	98.5
389.612	106.5
389.837	103.5
390.062	108.5
390.287	83.5
390.512	107.5
390.736	101.5
390.961	96.5
391.186	99.5
391.411	102.5
391.636	101.5
391.86	85.5
392.085	82.5
392.31	65.5
392.534	86.5
392.759	90.5
392.984	85.5
393.208	94.5
393.433	90.5
393.658	104.5
393.882	84.5
394.107	82.5
394.331	81.5
394.556	80.5
394.78	98.5
395.005	100.5
395.229	80.5
395.454	107.5
395.678	80.5
395.903	91.5
396.127	86.5
396.352	81.5
396.576	85.5
396.801	83.5
397.025	82.5
397.249	103.5
397.474	85.5
397.698	83.5
397.922	86.5
398.147	97.5
398.371	85.5
398.595	105.5
398.82	89.5
399.044	91.5
399.268	86.5
399.492	92.5
399.717	81.5
399.941	101.5
400.165	86.5
400.389	97.5
400.613	91.5
400.837	100.5
401.062	97.5
401.286	92.5
401.51	95.5
401.734	94.5
401.958	86.5
402.182	118.5
402.406	147.5
402.63	101.5
402.854	91.5
403.078	94.5
403.302	97.5
403.526	100.5
403.75	81.5
403.974	71.5
404.198	91.5
404.422	89.5
404.645	93.5
404.869	102.5
405.093	81.5
405.317	81.5
405.541	111.5
405.765	113.5
405.988	87.5
406.212	147.5
406.436	211.5
406.66	139.5
406.883	95.5
407.107	106.5
407.331	88.5
407.555	107.5
407.778	100.5
408.002	84.5
408.226	94.5
408.449	87.5
408.673	100.5
408.896	92.5
409.12	82.5
409.344	88.5
409.567	101.5
409.791	91.5
410.014	91.5
410.238	102.5
410.461	105.5
410.685	86.5
410.908	101.5
411.132	96.5
411.355	96.5
411.578	90.5
411.802	104.5
412.025	82.5
412.249	95.5
412.472	87.5
412.695	81.5
412.919	86.5
413.142	100.5
413.365	83.5
413.589	87.5
413.812	78.5
414.035	113.5
414.258	102.5
414.482	88.5
414.705	93.5
414.928	85.5
415.151	106.5
415.374	87.5
415.597	103.5
415.821	87.5
416.044	90.5
416.267	79.5
416.49	97.5
416.713	101.5
416.936	91.5
417.159	87.5
417.382	93.5
417.605	89.5
417.828	90.5
418.051	98.5
418.274	96.5
418.497	102.5
418.72	89.5
418.943	91.5
419.166	96.5
419.389	92.5
419.611	85.5
419.834	80.5
420.057	91.5
420.28	95.5
420.503	98.5
420.726	101.5
420.948	80.5
421.171	99.5
421.394	93.5
421.617	100.5
421.839	97.5
422.062	89.5
422.285	93.5
422.507	109.5
422.73	113.5
422.953	94.5
423.175	97.5
423.398	87.5
423.621	78.5
423.843	85.5
424.066	94.5
424.288	88.5
424.511	97.5
424.733	99.5
424.956	83.5
425.178	101.5
425.401	101.5
425.623	95.5
425.846	89.5
426.068	95.5
426.291	94.5
426.513	92.5
426.735	100.5
426.958	94.5
427.18	105.5
427.402	114.5
427.625	143.5
427.847	116.5
428.069	82.5
428.292	85.5
428.514	81.5
428.736	85.5
428.958	91.5
429.181	87.5
429.403	88.5
429.625	85.5
429.847	100.5
430.069	99.5
430.292	93.5
430.514	91.5
430.736	104.5
430.958	87.5
431.18	88.5
431.402	88.5
431.624	89.5
431.846	94.5
432.068	94.5
432.29	91.5
432.512	92.5
432.734	91.5
432.956	94.5
433.178	103.5
433.4	98.5
433.622	91.5
433.844	105.5
434.066	95.5
434.287	91.5
434.509	97.5
434.731	100.5
434.953	96.5
435.175	91.5
435.397	102.5
435.618	106.5
435.84	111.5
436.062	126.5
436.284	84.5
436.505	98.5
436.727	98.5
436.949	94.5
437.17	96.5
437.392	73.5
437.614	88.5
437.835	101.5
438.057	110.5
438.278	110.5
438.5	96.5
438.721	120.5
438.943	87.5
439.165	83.5
439.386	76.5
439.608	97.5
439.829	87.5
440.05	113.5
440.272	126.5
440.493	100.5
440.715	91.5
440.936	90.5
441.158	82.5
441.379	104.5
441.6	105.5
441.822	110.5
442.043	96.5
442.264	110.5
442.486	83.5
442.707	98.5
442.928	105.5
443.149	130.5
443.371	126.5
443.592	122.5
443.813	114.5
444.034	106.5
444.255	101.5
444.476	97.5
444.698	98.5
444.919	94.5
445.14	137.5
445.361	132.5
445.582	100.5
445.803	121.5
446.024	129.5
446.245	137.5
446.466	102.5
446.687	91.5
446.908	91.5
447.129	100.5
447.35	103.5
447.571	91.5
447.792	93.5
448.013	103.5
448.234	106.5
448.455	95.5
448.675	101.5
448.896	121.5
449.117	106.5
449.338	116.5
449.559	119.5
449.779	114.5
450	86.5
450.221	91.5
450.442	79.5
450.662	91.5
450.883	107.5
451.104	111.5
451.324	94.5
451.545	83.5
451.766	95.5
451.986	102.5
452.207	107.5
452.428	106.5
452.648	105.5
452.869	108.5
453.089	112.5
453.31	121.5
453.53	92.5
453.751	97.5
453.971	105.5
454.192	120.5
454.412	93.5
454.633	96.5
454.853	102.5
455.073	84.5
455.294	90.5
455.514	106.5
455.734	101.5
455.955	102.5
456.175	95.5
456.395	93.5
456.616	93.5
456.836	88.5
457.056	102.5
457.276	75.5
457.497	94.5
457.717	88.5
457.937	73.5
458.157	89.5
458.377	93.5
458.598	96.5
458.818	132.5
459.038	133.5
459.258	106.5
459.478	101.5
459.698	79.5
459.918	88.5
460.138	84.5
460.358	101.5
460.578	96.5
460.798	103.5
461.018	97.5
461.238	103.5
461.458	90.5
461.678	100.5
461.898	100.5
462.118	93.5
462.338	93.5
462.558	94.5
462.777	85.5
462.997	98.5
463.217	86.5
463.437	78.5
463.657	103.5
463.876	106.5
464.096	95.5
464.316	103.5
464.536	106.5
464.755	104.5
464.975	107.5
465.195	121.5
465.414	147.5
465.634	119.5
465.854	96.5
466.073	90.5
466.293	88.5
466.512	97.5
466.732	80.5
466.951	103.5
467.171	87.5
467.391	94.5
467.61	91.5
467.829	90.5
468.049	91.5
468.268	100.5
468.488	96.5
468.707	100.5
468.927	99.5
469.146	93.5
469.365	83.5
469.585	99.5
469.804	93.5
470.023	97.5
470.243	103.5
470.462	107.5
470.681	110.5
470.901	104.5
471.12	87.5
471.339	75.5
471.558	89.5
471.777	92.5
471.997	82.5
472.216	105.5
472.435	97.5
472.654	77.5
472.873	101.5
473.092	97.5
473.311	82.5
473.53	89.5
473.749	93.5
473.968	97.5
474.187	105.5
474.406	88.5
474.625	89.5
474.844	98.5
475.063	89.5
475.282	88.5
475.501	86.5
475.72	114.5
475.939	87.5
476.158	91.5
476.377	92.5
476.596	80.5
476.814	103.5
477.033	94.5
477.252	83.5
477.471	92.5
477.69	106.5
477.908	100.5
478.127	83.5
478.346	113.5
478.564	96.5
478.783	99.5
479.002	104.5
479.22	95.5
479.439	102.5
479.658	117.5
479.876	103.5
480.095	90.5
480.313	91.5
480.532	100.5
480.751	83.5
480.969	101.5
481.188	101.5
481.406	79.5
481.624	94.5
481.843	89.5
482.061	84.5
482.28	89.5
482.498	78.5
482.717	103.5
482.935	96.5
483.153	87.5
483.372	93.5
483.59	97.5
483.808	101.5
484.027	90.5
484.245	100.5
484.463	97.5
484.681	94.5
484.9	107.5
485.118	99.5
485.336	85.5
485.554	101.5
485.772	102.5
485.99	100.5
486.209	97.5
486.427	105.5
486.645	103.5
486.863	128.5
487.081	91.5
487.299	102.5
487.517	103.5
487.735	106.5
487.953	87.5
488.171	112.5
488.389	105.5
488.607	104.5
488.825	94.5
489.043	99.5
489.261	73.5
489.479	84.5
489.696	106.5
489.914	88.5
490.132	90.5
490.35	94.5
490.568	92.5
490.786	99.5
491.003	94.5
491.221	99.5
491.439	96.5
491.657	94.5
491.874	94.5
492.092	98.5
492.31	96.5
492.527	110.5
492.745	83.5
492.963	109.5
493.18	91.5
493.398	99.5
493.615	106.5
493.833	105.5
494.05	97.5
494.268	104.5
494.485	104.5
494.703	100.5
494.92	91.5
495.138	89.5
495.355	85.5
495.573	112.5
495.79	101.5
496.008	110.5
496.225	115.5
496.442	106.5
496.66	101.5
496.877	87.5
497.094	115.5
497.312	97.5
497.529	102.5
497.746	88.5
497.963	104.5
498.181	102.5
498.398	113.5
498.615	122.5
498.832	115.5
499.049	88.5
499.267	112.5
499.484	98.5
499.701	114.5
499.918	98.5
500.135	96.5
500.352	102.5
500.569	100.5
500.786	84.5
501.003	97.5
501.22	101.5
501.437	104.5
501.654	99.5
501.871	114.5
502.088	93.5
502.305	90.5
502.522	74.5
502.739	99.5
502.956	94.5
503.172	121.5
503.389	106.5
503.606	112.5
503.823	105.5
504.04	103.5
504.256	102.5
504.473	100.5
504.69	104.5
504.907	112.5
505.123	107.5
505.34	94.5
505.557	99.5
505.773	88.5
505.99	102.5
506.207	99.5
506.423	101.5
506.64	98.5
506.856	101.5
507.073	90.5
507.289	107.5
507.506	102.5
507.722	106.5
507.939	108.5
508.155	96.5
508.372	98.5
508.588	85.5
508.805	89.5
509.021	91.5
509.238	111.5
509.454	99.5
509.67	95.5
509.887	111.5
510.103	117.5
510.319	224.5
510.536	698.5
510.752	2081.5
510.968	563.5
511.184	137.5
511.401	102.5
511.617	111.5
511.833	96.5
512.049	90.5
512.265	102.5
512.481	87.5
512.698	102.5
512.914	89.5
513.13	85.5
513.346	112.5
513.562	100.5
513.778	102.5
513.994	84.5
514.21	98.5
514.426	117.5
514.642	111.5
514.858	131.5
515.074	147.5
515.29	410.5
515.506	1251.5
515.721	458.5
515.937	138.5
516.153	106.5
516.369	97.5
516.585	94.5
516.801	98.5
517.016	113.5
517.232	98.5
517.448	112.5
517.664	102.5
517.879	93.5
518.095	94.5
518.311	87.5
518.527	97.5
518.742	90.5
518.958	83.5
519.173	93.5
519.389	86.5
519.605	99.5
519.82	106.5
520.036	112.5
520.251	121.5
520.467	105.5
520.682	111.5
520.898	111.5
521.113	116.5
521.329	128.5
521.544	178.5
521.76	497.5
521.975	2067.5
522.19	1215.5
522.406	272.5
522.621	130.5
522.836	109.5
523.052	109.5
523.267	100.5
523.482	83.5
523.698	109.5
523.913	123.5
524.128	110.5
524.343	93.5
524.559	103.5
524.774	90.5
524.989	100.5
525.204	97.5
525.419	96.5
525.634	106.5
525.849	93.5
526.064	101.5
526.28	102.5
526.495	100.5
526.71	86.5
526.925	93.5
527.14	102.5
527.355	82.5
527.57	112.5
527.785	85.5
527.999	93.5
528.214	103.5
528.429	103.5
528.644	104.5
528.859	106.5
529.074	104.5
529.289	108.5
529.503	168.5
529.718	120.5
529.933	105.5
530.148	90.5
530.363	111.5
530.577	96.5
530.792	99.5
531.007	107.5
531.221	84.5
531.436	99.5
531.651	93.5
531.865	107.5
532.08	99.5
532.295	97.5
532.509	109.5
532.724	103.5
