Data from Uncirc_1992_H10_HRD10591_00090.txt Node
Date: Wed Jan 03 11:46:34 EST 2024
User: Yrep
Spectrometer: HR+D1059
Trigger mode: 1
Integration Time (sec): 1.000000E-1
Scans to average: 1
Electric dark correction enabled: true
Nonlinearity correction enabled: false
Boxcar width: 0
XAxis mode: Wavelengths
Number of Pixels in Spectrum: 2048
>>>>>Begin Spectral Data<<<<<
223.165	-25.06
223.4	-25.06
223.635	-25.06
223.869	-18.06
224.104	-11.06
224.338	-1.06
224.573	-14.06
224.808	-3.06
225.042	-12.06
225.277	-14.06
225.511	-10.06
225.746	-2.06
225.98	12.94
226.215	5.94
226.449	12.94
226.683	27.94
226.918	21.94
227.152	28.94
227.387	26.94
227.621	40.94
227.856	43.94
228.09	43.94
228.324	44.94
228.559	59.94
228.793	64.94
229.027	57.94
229.262	60.94
229.496	79.94
229.73	78.94
229.964	82.94
230.199	74.94
230.433	63.94
230.667	74.94
230.901	83.94
231.136	78.94
231.37	79.94
231.604	69.94
231.838	81.94
232.072	78.94
232.306	80.94
232.541	84.94
232.775	63.94
233.009	85.94
233.243	84.94
233.477	78.94
233.711	62.94
233.945	75.94
234.179	73.94
234.413	80.94
234.647	77.94
234.881	68.94
235.115	79.94
235.349	72.94
235.583	79.94
235.817	78.94
236.051	71.94
236.285	80.94
236.519	89.94
236.753	78.94
236.987	68.94
237.221	79.94
237.455	80.94
237.689	68.94
237.922	72.94
238.156	78.94
238.39	70.94
238.624	78.94
238.858	63.94
239.091	72.94
239.325	76.94
239.559	75.94
239.793	72.94
240.027	82.94
240.26	69.94
240.494	73.94
240.728	86.94
240.961	81.94
241.195	75.94
241.429	76.94
241.662	69.94
241.896	55.94
242.13	78.94
242.363	71.94
242.597	86.94
242.83	72.94
243.064	75.94
243.298	73.94
243.531	69.94
243.765	80.94
243.998	80.94
244.232	90.94
244.465	78.94
244.699	84.94
244.932	66.94
245.166	68.94
245.399	70.94
245.633	81.94
245.866	79.94
246.099	72.94
246.333	81.94
246.566	74.94
246.8	83.94
247.033	74.94
247.266	63.94
247.5	66.94
247.733	62.94
247.966	64.94
248.2	73.94
248.433	78.94
248.666	88.94
248.899	85.94
249.133	88.94
249.366	92.94
249.599	93.94
249.832	78.94
250.066	80.94
250.299	86.94
250.532	72.94
250.765	83.94
250.998	73.94
251.231	69.94
251.465	78.94
251.698	85.94
251.931	54.94
252.164	60.94
252.397	71.94
252.63	85.94
252.863	81.94
253.096	80.94
253.329	78.94
253.562	94.94
253.795	88.94
254.028	73.94
254.261	73.94
254.494	80.94
254.727	79.94
254.96	84.94
255.193	84.94
255.426	78.94
255.659	68.94
255.892	86.94
256.124	89.94
256.357	78.94
256.59	94.94
256.823	74.94
257.056	79.94
257.289	88.94
257.521	82.94
257.754	78.94
257.987	76.94
258.22	77.94
258.452	75.94
258.685	91.94
258.918	70.94
259.151	87.94
259.383	68.94
259.616	84.94
259.849	81.94
260.081	84.94
260.314	81.94
260.547	81.94
260.779	77.94
261.012	72.94
261.244	79.94
261.477	104.94
261.71	85.94
261.942	106.94
262.175	113.94
262.407	89.94
262.64	90.94
262.872	84.94
263.105	72.94
263.337	84.94
263.57	80.94
263.802	68.94
264.035	95.94
264.267	65.94
264.499	79.94
264.732	81.94
264.964	78.94
265.197	94.94
265.429	81.94
265.661	82.94
265.894	84.94
266.126	91.94
266.358	74.94
266.591	82.94
266.823	84.94
267.055	75.94
267.287	90.94
267.52	79.94
267.752	90.94
267.984	85.94
268.216	74.94
268.448	94.94
268.681	82.94
268.913	85.94
269.145	92.94
269.377	91.94
269.609	82.94
269.841	90.94
270.073	91.94
270.306	80.94
270.538	83.94
270.77	82.94
271.002	89.94
271.234	83.94
271.466	80.94
271.698	85.94
271.93	91.94
272.162	92.94
272.394	91.94
272.626	78.94
272.858	80.94
273.09	69.94
273.322	76.94
273.553	84.94
273.785	88.94
274.017	82.94
274.249	81.94
274.481	81.94
274.713	77.94
274.945	98.94
275.176	78.94
275.408	88.94
275.64	91.94
275.872	71.94
276.104	83.94
276.335	76.94
276.567	79.94
276.799	101.94
277.031	88.94
277.262	85.94
277.494	88.94
277.726	90.94
277.957	80.94
278.189	98.94
278.421	78.94
278.652	83.94
278.884	72.94
279.115	81.94
279.347	74.94
279.579	85.94
279.81	100.94
280.042	86.94
280.273	89.94
280.505	106.94
280.736	80.94
280.968	81.94
281.199	70.94
281.431	77.94
281.662	76.94
281.894	68.94
282.125	88.94
282.356	126.94
282.588	118.94
282.819	102.94
283.051	90.94
283.282	93.94
283.513	83.94
283.745	80.94
283.976	75.94
284.207	82.94
284.439	91.94
284.67	80.94
284.901	81.94
285.132	75.94
285.364	71.94
285.595	72.94
285.826	80.94
286.057	82.94
286.288	67.94
286.52	94.94
286.751	85.94
286.982	87.94
287.213	78.94
287.444	89.94
287.675	72.94
287.906	93.94
288.138	90.94
288.369	97.94
288.6	74.94
288.831	81.94
289.062	92.94
289.293	84.94
289.524	90.94
289.755	89.94
289.986	75.94
290.217	88.94
290.448	96.94
290.679	83.94
290.91	80.94
291.141	87.94
291.371	84.94
291.602	91.94
291.833	80.94
292.064	93.94
292.295	106.94
292.526	89.94
292.757	88.94
292.987	83.94
293.218	76.94
293.449	68.94
293.68	86.94
293.91	84.94
294.141	98.94
294.372	95.94
294.603	93.94
294.833	73.94
295.064	79.94
295.295	84.94
295.525	94.94
295.756	84.94
295.987	129.94
296.217	127.94
296.448	112.94
296.679	86.94
296.909	82.94
297.14	99.94
297.37	79.94
297.601	82.94
297.831	69.94
298.062	94.94
298.292	96.94
298.523	92.94
298.753	82.94
298.984	65.94
299.214	85.94
299.445	88.94
299.675	80.94
299.905	88.94
300.136	86.94
300.366	92.94
300.597	97.94
300.827	82.94
301.057	101.94
301.288	91.94
301.518	101.94
301.748	101.94
301.979	91.94
302.209	98.94
302.439	76.94
302.669	88.94
302.9	97.94
303.13	88.94
303.36	93.94
303.59	94.94
303.82	109.94
304.051	84.94
304.281	90.94
304.511	105.94
304.741	100.94
304.971	80.94
305.201	88.94
305.431	83.94
305.661	77.94
305.891	82.94
306.121	99.94
306.352	93.94
306.582	94.94
306.812	78.94
307.042	96.94
307.272	93.94
307.502	95.94
307.731	93.94
307.961	101.94
308.191	91.94
308.421	83.94
308.651	91.94
308.881	92.94
309.111	86.94
309.341	82.94
309.571	93.94
309.8	102.94
310.03	105.94
310.26	102.94
310.49	94.94
310.72	100.94
310.949	99.94
311.179	97.94
311.409	97.94
311.639	101.94
311.868	89.94
312.098	89.94
312.328	90.94
312.557	97.94
312.787	89.94
313.017	96.94
313.246	90.94
313.476	87.94
313.706	85.94
313.935	83.94
314.165	101.94
314.394	86.94
314.624	90.94
314.853	90.94
315.083	93.94
315.312	99.94
315.542	93.94
315.771	84.94
316.001	86.94
316.23	92.94
316.46	85.94
316.689	74.94
316.919	106.94
317.148	83.94
317.377	100.94
317.607	85.94
317.836	89.94
318.065	90.94
318.295	92.94
318.524	75.94
318.753	79.94
318.983	90.94
319.212	117.94
319.441	110.94
319.67	105.94
319.9	88.94
320.129	93.94
320.358	99.94
320.587	86.94
320.816	81.94
321.046	109.94
321.275	85.94
321.504	101.94
321.733	92.94
321.962	83.94
322.191	96.94
322.42	84.94
322.649	112.94
322.878	98.94
323.108	119.94
323.337	119.94
323.566	124.94
323.795	136.94
324.024	190.94
324.253	338.94
324.482	701.94
324.71	1361.94
324.939	1794.94
325.168	690.94
325.397	237.94
325.626	133.94
325.855	122.94
326.084	110.94
326.313	132.94
326.542	134.94
326.77	213.94
326.999	408.94
327.228	788.94
327.457	1441.94
327.686	1100.94
327.914	324.94
328.143	165.94
328.372	129.94
328.6	128.94
328.829	110.94
329.058	129.94
329.287	130.94
329.515	103.94
329.744	100.94
329.972	98.94
330.201	101.94
330.43	103.94
330.658	98.94
330.887	122.94
331.115	113.94
331.344	81.94
331.572	92.94
331.801	89.94
332.03	94.94
332.258	105.94
332.486	83.94
332.715	77.94
332.943	98.94
333.172	90.94
333.4	83.94
333.629	115.94
333.857	109.94
334.085	100.94
334.314	101.94
334.542	92.94
334.771	95.94
334.999	83.94
335.227	83.94
335.455	100.94
335.684	87.94
335.912	90.94
336.14	109.94
336.369	94.94
336.597	89.94
336.825	91.94
337.053	80.94
337.281	99.94
337.51	92.94
337.738	98.94
337.966	83.94
338.194	99.94
338.422	99.94
338.65	110.94
338.878	81.94
339.106	94.94
339.334	94.94
339.562	83.94
339.79	80.94
340.018	95.94
340.246	94.94
340.474	82.94
340.702	111.94
340.93	97.94
341.158	87.94
341.386	103.94
341.614	82.94
341.842	109.94
342.07	97.94
342.298	76.94
342.526	90.94
342.754	88.94
342.981	95.94
343.209	85.94
343.437	90.94
343.665	89.94
343.893	86.94
344.12	96.94
344.348	101.94
344.576	84.94
344.804	94.94
345.031	82.94
345.259	98.94
345.487	88.94
345.714	94.94
345.942	88.94
346.17	98.94
346.397	83.94
346.625	86.94
346.853	75.94
347.08	100.94
347.308	92.94
347.535	96.94
347.763	91.94
347.99	80.94
348.218	101.94
348.445	93.94
348.673	95.94
348.9	96.94
349.128	84.94
349.355	102.94
349.583	100.94
349.81	95.94
350.037	96.94
350.265	93.94
350.492	85.94
350.72	92.94
350.947	119.94
351.174	101.94
351.402	106.94
351.629	108.94
351.856	100.94
352.083	99.94
352.311	99.94
352.538	107.94
352.765	95.94
352.992	116.94
353.22	110.94
353.447	100.94
353.674	98.94
353.901	117.94
354.128	89.94
354.355	101.94
354.583	76.94
354.81	102.94
355.037	83.94
355.264	85.94
355.491	91.94
355.718	85.94
355.945	86.94
356.172	102.94
356.399	84.94
356.626	85.94
356.853	65.94
357.08	83.94
357.307	95.94
357.534	85.94
357.761	93.94
357.988	95.94
358.215	88.94
358.441	95.94
358.668	86.94
358.895	89.94
359.122	87.94
359.349	83.94
359.576	90.94
359.802	101.94
360.029	111.94
360.256	107.94
360.483	93.94
360.709	86.94
360.936	93.94
361.163	95.94
361.39	80.94
361.616	97.94
361.843	86.94
362.07	78.94
362.296	81.94
362.523	87.94
362.749	92.94
362.976	85.94
363.203	92.94
363.429	92.94
363.656	81.94
363.882	84.94
364.109	88.94
364.335	106.94
364.562	92.94
364.788	90.94
365.015	92.94
365.241	84.94
365.468	86.94
365.694	92.94
365.92	90.94
366.147	86.94
366.373	102.94
366.599	83.94
366.826	100.94
367.052	78.94
367.278	100.94
367.505	93.94
367.731	78.94
367.957	91.94
368.184	101.94
368.41	87.94
368.636	110.94
368.862	116.94
369.089	107.94
369.315	92.94
369.541	85.94
369.767	97.94
369.993	86.94
370.219	86.94
370.445	94.94
370.672	70.94
370.898	92.94
371.124	77.94
371.35	80.94
371.576	90.94
371.802	89.94
372.028	89.94
372.254	96.94
372.48	89.94
372.706	83.94
372.932	89.94
373.158	83.94
373.384	91.94
373.61	97.94
373.835	90.94
374.061	89.94
374.287	82.94
374.513	88.94
374.739	90.94
374.965	78.94
375.191	73.94
375.416	77.94
375.642	96.94
375.868	92.94
376.094	80.94
376.319	103.94
376.545	91.94
376.771	101.94
376.997	90.94
377.222	103.94
377.448	97.94
377.674	105.94
377.899	97.94
378.125	83.94
378.35	95.94
378.576	78.94
378.802	78.94
379.027	74.94
379.253	99.94
379.478	91.94
379.704	102.94
379.929	98.94
380.155	84.94
380.38	76.94
380.606	94.94
380.831	97.94
381.057	93.94
381.282	83.94
381.507	91.94
381.733	106.94
381.958	91.94
382.184	88.94
382.409	97.94
382.634	73.94
382.86	84.94
383.085	96.94
383.31	103.94
383.535	100.94
383.761	93.94
383.986	107.94
384.211	97.94
384.436	85.94
384.662	88.94
384.887	101.94
385.112	90.94
385.337	107.94
385.562	97.94
385.787	85.94
386.013	111.94
386.238	109.94
386.463	108.94
386.688	89.94
386.913	98.94
387.138	97.94
387.363	109.94
387.588	96.94
387.813	101.94
388.038	92.94
388.263	109.94
388.488	88.94
388.713	94.94
388.938	88.94
389.163	94.94
389.387	107.94
389.612	106.94
389.837	88.94
390.062	89.94
390.287	88.94
390.512	101.94
390.736	88.94
390.961	92.94
391.186	92.94
391.411	82.94
391.636	102.94
391.86	98.94
392.085	84.94
392.31	84.94
392.534	77.94
392.759	80.94
392.984	87.94
393.208	80.94
393.433	82.94
393.658	90.94
393.882	94.94
394.107	76.94
394.331	90.94
394.556	76.94
394.78	91.94
395.005	88.94
395.229	88.94
395.454	96.94
395.678	91.94
395.903	92.94
396.127	93.94
396.352	100.94
396.576	81.94
396.801	90.94
397.025	85.94
397.249	94.94
397.474	85.94
397.698	94.94
397.922	101.94
398.147	76.94
398.371	82.94
398.595	67.94
398.82	93.94
399.044	90.94
399.268	78.94
399.492	102.94
399.717	81.94
399.941	82.94
400.165	88.94
400.389	100.94
400.613	85.94
400.837	85.94
401.062	91.94
401.286	88.94
401.51	99.94
401.734	111.94
401.958	100.94
402.182	108.94
402.406	144.94
402.63	104.94
402.854	100.94
403.078	77.94
403.302	98.94
403.526	78.94
403.75	77.94
403.974	83.94
404.198	80.94
404.422	96.94
404.645	72.94
404.869	88.94
405.093	83.94
405.317	100.94
405.541	85.94
405.765	86.94
405.988	96.94
406.212	149.94
406.436	207.94
406.66	129.94
406.883	95.94
407.107	98.94
407.331	97.94
407.555	90.94
407.778	101.94
408.002	74.94
408.226	96.94
408.449	86.94
408.673	96.94
408.896	92.94
409.12	100.94
409.344	94.94
409.567	89.94
409.791	86.94
410.014	93.94
410.238	84.94
410.461	95.94
410.685	92.94
410.908	106.94
411.132	102.94
411.355	98.94
411.578	89.94
411.802	87.94
412.025	87.94
412.249	87.94
412.472	87.94
412.695	77.94
412.919	92.94
413.142	93.94
413.365	81.94
413.589	89.94
413.812	88.94
414.035	90.94
414.258	88.94
414.482	83.94
414.705	82.94
414.928	83.94
415.151	93.94
415.374	100.94
415.597	87.94
415.821	88.94
416.044	83.94
416.267	88.94
416.49	90.94
416.713	93.94
416.936	94.94
417.159	77.94
417.382	85.94
417.605	90.94
417.828	100.94
418.051	86.94
418.274	112.94
418.497	85.94
418.72	71.94
418.943	90.94
419.166	97.94
419.389	92.94
419.611	80.94
419.834	81.94
420.057	79.94
420.28	92.94
420.503	104.94
420.726	77.94
420.948	104.94
421.171	79.94
421.394	97.94
421.617	94.94
421.839	85.94
422.062	85.94
422.285	89.94
422.507	99.94
422.73	101.94
422.953	82.94
423.175	85.94
423.398	73.94
423.621	95.94
423.843	70.94
424.066	75.94
424.288	80.94
424.511	92.94
424.733	89.94
424.956	103.94
425.178	90.94
425.401	94.94
425.623	84.94
425.846	91.94
426.068	83.94
426.291	95.94
426.513	82.94
426.735	93.94
426.958	94.94
427.18	103.94
427.402	129.94
427.625	152.94
427.847	113.94
428.069	94.94
428.292	76.94
428.514	109.94
428.736	85.94
428.958	79.94
429.181	101.94
429.403	92.94
429.625	77.94
429.847	82.94
430.069	76.94
430.292	87.94
430.514	77.94
430.736	83.94
430.958	98.94
431.18	89.94
431.402	94.94
431.624	98.94
431.846	96.94
432.068	97.94
432.29	81.94
432.512	81.94
432.734	87.94
432.956	99.94
433.178	92.94
433.4	93.94
433.622	77.94
433.844	78.94
434.066	81.94
434.287	95.94
434.509	80.94
434.731	89.94
434.953	94.94
435.175	84.94
435.397	78.94
435.618	87.94
435.84	107.94
436.062	106.94
436.284	118.94
436.505	105.94
436.727	88.94
436.949	93.94
437.17	96.94
437.392	107.94
437.614	92.94
437.835	99.94
438.057	97.94
438.278	104.94
438.5	94.94
438.721	101.94
438.943	89.94
439.165	94.94
439.386	97.94
439.608	97.94
439.829	96.94
440.05	103.94
440.272	128.94
440.493	106.94
440.715	92.94
440.936	90.94
441.158	77.94
441.379	85.94
441.6	90.94
441.822	80.94
442.043	92.94
442.264	98.94
442.486	99.94
442.707	86.94
442.928	86.94
443.149	129.94
443.371	112.94
443.592	108.94
443.813	86.94
444.034	105.94
444.255	87.94
444.476	90.94
444.698	85.94
444.919	93.94
445.14	113.94
445.361	116.94
445.582	103.94
445.803	112.94
446.024	126.94
446.245	131.94
446.466	111.94
446.687	91.94
446.908	100.94
447.129	95.94
447.35	84.94
447.571	93.94
447.792	92.94
448.013	98.94
448.234	97.94
448.455	118.94
448.675	100.94
448.896	112.94
449.117	97.94
449.338	97.94
449.559	117.94
449.779	126.94
450	98.94
450.221	90.94
450.442	92.94
450.662	92.94
450.883	102.94
451.104	92.94
451.324	86.94
451.545	84.94
451.766	89.94
451.986	85.94
452.207	90.94
452.428	96.94
452.648	99.94
452.869	96.94
453.089	101.94
453.31	101.94
453.53	82.94
453.751	94.94
453.971	102.94
454.192	89.94
454.412	92.94
454.633	85.94
454.853	80.94
455.073	82.94
455.294	96.94
455.514	89.94
455.734	88.94
455.955	89.94
456.175	90.94
456.395	96.94
456.616	84.94
456.836	77.94
457.056	85.94
457.276	84.94
457.497	75.94
457.717	73.94
457.937	72.94
458.157	87.94
458.377	78.94
458.598	106.94
458.818	139.94
459.038	149.94
459.258	100.94
459.478	96.94
459.698	88.94
459.918	74.94
460.138	89.94
460.358	83.94
460.578	86.94
460.798	82.94
461.018	92.94
461.238	93.94
461.458	77.94
461.678	81.94
461.898	98.94
462.118	84.94
462.338	85.94
462.558	85.94
462.777	96.94
462.997	88.94
463.217	74.94
463.437	92.94
463.657	91.94
463.876	100.94
464.096	88.94
464.316	103.94
464.536	105.94
464.755	86.94
464.975	95.94
465.195	136.94
465.414	136.94
465.634	86.94
465.854	84.94
466.073	93.94
466.293	86.94
466.512	78.94
466.732	99.94
466.951	74.94
467.171	90.94
467.391	104.94
467.61	113.94
467.829	88.94
468.049	92.94
468.268	91.94
468.488	83.94
468.707	85.94
468.927	81.94
469.146	92.94
469.365	88.94
469.585	81.94
469.804	93.94
470.023	89.94
470.243	94.94
470.462	97.94
470.681	96.94
470.901	78.94
471.12	85.94
471.339	80.94
471.558	87.94
471.777	86.94
471.997	83.94
472.216	78.94
472.435	88.94
472.654	81.94
472.873	95.94
473.092	85.94
473.311	91.94
473.53	85.94
473.749	92.94
473.968	76.94
474.187	96.94
474.406	87.94
474.625	94.94
474.844	95.94
475.063	74.94
475.282	90.94
475.501	83.94
475.72	96.94
475.939	78.94
476.158	96.94
476.377	92.94
476.596	86.94
476.814	104.94
477.033	91.94
477.252	94.94
477.471	84.94
477.69	96.94
477.908	89.94
478.127	94.94
478.346	98.94
478.564	98.94
478.783	106.94
479.002	88.94
479.22	92.94
479.439	101.94
479.658	82.94
479.876	99.94
480.095	89.94
480.313	95.94
480.532	69.94
480.751	88.94
480.969	101.94
481.188	103.94
481.406	90.94
481.624	81.94
481.843	89.94
482.061	85.94
482.28	86.94
482.498	107.94
482.717	93.94
482.935	92.94
483.153	97.94
483.372	91.94
483.59	78.94
483.808	80.94
484.027	96.94
484.245	105.94
484.463	86.94
484.681	100.94
484.9	99.94
485.118	96.94
485.336	92.94
485.554	96.94
485.772	98.94
485.99	108.94
486.209	117.94
486.427	100.94
486.645	97.94
486.863	105.94
487.081	97.94
487.299	92.94
487.517	88.94
487.735	94.94
487.953	92.94
488.171	84.94
488.389	90.94
488.607	102.94
488.825	93.94
489.043	92.94
489.261	78.94
489.479	93.94
489.696	88.94
489.914	92.94
490.132	96.94
490.35	86.94
490.568	83.94
490.786	91.94
491.003	97.94
491.221	88.94
491.439	105.94
491.657	97.94
491.874	88.94
492.092	97.94
492.31	94.94
492.527	94.94
492.745	80.94
492.963	95.94
493.18	76.94
493.398	89.94
493.615	116.94
493.833	102.94
494.05	94.94
494.268	88.94
494.485	98.94
494.703	89.94
494.92	94.94
495.138	93.94
495.355	92.94
495.573	84.94
495.79	71.94
496.008	93.94
496.225	97.94
496.442	93.94
496.66	97.94
496.877	84.94
497.094	85.94
497.312	92.94
497.529	88.94
497.746	102.94
497.963	94.94
498.181	88.94
498.398	98.94
498.615	93.94
498.832	95.94
499.049	86.94
499.267	89.94
499.484	96.94
499.701	94.94
499.918	101.94
500.135	96.94
500.352	90.94
500.569	79.94
500.786	93.94
501.003	88.94
501.22	91.94
501.437	84.94
501.654	96.94
501.871	108.94
502.088	80.94
502.305	86.94
502.522	98.94
502.739	82.94
502.956	101.94
503.172	94.94
503.389	101.94
503.606	98.94
503.823	89.94
504.04	93.94
504.256	85.94
504.473	96.94
504.69	80.94
504.907	91.94
505.123	93.94
505.34	90.94
505.557	92.94
505.773	100.94
505.99	93.94
506.207	93.94
506.423	84.94
506.64	79.94
506.856	87.94
507.073	89.94
507.289	93.94
507.506	89.94
507.722	122.94
507.939	89.94
508.155	88.94
508.372	98.94
508.588	77.94
508.805	95.94
509.021	95.94
509.238	90.94
509.454	106.94
509.67	90.94
509.887	110.94
510.103	123.94
510.319	209.94
510.536	698.94
510.752	2080.94
510.968	586.94
511.184	145.94
511.401	101.94
511.617	103.94
511.833	92.94
512.049	94.94
512.265	80.94
512.481	109.94
512.698	82.94
512.914	96.94
513.13	100.94
513.346	94.94
513.562	93.94
513.778	99.94
513.994	95.94
514.21	101.94
514.426	120.94
514.642	109.94
514.858	134.94
515.074	160.94
515.29	400.94
515.506	1260.94
515.721	464.94
515.937	125.94
516.153	100.94
516.369	101.94
516.585	101.94
