Data from Uncirc_1992_H10_HRD10591_00043.txt Node
Date: Wed Jan 03 11:46:24 EST 2024
User: Yrep
Spectrometer: HR+D1059
Trigger mode: 1
Integration Time (sec): 1.000000E-1
Scans to average: 1
Electric dark correction enabled: true
Nonlinearity correction enabled: false
Boxcar width: 0
XAxis mode: Wavelengths
Number of Pixels in Spectrum: 2048
>>>>>Begin Spectral Data<<<<<
223.165	-6.12
223.4	-6.12
223.635	-6.12
223.869	-14.12
224.104	-22.12
224.338	-15.12
224.573	-10.12
224.808	-18.12
225.042	-9.12
225.277	-7.12
225.511	-4.12
225.746	1.88
225.98	-5.12
226.215	9.88
226.449	17.88
226.683	30.88
226.918	26.88
227.152	23.88
227.387	34.88
227.621	39.88
227.856	31.88
228.09	41.88
228.324	37.88
228.559	50.88
228.793	69.88
229.027	61.88
229.262	66.88
229.496	68.88
229.73	87.88
229.964	75.88
230.199	62.88
230.433	75.88
230.667	71.88
230.901	72.88
231.136	73.88
231.37	76.88
231.604	94.88
231.838	86.88
232.072	77.88
232.306	77.88
232.541	85.88
232.775	69.88
233.009	81.88
233.243	64.88
233.477	89.88
233.711	78.88
233.945	83.88
234.179	79.88
234.413	73.88
234.647	95.88
234.881	86.88
235.115	65.88
235.349	74.88
235.583	60.88
235.817	79.88
236.051	75.88
236.285	83.88
236.519	80.88
236.753	74.88
236.987	72.88
237.221	85.88
237.455	84.88
237.689	71.88
237.922	75.88
238.156	70.88
238.39	78.88
238.624	70.88
238.858	75.88
239.091	73.88
239.325	78.88
239.559	61.88
239.793	65.88
240.027	69.88
240.26	59.88
240.494	83.88
240.728	76.88
240.961	73.88
241.195	72.88
241.429	73.88
241.662	64.88
241.896	70.88
242.13	80.88
242.363	64.88
242.597	73.88
242.83	86.88
243.064	75.88
243.298	70.88
243.531	70.88
243.765	73.88
243.998	79.88
244.232	87.88
244.465	80.88
244.699	80.88
244.932	72.88
245.166	86.88
245.399	70.88
245.633	76.88
245.866	94.88
246.099	68.88
246.333	86.88
246.566	87.88
246.8	73.88
247.033	70.88
247.266	80.88
247.5	75.88
247.733	67.88
247.966	67.88
248.2	85.88
248.433	74.88
248.666	87.88
248.899	90.88
249.133	74.88
249.366	88.88
249.599	82.88
249.832	85.88
250.066	81.88
250.299	64.88
250.532	74.88
250.765	80.88
250.998	83.88
251.231	69.88
251.465	81.88
251.698	75.88
251.931	62.88
252.164	83.88
252.397	86.88
252.63	56.88
252.863	73.88
253.096	79.88
253.329	79.88
253.562	84.88
253.795	66.88
254.028	75.88
254.261	70.88
254.494	71.88
254.727	75.88
254.96	81.88
255.193	75.88
255.426	73.88
255.659	75.88
255.892	83.88
256.124	90.88
256.357	74.88
256.59	87.88
256.823	84.88
257.056	77.88
257.289	82.88
257.521	73.88
257.754	72.88
257.987	95.88
258.22	75.88
258.452	77.88
258.685	66.88
258.918	64.88
259.151	75.88
259.383	98.88
259.616	86.88
259.849	78.88
260.081	77.88
260.314	83.88
260.547	64.88
260.779	87.88
261.012	73.88
261.244	76.88
261.477	77.88
261.71	80.88
261.942	93.88
262.175	106.88
262.407	83.88
262.64	97.88
262.872	82.88
263.105	76.88
263.337	80.88
263.57	71.88
263.802	74.88
264.035	75.88
264.267	74.88
264.499	76.88
264.732	73.88
264.964	75.88
265.197	84.88
265.429	83.88
265.661	79.88
265.894	79.88
266.126	72.88
266.358	79.88
266.591	72.88
266.823	70.88
267.055	77.88
267.287	80.88
267.52	83.88
267.752	74.88
267.984	102.88
268.216	81.88
268.448	78.88
268.681	69.88
268.913	78.88
269.145	90.88
269.377	85.88
269.609	86.88
269.841	85.88
270.073	77.88
270.306	85.88
270.538	93.88
270.77	76.88
271.002	86.88
271.234	66.88
271.466	85.88
271.698	74.88
271.93	93.88
272.162	76.88
272.394	81.88
272.626	78.88
272.858	79.88
273.09	89.88
273.322	87.88
273.553	87.88
273.785	62.88
274.017	74.88
274.249	93.88
274.481	90.88
274.713	71.88
274.945	75.88
275.176	75.88
275.408	85.88
275.64	90.88
275.872	77.88
276.104	102.88
276.335	88.88
276.567	90.88
276.799	90.88
277.031	94.88
277.262	78.88
277.494	75.88
277.726	91.88
277.957	85.88
278.189	69.88
278.421	90.88
278.652	85.88
278.884	69.88
279.115	87.88
279.347	89.88
279.579	73.88
279.81	83.88
280.042	90.88
280.273	77.88
280.505	87.88
280.736	80.88
280.968	73.88
281.199	67.88
281.431	82.88
281.662	83.88
281.894	92.88
282.125	89.88
282.356	92.88
282.588	121.88
282.819	91.88
283.051	85.88
283.282	80.88
283.513	93.88
283.745	82.88
283.976	67.88
284.207	81.88
284.439	83.88
284.67	87.88
284.901	83.88
285.132	72.88
285.364	81.88
285.595	66.88
285.826	78.88
286.057	93.88
286.288	85.88
286.52	74.88
286.751	91.88
286.982	82.88
287.213	82.88
287.444	85.88
287.675	78.88
287.906	85.88
288.138	84.88
288.369	82.88
288.6	91.88
288.831	85.88
289.062	85.88
289.293	67.88
289.524	86.88
289.755	85.88
289.986	90.88
290.217	75.88
290.448	76.88
290.679	69.88
290.91	89.88
291.141	73.88
291.371	77.88
291.602	93.88
291.833	91.88
292.064	89.88
292.295	103.88
292.526	87.88
292.757	98.88
292.987	80.88
293.218	69.88
293.449	74.88
293.68	95.88
293.91	87.88
294.141	78.88
294.372	87.88
294.603	81.88
294.833	89.88
295.064	75.88
295.295	75.88
295.525	90.88
295.756	85.88
295.987	109.88
296.217	128.88
296.448	103.88
296.679	88.88
296.909	81.88
297.14	82.88
297.37	85.88
297.601	91.88
297.831	92.88
298.062	93.88
298.292	78.88
298.523	85.88
298.753	96.88
298.984	90.88
299.214	91.88
299.445	88.88
299.675	76.88
299.905	90.88
300.136	97.88
300.366	89.88
300.597	77.88
300.827	86.88
301.057	75.88
301.288	111.88
301.518	86.88
301.748	93.88
301.979	98.88
302.209	84.88
302.439	80.88
302.669	80.88
302.9	85.88
303.13	77.88
303.36	88.88
303.59	104.88
303.82	103.88
304.051	92.88
304.281	83.88
304.511	89.88
304.741	82.88
304.971	77.88
305.201	75.88
305.431	81.88
305.661	87.88
305.891	100.88
306.121	103.88
306.352	108.88
306.582	84.88
306.812	85.88
307.042	86.88
307.272	88.88
307.502	73.88
307.731	82.88
307.961	87.88
308.191	85.88
308.421	80.88
308.651	95.88
308.881	71.88
309.111	96.88
309.341	86.88
309.571	95.88
309.8	97.88
310.03	96.88
310.26	102.88
310.49	107.88
310.72	80.88
310.949	104.88
311.179	89.88
311.409	107.88
311.639	88.88
311.868	93.88
312.098	84.88
312.328	85.88
312.557	100.88
312.787	99.88
313.017	98.88
313.246	104.88
313.476	82.88
313.706	85.88
313.935	91.88
314.165	110.88
314.394	90.88
314.624	96.88
314.853	83.88
315.083	88.88
315.312	92.88
315.542	80.88
315.771	83.88
316.001	77.88
316.23	77.88
316.46	81.88
316.689	96.88
316.919	98.88
317.148	84.88
317.377	85.88
317.607	92.88
317.836	86.88
318.065	93.88
318.295	85.88
318.524	86.88
318.753	97.88
318.983	94.88
319.212	93.88
319.441	101.88
319.67	96.88
319.9	99.88
320.129	85.88
320.358	98.88
320.587	93.88
320.816	99.88
321.046	88.88
321.275	89.88
321.504	74.88
321.733	102.88
321.962	94.88
322.191	87.88
322.42	103.88
322.649	104.88
322.878	96.88
323.108	106.88
323.337	109.88
323.566	131.88
323.795	145.88
324.024	168.88
324.253	345.88
324.482	717.88
324.71	1470.88
324.939	1873.88
325.168	665.88
325.397	213.88
325.626	140.88
325.855	133.88
326.084	105.88
326.313	134.88
326.542	124.88
326.77	200.88
326.999	389.88
327.228	817.88
327.457	1441.88
327.686	1137.88
327.914	315.88
328.143	168.88
328.372	128.88
328.6	112.88
328.829	103.88
329.058	119.88
329.287	113.88
329.515	93.88
329.744	95.88
329.972	92.88
330.201	98.88
330.43	95.88
330.658	109.88
330.887	119.88
331.115	103.88
331.344	90.88
331.572	100.88
331.801	90.88
332.03	89.88
332.258	98.88
332.486	105.88
332.715	86.88
332.943	90.88
333.172	77.88
333.4	98.88
333.629	87.88
333.857	113.88
334.085	91.88
334.314	95.88
334.542	87.88
334.771	89.88
334.999	89.88
335.227	90.88
335.455	96.88
335.684	90.88
335.912	86.88
336.14	88.88
336.369	96.88
336.597	97.88
336.825	95.88
337.053	77.88
337.281	71.88
337.51	98.88
337.738	86.88
337.966	97.88
338.194	85.88
338.422	105.88
338.65	84.88
338.878	99.88
339.106	90.88
339.334	102.88
339.562	77.88
339.79	74.88
340.018	95.88
340.246	82.88
340.474	91.88
340.702	79.88
340.93	87.88
341.158	80.88
341.386	87.88
341.614	93.88
341.842	91.88
342.07	94.88
342.298	80.88
342.526	81.88
342.754	81.88
342.981	86.88
343.209	74.88
343.437	94.88
343.665	96.88
343.893	88.88
344.12	89.88
344.348	95.88
344.576	91.88
344.804	97.88
345.031	76.88
345.259	79.88
345.487	84.88
345.714	97.88
345.942	85.88
346.17	80.88
346.397	80.88
346.625	87.88
346.853	96.88
347.08	84.88
347.308	86.88
347.535	94.88
347.763	95.88
347.99	91.88
348.218	97.88
348.445	114.88
348.673	95.88
348.9	95.88
349.128	77.88
349.355	87.88
349.583	90.88
349.81	80.88
350.037	95.88
350.265	89.88
350.492	93.88
350.72	90.88
350.947	99.88
351.174	103.88
351.402	102.88
351.629	102.88
351.856	98.88
352.083	90.88
352.311	107.88
352.538	97.88
352.765	91.88
352.992	106.88
353.22	103.88
353.447	99.88
353.674	93.88
353.901	89.88
354.128	102.88
354.355	95.88
354.583	93.88
354.81	104.88
355.037	99.88
355.264	93.88
355.491	96.88
355.718	89.88
355.945	95.88
356.172	93.88
356.399	93.88
356.626	96.88
356.853	88.88
357.08	97.88
357.307	82.88
357.534	94.88
357.761	87.88
357.988	87.88
358.215	95.88
358.441	99.88
358.668	74.88
358.895	69.88
359.122	82.88
359.349	91.88
359.576	83.88
359.802	96.88
360.029	102.88
360.256	96.88
360.483	85.88
360.709	78.88
360.936	87.88
361.163	98.88
361.39	93.88
361.616	92.88
361.843	89.88
362.07	89.88
362.296	99.88
362.523	99.88
362.749	91.88
362.976	90.88
363.203	86.88
363.429	73.88
363.656	88.88
363.882	96.88
364.109	78.88
364.335	80.88
364.562	87.88
364.788	86.88
365.015	89.88
365.241	70.88
365.468	99.88
365.694	102.88
365.92	93.88
366.147	73.88
366.373	82.88
366.599	85.88
366.826	81.88
367.052	83.88
367.278	79.88
367.505	86.88
367.731	98.88
367.957	97.88
368.184	81.88
368.41	87.88
368.636	98.88
368.862	107.88
369.089	95.88
369.315	75.88
369.541	89.88
369.767	74.88
369.993	91.88
370.219	90.88
370.445	85.88
370.672	87.88
370.898	95.88
371.124	77.88
371.35	91.88
371.576	84.88
371.802	80.88
372.028	82.88
372.254	83.88
372.48	96.88
372.706	95.88
372.932	82.88
373.158	92.88
373.384	90.88
373.61	79.88
373.835	86.88
374.061	81.88
374.287	91.88
374.513	89.88
374.739	88.88
374.965	86.88
375.191	79.88
375.416	83.88
375.642	91.88
375.868	84.88
376.094	94.88
376.319	89.88
376.545	90.88
376.771	97.88
376.997	89.88
377.222	101.88
377.448	90.88
377.674	82.88
377.899	82.88
378.125	81.88
378.35	90.88
378.576	98.88
378.802	105.88
379.027	96.88
379.253	91.88
379.478	88.88
379.704	90.88
379.929	103.88
380.155	88.88
380.38	91.88
380.606	89.88
380.831	83.88
381.057	95.88
381.282	84.88
381.507	82.88
381.733	91.88
381.958	95.88
382.184	88.88
382.409	92.88
382.634	86.88
382.86	86.88
383.085	95.88
383.31	101.88
383.535	114.88
383.761	98.88
383.986	96.88
384.211	99.88
384.436	95.88
384.662	96.88
384.887	92.88
385.112	97.88
385.337	97.88
385.562	102.88
385.787	96.88
386.013	110.88
386.238	105.88
386.463	87.88
386.688	115.88
386.913	104.88
387.138	103.88
387.363	94.88
387.588	88.88
387.813	97.88
388.038	101.88
388.263	103.88
388.488	99.88
388.713	89.88
388.938	80.88
389.163	97.88
389.387	93.88
389.612	88.88
389.837	93.88
390.062	109.88
390.287	81.88
390.512	83.88
390.736	85.88
390.961	87.88
391.186	97.88
391.411	101.88
391.636	98.88
391.86	85.88
392.085	86.88
392.31	86.88
392.534	78.88
392.759	85.88
392.984	86.88
393.208	90.88
393.433	82.88
393.658	80.88
393.882	96.88
394.107	78.88
394.331	83.88
394.556	75.88
394.78	94.88
395.005	92.88
395.229	73.88
395.454	79.88
395.678	87.88
395.903	74.88
396.127	82.88
396.352	88.88
396.576	88.88
396.801	86.88
397.025	82.88
397.249	81.88
397.474	93.88
397.698	85.88
397.922	87.88
398.147	74.88
398.371	92.88
398.595	80.88
398.82	75.88
399.044	87.88
399.268	90.88
399.492	96.88
399.717	96.88
399.941	86.88
400.165	83.88
400.389	105.88
400.613	88.88
400.837	98.88
401.062	85.88
401.286	80.88
401.51	76.88
401.734	86.88
401.958	93.88
402.182	115.88
402.406	141.88
402.63	110.88
402.854	98.88
403.078	82.88
403.302	79.88
403.526	80.88
403.75	69.88
403.974	81.88
404.198	91.88
404.422	86.88
404.645	79.88
404.869	79.88
405.093	105.88
405.317	89.88
405.541	89.88
405.765	103.88
405.988	101.88
406.212	148.88
406.436	198.88
406.66	120.88
406.883	94.88
407.107	85.88
407.331	85.88
407.555	97.88
407.778	103.88
408.002	96.88
408.226	94.88
408.449	92.88
408.673	95.88
408.896	93.88
409.12	87.88
409.344	93.88
409.567	84.88
409.791	86.88
410.014	103.88
410.238	81.88
410.461	84.88
410.685	97.88
410.908	107.88
411.132	95.88
411.355	90.88
411.578	101.88
411.802	89.88
412.025	97.88
412.249	84.88
412.472	87.88
412.695	86.88
412.919	79.88
413.142	89.88
413.365	78.88
413.589	72.88
413.812	107.88
414.035	97.88
414.258	71.88
414.482	78.88
414.705	89.88
414.928	83.88
415.151	104.88
415.374	87.88
415.597	96.88
415.821	85.88
416.044	89.88
416.267	62.88
416.49	99.88
416.713	87.88
416.936	77.88
417.159	91.88
417.382	99.88
417.605	80.88
417.828	87.88
418.051	87.88
418.274	92.88
418.497	81.88
418.72	81.88
418.943	76.88
419.166	73.88
419.389	89.88
419.611	89.88
419.834	91.88
420.057	82.88
420.28	76.88
420.503	93.88
420.726	98.88
420.948	81.88
421.171	80.88
421.394	91.88
421.617	88.88
421.839	92.88
422.062	93.88
422.285	83.88
422.507	102.88
422.73	106.88
422.953	76.88
423.175	90.88
423.398	80.88
423.621	81.88
423.843	86.88
424.066	100.88
424.288	101.88
424.511	77.88
424.733	89.88
424.956	104.88
425.178	95.88
425.401	86.88
425.623	96.88
425.846	83.88
426.068	79.88
426.291	80.88
426.513	84.88
426.735	89.88
426.958	94.88
427.18	97.88
427.402	133.88
427.625	137.88
427.847	117.88
428.069	90.88
428.292	82.88
428.514	76.88
428.736	103.88
428.958	79.88
429.181	83.88
429.403	82.88
429.625	81.88
429.847	79.88
430.069	107.88
430.292	93.88
430.514	84.88
430.736	75.88
430.958	83.88
431.18	74.88
431.402	77.88
431.624	87.88
431.846	89.88
432.068	93.88
432.29	96.88
432.512	80.88
432.734	99.88
432.956	97.88
433.178	88.88
433.4	91.88
433.622	87.88
433.844	79.88
434.066	98.88
434.287	87.88
434.509	92.88
434.731	87.88
434.953	80.88
435.175	82.88
435.397	89.88
435.618	95.88
435.84	88.88
436.062	97.88
436.284	97.88
436.505	91.88
436.727	104.88
436.949	79.88
437.17	90.88
437.392	85.88
437.614	89.88
437.835	98.88
438.057	112.88
438.278	102.88
438.5	98.88
438.721	108.88
438.943	87.88
439.165	77.88
439.386	86.88
439.608	80.88
439.829	107.88
440.05	113.88
440.272	121.88
440.493	97.88
440.715	79.88
440.936	91.88
441.158	88.88
441.379	85.88
441.6	81.88
441.822	77.88
442.043	95.88
442.264	98.88
442.486	102.88
442.707	96.88
442.928	101.88
443.149	126.88
443.371	126.88
443.592	101.88
443.813	93.88
444.034	93.88
444.255	87.88
444.476	80.88
444.698	85.88
444.919	89.88
445.14	127.88
445.361	114.88
445.582	98.88
445.803	127.88
446.024	117.88
446.245	119.88
446.466	103.88
446.687	90.88
446.908	87.88
447.129	93.88
447.35	81.88
447.571	82.88
447.792	85.88
448.013	91.88
448.234	86.88
448.455	94.88
448.675	109.88
448.896	120.88
449.117	99.88
449.338	103.88
449.559	112.88
449.779	109.88
450	90.88
450.221	88.88
450.442	94.88
450.662	88.88
450.883	105.88
451.104	104.88
451.324	81.88
451.545	76.88
451.766	75.88
451.986	66.88
452.207	82.88
452.428	93.88
452.648	91.88
452.869	94.88
453.089	100.88
453.31	102.88
453.53	81.88
453.751	89.88
453.971	99.88
454.192	97.88
454.412	83.88
454.633	73.88
454.853	81.88
455.073	78.88
455.294	74.88
455.514	91.88
455.734	93.88
455.955	79.88
456.175	80.88
456.395	85.88
456.616	83.88
456.836	76.88
457.056	91.88
457.276	88.88
457.497	95.88
457.717	98.88
457.937	82.88
458.157	80.88
458.377	92.88
458.598	101.88
458.818	148.88
459.038	146.88
459.258	108.88
459.478	95.88
459.698	82.88
459.918	87.88
460.138	98.88
460.358	92.88
460.578	78.88
460.798	91.88
461.018	95.88
461.238	78.88
461.458	109.88
461.678	88.88
461.898	86.88
462.118	82.88
462.338	81.88
462.558	85.88
462.777	87.88
462.997	83.88
463.217	83.88
463.437	82.88
463.657	84.88
463.876	88.88
464.096	101.88
464.316	85.88
464.536	89.88
464.755	94.88
464.975	92.88
465.195	135.88
465.414	151.88
465.634	97.88
465.854	79.88
466.073	88.88
466.293	89.88
466.512	94.88
466.732	88.88
466.951	90.88
467.171	105.88
467.391	92.88
467.61	87.88
467.829	97.88
468.049	89.88
468.268	81.88
468.488	77.88
468.707	71.88
468.927	86.88
469.146	80.88
469.365	87.88
469.585	85.88
469.804	103.88
470.023	90.88
470.243	83.88
470.462	90.88
470.681	100.88
470.901	89.88
471.12	86.88
471.339	80.88
471.558	88.88
471.777	84.88
471.997	71.88
472.216	73.88
472.435	89.88
472.654	75.88
472.873	65.88
473.092	82.88
473.311	92.88
473.53	85.88
473.749	83.88
473.968	91.88
474.187	106.88
474.406	96.88
474.625	87.88
474.844	86.88
475.063	77.88
475.282	88.88
475.501	82.88
475.72	89.88
475.939	74.88
476.158	75.88
476.377	86.88
476.596	66.88
476.814	72.88
477.033	99.88
477.252	89.88
477.471	95.88
477.69	82.88
477.908	91.88
478.127	93.88
478.346	82.88
478.564	77.88
478.783	90.88
479.002	88.88
479.22	84.88
479.439	85.88
479.658	102.88
479.876	110.88
480.095	80.88
480.313	81.88
480.532	87.88
480.751	90.88
480.969	103.88
481.188	86.88
481.406	99.88
481.624	87.88
481.843	97.88
482.061	85.88
482.28	92.88
482.498	79.88
482.717	88.88
482.935	82.88
483.153	105.88
483.372	96.88
483.59	78.88
483.808	87.88
484.027	79.88
484.245	88.88
484.463	90.88
484.681	106.88
484.9	83.88
485.118	87.88
485.336	98.88
485.554	87.88
485.772	97.88
485.99	97.88
486.209	104.88
486.427	110.88
486.645	109.88
486.863	97.88
487.081	81.88
487.299	98.88
487.517	95.88
487.735	112.88
487.953	90.88
488.171	103.88
488.389	94.88
488.607	95.88
488.825	83.88
489.043	87.88
489.261	83.88
489.479	86.88
489.696	89.88
489.914	82.88
490.132	86.88
490.35	92.88
490.568	88.88
490.786	88.88
491.003	83.88
491.221	87.88
491.439	93.88
491.657	102.88
491.874	97.88
492.092	77.88
492.31	95.88
492.527	90.88
492.745	86.88
492.963	85.88
493.18	82.88
493.398	99.88
493.615	90.88
493.833	105.88
494.05	80.88
494.268	90.88
494.485	81.88
494.703	93.88
494.92	87.88
495.138	76.88
495.355	92.88
495.573	99.88
495.79	81.88
496.008	101.88
496.225	82.88
496.442	84.88
496.66	93.88
496.877	97.88
497.094	88.88
497.312	78.88
497.529	90.88
497.746	93.88
497.963	69.88
498.181	82.88
498.398	98.88
498.615	96.88
498.832	103.88
499.049	81.88
499.267	90.88
499.484	88.88
499.701	114.88
499.918	95.88
500.135	99.88
500.352	87.88
500.569	82.88
500.786	85.88
501.003	97.88
501.22	74.88
501.437	87.88
501.654	84.88
501.871	96.88
502.088	89.88
502.305	91.88
502.522	87.88
502.739	107.88
502.956	97.88
503.172	82.88
503.389	90.88
503.606	105.88
503.823	90.88
504.04	101.88
504.256	82.88
504.473	80.88
504.69	80.88
504.907	94.88
505.123	80.88
505.34	91.88
505.557	83.88
505.773	79.88
505.99	81.88
506.207	79.88
506.423	78.88
506.64	87.88
506.856	93.88
507.073	81.88
507.289	83.88
507.506	103.88
507.722	103.88
507.939	91.88
508.155	99.88
508.372	88.88
508.588	84.88
508.805	87.88
509.021	97.88
509.238	86.88
509.454	89.88
509.67	90.88
509.887	105.88
510.103	122.88
510.319	193.88
510.536	690.88
510.752	2148.88
510.968	570.88
511.184	137.88
511.401	94.88
511.617	78.88
511.833	89.88
512.049	87.88
512.265	83.88
512.481	92.88
512.698	100.88
512.914	94.88
513.13	94.88
513.346	94.88
513.562	82.88
513.778	82.88
513.994	110.88
514.21	104.88
514.426	115.88
514.642	131.88
514.858	112.88
515.074	160.88
515.29	415.88
515.506	1271.88
515.721	448.88
515.937	135.88
516.153	98.88
516.369	79.88
516.585	90.88
516.801	96.88
517.016	96.88
517.232	98.88
517.448	86.88
