Data from Uncirc_1992_H10_HRD10591_00099.txt Node
Date: Wed Jan 03 11:46:36 EST 2024
User: Yrep
Spectrometer: HR+D1059
Trigger mode: 1
Integration Time (sec): 1.000000E-1
Scans to average: 1
Electric dark correction enabled: true
Nonlinearity correction enabled: false
Boxcar width: 0
XAxis mode: Wavelengths
Number of Pixels in Spectrum: 2048
>>>>>Begin Spectral Data<<<<<
223.165	-25
223.4	-25
223.635	-25
223.869	-16
224.104	-16
224.338	-1
224.573	-18
224.808	-13
225.042	-20
225.277	-16
225.511	2
225.746	14
225.98	8
226.215	23
226.449	10
226.683	20
226.918	26
227.152	22
227.387	37
227.621	28
227.856	35
228.09	43
228.324	50
228.559	54
228.793	168
229.027	435
229.262	499
229.496	577
229.73	768
229.964	780
230.199	497
230.433	465
230.667	451
230.901	426
231.136	430
231.37	441
231.604	433
231.838	423
232.072	441
232.306	457
232.541	475
232.775	473
233.009	459
233.243	453
233.477	466
233.711	479
233.945	498
234.179	507
234.413	509
234.647	503
234.881	502
235.115	510
235.349	548
235.583	544
235.817	572
236.051	624
236.285	598
236.519	612
236.753	703
236.987	895
237.221	1313
237.455	1430
237.689	856
237.922	705
238.156	683
238.39	668
238.624	634
238.858	623
239.091	606
239.325	641
239.559	673
239.793	695
240.027	753
240.26	881
240.494	938
240.728	907
240.961	866
241.195	820
241.429	770
241.662	756
241.896	765
242.13	756
242.363	755
242.597	771
242.83	814
243.064	808
243.298	818
243.531	809
243.765	817
243.998	818
244.232	840
244.465	866
244.699	880
244.932	854
245.166	849
245.399	871
245.633	908
245.866	882
246.099	891
246.333	941
246.566	923
246.8	961
247.033	976
247.266	1025
247.5	1063
247.733	1117
247.966	1111
248.2	1140
248.433	1106
248.666	1192
248.899	1343
249.133	1374
249.366	1376
249.599	1276
249.832	1180
250.066	1145
250.299	1243
250.532	1294
250.765	1401
250.998	1631
251.231	1582
251.465	1451
251.698	1387
251.931	1364
252.164	1369
252.397	1369
252.63	1431
252.863	1501
253.096	1593
253.329	1705
253.562	1554
253.795	1523
254.028	1503
254.261	1553
254.494	1744
254.727	2054
254.96	2149
255.193	1886
255.426	1705
255.659	1598
255.892	1558
256.124	1509
256.357	1507
256.59	1473
256.823	1474
257.056	1491
257.289	1529
257.521	1520
257.754	1446
257.987	1494
258.22	1501
258.452	1494
258.685	1508
258.918	1542
259.151	1571
259.383	1649
259.616	1632
259.849	1723
260.081	1856
260.314	1981
260.547	1963
260.779	1778
261.012	1750
261.244	1675
261.477	1673
261.71	1652
261.942	1704
262.175	1706
262.407	1658
262.64	1624
262.872	1612
263.105	1626
263.337	1618
263.57	1640
263.802	1657
264.035	1630
264.267	1613
264.499	1643
264.732	1654
264.964	1671
265.197	1704
265.429	1696
265.661	1662
265.894	1717
266.126	1730
266.358	1742
266.591	1747
266.823	1825
267.055	1803
267.287	1846
267.52	1756
267.752	1813
267.984	1842
268.216	1871
268.448	1922
268.681	1934
268.913	2074
269.145	2253
269.377	2313
269.609	2243
269.841	2261
270.073	2314
270.306	2553
270.538	2730
270.77	2559
271.002	2433
271.234	2419
271.466	2536
271.698	2608
271.93	2622
272.162	2649
272.394	2617
272.626	2398
272.858	2325
273.09	2280
273.322	2246
273.553	2146
273.785	2183
274.017	2180
274.249	2200
274.481	2198
274.713	2238
274.945	2286
275.176	2216
275.408	2212
275.64	2177
275.872	2195
276.104	2244
276.335	2258
276.567	2382
276.799	2472
277.031	2662
277.262	2776
277.494	2654
277.726	2539
277.957	2422
278.189	2366
278.421	2348
278.652	2331
278.884	2352
279.115	2315
279.347	2350
279.579	2352
279.81	2291
280.042	2333
280.273	2348
280.505	2377
280.736	2330
280.968	2320
281.199	2361
281.431	2417
281.662	2422
281.894	2406
282.125	2472
282.356	2616
282.588	2759
282.819	2612
283.051	2513
283.282	2424
283.513	2525
283.745	2586
283.976	2555
284.207	2615
284.439	2590
284.67	2602
284.901	2633
285.132	2560
285.364	2546
285.595	2571
285.826	2592
286.057	2616
286.288	2595
286.52	2618
286.751	2604
286.982	2699
287.213	2690
287.444	2679
287.675	2794
287.906	2856
288.138	2870
288.369	2822
288.6	2858
288.831	2792
289.062	2701
289.293	2768
289.524	2841
289.755	2728
289.986	2721
290.217	2779
290.448	2739
290.679	2758
290.91	2732
291.141	2835
291.371	2748
291.602	2762
291.833	2738
292.064	2776
292.295	2807
292.526	2822
292.757	2801
292.987	2758
293.218	2747
293.449	2844
293.68	2856
293.91	2819
294.141	2784
294.372	2748
294.603	2795
294.833	2856
295.064	2876
295.295	2847
295.525	2822
295.756	2891
295.987	2976
296.217	3117
296.448	3030
296.679	2950
296.909	2878
297.14	2929
297.37	2941
297.601	2985
297.831	2967
298.062	3025
298.292	3056
298.523	3045
298.753	3108
298.984	3019
299.214	3020
299.445	3035
299.675	3086
299.905	3092
300.136	3061
300.366	3055
300.597	3096
300.827	3234
301.057	3272
301.288	3324
301.518	3221
301.748	3254
301.979	3330
302.209	3378
302.439	3354
302.669	3302
302.9	3297
303.13	3243
303.36	3327
303.59	3332
303.82	3255
304.051	3308
304.281	3257
304.511	3263
304.741	3278
304.971	3271
305.201	3234
305.431	3232
305.661	3220
305.891	3161
306.121	3224
306.352	3296
306.582	3220
306.812	3177
307.042	3216
307.272	3257
307.502	3207
307.731	3246
307.961	3224
308.191	3209
308.421	3214
308.651	3293
308.881	3236
309.111	3292
309.341	3288
309.571	3342
309.8	3432
310.03	3453
310.26	3484
310.49	3456
310.72	3635
310.949	3663
311.179	3628
311.409	3552
311.639	3533
311.868	3577
312.098	3694
312.328	3701
312.557	3835
312.787	3824
313.017	3766
313.246	3710
313.476	3659
313.706	3666
313.935	3788
314.165	3860
314.394	3833
314.624	3812
314.853	3721
315.083	3680
315.312	3684
315.542	3659
315.771	3634
316.001	3609
316.23	3599
316.46	3585
316.689	3685
316.919	3648
317.148	3683
317.377	3686
317.607	3667
317.836	3595
318.065	3584
318.295	3595
318.524	3616
318.753	3592
318.983	3564
319.212	3600
319.441	3651
319.67	3631
319.9	3594
320.129	3602
320.358	3644
320.587	3679
320.816	3802
321.046	3715
321.275	3723
321.504	3739
321.733	3791
321.962	3775
322.191	3879
322.42	3989
322.649	4050
322.878	4069
323.108	4211
323.337	4383
323.566	4518
323.795	4793
324.024	5271
324.253	6910
324.482	10266
324.71	14762
324.939	15620
325.168	11487
325.397	6235
325.626	5063
325.855	4665
326.084	4598
326.313	4606
326.542	4808
326.77	5343
326.999	6721
327.228	9663
327.457	13695
327.686	12714
327.914	6806
328.143	5528
328.372	5204
328.6	4998
328.829	4960
329.058	5083
329.287	5081
329.515	4791
329.744	4566
329.972	4610
330.201	4704
330.43	4961
330.658	5180
330.887	5451
331.115	5094
331.344	4816
331.572	4713
331.801	4786
332.03	4819
332.258	4798
332.486	4810
332.715	4994
332.943	5091
333.172	5214
333.4	5377
333.629	5472
333.857	5498
334.085	5392
334.314	5356
334.542	5291
334.771	5327
334.999	5155
335.227	5108
335.455	5023
335.684	4924
335.912	4899
336.14	4826
336.369	4867
336.597	4963
336.825	4837
337.053	4725
337.281	4671
337.51	4663
337.738	4656
337.966	4590
338.194	4592
338.422	4514
338.65	4482
338.878	4487
339.106	4426
339.334	4378
339.562	4350
339.79	4234
340.018	4361
340.246	4272
340.474	4333
340.702	4305
340.93	4365
341.158	4363
341.386	4333
341.614	4319
341.842	4302
342.07	4264
342.298	4233
342.526	4204
342.754	4224
342.981	4230
343.209	4372
343.437	4622
343.665	4876
343.893	5073
344.12	5022
344.348	4907
344.576	4761
344.804	4606
345.031	4479
345.259	4490
345.487	4380
345.714	4235
345.942	4157
346.17	4108
346.397	4145
346.625	4135
346.853	4105
347.08	4080
347.308	4112
347.535	4183
347.763	4236
347.99	4154
348.218	4232
348.445	4216
348.673	4166
348.9	4069
349.128	4029
349.355	3994
349.583	3991
349.81	3967
350.037	3947
350.265	3940
350.492	3974
350.72	3938
350.947	3958
351.174	4135
351.402	4117
351.629	4048
351.856	4099
352.083	4144
352.311	4130
352.538	4123
352.765	4074
352.992	4005
353.22	3965
353.447	3983
353.674	3974
353.901	3891
354.128	3853
354.355	3898
354.583	3933
354.81	3893
355.037	3921
355.264	3927
355.491	3929
355.718	3906
355.945	3830
356.172	3893
356.399	3851
356.626	3925
356.853	3930
357.08	3839
357.307	3881
357.534	3888
357.761	3892
357.988	3951
358.215	3929
358.441	3920
358.668	3871
358.895	4019
359.122	3992
359.349	4019
359.576	4153
359.802	4392
360.029	4493
360.256	4471
360.483	4341
360.709	4118
360.936	4059
361.163	4091
361.39	4086
361.616	4154
361.843	4084
362.07	4068
362.296	4131
362.523	4016
362.749	4108
362.976	4023
363.203	4010
363.429	3934
363.656	4056
363.882	3953
364.109	3960
364.335	3975
364.562	3975
364.788	3944
365.015	3980
365.241	3956
365.468	4022
365.694	4121
365.92	4037
366.147	3960
366.373	3965
366.599	3990
366.826	3914
367.052	3884
367.278	4015
367.505	4008
367.731	3983
367.957	3916
368.184	4062
368.41	4079
368.636	4188
368.862	4150
369.089	4096
369.315	4072
369.541	4082
369.767	4078
369.993	4071
370.219	4056
370.445	4140
370.672	4052
370.898	4107
371.124	4216
371.35	4236
371.576	4164
371.802	4222
372.028	4192
372.254	4171
372.48	4281
372.706	4378
372.932	4456
373.158	4362
373.384	4276
373.61	4281
373.835	4309
374.061	4249
374.287	4395
374.513	4454
374.739	4658
374.965	4667
375.191	4673
375.416	4648
375.642	4458
375.868	4467
376.094	4343
376.319	4304
376.545	4278
376.771	4338
376.997	4260
377.222	4361
377.448	4236
377.674	4211
377.899	4171
378.125	4284
378.35	4236
378.576	4227
378.802	4100
379.027	4198
379.253	4233
379.478	4160
379.704	4222
379.929	4231
380.155	4202
380.38	4157
380.606	4322
380.831	4225
381.057	4316
381.282	4228
381.507	4273
381.733	4285
381.958	4362
382.184	4441
382.409	4414
382.634	4473
382.86	4512
383.085	4595
383.31	4627
383.535	4722
383.761	4791
383.986	4822
384.211	4897
384.436	4984
384.662	5066
384.887	5155
385.112	5107
385.337	5183
385.562	5207
385.787	5145
386.013	5231
386.238	5204
386.463	5193
386.688	5227
386.913	5077
387.138	5150
387.363	5097
387.588	5053
387.813	5100
388.038	5070
388.263	5091
388.488	5124
388.713	5122
388.938	5141
389.163	5105
389.387	5087
389.612	4952
389.837	5066
390.062	4998
390.287	5013
390.512	4996
390.736	5091
390.961	5208
391.186	5275
391.411	5364
391.636	5551
391.86	5632
392.085	5786
392.31	5677
392.534	5546
392.759	5450
392.984	5370
393.208	5367
393.433	5335
393.658	5295
393.882	5312
394.107	5352
394.331	5375
394.556	5366
394.78	5439
395.005	5489
395.229	5579
395.454	5600
395.678	5751
395.903	5847
396.127	5778
396.352	5580
396.576	5360
396.801	5373
397.025	5484
397.249	5678
397.474	5735
397.698	5774
397.922	5905
398.147	5970
398.371	6052
398.595	6326
398.82	6508
399.044	7130
399.268	7917
399.492	8981
399.717	9559
399.941	9328
400.165	8730
400.389	7997
400.613	7170
400.837	6766
401.062	6582
401.286	6536
401.51	6433
401.734	6437
401.958	6515
402.182	6717
402.406	6772
402.63	6845
402.854	6955
403.078	6986
403.302	7144
403.526	7343
403.75	7273
403.974	7321
404.198	7354
404.422	7472
404.645	7352
404.869	7230
405.093	7402
405.317	7472
405.541	7356
405.765	7198
405.988	7090
406.212	7346
406.436	7505
406.66	7594
406.883	7634
407.107	8297
407.331	8698
407.555	9191
407.778	8882
408.002	8206
408.226	7724
408.449	7688
408.673	7529
408.896	7735
409.12	7795
409.344	7448
409.567	7028
409.791	7032
410.014	6994
410.238	6950
410.461	6933
410.685	7031
410.908	7026
411.132	7200
411.355	7224
411.578	6821
411.802	6642
412.025	6576
412.249	6758
412.472	6860
412.695	6616
412.919	6373
413.142	6330
413.365	6343
413.589	6385
413.812	6279
414.035	6216
414.258	6294
414.482	6305
414.705	6344
414.928	6383
415.151	6366
415.374	6376
415.597	6326
415.821	6194
416.044	6188
416.267	6184
416.49	6081
416.713	6166
416.936	6205
417.159	6228
417.382	6333
417.605	6250
417.828	6479
418.051	6681
418.274	6511
418.497	6321
418.72	6504
418.943	6498
419.166	6865
419.389	7096
419.611	7046
419.834	6797
420.057	6723
420.28	6565
420.503	6378
420.726	6378
420.948	6617
421.171	6940
421.394	6955
421.617	6513
421.839	6410
422.062	6491
422.285	6805
422.507	7361
422.73	7812
422.953	7240
423.175	6868
423.398	6993
423.621	6900
423.843	7214
424.066	7165
424.288	7154
424.511	7291
424.733	7739
424.956	8107
425.178	7652
425.401	7759
425.623	7626
425.846	6689
426.068	6525
426.291	6495
426.513	6505
426.735	6590
426.958	6950
427.18	7750
427.402	8822
427.625	8787
427.847	7336
428.069	6640
428.292	6273
428.514	6036
428.736	5881
428.958	5944
429.181	5636
429.403	5697
429.625	5906
429.847	6303
430.069	6726
430.292	6343
430.514	5769
430.736	5747
430.958	5571
431.18	5591
431.402	5623
431.624	5517
431.846	5674
432.068	5723
432.29	5866
432.512	5647
432.734	5766
432.956	5638
433.178	5828
433.4	5665
433.622	5728
433.844	5731
434.066	5786
434.287	5814
434.509	6055
434.731	6266
434.953	6336
435.175	6465
435.397	6652
435.618	6619
435.84	6896
436.062	7688
436.284	7635
436.505	6453
436.727	6140
436.949	5871
437.17	5760
437.392	5737
437.614	5909
437.835	6284
438.057	7214
438.278	7823
438.5	7716
438.721	8544
438.943	7440
439.165	6326
439.386	6155
439.608	6136
439.829	6304
440.05	6492
440.272	6877
440.493	6397
440.715	6094
440.936	6049
441.158	6103
441.379	6236
441.6	6582
441.822	6811
442.043	7159
442.264	7901
442.486	7671
442.707	6872
442.928	6687
443.149	6867
443.371	6999
443.592	7590
443.813	8657
444.034	8475
444.255	7442
444.476	7284
444.698	7437
444.919	7566
445.14	7319
445.361	7106
445.582	7254
445.803	7805
446.024	8400
446.245	7933
446.466	7286
446.687	6323
446.908	6052
447.129	5768
447.35	5598
447.571	5599
447.792	5539
448.013	5594
448.234	5753
448.455	6369
448.675	7588
448.896	7913
449.117	6628
449.338	6844
449.559	8020
449.779	8216
450	6387
450.221	5690
450.442	5403
450.662	5360
450.883	5422
451.104	5497
451.324	5271
451.545	5230
451.766	5155
451.986	5073
452.207	5046
452.428	4970
452.648	5051
452.869	5065
453.089	5095
453.31	5192
453.53	4980
453.751	5002
453.971	4928
454.192	5056
454.412	4857
454.633	4908
454.853	4874
455.073	4918
455.294	5220
455.514	5710
455.734	5222
455.955	4770
456.175	4631
456.395	4582
456.616	4580
456.836	4548
457.056	4600
457.276	4510
457.497	4680
457.717	4688
457.937	4705
458.157	4768
458.377	4934
458.598	5240
458.818	5807
459.038	6565
459.258	6513
459.478	5855
459.698	5745
459.918	5800
460.138	6074
460.358	6192
460.578	6290
460.798	6392
461.018	6302
461.238	6199
461.458	6166
461.678	6094
461.898	6302
462.118	6358
462.338	6691
462.558	6875
462.777	7068
462.997	7698
463.217	8170
463.437	7901
463.657	7318
463.876	7107
464.096	7161
464.316	7136
464.536	7233
464.755	6938
464.975	6825
465.195	6896
465.414	6791
465.634	6110
465.854	5788
466.073	5538
466.293	5426
466.512	5273
466.732	5144
466.951	5186
467.171	5115
467.391	5213
467.61	5250
467.829	5235
468.049	5099
468.268	4943
468.488	4920
468.707	4890
468.927	4898
469.146	4903
469.365	4963
469.585	4996
469.804	5182
470.023	5344
470.243	5339
470.462	5419
470.681	5521
470.901	5454
471.12	5284
471.339	5242
471.558	5182
471.777	5115
471.997	4985
472.216	4952
472.435	4917
472.654	4925
472.873	4834
473.092	4808
473.311	4840
473.53	4931
473.749	5005
473.968	5559
474.187	6484
474.406	5975
474.625	5182
474.844	5022
475.063	4882
475.282	4973
475.501	5062
475.72	4991
475.939	5000
476.158	5117
476.377	5192
476.596	5130
476.814	5277
477.033	5298
477.252	5384
477.471	5518
477.69	5517
477.908	5608
478.127	5729
478.346	5900
478.564	6002
478.783	6036
479.002	6294
479.22	6222
479.439	6304
479.658	6390
479.876	6436
480.095	6702
480.313	7135
480.532	7010
480.751	6779
480.969	6629
481.188	6570
481.406	6327
481.624	6106
481.843	5963
482.061	5889
482.28	5854
482.498	5789
482.717	5740
482.935	5761
483.153	5662
483.372	5710
483.59	5727
483.808	5648
484.027	5723
484.245	5838
484.463	5787
484.681	5974
484.9	5953
485.118	6046
485.336	6109
485.554	6084
485.772	6124
485.99	6159
486.209	6188
486.427	6160
486.645	6257
486.863	6299
487.081	6314
487.299	6231
487.517	6136
487.735	6158
487.953	6179
488.171	6128
488.389	6141
488.607	6158
488.825	6154
489.043	6262
489.261	6260
489.479	6258
489.696	6288
489.914	6336
490.132	6425
490.35	6366
490.568	6504
490.786	6604
491.003	6664
491.221	6824
491.439	6875
491.657	6946
491.874	7023
492.092	6947
492.31	7029
492.527	7057
492.745	7125
492.963	7091
493.18	7157
493.398	7266
493.615	7408
493.833	7376
494.05	7375
494.268	7361
494.485	7237
494.703	7290
494.92	7297
495.138	7343
495.355	7302
495.573	7339
495.79	7313
496.008	7388
496.225	7406
496.442	7361
496.66	7415
496.877	7561
497.094	7566
497.312	7772
497.529	7861
497.746	8083
497.963	8317
498.181	8725
498.398	8960
498.615	9423
498.832	9902
499.049	10406
499.267	11031
499.484	11850
499.701	12673
499.918	13376
500.135	14259
500.352	14855
500.569	14934
500.786	14795
501.003	14300
501.22	13686
501.437	12915
501.654	12017
501.871	11387
502.088	10562
502.305	10105
502.522	9484
502.739	9185
502.956	8818
503.172	8446
503.389	8146
503.606	8115
503.823	7993
504.04	7935
504.256	8035
504.473	8207
504.69	8142
504.907	7946
505.123	7572
505.34	7277
505.557	7149
505.773	7073
505.99	6958
506.207	6945
506.423	6870
506.64	6676
506.856	6682
507.073	6570
507.289	6511
507.506	6499
507.722	6559
507.939	6649
508.155	6371
508.372	6270
508.588	6254
508.805	6256
509.021	6247
509.238	6356
509.454	6368
509.67	6334
509.887	6159
510.103	6092
510.319	6290
510.536	7502
510.752	10973
510.968	7226
511.184	6044
511.401	5860
511.617	5765
511.833	5810
512.049	5686
512.265	5665
512.481	5663
512.698	5659
512.914	5731
513.13	5692
513.346	5692
513.562	5783
513.778	5821
513.994	5750
514.21	5932
514.426	6069
514.642	6327
514.858	6503
515.074	6821
515.29	8006
515.506	10666
515.721	7864
515.937	6637
516.153	6531
516.369	6492
516.585	6583
516.801	6687
517.016	6870
517.232	7113
517.448	7365
517.664	7487
517.879	7563
518.095	7314
518.311	7281
518.527	6957
518.742	6858
518.958	6552
519.173	6358
519.389	6228
519.605	6115
519.82	6010
520.036	6050
520.251	6157
520.467	6228
520.682	6172
520.898	6108
521.113	6280
521.329	6408
521.544	7032
521.76	8697
521.975	13304
522.19	10234
522.406	6622
522.621	5754
522.836	5511
523.052	5328
523.267	5243
523.482	5145
523.698	5125
523.913	5077
524.128	5059
524.343	5002
524.559	4912
524.774	4941
524.989	4830
525.204	4913
525.419	4970
525.634	4832
525.849	4847
526.064	4784
526.28	4707
526.495	4682
526.71	4742
526.925	4672
527.14	4689
527.355	4679
527.57	4656
527.785	4680
527.999	4654
528.214	4746
528.429	4622
528.644	4671
528.859	4651
529.074	4686
529.289	4841
529.503	5297
529.718	5078
529.933	4841
530.148	4722
530.363	4722
530.577	4644
530.792	4609
531.007	4680
531.221	4645
531.436	4591
531.651	4652
531.865	4582
532.08	4627
532.295	4575
532.509	4604
532.724	4599
532.938	4564
533.153	4595
533.367	4555
533.582	4552
533.796	4535
534.011	4562
534.225	4533
534.44	4492
534.654	4431
534.868	4442
535.083	4479
535.297	4502
535.511	4535
535.726	4531
535.94	4433
536.154	4424
536.369	4356
536.583	4302
536.797	4295
537.011	4266
537.225	4251
537.44	4283
537.654	4266
537.868	4222
538.082	4312
538.296	4244
538.51	4240
538.724	4257
538.938	4255
539.153	4207
539.367	4298
539.581	4244
539.795	4142
540.009	4147
540.222	4156
540.436	4123
540.65	4231
540.864	4232
541.078	4215
541.292	4249
541.506	4091
541.72	4121
541.934	4042
542.147	4071
