Data from Uncirc_1992_H10_HRD10591_00040.txt Node
Date: Wed Jan 03 11:46:24 EST 2024
User: Yrep
Spectrometer: HR+D1059
Trigger mode: 1
Integration Time (sec): 1.000000E-1
Scans to average: 1
Electric dark correction enabled: true
Nonlinearity correction enabled: false
Boxcar width: 0
XAxis mode: Wavelengths
Number of Pixels in Spectrum: 2048
>>>>>Begin Spectral Data<<<<<
223.165	-7.94
223.4	-7.94
223.635	-7.94
223.869	-11.94
224.104	-13.94
224.338	-28.94
224.573	-11.94
224.808	-11.94
225.042	1.06
225.277	-7.94
225.511	11.06
225.746	3.06
225.98	3.06
226.215	7.06
226.449	4.06
226.683	6.06
226.918	33.06
227.152	26.06
227.387	40.06
227.621	50.06
227.856	34.06
228.09	33.06
228.324	63.06
228.559	54.06
228.793	59.06
229.027	74.06
229.262	66.06
229.496	71.06
229.73	80.06
229.964	86.06
230.199	80.06
230.433	73.06
230.667	73.06
230.901	76.06
231.136	93.06
231.37	78.06
231.604	79.06
231.838	76.06
232.072	85.06
232.306	80.06
232.541	75.06
232.775	79.06
233.009	80.06
233.243	74.06
233.477	75.06
233.711	74.06
233.945	76.06
234.179	67.06
234.413	73.06
234.647	86.06
234.881	68.06
235.115	82.06
235.349	76.06
235.583	82.06
235.817	68.06
236.051	60.06
236.285	83.06
236.519	80.06
236.753	68.06
236.987	85.06
237.221	73.06
237.455	82.06
237.689	72.06
237.922	73.06
238.156	78.06
238.39	59.06
238.624	67.06
238.858	76.06
239.091	64.06
239.325	67.06
239.559	80.06
239.793	92.06
240.027	74.06
240.26	68.06
240.494	85.06
240.728	79.06
240.961	86.06
241.195	86.06
241.429	79.06
241.662	74.06
241.896	64.06
242.13	87.06
242.363	71.06
242.597	73.06
242.83	66.06
243.064	72.06
243.298	66.06
243.531	74.06
243.765	78.06
243.998	82.06
244.232	66.06
244.465	82.06
244.699	82.06
244.932	70.06
245.166	71.06
245.399	66.06
245.633	91.06
245.866	70.06
246.099	86.06
246.333	89.06
246.566	94.06
246.8	87.06
247.033	87.06
247.266	74.06
247.5	72.06
247.733	76.06
247.966	76.06
248.2	80.06
248.433	84.06
248.666	75.06
248.899	89.06
249.133	72.06
249.366	97.06
249.599	79.06
249.832	86.06
250.066	62.06
250.299	78.06
250.532	80.06
250.765	83.06
250.998	59.06
251.231	86.06
251.465	100.06
251.698	73.06
251.931	81.06
252.164	77.06
252.397	79.06
252.63	74.06
252.863	86.06
253.096	72.06
253.329	83.06
253.562	73.06
253.795	76.06
254.028	82.06
254.261	70.06
254.494	80.06
254.727	83.06
254.96	91.06
255.193	90.06
255.426	61.06
255.659	77.06
255.892	79.06
256.124	82.06
256.357	83.06
256.59	80.06
256.823	81.06
257.056	81.06
257.289	88.06
257.521	90.06
257.754	74.06
257.987	64.06
258.22	74.06
258.452	79.06
258.685	75.06
258.918	67.06
259.151	81.06
259.383	73.06
259.616	98.06
259.849	80.06
260.081	76.06
260.314	74.06
260.547	88.06
260.779	80.06
261.012	80.06
261.244	87.06
261.477	74.06
261.71	95.06
261.942	108.06
262.175	106.06
262.407	80.06
262.64	81.06
262.872	87.06
263.105	80.06
263.337	85.06
263.57	87.06
263.802	98.06
264.035	80.06
264.267	82.06
264.499	73.06
264.732	82.06
264.964	80.06
265.197	87.06
265.429	73.06
265.661	72.06
265.894	78.06
266.126	82.06
266.358	87.06
266.591	70.06
266.823	74.06
267.055	82.06
267.287	75.06
267.52	87.06
267.752	90.06
267.984	87.06
268.216	83.06
268.448	89.06
268.681	80.06
268.913	83.06
269.145	74.06
269.377	95.06
269.609	67.06
269.841	83.06
270.073	71.06
270.306	91.06
270.538	79.06
270.77	94.06
271.002	79.06
271.234	84.06
271.466	98.06
271.698	84.06
271.93	85.06
272.162	87.06
272.394	84.06
272.626	78.06
272.858	79.06
273.09	94.06
273.322	76.06
273.553	76.06
273.785	72.06
274.017	71.06
274.249	74.06
274.481	80.06
274.713	87.06
274.945	85.06
275.176	79.06
275.408	72.06
275.64	87.06
275.872	81.06
276.104	93.06
276.335	78.06
276.567	85.06
276.799	99.06
277.031	98.06
277.262	86.06
277.494	82.06
277.726	87.06
277.957	73.06
278.189	82.06
278.421	82.06
278.652	93.06
278.884	90.06
279.115	89.06
279.347	87.06
279.579	76.06
279.81	80.06
280.042	86.06
280.273	89.06
280.505	86.06
280.736	95.06
280.968	85.06
281.199	76.06
281.431	86.06
281.662	96.06
281.894	86.06
282.125	95.06
282.356	118.06
282.588	127.06
282.819	112.06
283.051	85.06
283.282	91.06
283.513	76.06
283.745	85.06
283.976	83.06
284.207	80.06
284.439	94.06
284.67	90.06
284.901	82.06
285.132	74.06
285.364	88.06
285.595	95.06
285.826	85.06
286.057	87.06
286.288	84.06
286.52	71.06
286.751	74.06
286.982	79.06
287.213	65.06
287.444	86.06
287.675	82.06
287.906	82.06
288.138	93.06
288.369	86.06
288.6	86.06
288.831	87.06
289.062	76.06
289.293	93.06
289.524	84.06
289.755	90.06
289.986	75.06
290.217	86.06
290.448	85.06
290.679	86.06
290.91	84.06
291.141	86.06
291.371	85.06
291.602	97.06
291.833	71.06
292.064	74.06
292.295	80.06
292.526	91.06
292.757	80.06
292.987	81.06
293.218	76.06
293.449	96.06
293.68	63.06
293.91	87.06
294.141	81.06
294.372	76.06
294.603	79.06
294.833	84.06
295.064	70.06
295.295	80.06
295.525	82.06
295.756	89.06
295.987	113.06
296.217	118.06
296.448	110.06
296.679	90.06
296.909	84.06
297.14	88.06
297.37	88.06
297.601	90.06
297.831	90.06
298.062	74.06
298.292	97.06
298.523	78.06
298.753	87.06
298.984	89.06
299.214	76.06
299.445	92.06
299.675	93.06
299.905	87.06
300.136	91.06
300.366	86.06
300.597	100.06
300.827	91.06
301.057	86.06
301.288	96.06
301.518	81.06
301.748	76.06
301.979	98.06
302.209	81.06
302.439	88.06
302.669	89.06
302.9	87.06
303.13	80.06
303.36	79.06
303.59	83.06
303.82	107.06
304.051	68.06
304.281	75.06
304.511	86.06
304.741	86.06
304.971	84.06
305.201	88.06
305.431	88.06
305.661	89.06
305.891	98.06
306.121	101.06
306.352	95.06
306.582	110.06
306.812	85.06
307.042	96.06
307.272	79.06
307.502	93.06
307.731	86.06
307.961	84.06
308.191	69.06
308.421	70.06
308.651	88.06
308.881	78.06
309.111	82.06
309.341	98.06
309.571	88.06
309.8	88.06
310.03	76.06
310.26	107.06
310.49	90.06
310.72	89.06
310.949	94.06
311.179	96.06
311.409	100.06
311.639	83.06
311.868	83.06
312.098	89.06
312.328	92.06
312.557	94.06
312.787	95.06
313.017	94.06
313.246	102.06
313.476	91.06
313.706	94.06
313.935	82.06
314.165	98.06
314.394	101.06
314.624	92.06
314.853	81.06
315.083	96.06
315.312	98.06
315.542	82.06
315.771	87.06
316.001	94.06
316.23	91.06
316.46	84.06
316.689	81.06
316.919	87.06
317.148	88.06
317.377	81.06
317.607	96.06
317.836	98.06
318.065	87.06
318.295	84.06
318.524	94.06
318.753	89.06
318.983	98.06
319.212	104.06
319.441	111.06
319.67	105.06
319.9	93.06
320.129	98.06
320.358	77.06
320.587	90.06
320.816	94.06
321.046	110.06
321.275	103.06
321.504	91.06
321.733	84.06
321.962	102.06
322.191	83.06
322.42	98.06
322.649	110.06
322.878	96.06
323.108	99.06
323.337	100.06
323.566	123.06
323.795	114.06
324.024	181.06
324.253	340.06
324.482	652.06
324.71	1334.06
324.939	1690.06
325.168	650.06
325.397	207.06
325.626	126.06
325.855	100.06
326.084	104.06
326.313	121.06
326.542	137.06
326.77	208.06
326.999	382.06
327.228	762.06
327.457	1312.06
327.686	1041.06
327.914	279.06
328.143	179.06
328.372	117.06
328.6	104.06
328.829	106.06
329.058	114.06
329.287	111.06
329.515	91.06
329.744	96.06
329.972	87.06
330.201	98.06
330.43	102.06
330.658	116.06
330.887	116.06
331.115	123.06
331.344	98.06
331.572	96.06
331.801	91.06
332.03	111.06
332.258	89.06
332.486	91.06
332.715	75.06
332.943	74.06
333.172	103.06
333.4	102.06
333.629	100.06
333.857	100.06
334.085	107.06
334.314	81.06
334.542	89.06
334.771	92.06
334.999	84.06
335.227	83.06
335.455	95.06
335.684	75.06
335.912	99.06
336.14	96.06
336.369	101.06
336.597	108.06
336.825	91.06
337.053	76.06
337.281	87.06
337.51	86.06
337.738	98.06
337.966	87.06
338.194	78.06
338.422	92.06
338.65	99.06
338.878	98.06
339.106	89.06
339.334	82.06
339.562	77.06
339.79	92.06
340.018	81.06
340.246	99.06
340.474	93.06
340.702	91.06
340.93	89.06
341.158	89.06
341.386	98.06
341.614	95.06
341.842	95.06
342.07	87.06
342.298	97.06
342.526	100.06
342.754	83.06
342.981	88.06
343.209	92.06
343.437	102.06
343.665	87.06
343.893	86.06
344.12	86.06
344.348	81.06
344.576	86.06
344.804	83.06
345.031	82.06
345.259	101.06
345.487	82.06
345.714	94.06
345.942	93.06
346.17	84.06
346.397	95.06
346.625	84.06
346.853	80.06
347.08	90.06
347.308	99.06
347.535	91.06
347.763	123.06
347.99	97.06
348.218	86.06
348.445	92.06
348.673	89.06
348.9	99.06
349.128	98.06
349.355	93.06
349.583	96.06
349.81	94.06
350.037	88.06
350.265	90.06
350.492	100.06
350.72	101.06
350.947	108.06
351.174	88.06
351.402	108.06
351.629	103.06
351.856	108.06
352.083	87.06
352.311	99.06
352.538	86.06
352.765	104.06
352.992	105.06
353.22	116.06
353.447	107.06
353.674	97.06
353.901	103.06
354.128	90.06
354.355	93.06
354.583	87.06
354.81	99.06
355.037	90.06
355.264	78.06
355.491	86.06
355.718	88.06
355.945	95.06
356.172	87.06
356.399	91.06
356.626	96.06
356.853	80.06
357.08	97.06
357.307	103.06
357.534	84.06
357.761	90.06
357.988	99.06
358.215	110.06
358.441	89.06
358.668	76.06
358.895	93.06
359.122	75.06
359.349	85.06
359.576	99.06
359.802	75.06
360.029	93.06
360.256	95.06
360.483	93.06
360.709	92.06
360.936	95.06
361.163	95.06
361.39	95.06
361.616	81.06
361.843	86.06
362.07	92.06
362.296	81.06
362.523	88.06
362.749	88.06
362.976	94.06
363.203	92.06
363.429	76.06
363.656	88.06
363.882	78.06
364.109	80.06
364.335	93.06
364.562	82.06
364.788	81.06
365.015	96.06
365.241	99.06
365.468	91.06
365.694	103.06
365.92	86.06
366.147	84.06
366.373	97.06
366.599	70.06
366.826	88.06
367.052	107.06
367.278	82.06
367.505	80.06
367.731	93.06
367.957	97.06
368.184	89.06
368.41	101.06
368.636	98.06
368.862	98.06
369.089	106.06
369.315	83.06
369.541	77.06
369.767	93.06
369.993	88.06
370.219	81.06
370.445	82.06
370.672	83.06
370.898	88.06
371.124	84.06
371.35	88.06
371.576	90.06
371.802	82.06
372.028	74.06
372.254	93.06
372.48	93.06
372.706	92.06
372.932	80.06
373.158	87.06
373.384	87.06
373.61	79.06
373.835	82.06
374.061	86.06
374.287	81.06
374.513	80.06
374.739	72.06
374.965	85.06
375.191	96.06
375.416	94.06
375.642	80.06
375.868	78.06
376.094	82.06
376.319	89.06
376.545	86.06
376.771	99.06
376.997	88.06
377.222	77.06
377.448	99.06
377.674	90.06
377.899	94.06
378.125	84.06
378.35	100.06
378.576	89.06
378.802	90.06
379.027	90.06
379.253	105.06
379.478	98.06
379.704	75.06
379.929	83.06
380.155	92.06
380.38	98.06
380.606	83.06
380.831	67.06
381.057	94.06
381.282	83.06
381.507	87.06
381.733	94.06
381.958	91.06
382.184	99.06
382.409	119.06
382.634	95.06
382.86	85.06
383.085	92.06
383.31	97.06
383.535	99.06
383.761	96.06
383.986	94.06
384.211	89.06
384.436	86.06
384.662	100.06
384.887	91.06
385.112	94.06
385.337	78.06
385.562	97.06
385.787	97.06
386.013	93.06
386.238	91.06
386.463	103.06
386.688	112.06
386.913	84.06
387.138	95.06
387.363	97.06
387.588	91.06
387.813	89.06
388.038	98.06
388.263	102.06
388.488	84.06
388.713	98.06
388.938	104.06
389.163	107.06
389.387	82.06
389.612	94.06
389.837	89.06
390.062	103.06
390.287	90.06
390.512	77.06
390.736	95.06
390.961	91.06
391.186	78.06
391.411	81.06
391.636	82.06
391.86	79.06
392.085	82.06
392.31	95.06
392.534	81.06
392.759	72.06
392.984	77.06
393.208	65.06
393.433	80.06
393.658	90.06
393.882	82.06
394.107	69.06
394.331	77.06
394.556	83.06
394.78	86.06
395.005	82.06
395.229	84.06
395.454	90.06
395.678	86.06
395.903	75.06
396.127	87.06
396.352	82.06
396.576	70.06
396.801	90.06
397.025	94.06
397.249	90.06
397.474	79.06
397.698	90.06
397.922	71.06
398.147	77.06
398.371	90.06
398.595	90.06
398.82	77.06
399.044	91.06
399.268	90.06
399.492	82.06
399.717	89.06
399.941	90.06
400.165	87.06
400.389	83.06
400.613	86.06
400.837	99.06
401.062	87.06
401.286	91.06
401.51	94.06
401.734	91.06
401.958	86.06
402.182	113.06
402.406	147.06
402.63	105.06
402.854	75.06
403.078	81.06
403.302	75.06
403.526	84.06
403.75	92.06
403.974	82.06
404.198	85.06
404.422	92.06
404.645	88.06
404.869	96.06
405.093	97.06
405.317	87.06
405.541	82.06
405.765	99.06
405.988	111.06
406.212	155.06
406.436	200.06
406.66	138.06
406.883	97.06
407.107	94.06
407.331	100.06
407.555	77.06
407.778	85.06
408.002	93.06
408.226	100.06
408.449	76.06
408.673	95.06
408.896	80.06
409.12	91.06
409.344	89.06
409.567	73.06
409.791	99.06
410.014	102.06
410.238	77.06
410.461	103.06
410.685	88.06
410.908	96.06
411.132	93.06
411.355	104.06
411.578	79.06
411.802	89.06
412.025	73.06
412.249	85.06
412.472	81.06
412.695	86.06
412.919	86.06
413.142	85.06
413.365	86.06
413.589	78.06
413.812	80.06
414.035	88.06
414.258	103.06
414.482	96.06
414.705	74.06
414.928	70.06
415.151	57.06
415.374	74.06
415.597	78.06
415.821	86.06
416.044	95.06
416.267	87.06
416.49	86.06
416.713	84.06
416.936	80.06
417.159	80.06
417.382	78.06
417.605	96.06
417.828	91.06
418.051	86.06
418.274	83.06
418.497	90.06
418.72	97.06
418.943	83.06
419.166	87.06
419.389	80.06
419.611	83.06
419.834	95.06
420.057	76.06
420.28	68.06
420.503	80.06
420.726	76.06
420.948	76.06
421.171	83.06
421.394	79.06
421.617	81.06
421.839	85.06
422.062	87.06
422.285	92.06
422.507	94.06
422.73	94.06
422.953	82.06
423.175	83.06
423.398	92.06
423.621	85.06
423.843	78.06
424.066	91.06
424.288	80.06
424.511	91.06
424.733	84.06
424.956	99.06
425.178	94.06
425.401	90.06
425.623	97.06
425.846	87.06
426.068	86.06
426.291	92.06
426.513	82.06
426.735	98.06
426.958	99.06
427.18	93.06
427.402	112.06
427.625	152.06
427.847	105.06
428.069	87.06
428.292	91.06
428.514	92.06
428.736	83.06
428.958	86.06
429.181	91.06
429.403	93.06
429.625	85.06
429.847	86.06
430.069	94.06
430.292	93.06
430.514	85.06
430.736	74.06
430.958	79.06
431.18	81.06
431.402	100.06
431.624	76.06
431.846	77.06
432.068	97.06
432.29	81.06
432.512	92.06
432.734	66.06
432.956	75.06
433.178	100.06
433.4	84.06
433.622	89.06
433.844	76.06
434.066	86.06
434.287	81.06
434.509	90.06
434.731	87.06
434.953	81.06
435.175	81.06
435.397	92.06
435.618	88.06
435.84	102.06
436.062	95.06
436.284	98.06
436.505	93.06
436.727	89.06
436.949	82.06
437.17	84.06
437.392	91.06
437.614	91.06
437.835	104.06
438.057	99.06
438.278	85.06
438.5	86.06
438.721	105.06
438.943	88.06
439.165	100.06
439.386	77.06
439.608	92.06
439.829	112.06
440.05	114.06
440.272	111.06
440.493	105.06
440.715	79.06
440.936	78.06
441.158	82.06
441.379	94.06
441.6	97.06
441.822	83.06
442.043	94.06
442.264	90.06
442.486	83.06
442.707	92.06
442.928	98.06
443.149	104.06
443.371	108.06
443.592	90.06
443.813	90.06
444.034	96.06
444.255	88.06
444.476	87.06
444.698	88.06
444.919	94.06
445.14	126.06
445.361	108.06
445.582	113.06
445.803	137.06
446.024	128.06
446.245	116.06
446.466	99.06
446.687	93.06
446.908	98.06
447.129	88.06
447.35	96.06
447.571	85.06
447.792	83.06
448.013	95.06
448.234	90.06
448.455	82.06
448.675	94.06
448.896	106.06
449.117	107.06
449.338	89.06
449.559	113.06
449.779	97.06
450	74.06
450.221	86.06
450.442	91.06
450.662	95.06
450.883	96.06
451.104	90.06
451.324	95.06
451.545	76.06
451.766	75.06
451.986	80.06
452.207	88.06
452.428	87.06
452.648	103.06
452.869	96.06
453.089	119.06
453.31	104.06
453.53	100.06
453.751	87.06
453.971	91.06
454.192	92.06
454.412	89.06
454.633	79.06
454.853	82.06
455.073	68.06
455.294	81.06
455.514	86.06
455.734	62.06
455.955	91.06
456.175	94.06
456.395	80.06
456.616	105.06
456.836	83.06
457.056	69.06
457.276	82.06
457.497	72.06
457.717	89.06
457.937	70.06
458.157	93.06
458.377	98.06
458.598	90.06
458.818	140.06
459.038	143.06
459.258	107.06
459.478	79.06
459.698	87.06
459.918	76.06
460.138	86.06
460.358	102.06
460.578	82.06
460.798	76.06
461.018	88.06
461.238	91.06
461.458	78.06
461.678	91.06
461.898	82.06
462.118	78.06
462.338	76.06
462.558	82.06
462.777	74.06
462.997	79.06
463.217	83.06
463.437	90.06
463.657	79.06
463.876	76.06
464.096	83.06
464.316	84.06
464.536	85.06
464.755	76.06
464.975	89.06
465.195	130.06
465.414	142.06
465.634	89.06
465.854	80.06
466.073	91.06
466.293	80.06
466.512	86.06
466.732	75.06
466.951	101.06
467.171	80.06
467.391	94.06
467.61	93.06
467.829	78.06
468.049	103.06
468.268	89.06
468.488	80.06
468.707	81.06
468.927	61.06
469.146	74.06
469.365	74.06
469.585	88.06
469.804	89.06
470.023	78.06
470.243	91.06
470.462	95.06
470.681	95.06
470.901	92.06
471.12	74.06
471.339	92.06
471.558	79.06
471.777	103.06
471.997	75.06
472.216	78.06
472.435	84.06
472.654	88.06
472.873	82.06
473.092	83.06
473.311	83.06
473.53	88.06
473.749	92.06
473.968	103.06
474.187	91.06
474.406	90.06
474.625	94.06
474.844	79.06
475.063	86.06
475.282	98.06
475.501	79.06
475.72	91.06
475.939	87.06
476.158	78.06
476.377	106.06
476.596	87.06
476.814	82.06
477.033	91.06
477.252	86.06
477.471	79.06
477.69	84.06
477.908	77.06
478.127	82.06
478.346	83.06
478.564	98.06
478.783	86.06
479.002	95.06
479.22	90.06
479.439	86.06
479.658	105.06
479.876	85.06
480.095	86.06
480.313	96.06
480.532	94.06
480.751	78.06
480.969	77.06
481.188	87.06
481.406	81.06
481.624	90.06
481.843	88.06
482.061	79.06
482.28	87.06
482.498	89.06
482.717	84.06
482.935	79.06
483.153	95.06
483.372	86.06
483.59	82.06
483.808	93.06
484.027	79.06
484.245	94.06
484.463	83.06
484.681	110.06
484.9	74.06
485.118	97.06
485.336	103.06
485.554	102.06
485.772	94.06
485.99	87.06
486.209	100.06
486.427	100.06
486.645	98.06
486.863	107.06
487.081	90.06
487.299	90.06
487.517	90.06
487.735	87.06
487.953	90.06
488.171	84.06
488.389	94.06
488.607	94.06
488.825	79.06
489.043	80.06
489.261	82.06
489.479	96.06
489.696	98.06
489.914	96.06
490.132	84.06
490.35	79.06
490.568	83.06
490.786	94.06
491.003	92.06
491.221	84.06
491.439	103.06
491.657	87.06
491.874	99.06
492.092	93.06
492.31	72.06
492.527	83.06
492.745	84.06
492.963	95.06
493.18	85.06
493.398	113.06
493.615	105.06
493.833	86.06
494.05	91.06
494.268	61.06
494.485	90.06
494.703	76.06
494.92	87.06
495.138	83.06
495.355	87.06
495.573	83.06
495.79	104.06
496.008	84.06
496.225	84.06
496.442	98.06
496.66	97.06
496.877	76.06
497.094	98.06
497.312	87.06
497.529	81.06
497.746	83.06
497.963	91.06
498.181	69.06
498.398	89.06
498.615	101.06
498.832	86.06
499.049	92.06
499.267	87.06
499.484	94.06
499.701	87.06
499.918	94.06
500.135	87.06
500.352	85.06
500.569	96.06
500.786	106.06
501.003	86.06
501.22	84.06
501.437	98.06
501.654	92.06
501.871	88.06
502.088	74.06
502.305	88.06
502.522	94.06
502.739	86.06
502.956	86.06
503.172	97.06
503.389	97.06
503.606	108.06
503.823	85.06
504.04	82.06
504.256	86.06
504.473	77.06
504.69	72.06
504.907	80.06
505.123	97.06
505.34	78.06
505.557	84.06
505.773	67.06
505.99	82.06
506.207	84.06
506.423	87.06
506.64	89.06
506.856	91.06
507.073	78.06
507.289	89.06
507.506	94.06
507.722	89.06
507.939	111.06
508.155	90.06
508.372	87.06
508.588	79.06
508.805	86.06
509.021	95.06
509.238	92.06
509.454	96.06
509.67	95.06
509.887	103.06
510.103	116.06
510.319	212.06
510.536	710.06
510.752	2132.06
510.968	581.06
511.184	160.06
511.401	92.06
511.617	105.06
511.833	95.06
512.049	109.06
512.265	92.06
512.481	94.06
512.698	87.06
512.914	86.06
513.13	81.06
513.346	76.06
513.562	96.06
513.778	79.06
513.994	94.06
514.21	96.06
514.426	107.06
514.642	102.06
514.858	112.06
515.074	137.06
515.29	404.06
515.506	1257.06
515.721	472.06
515.937	126.06
516.153	103.06
516.369	98.06
516.585	87.06
516.801	101.06
517.016	84.06
517.232	89.06
517.448	97.06
517.664	87.06
