Data from Uncirc_1992_H10_HRD10591_00095.txt Node
Date: Wed Jan 03 11:46:35 EST 2024
User: Yrep
Spectrometer: HR+D1059
Trigger mode: 1
Integration Time (sec): 1.000000E-1
Scans to average: 1
Electric dark correction enabled: true
Nonlinearity correction enabled: false
Boxcar width: 0
XAxis mode: Wavelengths
Number of Pixels in Spectrum: 2048
>>>>>Begin Spectral Data<<<<<
223.165	-9.94
223.4	-9.94
223.635	-9.94
223.869	-19.94
224.104	-18.94
224.338	-29.94
224.573	-15.94
224.808	-9.94
225.042	1.06
225.277	-13.94
225.511	-3.94
225.746	3.06
225.98	13.06
226.215	19.06
226.449	15.06
226.683	23.06
226.918	16.06
227.152	32.06
227.387	36.06
227.621	49.06
227.856	42.06
228.09	36.06
228.324	59.06
228.559	53.06
228.793	49.06
229.027	51.06
229.262	77.06
229.496	64.06
229.73	81.06
229.964	63.06
230.199	76.06
230.433	72.06
230.667	74.06
230.901	65.06
231.136	77.06
231.37	78.06
231.604	60.06
231.838	79.06
232.072	82.06
232.306	83.06
232.541	75.06
232.775	77.06
233.009	81.06
233.243	72.06
233.477	91.06
233.711	84.06
233.945	78.06
234.179	81.06
234.413	81.06
234.647	73.06
234.881	87.06
235.115	77.06
235.349	84.06
235.583	84.06
235.817	64.06
236.051	75.06
236.285	65.06
236.519	67.06
236.753	76.06
236.987	85.06
237.221	73.06
237.455	85.06
237.689	82.06
237.922	73.06
238.156	67.06
238.39	63.06
238.624	64.06
238.858	74.06
239.091	76.06
239.325	65.06
239.559	80.06
239.793	81.06
240.027	59.06
240.26	74.06
240.494	75.06
240.728	66.06
240.961	78.06
241.195	90.06
241.429	75.06
241.662	77.06
241.896	81.06
242.13	65.06
242.363	66.06
242.597	68.06
242.83	61.06
243.064	73.06
243.298	74.06
243.531	73.06
243.765	79.06
243.998	68.06
244.232	82.06
244.465	81.06
244.699	74.06
244.932	73.06
245.166	78.06
245.399	78.06
245.633	75.06
245.866	76.06
246.099	92.06
246.333	78.06
246.566	71.06
246.8	70.06
247.033	74.06
247.266	83.06
247.5	88.06
247.733	73.06
247.966	64.06
248.2	76.06
248.433	82.06
248.666	85.06
248.899	80.06
249.133	72.06
249.366	96.06
249.599	91.06
249.832	86.06
250.066	80.06
250.299	75.06
250.532	86.06
250.765	74.06
250.998	78.06
251.231	79.06
251.465	86.06
251.698	96.06
251.931	84.06
252.164	77.06
252.397	77.06
252.63	75.06
252.863	66.06
253.096	68.06
253.329	72.06
253.562	80.06
253.795	85.06
254.028	84.06
254.261	90.06
254.494	80.06
254.727	86.06
254.96	78.06
255.193	83.06
255.426	84.06
255.659	61.06
255.892	78.06
256.124	80.06
256.357	68.06
256.59	74.06
256.823	84.06
257.056	80.06
257.289	80.06
257.521	82.06
257.754	86.06
257.987	80.06
258.22	82.06
258.452	73.06
258.685	79.06
258.918	94.06
259.151	88.06
259.383	71.06
259.616	89.06
259.849	82.06
260.081	94.06
260.314	89.06
260.547	74.06
260.779	73.06
261.012	82.06
261.244	70.06
261.477	80.06
261.71	94.06
261.942	98.06
262.175	117.06
262.407	90.06
262.64	78.06
262.872	82.06
263.105	90.06
263.337	83.06
263.57	78.06
263.802	85.06
264.035	87.06
264.267	85.06
264.499	84.06
264.732	82.06
264.964	79.06
265.197	84.06
265.429	76.06
265.661	85.06
265.894	79.06
266.126	85.06
266.358	85.06
266.591	74.06
266.823	76.06
267.055	67.06
267.287	83.06
267.52	84.06
267.752	89.06
267.984	69.06
268.216	76.06
268.448	86.06
268.681	76.06
268.913	90.06
269.145	72.06
269.377	77.06
269.609	89.06
269.841	88.06
270.073	87.06
270.306	78.06
270.538	78.06
270.77	81.06
271.002	86.06
271.234	78.06
271.466	78.06
271.698	89.06
271.93	80.06
272.162	84.06
272.394	85.06
272.626	79.06
272.858	74.06
273.09	77.06
273.322	90.06
273.553	85.06
273.785	84.06
274.017	91.06
274.249	88.06
274.481	93.06
274.713	88.06
274.945	95.06
275.176	82.06
275.408	82.06
275.64	88.06
275.872	81.06
276.104	74.06
276.335	85.06
276.567	110.06
276.799	98.06
277.031	98.06
277.262	79.06
277.494	82.06
277.726	87.06
277.957	84.06
278.189	92.06
278.421	91.06
278.652	77.06
278.884	75.06
279.115	74.06
279.347	92.06
279.579	72.06
279.81	85.06
280.042	84.06
280.273	84.06
280.505	84.06
280.736	90.06
280.968	73.06
281.199	87.06
281.431	80.06
281.662	71.06
281.894	87.06
282.125	101.06
282.356	116.06
282.588	130.06
282.819	94.06
283.051	97.06
283.282	84.06
283.513	83.06
283.745	87.06
283.976	79.06
284.207	75.06
284.439	89.06
284.67	81.06
284.901	82.06
285.132	81.06
285.364	83.06
285.595	81.06
285.826	87.06
286.057	81.06
286.288	88.06
286.52	85.06
286.751	85.06
286.982	96.06
287.213	83.06
287.444	73.06
287.675	102.06
287.906	88.06
288.138	91.06
288.369	109.06
288.6	98.06
288.831	70.06
289.062	90.06
289.293	90.06
289.524	101.06
289.755	83.06
289.986	78.06
290.217	84.06
290.448	86.06
290.679	85.06
290.91	84.06
291.141	87.06
291.371	93.06
291.602	90.06
291.833	84.06
292.064	81.06
292.295	80.06
292.526	91.06
292.757	89.06
292.987	96.06
293.218	74.06
293.449	79.06
293.68	85.06
293.91	90.06
294.141	86.06
294.372	86.06
294.603	82.06
294.833	91.06
295.064	88.06
295.295	84.06
295.525	102.06
295.756	95.06
295.987	111.06
296.217	125.06
296.448	115.06
296.679	74.06
296.909	110.06
297.14	103.06
297.37	92.06
297.601	81.06
297.831	89.06
298.062	84.06
298.292	82.06
298.523	96.06
298.753	84.06
298.984	89.06
299.214	95.06
299.445	88.06
299.675	88.06
299.905	76.06
300.136	75.06
300.366	77.06
300.597	82.06
300.827	110.06
301.057	85.06
301.288	102.06
301.518	99.06
301.748	84.06
301.979	80.06
302.209	84.06
302.439	82.06
302.669	96.06
302.9	81.06
303.13	96.06
303.36	81.06
303.59	100.06
303.82	90.06
304.051	86.06
304.281	94.06
304.511	89.06
304.741	75.06
304.971	90.06
305.201	95.06
305.431	91.06
305.661	77.06
305.891	88.06
306.121	100.06
306.352	99.06
306.582	89.06
306.812	85.06
307.042	90.06
307.272	70.06
307.502	77.06
307.731	83.06
307.961	96.06
308.191	78.06
308.421	106.06
308.651	85.06
308.881	84.06
309.111	81.06
309.341	88.06
309.571	101.06
309.8	100.06
310.03	96.06
310.26	102.06
310.49	89.06
310.72	106.06
310.949	101.06
311.179	97.06
311.409	84.06
311.639	92.06
311.868	88.06
312.098	95.06
312.328	86.06
312.557	107.06
312.787	102.06
313.017	105.06
313.246	92.06
313.476	100.06
313.706	102.06
313.935	92.06
314.165	102.06
314.394	107.06
314.624	86.06
314.853	86.06
315.083	92.06
315.312	96.06
315.542	93.06
315.771	90.06
316.001	78.06
316.23	80.06
316.46	73.06
316.689	91.06
316.919	101.06
317.148	93.06
317.377	95.06
317.607	97.06
317.836	90.06
318.065	88.06
318.295	96.06
318.524	81.06
318.753	98.06
318.983	97.06
319.212	102.06
319.441	101.06
319.67	97.06
319.9	105.06
320.129	84.06
320.358	97.06
320.587	82.06
320.816	90.06
321.046	96.06
321.275	96.06
321.504	105.06
321.733	86.06
321.962	98.06
322.191	82.06
322.42	105.06
322.649	102.06
322.878	112.06
323.108	97.06
323.337	107.06
323.566	122.06
323.795	130.06
324.024	186.06
324.253	319.06
324.482	696.06
324.71	1340.06
324.939	1747.06
325.168	686.06
325.397	210.06
325.626	141.06
325.855	117.06
326.084	124.06
326.313	122.06
326.542	132.06
326.77	189.06
326.999	386.06
327.228	777.06
327.457	1328.06
327.686	1066.06
327.914	296.06
328.143	172.06
328.372	130.06
328.6	122.06
328.829	117.06
329.058	114.06
329.287	106.06
329.515	108.06
329.744	114.06
329.972	109.06
330.201	93.06
330.43	102.06
330.658	117.06
330.887	132.06
331.115	109.06
331.344	83.06
331.572	82.06
331.801	112.06
332.03	95.06
332.258	100.06
332.486	89.06
332.715	99.06
332.943	99.06
333.172	83.06
333.4	96.06
333.629	93.06
333.857	118.06
334.085	101.06
334.314	94.06
334.542	94.06
334.771	92.06
334.999	94.06
335.227	102.06
335.455	89.06
335.684	90.06
335.912	82.06
336.14	97.06
336.369	92.06
336.597	102.06
336.825	83.06
337.053	85.06
337.281	107.06
337.51	96.06
337.738	93.06
337.966	92.06
338.194	100.06
338.422	93.06
338.65	108.06
338.878	94.06
339.106	87.06
339.334	99.06
339.562	78.06
339.79	98.06
340.018	81.06
340.246	72.06
340.474	91.06
340.702	95.06
340.93	87.06
341.158	82.06
341.386	101.06
341.614	97.06
341.842	88.06
342.07	85.06
342.298	99.06
342.526	83.06
342.754	89.06
342.981	89.06
343.209	90.06
343.437	96.06
343.665	97.06
343.893	88.06
344.12	92.06
344.348	102.06
344.576	88.06
344.804	85.06
345.031	89.06
345.259	94.06
345.487	81.06
345.714	86.06
345.942	90.06
346.17	94.06
346.397	84.06
346.625	99.06
346.853	98.06
347.08	67.06
347.308	89.06
347.535	96.06
347.763	106.06
347.99	89.06
348.218	111.06
348.445	87.06
348.673	80.06
348.9	108.06
349.128	108.06
349.355	88.06
349.583	90.06
349.81	80.06
350.037	94.06
350.265	88.06
350.492	89.06
350.72	92.06
350.947	97.06
351.174	105.06
351.402	84.06
351.629	115.06
351.856	105.06
352.083	110.06
352.311	91.06
352.538	111.06
352.765	106.06
352.992	122.06
353.22	121.06
353.447	94.06
353.674	96.06
353.901	86.06
354.128	91.06
354.355	89.06
354.583	96.06
354.81	101.06
355.037	107.06
355.264	100.06
355.491	83.06
355.718	90.06
355.945	85.06
356.172	94.06
356.399	111.06
356.626	103.06
356.853	89.06
357.08	85.06
357.307	94.06
357.534	102.06
357.761	97.06
357.988	103.06
358.215	94.06
358.441	96.06
358.668	90.06
358.895	96.06
359.122	81.06
359.349	93.06
359.576	82.06
359.802	93.06
360.029	100.06
360.256	115.06
360.483	90.06
360.709	83.06
360.936	99.06
361.163	99.06
361.39	98.06
361.616	95.06
361.843	96.06
362.07	98.06
362.296	96.06
362.523	98.06
362.749	101.06
362.976	100.06
363.203	86.06
363.429	84.06
363.656	89.06
363.882	92.06
364.109	94.06
364.335	101.06
364.562	90.06
364.788	83.06
365.015	94.06
365.241	95.06
365.468	90.06
365.694	95.06
365.92	77.06
366.147	80.06
366.373	92.06
366.599	89.06
366.826	101.06
367.052	75.06
367.278	92.06
367.505	89.06
367.731	91.06
367.957	80.06
368.184	85.06
368.41	92.06
368.636	99.06
368.862	126.06
369.089	109.06
369.315	94.06
369.541	92.06
369.767	101.06
369.993	80.06
370.219	90.06
370.445	99.06
370.672	88.06
370.898	98.06
371.124	98.06
371.35	92.06
371.576	95.06
371.802	82.06
372.028	92.06
372.254	104.06
372.48	85.06
372.706	109.06
372.932	97.06
373.158	85.06
373.384	80.06
373.61	93.06
373.835	109.06
374.061	93.06
374.287	91.06
374.513	90.06
374.739	80.06
374.965	84.06
375.191	68.06
375.416	94.06
375.642	91.06
375.868	93.06
376.094	91.06
376.319	89.06
376.545	95.06
376.771	79.06
376.997	73.06
377.222	82.06
377.448	90.06
377.674	83.06
377.899	78.06
378.125	91.06
378.35	84.06
378.576	85.06
378.802	89.06
379.027	79.06
379.253	94.06
379.478	91.06
379.704	83.06
379.929	99.06
380.155	84.06
380.38	75.06
380.606	85.06
380.831	84.06
381.057	89.06
381.282	80.06
381.507	84.06
381.733	98.06
381.958	101.06
382.184	97.06
382.409	98.06
382.634	94.06
382.86	94.06
383.085	109.06
383.31	103.06
383.535	91.06
383.761	93.06
383.986	96.06
384.211	88.06
384.436	95.06
384.662	87.06
384.887	92.06
385.112	102.06
385.337	94.06
385.562	101.06
385.787	108.06
386.013	107.06
386.238	107.06
386.463	104.06
386.688	101.06
386.913	103.06
387.138	93.06
387.363	97.06
387.588	93.06
387.813	95.06
388.038	86.06
388.263	102.06
388.488	104.06
388.713	94.06
388.938	102.06
389.163	93.06
389.387	79.06
389.612	89.06
389.837	104.06
390.062	92.06
390.287	98.06
390.512	89.06
390.736	80.06
390.961	85.06
391.186	91.06
391.411	94.06
391.636	87.06
391.86	81.06
392.085	88.06
392.31	83.06
392.534	74.06
392.759	84.06
392.984	97.06
393.208	90.06
393.433	82.06
393.658	84.06
393.882	93.06
394.107	89.06
394.331	102.06
394.556	98.06
394.78	90.06
395.005	77.06
395.229	77.06
395.454	82.06
395.678	79.06
395.903	83.06
396.127	90.06
396.352	98.06
396.576	78.06
396.801	82.06
397.025	79.06
397.249	88.06
397.474	81.06
397.698	82.06
397.922	84.06
398.147	88.06
398.371	88.06
398.595	90.06
398.82	81.06
399.044	97.06
399.268	81.06
399.492	81.06
399.717	96.06
399.941	89.06
400.165	90.06
400.389	88.06
400.613	84.06
400.837	80.06
401.062	79.06
401.286	67.06
401.51	91.06
401.734	84.06
401.958	90.06
402.182	116.06
402.406	132.06
402.63	105.06
402.854	78.06
403.078	99.06
403.302	81.06
403.526	88.06
403.75	85.06
403.974	80.06
404.198	81.06
404.422	84.06
404.645	74.06
404.869	85.06
405.093	76.06
405.317	102.06
405.541	93.06
405.765	91.06
405.988	104.06
406.212	155.06
406.436	208.06
406.66	130.06
406.883	84.06
407.107	92.06
407.331	83.06
407.555	92.06
407.778	90.06
408.002	91.06
408.226	83.06
408.449	76.06
408.673	70.06
408.896	90.06
409.12	93.06
409.344	96.06
409.567	86.06
409.791	88.06
410.014	112.06
410.238	109.06
410.461	92.06
410.685	91.06
410.908	98.06
411.132	89.06
411.355	99.06
411.578	91.06
411.802	73.06
412.025	96.06
412.249	92.06
412.472	81.06
412.695	80.06
412.919	86.06
413.142	92.06
413.365	95.06
413.589	87.06
413.812	81.06
414.035	84.06
414.258	78.06
414.482	106.06
414.705	96.06
414.928	103.06
415.151	88.06
415.374	95.06
415.597	91.06
415.821	74.06
416.044	96.06
416.267	84.06
416.49	83.06
416.713	88.06
416.936	84.06
417.159	85.06
417.382	80.06
417.605	91.06
417.828	84.06
418.051	81.06
418.274	89.06
418.497	85.06
418.72	86.06
418.943	76.06
419.166	82.06
419.389	78.06
419.611	79.06
419.834	96.06
420.057	89.06
420.28	91.06
420.503	80.06
420.726	84.06
420.948	99.06
421.171	90.06
421.394	95.06
421.617	83.06
421.839	86.06
422.062	84.06
422.285	100.06
422.507	101.06
422.73	88.06
422.953	79.06
423.175	98.06
423.398	88.06
423.621	107.06
423.843	91.06
424.066	79.06
424.288	94.06
424.511	93.06
424.733	100.06
424.956	99.06
425.178	97.06
425.401	96.06
425.623	103.06
425.846	84.06
426.068	97.06
426.291	89.06
426.513	91.06
426.735	94.06
426.958	87.06
427.18	96.06
427.402	127.06
427.625	139.06
427.847	113.06
428.069	104.06
428.292	91.06
428.514	79.06
428.736	69.06
428.958	72.06
429.181	91.06
429.403	81.06
429.625	90.06
429.847	83.06
430.069	97.06
430.292	94.06
430.514	66.06
430.736	63.06
430.958	82.06
431.18	82.06
431.402	90.06
431.624	89.06
431.846	93.06
432.068	78.06
432.29	98.06
432.512	93.06
432.734	77.06
432.956	86.06
433.178	105.06
433.4	89.06
433.622	105.06
433.844	79.06
434.066	86.06
434.287	94.06
434.509	85.06
434.731	92.06
434.953	78.06
435.175	89.06
435.397	91.06
435.618	86.06
435.84	101.06
436.062	118.06
436.284	113.06
436.505	88.06
436.727	93.06
436.949	91.06
437.17	81.06
437.392	81.06
437.614	87.06
437.835	109.06
438.057	115.06
438.278	98.06
438.5	99.06
438.721	101.06
438.943	101.06
439.165	94.06
439.386	82.06
439.608	83.06
439.829	96.06
440.05	104.06
440.272	125.06
440.493	91.06
440.715	91.06
440.936	81.06
441.158	88.06
441.379	102.06
441.6	85.06
441.822	98.06
442.043	97.06
442.264	88.06
442.486	93.06
442.707	92.06
442.928	85.06
443.149	112.06
443.371	112.06
443.592	93.06
443.813	94.06
444.034	84.06
444.255	69.06
444.476	82.06
444.698	80.06
444.919	90.06
445.14	141.06
445.361	119.06
445.582	104.06
445.803	102.06
446.024	119.06
446.245	98.06
446.466	109.06
446.687	86.06
446.908	93.06
447.129	99.06
447.35	89.06
447.571	94.06
447.792	89.06
448.013	92.06
448.234	110.06
448.455	92.06
448.675	108.06
448.896	102.06
449.117	106.06
449.338	98.06
449.559	113.06
449.779	113.06
450	81.06
450.221	86.06
450.442	100.06
450.662	91.06
450.883	91.06
451.104	97.06
451.324	85.06
451.545	82.06
451.766	93.06
451.986	89.06
452.207	90.06
452.428	90.06
452.648	107.06
452.869	123.06
453.089	100.06
453.31	100.06
453.53	102.06
453.751	94.06
453.971	109.06
454.192	94.06
454.412	98.06
454.633	88.06
454.853	93.06
455.073	77.06
455.294	108.06
455.514	90.06
455.734	91.06
455.955	76.06
456.175	87.06
456.395	87.06
456.616	84.06
456.836	83.06
457.056	80.06
457.276	89.06
457.497	97.06
457.717	81.06
457.937	78.06
458.157	79.06
458.377	92.06
458.598	109.06
458.818	126.06
459.038	139.06
459.258	117.06
459.478	88.06
459.698	80.06
459.918	78.06
460.138	92.06
460.358	91.06
460.578	103.06
460.798	89.06
461.018	89.06
461.238	88.06
461.458	82.06
461.678	78.06
461.898	93.06
462.118	76.06
462.338	81.06
462.558	81.06
462.777	81.06
462.997	77.06
463.217	79.06
463.437	78.06
463.657	69.06
463.876	90.06
464.096	97.06
464.316	95.06
464.536	109.06
464.755	99.06
464.975	91.06
465.195	153.06
465.414	128.06
465.634	88.06
465.854	79.06
466.073	91.06
466.293	90.06
466.512	77.06
466.732	83.06
466.951	89.06
467.171	88.06
467.391	98.06
467.61	81.06
467.829	103.06
468.049	82.06
468.268	84.06
468.488	68.06
468.707	90.06
468.927	94.06
469.146	91.06
469.365	73.06
469.585	77.06
469.804	89.06
470.023	90.06
470.243	86.06
470.462	101.06
470.681	98.06
470.901	74.06
471.12	84.06
471.339	84.06
471.558	89.06
471.777	94.06
471.997	94.06
472.216	90.06
472.435	98.06
472.654	81.06
472.873	96.06
473.092	80.06
473.311	89.06
473.53	78.06
473.749	97.06
473.968	98.06
474.187	80.06
474.406	88.06
474.625	96.06
474.844	84.06
475.063	85.06
475.282	95.06
475.501	78.06
475.72	92.06
475.939	95.06
476.158	72.06
476.377	94.06
476.596	86.06
476.814	89.06
477.033	77.06
477.252	69.06
477.471	73.06
477.69	92.06
477.908	76.06
478.127	93.06
478.346	82.06
478.564	96.06
478.783	90.06
479.002	97.06
479.22	87.06
479.439	102.06
479.658	88.06
479.876	82.06
480.095	91.06
480.313	86.06
480.532	79.06
480.751	88.06
480.969	65.06
481.188	103.06
481.406	109.06
481.624	90.06
481.843	90.06
482.061	84.06
482.28	98.06
482.498	88.06
482.717	72.06
482.935	91.06
483.153	101.06
483.372	91.06
483.59	85.06
483.808	87.06
484.027	84.06
484.245	92.06
484.463	98.06
484.681	89.06
484.9	90.06
485.118	94.06
485.336	80.06
485.554	84.06
485.772	102.06
485.99	95.06
486.209	94.06
486.427	116.06
486.645	105.06
486.863	102.06
487.081	100.06
487.299	100.06
487.517	96.06
487.735	90.06
487.953	91.06
488.171	89.06
488.389	89.06
488.607	100.06
488.825	92.06
489.043	80.06
489.261	84.06
489.479	95.06
489.696	100.06
489.914	84.06
490.132	67.06
490.35	79.06
490.568	80.06
490.786	87.06
491.003	97.06
491.221	89.06
491.439	81.06
491.657	83.06
491.874	85.06
492.092	93.06
492.31	81.06
492.527	82.06
492.745	76.06
492.963	88.06
493.18	100.06
493.398	99.06
493.615	96.06
493.833	106.06
494.05	93.06
494.268	83.06
494.485	85.06
494.703	89.06
494.92	84.06
495.138	82.06
495.355	97.06
495.573	84.06
495.79	88.06
496.008	99.06
496.225	106.06
496.442	98.06
496.66	81.06
496.877	88.06
497.094	86.06
497.312	97.06
497.529	97.06
497.746	84.06
497.963	86.06
498.181	87.06
498.398	91.06
498.615	95.06
498.832	109.06
499.049	92.06
499.267	85.06
499.484	82.06
499.701	83.06
499.918	90.06
500.135	94.06
500.352	86.06
500.569	87.06
500.786	81.06
501.003	89.06
501.22	99.06
501.437	99.06
501.654	90.06
501.871	104.06
502.088	95.06
502.305	80.06
502.522	91.06
502.739	90.06
502.956	92.06
503.172	99.06
503.389	86.06
503.606	104.06
503.823	85.06
504.04	86.06
504.256	97.06
504.473	84.06
504.69	88.06
504.907	72.06
505.123	88.06
505.34	111.06
505.557	95.06
505.773	99.06
505.99	93.06
506.207	84.06
506.423	88.06
506.64	86.06
506.856	93.06
507.073	90.06
507.289	88.06
507.506	89.06
507.722	94.06
507.939	91.06
508.155	95.06
508.372	78.06
508.588	94.06
508.805	94.06
509.021	77.06
509.238	92.06
509.454	78.06
509.67	98.06
509.887	97.06
510.103	130.06
510.319	209.06
510.536	703.06
510.752	2135.06
510.968	566.06
511.184	139.06
511.401	109.06
511.617	93.06
511.833	100.06
512.049	88.06
512.265	87.06
512.481	86.06
512.698	96.06
512.914	80.06
513.13	94.06
513.346	92.06
513.562	94.06
513.778	90.06
513.994	90.06
514.21	111.06
514.426	108.06
514.642	124.06
514.858	98.06
515.074	158.06
515.29	381.06
515.506	1233.06
515.721	457.06
515.937	129.06
516.153	106.06
516.369	97.06
516.585	99.06
516.801	90.06
