Data from Uncirc_1992_H10_HRD10591_00064.txt Node
Date: Wed Jan 03 11:46:29 EST 2024
User: Yrep
Spectrometer: HR+D1059
Trigger mode: 1
Integration Time (sec): 1.000000E-1
Scans to average: 1
Electric dark correction enabled: true
Nonlinearity correction enabled: false
Boxcar width: 0
XAxis mode: Wavelengths
Number of Pixels in Spectrum: 2048
>>>>>Begin Spectral Data<<<<<
223.165	-21.81
223.4	-21.81
223.635	-21.81
223.869	-7.81
224.104	-7.81
224.338	-15.81
224.573	-20.81
224.808	-9.81
225.042	-18.81
225.277	-13.81
225.511	-1.81
225.746	16.19
225.98	-0.81
226.215	4.19
226.449	13.19
226.683	23.19
226.918	28.19
227.152	34.19
227.387	42.19
227.621	46.19
227.856	37.19
228.09	49.19
228.324	54.19
228.559	53.19
228.793	34.19
229.027	78.19
229.262	85.19
229.496	79.19
229.73	71.19
229.964	92.19
230.199	85.19
230.433	83.19
230.667	79.19
230.901	78.19
231.136	82.19
231.37	79.19
231.604	80.19
231.838	79.19
232.072	75.19
232.306	77.19
232.541	74.19
232.775	67.19
233.009	83.19
233.243	79.19
233.477	85.19
233.711	82.19
233.945	84.19
234.179	85.19
234.413	86.19
234.647	70.19
234.881	77.19
235.115	75.19
235.349	79.19
235.583	65.19
235.817	78.19
236.051	87.19
236.285	86.19
236.519	81.19
236.753	81.19
236.987	78.19
237.221	76.19
237.455	73.19
237.689	75.19
237.922	79.19
238.156	75.19
238.39	74.19
238.624	75.19
238.858	71.19
239.091	56.19
239.325	68.19
239.559	78.19
239.793	81.19
240.027	81.19
240.26	59.19
240.494	79.19
240.728	81.19
240.961	74.19
241.195	86.19
241.429	74.19
241.662	77.19
241.896	65.19
242.13	84.19
242.363	75.19
242.597	92.19
242.83	81.19
243.064	66.19
243.298	75.19
243.531	77.19
243.765	77.19
243.998	83.19
244.232	82.19
244.465	79.19
244.699	81.19
244.932	79.19
245.166	63.19
245.399	72.19
245.633	90.19
245.866	70.19
246.099	74.19
246.333	83.19
246.566	81.19
246.8	74.19
247.033	65.19
247.266	82.19
247.5	73.19
247.733	74.19
247.966	85.19
248.2	80.19
248.433	76.19
248.666	69.19
248.899	93.19
249.133	80.19
249.366	94.19
249.599	86.19
249.832	83.19
250.066	69.19
250.299	73.19
250.532	75.19
250.765	82.19
250.998	85.19
251.231	81.19
251.465	68.19
251.698	86.19
251.931	70.19
252.164	77.19
252.397	89.19
252.63	84.19
252.863	78.19
253.096	76.19
253.329	82.19
253.562	94.19
253.795	79.19
254.028	70.19
254.261	75.19
254.494	84.19
254.727	83.19
254.96	91.19
255.193	89.19
255.426	76.19
255.659	84.19
255.892	86.19
256.124	89.19
256.357	73.19
256.59	74.19
256.823	94.19
257.056	78.19
257.289	58.19
257.521	79.19
257.754	77.19
257.987	81.19
258.22	76.19
258.452	69.19
258.685	91.19
258.918	78.19
259.151	68.19
259.383	91.19
259.616	73.19
259.849	89.19
260.081	67.19
260.314	71.19
260.547	71.19
260.779	67.19
261.012	78.19
261.244	90.19
261.477	84.19
261.71	87.19
261.942	102.19
262.175	93.19
262.407	84.19
262.64	71.19
262.872	77.19
263.105	70.19
263.337	73.19
263.57	92.19
263.802	82.19
264.035	85.19
264.267	93.19
264.499	75.19
264.732	82.19
264.964	85.19
265.197	91.19
265.429	89.19
265.661	82.19
265.894	89.19
266.126	78.19
266.358	85.19
266.591	85.19
266.823	84.19
267.055	89.19
267.287	87.19
267.52	71.19
267.752	75.19
267.984	84.19
268.216	98.19
268.448	83.19
268.681	73.19
268.913	97.19
269.145	92.19
269.377	95.19
269.609	87.19
269.841	97.19
270.073	86.19
270.306	93.19
270.538	87.19
270.77	87.19
271.002	68.19
271.234	80.19
271.466	97.19
271.698	100.19
271.93	77.19
272.162	91.19
272.394	83.19
272.626	87.19
272.858	71.19
273.09	90.19
273.322	68.19
273.553	78.19
273.785	86.19
274.017	82.19
274.249	87.19
274.481	87.19
274.713	82.19
274.945	74.19
275.176	66.19
275.408	77.19
275.64	87.19
275.872	98.19
276.104	100.19
276.335	96.19
276.567	103.19
276.799	105.19
277.031	97.19
277.262	75.19
277.494	96.19
277.726	85.19
277.957	80.19
278.189	83.19
278.421	91.19
278.652	80.19
278.884	81.19
279.115	90.19
279.347	86.19
279.579	92.19
279.81	79.19
280.042	80.19
280.273	78.19
280.505	82.19
280.736	79.19
280.968	74.19
281.199	83.19
281.431	78.19
281.662	80.19
281.894	89.19
282.125	98.19
282.356	129.19
282.588	130.19
282.819	118.19
283.051	102.19
283.282	96.19
283.513	96.19
283.745	95.19
283.976	69.19
284.207	82.19
284.439	95.19
284.67	71.19
284.901	87.19
285.132	84.19
285.364	93.19
285.595	88.19
285.826	91.19
286.057	75.19
286.288	81.19
286.52	89.19
286.751	83.19
286.982	87.19
287.213	78.19
287.444	87.19
287.675	97.19
287.906	80.19
288.138	77.19
288.369	101.19
288.6	89.19
288.831	80.19
289.062	88.19
289.293	97.19
289.524	81.19
289.755	83.19
289.986	92.19
290.217	76.19
290.448	74.19
290.679	94.19
290.91	82.19
291.141	93.19
291.371	83.19
291.602	81.19
291.833	80.19
292.064	79.19
292.295	78.19
292.526	89.19
292.757	92.19
292.987	91.19
293.218	86.19
293.449	91.19
293.68	89.19
293.91	78.19
294.141	99.19
294.372	80.19
294.603	98.19
294.833	82.19
295.064	97.19
295.295	93.19
295.525	83.19
295.756	80.19
295.987	105.19
296.217	129.19
296.448	101.19
296.679	85.19
296.909	86.19
297.14	85.19
297.37	78.19
297.601	76.19
297.831	86.19
298.062	91.19
298.292	89.19
298.523	86.19
298.753	81.19
298.984	76.19
299.214	89.19
299.445	97.19
299.675	88.19
299.905	90.19
300.136	83.19
300.366	99.19
300.597	79.19
300.827	83.19
301.057	91.19
301.288	106.19
301.518	99.19
301.748	75.19
301.979	93.19
302.209	79.19
302.439	66.19
302.669	89.19
302.9	101.19
303.13	88.19
303.36	97.19
303.59	100.19
303.82	98.19
304.051	87.19
304.281	88.19
304.511	106.19
304.741	80.19
304.971	84.19
305.201	82.19
305.431	80.19
305.661	93.19
305.891	93.19
306.121	86.19
306.352	89.19
306.582	95.19
306.812	101.19
307.042	88.19
307.272	103.19
307.502	92.19
307.731	90.19
307.961	87.19
308.191	87.19
308.421	58.19
308.651	85.19
308.881	90.19
309.111	92.19
309.341	104.19
309.571	108.19
309.8	95.19
310.03	90.19
310.26	91.19
310.49	111.19
310.72	101.19
310.949	88.19
311.179	95.19
311.409	78.19
311.639	100.19
311.868	85.19
312.098	98.19
312.328	88.19
312.557	84.19
312.787	97.19
313.017	106.19
313.246	95.19
313.476	86.19
313.706	95.19
313.935	82.19
314.165	93.19
314.394	93.19
314.624	105.19
314.853	102.19
315.083	84.19
315.312	103.19
315.542	89.19
315.771	94.19
316.001	86.19
316.23	95.19
316.46	100.19
316.689	88.19
316.919	81.19
317.148	80.19
317.377	90.19
317.607	90.19
317.836	99.19
318.065	81.19
318.295	80.19
318.524	84.19
318.753	66.19
318.983	93.19
319.212	100.19
319.441	102.19
319.67	102.19
319.9	98.19
320.129	88.19
320.358	102.19
320.587	109.19
320.816	88.19
321.046	104.19
321.275	99.19
321.504	91.19
321.733	106.19
321.962	101.19
322.191	99.19
322.42	107.19
322.649	109.19
322.878	97.19
323.108	103.19
323.337	113.19
323.566	128.19
323.795	161.19
324.024	192.19
324.253	351.19
324.482	723.19
324.71	1459.19
324.939	1866.19
325.168	699.19
325.397	219.19
325.626	135.19
325.855	116.19
326.084	122.19
326.313	131.19
326.542	116.19
326.77	188.19
326.999	401.19
327.228	819.19
327.457	1492.19
327.686	1170.19
327.914	318.19
328.143	182.19
328.372	137.19
328.6	127.19
328.829	103.19
329.058	123.19
329.287	118.19
329.515	116.19
329.744	96.19
329.972	96.19
330.201	95.19
330.43	103.19
330.658	103.19
330.887	118.19
331.115	117.19
331.344	93.19
331.572	97.19
331.801	110.19
332.03	87.19
332.258	106.19
332.486	94.19
332.715	90.19
332.943	87.19
333.172	79.19
333.4	101.19
333.629	93.19
333.857	99.19
334.085	109.19
334.314	101.19
334.542	93.19
334.771	83.19
334.999	93.19
335.227	93.19
335.455	87.19
335.684	94.19
335.912	92.19
336.14	84.19
336.369	103.19
336.597	102.19
336.825	105.19
337.053	91.19
337.281	97.19
337.51	77.19
337.738	84.19
337.966	84.19
338.194	102.19
338.422	77.19
338.65	109.19
338.878	103.19
339.106	100.19
339.334	102.19
339.562	95.19
339.79	91.19
340.018	89.19
340.246	91.19
340.474	87.19
340.702	89.19
340.93	85.19
341.158	95.19
341.386	94.19
341.614	88.19
341.842	97.19
342.07	96.19
342.298	100.19
342.526	95.19
342.754	84.19
342.981	89.19
343.209	93.19
343.437	103.19
343.665	91.19
343.893	87.19
344.12	91.19
344.348	87.19
344.576	67.19
344.804	79.19
345.031	81.19
345.259	105.19
345.487	82.19
345.714	88.19
345.942	89.19
346.17	89.19
346.397	89.19
346.625	98.19
346.853	93.19
347.08	91.19
347.308	85.19
347.535	82.19
347.763	89.19
347.99	86.19
348.218	97.19
348.445	107.19
348.673	100.19
348.9	103.19
349.128	96.19
349.355	94.19
349.583	87.19
349.81	94.19
350.037	84.19
350.265	95.19
350.492	92.19
350.72	79.19
350.947	102.19
351.174	95.19
351.402	114.19
351.629	96.19
351.856	105.19
352.083	98.19
352.311	91.19
352.538	112.19
352.765	93.19
352.992	100.19
353.22	102.19
353.447	99.19
353.674	125.19
353.901	108.19
354.128	89.19
354.355	95.19
354.583	83.19
354.81	97.19
355.037	102.19
355.264	107.19
355.491	100.19
355.718	85.19
355.945	102.19
356.172	94.19
356.399	81.19
356.626	89.19
356.853	97.19
357.08	88.19
357.307	98.19
357.534	89.19
357.761	97.19
357.988	82.19
358.215	93.19
358.441	102.19
358.668	76.19
358.895	85.19
359.122	88.19
359.349	91.19
359.576	88.19
359.802	88.19
360.029	110.19
360.256	102.19
360.483	95.19
360.709	82.19
360.936	82.19
361.163	92.19
361.39	98.19
361.616	100.19
361.843	86.19
362.07	93.19
362.296	86.19
362.523	84.19
362.749	91.19
362.976	87.19
363.203	75.19
363.429	80.19
363.656	98.19
363.882	83.19
364.109	103.19
364.335	94.19
364.562	90.19
364.788	91.19
365.015	96.19
365.241	80.19
365.468	95.19
365.694	104.19
365.92	102.19
366.147	88.19
366.373	87.19
366.599	81.19
366.826	90.19
367.052	90.19
367.278	87.19
367.505	86.19
367.731	87.19
367.957	78.19
368.184	95.19
368.41	100.19
368.636	106.19
368.862	109.19
369.089	105.19
369.315	90.19
369.541	82.19
369.767	94.19
369.993	85.19
370.219	103.19
370.445	98.19
370.672	91.19
370.898	76.19
371.124	86.19
371.35	89.19
371.576	90.19
371.802	90.19
372.028	92.19
372.254	88.19
372.48	60.19
372.706	83.19
372.932	74.19
373.158	91.19
373.384	95.19
373.61	95.19
373.835	84.19
374.061	86.19
374.287	83.19
374.513	94.19
374.739	92.19
374.965	88.19
375.191	86.19
375.416	99.19
375.642	85.19
375.868	100.19
376.094	95.19
376.319	64.19
376.545	91.19
376.771	67.19
376.997	87.19
377.222	101.19
377.448	97.19
377.674	86.19
377.899	93.19
378.125	102.19
378.35	86.19
378.576	90.19
378.802	84.19
379.027	90.19
379.253	97.19
379.478	81.19
379.704	99.19
379.929	92.19
380.155	82.19
380.38	89.19
380.606	100.19
380.831	98.19
381.057	91.19
381.282	104.19
381.507	102.19
381.733	96.19
381.958	96.19
382.184	101.19
382.409	102.19
382.634	100.19
382.86	96.19
383.085	93.19
383.31	96.19
383.535	101.19
383.761	98.19
383.986	83.19
384.211	93.19
384.436	91.19
384.662	99.19
384.887	101.19
385.112	106.19
385.337	109.19
385.562	106.19
385.787	97.19
386.013	105.19
386.238	112.19
386.463	100.19
386.688	105.19
386.913	89.19
387.138	98.19
387.363	96.19
387.588	101.19
387.813	98.19
388.038	93.19
388.263	107.19
388.488	119.19
388.713	102.19
388.938	90.19
389.163	82.19
389.387	97.19
389.612	77.19
389.837	93.19
390.062	97.19
390.287	90.19
390.512	87.19
390.736	95.19
390.961	102.19
391.186	93.19
391.411	101.19
391.636	94.19
391.86	87.19
392.085	83.19
392.31	77.19
392.534	87.19
392.759	75.19
392.984	102.19
393.208	95.19
393.433	85.19
393.658	78.19
393.882	68.19
394.107	87.19
394.331	75.19
394.556	89.19
394.78	92.19
395.005	94.19
395.229	82.19
395.454	89.19
395.678	91.19
395.903	83.19
396.127	83.19
396.352	87.19
396.576	77.19
396.801	89.19
397.025	98.19
397.249	90.19
397.474	92.19
397.698	78.19
397.922	87.19
398.147	89.19
398.371	77.19
398.595	81.19
398.82	84.19
399.044	85.19
399.268	86.19
399.492	89.19
399.717	97.19
399.941	99.19
400.165	89.19
400.389	83.19
400.613	97.19
400.837	71.19
401.062	81.19
401.286	84.19
401.51	82.19
401.734	85.19
401.958	101.19
402.182	109.19
402.406	146.19
402.63	112.19
402.854	106.19
403.078	89.19
403.302	103.19
403.526	80.19
403.75	84.19
403.974	89.19
404.198	91.19
404.422	93.19
404.645	95.19
404.869	91.19
405.093	109.19
405.317	107.19
405.541	85.19
405.765	100.19
405.988	113.19
406.212	164.19
406.436	196.19
406.66	142.19
406.883	101.19
407.107	98.19
407.331	89.19
407.555	81.19
407.778	97.19
408.002	96.19
408.226	89.19
408.449	84.19
408.673	97.19
408.896	94.19
409.12	89.19
409.344	91.19
409.567	89.19
409.791	87.19
410.014	86.19
410.238	98.19
410.461	96.19
410.685	100.19
410.908	94.19
411.132	91.19
411.355	90.19
411.578	85.19
411.802	82.19
412.025	82.19
412.249	69.19
412.472	87.19
412.695	77.19
412.919	81.19
413.142	81.19
413.365	85.19
413.589	82.19
413.812	92.19
414.035	94.19
414.258	92.19
414.482	87.19
414.705	77.19
414.928	83.19
415.151	95.19
415.374	92.19
415.597	86.19
415.821	90.19
416.044	104.19
416.267	78.19
416.49	85.19
416.713	93.19
416.936	90.19
417.159	92.19
417.382	103.19
417.605	95.19
417.828	95.19
418.051	87.19
418.274	97.19
418.497	89.19
418.72	76.19
418.943	84.19
419.166	78.19
419.389	79.19
419.611	100.19
419.834	90.19
420.057	87.19
420.28	93.19
420.503	68.19
420.726	94.19
420.948	87.19
421.171	97.19
421.394	96.19
421.617	88.19
421.839	87.19
422.062	92.19
422.285	90.19
422.507	84.19
422.73	94.19
422.953	95.19
423.175	93.19
423.398	100.19
423.621	100.19
423.843	94.19
424.066	94.19
424.288	91.19
424.511	81.19
424.733	102.19
424.956	116.19
425.178	106.19
425.401	101.19
425.623	90.19
425.846	89.19
426.068	82.19
426.291	91.19
426.513	103.19
426.735	86.19
426.958	86.19
427.18	85.19
427.402	117.19
427.625	156.19
427.847	124.19
428.069	99.19
428.292	85.19
428.514	92.19
428.736	93.19
428.958	81.19
429.181	79.19
429.403	80.19
429.625	94.19
429.847	98.19
430.069	96.19
430.292	101.19
430.514	84.19
430.736	79.19
430.958	85.19
431.18	85.19
431.402	94.19
431.624	95.19
431.846	94.19
432.068	81.19
432.29	93.19
432.512	103.19
432.734	97.19
432.956	97.19
433.178	101.19
433.4	85.19
433.622	83.19
433.844	98.19
434.066	75.19
434.287	98.19
434.509	86.19
434.731	91.19
434.953	73.19
435.175	83.19
435.397	83.19
435.618	97.19
435.84	102.19
436.062	115.19
436.284	109.19
436.505	98.19
436.727	100.19
436.949	87.19
437.17	85.19
437.392	62.19
437.614	67.19
437.835	90.19
438.057	107.19
438.278	115.19
438.5	101.19
438.721	106.19
438.943	85.19
439.165	92.19
439.386	95.19
439.608	98.19
439.829	96.19
440.05	112.19
440.272	146.19
440.493	109.19
440.715	88.19
440.936	90.19
441.158	84.19
441.379	76.19
441.6	90.19
441.822	100.19
442.043	100.19
442.264	99.19
442.486	101.19
442.707	89.19
442.928	106.19
443.149	116.19
443.371	125.19
443.592	105.19
443.813	90.19
444.034	100.19
444.255	73.19
444.476	96.19
444.698	93.19
444.919	94.19
445.14	125.19
445.361	117.19
445.582	99.19
445.803	128.19
446.024	112.19
446.245	129.19
446.466	97.19
446.687	78.19
446.908	77.19
447.129	77.19
447.35	86.19
447.571	94.19
447.792	91.19
448.013	90.19
448.234	107.19
448.455	101.19
448.675	102.19
448.896	97.19
449.117	93.19
449.338	93.19
449.559	104.19
449.779	116.19
450	91.19
450.221	102.19
450.442	90.19
450.662	94.19
450.883	97.19
451.104	95.19
451.324	90.19
451.545	95.19
451.766	100.19
451.986	92.19
452.207	97.19
452.428	84.19
452.648	97.19
452.869	107.19
453.089	113.19
453.31	91.19
453.53	97.19
453.751	85.19
453.971	102.19
454.192	94.19
454.412	90.19
454.633	90.19
454.853	81.19
455.073	77.19
455.294	96.19
455.514	94.19
455.734	102.19
455.955	103.19
456.175	93.19
456.395	92.19
456.616	78.19
456.836	84.19
457.056	83.19
457.276	110.19
457.497	85.19
457.717	89.19
457.937	75.19
458.157	103.19
458.377	94.19
458.598	102.19
458.818	135.19
459.038	134.19
459.258	114.19
459.478	94.19
459.698	87.19
459.918	90.19
460.138	79.19
460.358	102.19
460.578	77.19
460.798	83.19
461.018	87.19
461.238	89.19
461.458	92.19
461.678	84.19
461.898	75.19
462.118	95.19
462.338	98.19
462.558	98.19
462.777	89.19
462.997	91.19
463.217	85.19
463.437	83.19
463.657	65.19
463.876	87.19
464.096	98.19
464.316	80.19
464.536	91.19
464.755	104.19
464.975	96.19
465.195	134.19
465.414	135.19
465.634	86.19
465.854	93.19
466.073	85.19
466.293	70.19
466.512	78.19
466.732	90.19
466.951	79.19
467.171	89.19
467.391	79.19
467.61	102.19
467.829	110.19
468.049	93.19
468.268	71.19
468.488	86.19
468.707	98.19
468.927	86.19
469.146	110.19
469.365	99.19
469.585	93.19
469.804	96.19
470.023	93.19
470.243	79.19
470.462	86.19
470.681	115.19
470.901	86.19
471.12	77.19
471.339	81.19
471.558	74.19
471.777	70.19
471.997	75.19
472.216	98.19
472.435	90.19
472.654	102.19
472.873	88.19
473.092	93.19
473.311	85.19
473.53	91.19
473.749	80.19
473.968	85.19
474.187	90.19
474.406	97.19
474.625	95.19
474.844	81.19
475.063	77.19
475.282	71.19
475.501	81.19
475.72	84.19
475.939	98.19
476.158	74.19
476.377	86.19
476.596	84.19
476.814	97.19
477.033	106.19
477.252	89.19
477.471	89.19
477.69	91.19
477.908	79.19
478.127	97.19
478.346	86.19
478.564	93.19
478.783	99.19
479.002	106.19
479.22	102.19
479.439	110.19
479.658	107.19
479.876	98.19
480.095	93.19
480.313	90.19
480.532	92.19
480.751	87.19
480.969	86.19
481.188	92.19
481.406	95.19
481.624	74.19
481.843	93.19
482.061	86.19
482.28	80.19
482.498	89.19
482.717	99.19
482.935	95.19
483.153	73.19
483.372	75.19
483.59	84.19
483.808	77.19
484.027	93.19
484.245	76.19
484.463	91.19
484.681	92.19
484.9	96.19
485.118	103.19
485.336	87.19
485.554	90.19
485.772	89.19
485.99	92.19
486.209	99.19
486.427	98.19
486.645	110.19
486.863	95.19
487.081	93.19
487.299	93.19
487.517	95.19
487.735	98.19
487.953	94.19
488.171	98.19
488.389	101.19
488.607	92.19
488.825	95.19
489.043	96.19
489.261	83.19
489.479	86.19
489.696	100.19
489.914	93.19
490.132	92.19
490.35	87.19
490.568	90.19
490.786	90.19
491.003	83.19
491.221	79.19
491.439	98.19
491.657	80.19
491.874	97.19
492.092	108.19
492.31	104.19
492.527	95.19
492.745	90.19
492.963	103.19
493.18	106.19
493.398	87.19
493.615	103.19
493.833	98.19
494.05	84.19
494.268	85.19
494.485	82.19
494.703	102.19
494.92	81.19
495.138	90.19
495.355	95.19
495.573	81.19
495.79	94.19
496.008	94.19
496.225	90.19
496.442	94.19
496.66	111.19
496.877	93.19
497.094	89.19
497.312	74.19
497.529	89.19
497.746	89.19
497.963	74.19
498.181	87.19
498.398	81.19
498.615	113.19
498.832	96.19
499.049	96.19
499.267	98.19
499.484	81.19
499.701	89.19
499.918	80.19
500.135	82.19
500.352	91.19
500.569	97.19
500.786	87.19
501.003	94.19
501.22	91.19
501.437	105.19
501.654	99.19
501.871	101.19
502.088	83.19
502.305	89.19
502.522	96.19
502.739	73.19
502.956	97.19
503.172	83.19
503.389	76.19
503.606	95.19
503.823	96.19
504.04	108.19
504.256	84.19
504.473	86.19
504.69	77.19
504.907	94.19
505.123	101.19
505.34	92.19
505.557	91.19
505.773	89.19
505.99	81.19
506.207	95.19
506.423	90.19
506.64	87.19
506.856	81.19
507.073	86.19
507.289	96.19
507.506	93.19
507.722	113.19
507.939	100.19
508.155	94.19
508.372	101.19
508.588	101.19
508.805	96.19
509.021	102.19
509.238	95.19
509.454	94.19
509.67	91.19
509.887	116.19
510.103	122.19
510.319	196.19
510.536	736.19
510.752	2131.19
510.968	605.19
511.184	144.19
511.401	112.19
511.617	91.19
511.833	94.19
512.049	80.19
512.265	95.19
512.481	87.19
512.698	95.19
512.914	90.19
513.13	84.19
513.346	80.19
513.562	93.19
513.778	101.19
513.994	98.19
514.21	107.19
514.426	112.19
514.642	138.19
514.858	133.19
515.074	155.19
515.29	419.19
515.506	1304.19
515.721	489.19
515.937	139.19
516.153	104.19
