Data from Uncirc_1992_H10_HRD10591_00050.txt Node
Date: Wed Jan 03 11:46:26 EST 2024
User: Yrep
Spectrometer: HR+D1059
Trigger mode: 1
Integration Time (sec): 1.000000E-1
Scans to average: 1
Electric dark correction enabled: true
Nonlinearity correction enabled: false
Boxcar width: 0
XAxis mode: Wavelengths
Number of Pixels in Spectrum: 2048
>>>>>Begin Spectral Data<<<<<
223.165	-27.38
223.4	-27.38
223.635	-27.38
223.869	-19.38
224.104	-14.38
224.338	-12.38
224.573	-1.38
224.808	-13.38
225.042	8.62
225.277	-14.38
225.511	-8.38
225.746	-1.38
225.98	13.62
226.215	-3.38
226.449	9.62
226.683	30.62
226.918	15.62
227.152	37.62
227.387	43.62
227.621	37.62
227.856	44.62
228.09	30.62
228.324	52.62
228.559	54.62
228.793	71.62
229.027	71.62
229.262	59.62
229.496	63.62
229.73	73.62
229.964	83.62
230.199	81.62
230.433	76.62
230.667	80.62
230.901	77.62
231.136	80.62
231.37	84.62
231.604	83.62
231.838	74.62
232.072	82.62
232.306	63.62
232.541	93.62
232.775	66.62
233.009	75.62
233.243	76.62
233.477	76.62
233.711	76.62
233.945	82.62
234.179	94.62
234.413	81.62
234.647	87.62
234.881	77.62
235.115	77.62
235.349	78.62
235.583	78.62
235.817	79.62
236.051	69.62
236.285	75.62
236.519	71.62
236.753	79.62
236.987	78.62
237.221	76.62
237.455	96.62
237.689	79.62
237.922	74.62
238.156	69.62
238.39	70.62
238.624	64.62
238.858	85.62
239.091	64.62
239.325	77.62
239.559	63.62
239.793	78.62
240.027	79.62
240.26	69.62
240.494	69.62
240.728	77.62
240.961	71.62
241.195	73.62
241.429	75.62
241.662	76.62
241.896	79.62
242.13	79.62
242.363	61.62
242.597	81.62
242.83	74.62
243.064	66.62
243.298	74.62
243.531	65.62
243.765	73.62
243.998	78.62
244.232	79.62
244.465	85.62
244.699	79.62
244.932	67.62
245.166	74.62
245.399	83.62
245.633	72.62
245.866	83.62
246.099	81.62
246.333	75.62
246.566	77.62
246.8	80.62
247.033	77.62
247.266	75.62
247.5	58.62
247.733	72.62
247.966	71.62
248.2	71.62
248.433	72.62
248.666	76.62
248.899	78.62
249.133	88.62
249.366	87.62
249.599	104.62
249.832	80.62
250.066	79.62
250.299	79.62
250.532	76.62
250.765	61.62
250.998	66.62
251.231	80.62
251.465	82.62
251.698	63.62
251.931	84.62
252.164	80.62
252.397	82.62
252.63	76.62
252.863	78.62
253.096	91.62
253.329	84.62
253.562	75.62
253.795	77.62
254.028	81.62
254.261	84.62
254.494	82.62
254.727	92.62
254.96	68.62
255.193	90.62
255.426	78.62
255.659	79.62
255.892	98.62
256.124	77.62
256.357	79.62
256.59	72.62
256.823	90.62
257.056	76.62
257.289	78.62
257.521	79.62
257.754	93.62
257.987	68.62
258.22	92.62
258.452	79.62
258.685	79.62
258.918	71.62
259.151	75.62
259.383	83.62
259.616	63.62
259.849	89.62
260.081	70.62
260.314	83.62
260.547	73.62
260.779	86.62
261.012	83.62
261.244	80.62
261.477	78.62
261.71	101.62
261.942	104.62
262.175	104.62
262.407	79.62
262.64	87.62
262.872	81.62
263.105	83.62
263.337	77.62
263.57	79.62
263.802	83.62
264.035	87.62
264.267	78.62
264.499	83.62
264.732	69.62
264.964	70.62
265.197	99.62
265.429	89.62
265.661	77.62
265.894	87.62
266.126	77.62
266.358	87.62
266.591	73.62
266.823	84.62
267.055	85.62
267.287	83.62
267.52	84.62
267.752	81.62
267.984	98.62
268.216	79.62
268.448	88.62
268.681	92.62
268.913	75.62
269.145	82.62
269.377	77.62
269.609	91.62
269.841	78.62
270.073	89.62
270.306	91.62
270.538	83.62
270.77	81.62
271.002	78.62
271.234	73.62
271.466	87.62
271.698	69.62
271.93	68.62
272.162	71.62
272.394	89.62
272.626	94.62
272.858	76.62
273.09	72.62
273.322	59.62
273.553	83.62
273.785	83.62
274.017	82.62
274.249	82.62
274.481	84.62
274.713	80.62
274.945	81.62
275.176	88.62
275.408	80.62
275.64	69.62
275.872	84.62
276.104	91.62
276.335	95.62
276.567	93.62
276.799	101.62
277.031	106.62
277.262	100.62
277.494	95.62
277.726	94.62
277.957	88.62
278.189	85.62
278.421	77.62
278.652	92.62
278.884	86.62
279.115	92.62
279.347	89.62
279.579	81.62
279.81	87.62
280.042	81.62
280.273	90.62
280.505	81.62
280.736	89.62
280.968	87.62
281.199	88.62
281.431	76.62
281.662	78.62
281.894	89.62
282.125	98.62
282.356	100.62
282.588	135.62
282.819	97.62
283.051	91.62
283.282	77.62
283.513	86.62
283.745	83.62
283.976	78.62
284.207	63.62
284.439	88.62
284.67	74.62
284.901	79.62
285.132	86.62
285.364	71.62
285.595	79.62
285.826	84.62
286.057	77.62
286.288	92.62
286.52	80.62
286.751	80.62
286.982	98.62
287.213	77.62
287.444	103.62
287.675	88.62
287.906	78.62
288.138	85.62
288.369	86.62
288.6	91.62
288.831	92.62
289.062	95.62
289.293	90.62
289.524	79.62
289.755	88.62
289.986	101.62
290.217	91.62
290.448	90.62
290.679	96.62
290.91	92.62
291.141	85.62
291.371	81.62
291.602	83.62
291.833	89.62
292.064	90.62
292.295	87.62
292.526	88.62
292.757	88.62
292.987	82.62
293.218	84.62
293.449	84.62
293.68	80.62
293.91	97.62
294.141	76.62
294.372	87.62
294.603	87.62
294.833	93.62
295.064	85.62
295.295	93.62
295.525	83.62
295.756	98.62
295.987	94.62
296.217	129.62
296.448	115.62
296.679	96.62
296.909	93.62
297.14	88.62
297.37	89.62
297.601	85.62
297.831	87.62
298.062	105.62
298.292	100.62
298.523	91.62
298.753	78.62
298.984	95.62
299.214	84.62
299.445	91.62
299.675	103.62
299.905	87.62
300.136	78.62
300.366	84.62
300.597	88.62
300.827	73.62
301.057	91.62
301.288	96.62
301.518	91.62
301.748	91.62
301.979	88.62
302.209	68.62
302.439	100.62
302.669	88.62
302.9	76.62
303.13	92.62
303.36	81.62
303.59	86.62
303.82	96.62
304.051	102.62
304.281	89.62
304.511	96.62
304.741	98.62
304.971	89.62
305.201	100.62
305.431	91.62
305.661	73.62
305.891	89.62
306.121	90.62
306.352	93.62
306.582	116.62
306.812	106.62
307.042	81.62
307.272	85.62
307.502	84.62
307.731	91.62
307.961	93.62
308.191	82.62
308.421	79.62
308.651	80.62
308.881	81.62
309.111	95.62
309.341	98.62
309.571	92.62
309.8	96.62
310.03	94.62
310.26	88.62
310.49	85.62
310.72	107.62
310.949	96.62
311.179	118.62
311.409	88.62
311.639	78.62
311.868	77.62
312.098	109.62
312.328	108.62
312.557	94.62
312.787	79.62
313.017	89.62
313.246	102.62
313.476	93.62
313.706	77.62
313.935	95.62
314.165	103.62
314.394	84.62
314.624	90.62
314.853	95.62
315.083	97.62
315.312	94.62
315.542	93.62
315.771	83.62
316.001	79.62
316.23	82.62
316.46	81.62
316.689	91.62
316.919	79.62
317.148	94.62
317.377	79.62
317.607	95.62
317.836	91.62
318.065	84.62
318.295	84.62
318.524	99.62
318.753	102.62
318.983	103.62
319.212	105.62
319.441	99.62
319.67	95.62
319.9	93.62
320.129	92.62
320.358	89.62
320.587	106.62
320.816	102.62
321.046	99.62
321.275	108.62
321.504	91.62
321.733	100.62
321.962	97.62
322.191	99.62
322.42	103.62
322.649	109.62
322.878	109.62
323.108	101.62
323.337	115.62
323.566	125.62
323.795	120.62
324.024	188.62
324.253	336.62
324.482	723.62
324.71	1396.62
324.939	1827.62
325.168	658.62
325.397	218.62
325.626	139.62
325.855	116.62
326.084	126.62
326.313	108.62
326.542	125.62
326.77	203.62
326.999	390.62
327.228	781.62
327.457	1391.62
327.686	1111.62
327.914	314.62
328.143	169.62
328.372	138.62
328.6	115.62
328.829	113.62
329.058	115.62
329.287	116.62
329.515	98.62
329.744	92.62
329.972	84.62
330.201	92.62
330.43	100.62
330.658	107.62
330.887	126.62
331.115	112.62
331.344	92.62
331.572	98.62
331.801	110.62
332.03	87.62
332.258	110.62
332.486	91.62
332.715	91.62
332.943	96.62
333.172	103.62
333.4	88.62
333.629	96.62
333.857	112.62
334.085	95.62
334.314	79.62
334.542	97.62
334.771	117.62
334.999	100.62
335.227	100.62
335.455	100.62
335.684	93.62
335.912	98.62
336.14	104.62
336.369	96.62
336.597	100.62
336.825	101.62
337.053	92.62
337.281	87.62
337.51	94.62
337.738	98.62
337.966	84.62
338.194	91.62
338.422	103.62
338.65	101.62
338.878	84.62
339.106	96.62
339.334	94.62
339.562	75.62
339.79	80.62
340.018	81.62
340.246	91.62
340.474	79.62
340.702	81.62
340.93	95.62
341.158	97.62
341.386	90.62
341.614	95.62
341.842	98.62
342.07	95.62
342.298	82.62
342.526	100.62
342.754	92.62
342.981	89.62
343.209	87.62
343.437	78.62
343.665	86.62
343.893	95.62
344.12	92.62
344.348	87.62
344.576	88.62
344.804	83.62
345.031	92.62
345.259	101.62
345.487	97.62
345.714	90.62
345.942	91.62
346.17	82.62
346.397	91.62
346.625	81.62
346.853	90.62
347.08	100.62
347.308	85.62
347.535	92.62
347.763	89.62
347.99	101.62
348.218	99.62
348.445	104.62
348.673	105.62
348.9	88.62
349.128	80.62
349.355	91.62
349.583	86.62
349.81	81.62
350.037	93.62
350.265	84.62
350.492	94.62
350.72	89.62
350.947	105.62
351.174	101.62
351.402	98.62
351.629	103.62
351.856	91.62
352.083	75.62
352.311	108.62
352.538	109.62
352.765	93.62
352.992	111.62
353.22	103.62
353.447	104.62
353.674	108.62
353.901	92.62
354.128	91.62
354.355	83.62
354.583	89.62
354.81	103.62
355.037	94.62
355.264	92.62
355.491	97.62
355.718	94.62
355.945	91.62
356.172	98.62
356.399	98.62
356.626	89.62
356.853	91.62
357.08	78.62
357.307	95.62
357.534	91.62
357.761	95.62
357.988	94.62
358.215	98.62
358.441	90.62
358.668	94.62
358.895	85.62
359.122	73.62
359.349	97.62
359.576	87.62
359.802	89.62
360.029	104.62
360.256	96.62
360.483	90.62
360.709	96.62
360.936	88.62
361.163	92.62
361.39	93.62
361.616	87.62
361.843	75.62
362.07	83.62
362.296	76.62
362.523	96.62
362.749	77.62
362.976	90.62
363.203	91.62
363.429	89.62
363.656	94.62
363.882	81.62
364.109	114.62
364.335	94.62
364.562	99.62
364.788	84.62
365.015	99.62
365.241	92.62
365.468	95.62
365.694	105.62
365.92	83.62
366.147	79.62
366.373	81.62
366.599	90.62
366.826	91.62
367.052	91.62
367.278	82.62
367.505	93.62
367.731	89.62
367.957	73.62
368.184	76.62
368.41	98.62
368.636	101.62
368.862	109.62
369.089	105.62
369.315	81.62
369.541	80.62
369.767	86.62
369.993	86.62
370.219	96.62
370.445	91.62
370.672	80.62
370.898	80.62
371.124	86.62
371.35	81.62
371.576	89.62
371.802	91.62
372.028	87.62
372.254	73.62
372.48	101.62
372.706	94.62
372.932	77.62
373.158	100.62
373.384	86.62
373.61	74.62
373.835	96.62
374.061	75.62
374.287	97.62
374.513	88.62
374.739	81.62
374.965	96.62
375.191	95.62
375.416	93.62
375.642	84.62
375.868	87.62
376.094	93.62
376.319	92.62
376.545	91.62
376.771	98.62
376.997	82.62
377.222	80.62
377.448	84.62
377.674	78.62
377.899	93.62
378.125	83.62
378.35	84.62
378.576	94.62
378.802	105.62
379.027	94.62
379.253	78.62
379.478	87.62
379.704	96.62
379.929	88.62
380.155	82.62
380.38	73.62
380.606	70.62
380.831	83.62
381.057	96.62
381.282	79.62
381.507	91.62
381.733	78.62
381.958	92.62
382.184	90.62
382.409	95.62
382.634	108.62
382.86	108.62
383.085	88.62
383.31	94.62
383.535	96.62
383.761	95.62
383.986	79.62
384.211	91.62
384.436	75.62
384.662	101.62
384.887	104.62
385.112	106.62
385.337	100.62
385.562	91.62
385.787	95.62
386.013	102.62
386.238	92.62
386.463	97.62
386.688	115.62
386.913	106.62
387.138	117.62
387.363	82.62
387.588	108.62
387.813	101.62
388.038	97.62
388.263	106.62
388.488	107.62
388.713	91.62
388.938	93.62
389.163	97.62
389.387	81.62
389.612	90.62
389.837	97.62
390.062	83.62
390.287	104.62
390.512	92.62
390.736	81.62
390.961	91.62
391.186	93.62
391.411	96.62
391.636	84.62
391.86	87.62
392.085	83.62
392.31	85.62
392.534	92.62
392.759	101.62
392.984	83.62
393.208	85.62
393.433	74.62
393.658	89.62
393.882	73.62
394.107	102.62
394.331	82.62
394.556	78.62
394.78	75.62
395.005	81.62
395.229	76.62
395.454	58.62
395.678	80.62
395.903	92.62
396.127	82.62
396.352	80.62
396.576	89.62
396.801	92.62
397.025	73.62
397.249	89.62
397.474	92.62
397.698	94.62
397.922	69.62
398.147	88.62
398.371	78.62
398.595	91.62
398.82	84.62
399.044	73.62
399.268	90.62
399.492	77.62
399.717	89.62
399.941	100.62
400.165	94.62
400.389	89.62
400.613	105.62
400.837	91.62
401.062	78.62
401.286	85.62
401.51	89.62
401.734	93.62
401.958	113.62
402.182	106.62
402.406	139.62
402.63	111.62
402.854	89.62
403.078	82.62
403.302	87.62
403.526	87.62
403.75	81.62
403.974	83.62
404.198	91.62
404.422	94.62
404.645	101.62
404.869	96.62
405.093	88.62
405.317	88.62
405.541	96.62
405.765	100.62
405.988	100.62
406.212	168.62
406.436	213.62
406.66	128.62
406.883	85.62
407.107	94.62
407.331	85.62
407.555	92.62
407.778	83.62
408.002	94.62
408.226	85.62
408.449	84.62
408.673	88.62
408.896	80.62
409.12	82.62
409.344	90.62
409.567	81.62
409.791	96.62
410.014	81.62
410.238	92.62
410.461	72.62
410.685	82.62
410.908	85.62
411.132	102.62
411.355	83.62
411.578	103.62
411.802	88.62
412.025	79.62
412.249	81.62
412.472	106.62
412.695	84.62
412.919	78.62
413.142	80.62
413.365	81.62
413.589	103.62
413.812	87.62
414.035	82.62
414.258	85.62
414.482	84.62
414.705	80.62
414.928	79.62
415.151	87.62
415.374	83.62
415.597	80.62
415.821	80.62
416.044	90.62
416.267	99.62
416.49	83.62
416.713	64.62
416.936	76.62
417.159	87.62
417.382	98.62
417.605	72.62
417.828	89.62
418.051	83.62
418.274	92.62
418.497	82.62
418.72	94.62
418.943	69.62
419.166	85.62
419.389	80.62
419.611	83.62
419.834	87.62
420.057	78.62
420.28	90.62
420.503	94.62
420.726	87.62
420.948	89.62
421.171	91.62
421.394	95.62
421.617	95.62
421.839	95.62
422.062	87.62
422.285	87.62
422.507	75.62
422.73	80.62
422.953	84.62
423.175	77.62
423.398	83.62
423.621	96.62
423.843	79.62
424.066	69.62
424.288	82.62
424.511	88.62
424.733	87.62
424.956	104.62
425.178	97.62
425.401	95.62
425.623	100.62
425.846	109.62
426.068	94.62
426.291	101.62
426.513	88.62
426.735	83.62
426.958	89.62
427.18	107.62
427.402	124.62
427.625	147.62
427.847	118.62
428.069	102.62
428.292	95.62
428.514	82.62
428.736	93.62
428.958	66.62
429.181	108.62
429.403	91.62
429.625	85.62
429.847	89.62
430.069	113.62
430.292	93.62
430.514	88.62
430.736	75.62
430.958	87.62
431.18	79.62
431.402	84.62
431.624	92.62
431.846	90.62
432.068	76.62
432.29	88.62
432.512	80.62
432.734	87.62
432.956	90.62
433.178	92.62
433.4	89.62
433.622	91.62
433.844	75.62
434.066	101.62
434.287	93.62
434.509	94.62
434.731	80.62
434.953	91.62
435.175	77.62
435.397	94.62
435.618	79.62
435.84	100.62
436.062	97.62
436.284	96.62
436.505	100.62
436.727	97.62
436.949	100.62
437.17	84.62
437.392	87.62
437.614	96.62
437.835	99.62
438.057	105.62
438.278	107.62
438.5	89.62
438.721	94.62
438.943	88.62
439.165	80.62
439.386	88.62
439.608	105.62
439.829	81.62
440.05	113.62
440.272	129.62
440.493	92.62
440.715	81.62
440.936	82.62
441.158	93.62
441.379	82.62
441.6	86.62
441.822	85.62
442.043	87.62
442.264	87.62
442.486	89.62
442.707	90.62
442.928	99.62
443.149	123.62
443.371	125.62
443.592	112.62
443.813	113.62
444.034	93.62
444.255	84.62
444.476	87.62
444.698	85.62
444.919	75.62
445.14	133.62
445.361	127.62
445.582	104.62
445.803	132.62
446.024	119.62
446.245	96.62
446.466	95.62
446.687	90.62
446.908	87.62
447.129	70.62
447.35	96.62
447.571	90.62
447.792	92.62
448.013	95.62
448.234	92.62
448.455	73.62
448.675	109.62
448.896	102.62
449.117	100.62
449.338	100.62
449.559	116.62
449.779	114.62
450	84.62
450.221	78.62
450.442	89.62
450.662	88.62
450.883	94.62
451.104	100.62
451.324	91.62
451.545	84.62
451.766	95.62
451.986	65.62
452.207	83.62
452.428	104.62
452.648	99.62
452.869	105.62
453.089	116.62
453.31	112.62
453.53	69.62
453.751	75.62
453.971	89.62
454.192	91.62
454.412	73.62
454.633	71.62
454.853	90.62
455.073	85.62
455.294	92.62
455.514	101.62
455.734	83.62
455.955	87.62
456.175	88.62
456.395	89.62
456.616	82.62
456.836	85.62
457.056	76.62
457.276	63.62
457.497	85.62
457.717	78.62
457.937	88.62
458.157	95.62
458.377	82.62
458.598	90.62
458.818	130.62
459.038	127.62
459.258	94.62
459.478	84.62
459.698	80.62
459.918	94.62
460.138	87.62
460.358	72.62
460.578	83.62
460.798	89.62
461.018	82.62
461.238	87.62
461.458	85.62
461.678	79.62
461.898	84.62
462.118	76.62
462.338	91.62
462.558	83.62
462.777	80.62
462.997	77.62
463.217	78.62
463.437	82.62
463.657	87.62
463.876	88.62
464.096	84.62
464.316	91.62
464.536	93.62
464.755	88.62
464.975	107.62
465.195	157.62
465.414	140.62
465.634	103.62
465.854	83.62
466.073	84.62
466.293	76.62
466.512	76.62
466.732	70.62
466.951	98.62
467.171	68.62
467.391	87.62
467.61	88.62
467.829	100.62
468.049	76.62
468.268	83.62
468.488	76.62
468.707	71.62
468.927	96.62
469.146	76.62
469.365	89.62
469.585	75.62
469.804	101.62
470.023	97.62
470.243	87.62
470.462	108.62
470.681	105.62
470.901	81.62
471.12	76.62
471.339	77.62
471.558	80.62
471.777	89.62
471.997	99.62
472.216	89.62
472.435	98.62
472.654	68.62
472.873	86.62
473.092	78.62
473.311	96.62
473.53	89.62
473.749	85.62
473.968	81.62
474.187	103.62
474.406	99.62
474.625	90.62
474.844	75.62
475.063	83.62
475.282	91.62
475.501	99.62
475.72	82.62
475.939	98.62
476.158	87.62
476.377	78.62
476.596	91.62
476.814	86.62
477.033	79.62
477.252	78.62
477.471	84.62
477.69	76.62
477.908	90.62
478.127	79.62
478.346	92.62
478.564	89.62
478.783	100.62
479.002	73.62
479.22	94.62
479.439	113.62
479.658	92.62
479.876	93.62
480.095	83.62
480.313	83.62
480.532	93.62
480.751	83.62
480.969	73.62
481.188	88.62
481.406	100.62
481.624	99.62
481.843	89.62
482.061	78.62
482.28	85.62
482.498	79.62
482.717	92.62
482.935	83.62
483.153	90.62
483.372	87.62
483.59	83.62
483.808	94.62
484.027	86.62
484.245	78.62
484.463	81.62
484.681	101.62
484.9	83.62
485.118	89.62
485.336	90.62
485.554	104.62
485.772	76.62
485.99	91.62
486.209	85.62
486.427	103.62
486.645	95.62
486.863	106.62
487.081	95.62
487.299	98.62
487.517	91.62
487.735	92.62
487.953	90.62
488.171	100.62
488.389	84.62
488.607	79.62
488.825	80.62
489.043	85.62
489.261	93.62
489.479	85.62
489.696	92.62
489.914	79.62
490.132	61.62
490.35	84.62
490.568	97.62
490.786	81.62
491.003	84.62
491.221	90.62
491.439	88.62
491.657	84.62
491.874	96.62
492.092	92.62
492.31	69.62
492.527	81.62
492.745	77.62
492.963	84.62
493.18	88.62
493.398	82.62
493.615	90.62
493.833	87.62
494.05	86.62
494.268	92.62
494.485	89.62
494.703	96.62
494.92	75.62
495.138	90.62
495.355	93.62
495.573	90.62
495.79	88.62
496.008	93.62
496.225	89.62
496.442	76.62
496.66	88.62
496.877	82.62
497.094	95.62
497.312	86.62
497.529	85.62
497.746	84.62
497.963	86.62
498.181	98.62
498.398	82.62
498.615	101.62
498.832	107.62
499.049	81.62
499.267	90.62
499.484	93.62
499.701	90.62
499.918	88.62
500.135	84.62
500.352	98.62
500.569	91.62
500.786	96.62
501.003	96.62
501.22	94.62
501.437	91.62
501.654	79.62
501.871	92.62
502.088	87.62
502.305	96.62
502.522	91.62
502.739	80.62
502.956	87.62
503.172	87.62
503.389	91.62
503.606	99.62
503.823	77.62
504.04	84.62
504.256	82.62
504.473	76.62
504.69	85.62
504.907	85.62
505.123	100.62
505.34	83.62
505.557	79.62
505.773	83.62
505.99	75.62
506.207	86.62
506.423	89.62
506.64	77.62
506.856	65.62
507.073	79.62
507.289	95.62
507.506	78.62
507.722	104.62
507.939	99.62
508.155	89.62
508.372	84.62
508.588	85.62
508.805	82.62
509.021	92.62
509.238	98.62
509.454	82.62
509.67	94.62
509.887	106.62
510.103	117.62
510.319	215.62
510.536	735.62
510.752	2168.62
510.968	595.62
511.184	157.62
511.401	115.62
511.617	81.62
511.833	84.62
512.049	87.62
512.265	79.62
512.481	95.62
512.698	90.62
512.914	92.62
513.13	83.62
513.346	81.62
513.562	99.62
513.778	101.62
513.994	97.62
514.21	94.62
514.426	98.62
514.642	133.62
514.858	119.62
515.074	168.62
515.29	424.62
515.506	1367.62
515.721	504.62
515.937	148.62
516.153	82.62
516.369	101.62
516.585	80.62
516.801	97.62
517.016	76.62
