Data from Uncirc_1992_H10_HRD10591_00009.txt Node
Date: Wed Jan 03 11:46:18 EST 2024
User: Yrep
Spectrometer: HR+D1059
Trigger mode: 1
Integration Time (sec): 1.000000E-1
Scans to average: 1
Electric dark correction enabled: true
Nonlinearity correction enabled: false
Boxcar width: 0
XAxis mode: Wavelengths
Number of Pixels in Spectrum: 2048
>>>>>Begin Spectral Data<<<<<
223.165	-16
223.4	-16
223.635	-16
223.869	-24
224.104	-29
224.338	-20
224.573	-15
224.808	-11
225.042	2
225.277	-1
225.511	-7
225.746	8
225.98	15
226.215	17
226.449	13
226.683	12
226.918	18
227.152	38
227.387	30
227.621	38
227.856	58
228.09	50
228.324	44
228.559	59
228.793	55
229.027	63
229.262	79
229.496	64
229.73	59
229.964	86
230.199	81
230.433	60
230.667	64
230.901	79
231.136	86
231.37	98
231.604	81
231.838	63
232.072	78
232.306	66
232.541	81
232.775	84
233.009	72
233.243	81
233.477	85
233.711	83
233.945	80
234.179	83
234.413	78
234.647	74
234.881	64
235.115	67
235.349	73
235.583	83
235.817	94
236.051	83
236.285	90
236.519	82
236.753	83
236.987	77
237.221	74
237.455	78
237.689	81
237.922	67
238.156	76
238.39	86
238.624	75
238.858	76
239.091	79
239.325	80
239.559	79
239.793	75
240.027	78
240.26	78
240.494	83
240.728	82
240.961	72
241.195	71
241.429	79
241.662	82
241.896	67
242.13	71
242.363	76
242.597	81
242.83	70
243.064	66
243.298	73
243.531	70
243.765	72
243.998	78
244.232	81
244.465	89
244.699	66
244.932	74
245.166	68
245.399	71
245.633	73
245.866	75
246.099	68
246.333	77
246.566	74
246.8	77
247.033	77
247.266	81
247.5	75
247.733	75
247.966	75
248.2	71
248.433	87
248.666	70
248.899	76
249.133	83
249.366	90
249.599	89
249.832	69
250.066	88
250.299	79
250.532	80
250.765	82
250.998	87
251.231	71
251.465	78
251.698	77
251.931	94
252.164	83
252.397	76
252.63	71
252.863	81
253.096	66
253.329	78
253.562	63
253.795	74
254.028	87
254.261	86
254.494	75
254.727	84
254.96	91
255.193	73
255.426	80
255.659	91
255.892	89
256.124	74
256.357	73
256.59	87
256.823	78
257.056	72
257.289	79
257.521	90
257.754	66
257.987	94
258.22	86
258.452	77
258.685	79
258.918	71
259.151	85
259.383	79
259.616	72
259.849	78
260.081	90
260.314	75
260.547	83
260.779	98
261.012	84
261.244	83
261.477	94
261.71	78
261.942	101
262.175	103
262.407	91
262.64	85
262.872	84
263.105	95
263.337	91
263.57	92
263.802	80
264.035	79
264.267	87
264.499	88
264.732	83
264.964	82
265.197	88
265.429	90
265.661	73
265.894	80
266.126	87
266.358	88
266.591	75
266.823	86
267.055	92
267.287	81
267.52	81
267.752	70
267.984	71
268.216	74
268.448	88
268.681	90
268.913	77
269.145	95
269.377	74
269.609	72
269.841	76
270.073	59
270.306	65
270.538	89
270.77	82
271.002	80
271.234	86
271.466	87
271.698	74
271.93	89
272.162	96
272.394	86
272.626	92
272.858	80
273.09	86
273.322	90
273.553	76
273.785	78
274.017	88
274.249	75
274.481	79
274.713	70
274.945	80
275.176	80
275.408	88
275.64	86
275.872	82
276.104	77
276.335	83
276.567	89
276.799	88
277.031	87
277.262	87
277.494	90
277.726	106
277.957	79
278.189	95
278.421	97
278.652	87
278.884	74
279.115	83
279.347	92
279.579	84
279.81	79
280.042	73
280.273	85
280.505	83
280.736	87
280.968	96
281.199	81
281.431	91
281.662	85
281.894	82
282.125	74
282.356	98
282.588	102
282.819	85
283.051	93
283.282	86
283.513	102
283.745	85
283.976	73
284.207	88
284.439	104
284.67	76
284.901	75
285.132	69
285.364	80
285.595	78
285.826	88
286.057	108
286.288	96
286.52	78
286.751	91
286.982	89
287.213	87
287.444	87
287.675	94
287.906	81
288.138	87
288.369	86
288.6	79
288.831	93
289.062	95
289.293	78
289.524	80
289.755	85
289.986	86
290.217	88
290.448	79
290.679	85
290.91	82
291.141	79
291.371	104
291.602	87
291.833	96
292.064	87
292.295	82
292.526	93
292.757	81
292.987	75
293.218	86
293.449	81
293.68	89
293.91	88
294.141	87
294.372	84
294.603	99
294.833	87
295.064	85
295.295	82
295.525	109
295.756	80
295.987	100
296.217	109
296.448	110
296.679	100
296.909	87
297.14	73
297.37	82
297.601	62
297.831	80
298.062	77
298.292	81
298.523	92
298.753	81
298.984	77
299.214	79
299.445	86
299.675	83
299.905	87
300.136	77
300.366	83
300.597	81
300.827	89
301.057	94
301.288	86
301.518	89
301.748	90
301.979	88
302.209	78
302.439	86
302.669	89
302.9	86
303.13	97
303.36	87
303.59	104
303.82	97
304.051	82
304.281	85
304.511	85
304.741	77
304.971	83
305.201	76
305.431	98
305.661	84
305.891	85
306.121	100
306.352	110
306.582	71
306.812	94
307.042	91
307.272	92
307.502	91
307.731	91
307.961	76
308.191	79
308.421	91
308.651	94
308.881	89
309.111	81
309.341	91
309.571	95
309.8	82
310.03	85
310.26	77
310.49	104
310.72	97
310.949	106
311.179	97
311.409	99
311.639	92
311.868	96
312.098	90
312.328	89
312.557	99
312.787	102
313.017	77
313.246	90
313.476	98
313.706	80
313.935	90
314.165	92
314.394	95
314.624	89
314.853	84
315.083	81
315.312	87
315.542	98
315.771	93
316.001	80
316.23	70
316.46	91
316.689	95
316.919	82
317.148	99
317.377	96
317.607	89
317.836	85
318.065	93
318.295	98
318.524	90
318.753	82
318.983	97
319.212	93
319.441	104
319.67	87
319.9	98
320.129	71
320.358	96
320.587	93
320.816	92
321.046	88
321.275	89
321.504	95
321.733	98
321.962	106
322.191	102
322.42	93
322.649	104
322.878	101
323.108	91
323.337	109
323.566	102
323.795	138
324.024	173
324.253	305
324.482	666
324.71	1322
324.939	1642
325.168	633
325.397	195
325.626	123
325.855	105
326.084	119
326.313	126
326.542	124
326.77	211
326.999	398
327.228	771
327.457	1325
327.686	1037
327.914	291
328.143	170
328.372	116
328.6	114
328.829	107
329.058	100
329.287	113
329.515	104
329.744	103
329.972	79
330.201	89
330.43	104
330.658	108
330.887	128
331.115	120
331.344	98
331.572	103
331.801	80
332.03	92
332.258	88
332.486	89
332.715	84
332.943	73
333.172	92
333.4	93
333.629	104
333.857	107
334.085	91
334.314	88
334.542	91
334.771	93
334.999	98
335.227	88
335.455	92
335.684	93
335.912	83
336.14	102
336.369	96
336.597	92
336.825	95
337.053	105
337.281	90
337.51	94
337.738	99
337.966	98
338.194	100
338.422	88
338.65	79
338.878	81
339.106	86
339.334	97
339.562	81
339.79	83
340.018	84
340.246	90
340.474	72
340.702	94
340.93	107
341.158	90
341.386	84
341.614	99
341.842	107
342.07	97
342.298	82
342.526	96
342.754	84
342.981	80
343.209	73
343.437	94
343.665	79
343.893	108
344.12	88
344.348	89
344.576	84
344.804	80
345.031	101
345.259	89
345.487	90
345.714	99
345.942	83
346.17	90
346.397	92
346.625	93
346.853	103
347.08	91
347.308	89
347.535	100
347.763	91
347.99	83
348.218	94
348.445	105
348.673	92
348.9	101
349.128	84
349.355	78
349.583	86
349.81	97
350.037	94
350.265	88
350.492	86
350.72	89
350.947	104
351.174	96
351.402	104
351.629	107
351.856	96
352.083	98
352.311	92
352.538	99
352.765	99
352.992	114
353.22	115
353.447	111
353.674	104
353.901	90
354.128	91
354.355	102
354.583	83
354.81	100
355.037	96
355.264	96
355.491	100
355.718	94
355.945	99
356.172	94
356.399	92
356.626	88
356.853	108
357.08	95
357.307	95
357.534	91
357.761	85
357.988	98
358.215	86
358.441	100
358.668	86
358.895	96
359.122	87
359.349	96
359.576	83
359.802	101
360.029	98
360.256	96
360.483	78
360.709	84
360.936	91
361.163	92
361.39	98
361.616	83
361.843	87
362.07	87
362.296	80
362.523	97
362.749	78
362.976	71
363.203	86
363.429	83
363.656	91
363.882	94
364.109	100
364.335	90
364.562	102
364.788	78
365.015	99
365.241	95
365.468	110
365.694	95
365.92	78
366.147	81
366.373	71
366.599	89
366.826	90
367.052	81
367.278	81
367.505	99
367.731	88
367.957	85
368.184	94
368.41	83
368.636	106
368.862	109
369.089	93
369.315	95
369.541	79
369.767	78
369.993	89
370.219	76
370.445	82
370.672	95
370.898	80
371.124	83
371.35	87
371.576	87
371.802	68
372.028	79
372.254	84
372.48	87
372.706	95
372.932	99
373.158	96
373.384	93
373.61	91
373.835	89
374.061	95
374.287	89
374.513	87
374.739	103
374.965	95
375.191	83
375.416	96
375.642	102
375.868	88
376.094	86
376.319	87
376.545	95
376.771	88
376.997	97
377.222	88
377.448	84
377.674	86
377.899	86
378.125	77
378.35	91
378.576	82
378.802	97
379.027	92
379.253	101
379.478	97
379.704	83
379.929	91
380.155	94
380.38	86
380.606	90
380.831	99
381.057	110
381.282	90
381.507	99
381.733	98
381.958	108
382.184	91
382.409	84
382.634	100
382.86	95
383.085	90
383.31	115
383.535	122
383.761	99
383.986	86
384.211	90
384.436	96
384.662	99
384.887	102
385.112	95
385.337	99
385.562	111
385.787	108
386.013	111
386.238	111
386.463	115
386.688	114
386.913	105
387.138	106
387.363	97
387.588	103
387.813	104
388.038	103
388.263	109
388.488	107
388.713	108
388.938	94
389.163	95
389.387	113
389.612	91
389.837	96
390.062	100
390.287	86
390.512	91
390.736	103
390.961	97
391.186	87
391.411	98
391.636	86
391.86	68
392.085	86
392.31	79
392.534	75
392.759	99
392.984	87
393.208	86
393.433	99
393.658	92
393.882	89
394.107	74
394.331	85
394.556	84
394.78	96
395.005	89
395.229	74
395.454	87
395.678	90
395.903	90
396.127	80
396.352	70
396.576	84
396.801	80
397.025	74
397.249	90
397.474	80
397.698	97
397.922	98
398.147	72
398.371	90
398.595	66
398.82	76
399.044	93
399.268	86
399.492	76
399.717	98
399.941	83
400.165	91
400.389	82
400.613	97
400.837	91
401.062	78
401.286	80
401.51	80
401.734	91
401.958	87
402.182	106
402.406	145
402.63	102
402.854	68
403.078	90
403.302	70
403.526	96
403.75	78
403.974	85
404.198	84
404.422	96
404.645	94
404.869	93
405.093	95
405.317	83
405.541	102
405.765	94
405.988	104
406.212	150
406.436	195
406.66	124
406.883	86
407.107	85
407.331	89
407.555	94
407.778	84
408.002	95
408.226	82
408.449	104
408.673	83
408.896	106
409.12	91
409.344	80
409.567	59
409.791	95
410.014	88
410.238	90
410.461	78
410.685	99
410.908	85
411.132	107
411.355	86
411.578	78
411.802	76
412.025	71
412.249	88
412.472	93
412.695	83
412.919	84
413.142	84
413.365	83
413.589	86
413.812	72
414.035	100
414.258	92
414.482	91
414.705	90
414.928	82
415.151	104
415.374	89
415.597	76
415.821	100
416.044	94
416.267	84
416.49	91
416.713	84
416.936	73
417.159	88
417.382	82
417.605	88
417.828	84
418.051	95
418.274	84
418.497	82
418.72	90
418.943	81
419.166	84
419.389	93
419.611	74
419.834	76
420.057	87
420.28	87
420.503	80
420.726	90
420.948	79
421.171	92
421.394	81
421.617	99
421.839	87
422.062	103
422.285	99
422.507	100
422.73	109
422.953	100
423.175	74
423.398	87
423.621	88
423.843	87
424.066	80
424.288	83
424.511	82
424.733	79
424.956	100
425.178	92
425.401	84
425.623	87
425.846	94
426.068	82
426.291	90
426.513	91
426.735	97
426.958	99
427.18	87
427.402	118
427.625	141
427.847	105
428.069	90
428.292	96
428.514	73
428.736	80
428.958	95
429.181	86
429.403	94
429.625	79
429.847	94
430.069	86
430.292	81
430.514	78
430.736	77
430.958	86
431.18	77
431.402	90
431.624	87
431.846	70
432.068	80
432.29	79
432.512	89
432.734	82
432.956	83
433.178	88
433.4	97
433.622	75
433.844	79
434.066	92
434.287	85
434.509	94
434.731	81
434.953	88
435.175	86
435.397	94
435.618	93
435.84	100
436.062	109
436.284	103
436.505	94
436.727	76
436.949	109
437.17	94
437.392	74
437.614	78
437.835	98
438.057	83
438.278	94
438.5	90
438.721	125
438.943	96
439.165	92
439.386	97
439.608	104
439.829	97
440.05	105
440.272	136
440.493	93
440.715	81
440.936	83
441.158	94
441.379	74
441.6	95
441.822	86
442.043	84
442.264	88
442.486	88
442.707	90
442.928	103
443.149	110
443.371	120
443.592	98
443.813	91
444.034	94
444.255	82
444.476	95
444.698	87
444.919	94
445.14	138
445.361	112
445.582	108
445.803	115
446.024	115
446.245	91
446.466	114
446.687	77
446.908	78
447.129	88
447.35	83
447.571	88
447.792	95
448.013	92
448.234	100
448.455	101
448.675	107
448.896	107
449.117	88
449.338	119
449.559	107
449.779	112
450	80
450.221	91
450.442	87
450.662	95
450.883	104
451.104	106
451.324	85
451.545	90
451.766	93
451.986	78
452.207	83
452.428	92
452.648	103
452.869	94
453.089	111
453.31	106
453.53	88
453.751	81
453.971	109
454.192	104
454.412	81
454.633	87
454.853	80
455.073	88
455.294	91
455.514	105
455.734	76
455.955	85
456.175	75
456.395	80
456.616	83
456.836	67
457.056	86
457.276	90
457.497	92
457.717	92
457.937	77
458.157	78
458.377	88
458.598	94
458.818	130
459.038	131
459.258	97
459.478	89
459.698	80
459.918	94
460.138	76
460.358	90
460.578	87
460.798	81
461.018	76
461.238	75
461.458	87
461.678	92
461.898	87
462.118	79
462.338	80
462.558	78
462.777	85
462.997	76
463.217	84
463.437	84
463.657	89
463.876	88
464.096	88
464.316	92
464.536	91
464.755	81
464.975	106
465.195	144
465.414	125
465.634	104
465.854	88
466.073	86
466.293	75
466.512	89
466.732	99
466.951	91
467.171	94
467.391	94
467.61	98
467.829	83
468.049	78
468.268	80
468.488	82
468.707	82
468.927	92
469.146	87
469.365	86
469.585	72
469.804	84
470.023	99
470.243	95
470.462	100
470.681	109
470.901	100
471.12	86
471.339	91
471.558	73
471.777	86
471.997	84
472.216	82
472.435	88
472.654	88
472.873	86
473.092	86
473.311	95
473.53	90
473.749	89
473.968	95
474.187	94
474.406	92
474.625	92
474.844	65
475.063	88
475.282	77
475.501	86
475.72	95
475.939	81
476.158	84
476.377	90
476.596	86
476.814	82
477.033	75
477.252	87
477.471	94
477.69	99
477.908	94
478.127	94
478.346	84
478.564	100
478.783	108
479.002	83
479.22	81
479.439	91
479.658	96
479.876	97
480.095	100
480.313	81
480.532	80
480.751	90
480.969	106
481.188	102
481.406	92
481.624	85
481.843	90
482.061	83
482.28	83
482.498	89
482.717	82
482.935	82
483.153	77
483.372	81
483.59	86
483.808	85
484.027	81
484.245	97
484.463	99
484.681	95
484.9	98
485.118	84
485.336	90
485.554	107
485.772	98
485.99	88
486.209	104
486.427	107
486.645	104
486.863	102
487.081	101
487.299	91
487.517	90
487.735	91
487.953	103
488.171	92
488.389	90
488.607	94
488.825	63
489.043	97
489.261	84
489.479	90
489.696	92
489.914	91
490.132	85
490.35	82
490.568	81
490.786	80
491.003	83
491.221	91
491.439	86
491.657	80
491.874	97
492.092	91
492.31	94
492.527	110
492.745	70
492.963	86
493.18	89
493.398	88
493.615	109
493.833	90
494.05	80
494.268	100
494.485	75
494.703	102
494.92	88
495.138	91
495.355	97
495.573	79
495.79	104
496.008	96
496.225	89
496.442	86
496.66	94
496.877	81
497.094	96
497.312	89
497.529	87
497.746	89
497.963	85
498.181	96
498.398	88
498.615	109
498.832	96
499.049	81
499.267	96
499.484	82
499.701	95
499.918	92
500.135	93
500.352	90
500.569	92
500.786	106
501.003	92
501.22	99
501.437	86
501.654	117
501.871	103
502.088	80
502.305	100
502.522	93
502.739	75
502.956	98
503.172	83
503.389	83
503.606	93
503.823	91
504.04	83
504.256	103
504.473	92
504.69	73
504.907	82
505.123	90
505.34	90
505.557	94
505.773	94
505.99	78
506.207	84
506.423	84
506.64	90
506.856	78
507.073	99
507.289	89
507.506	90
507.722	110
507.939	111
508.155	96
508.372	92
508.588	90
508.805	98
509.021	95
509.238	92
509.454	107
509.67	93
509.887	122
510.103	137
510.319	193
510.536	673
510.752	1949
510.968	536
511.184	129
511.401	98
511.617	107
511.833	94
512.049	78
512.265	77
512.481	87
512.698	84
512.914	70
513.13	109
513.346	85
513.562	92
513.778	90
513.994	98
514.21	104
514.426	113
514.642	110
514.858	121
515.074	146
515.29	410
515.506	1164
515.721	430
515.937	138
516.153	109
516.369	91
516.585	88
516.801	83
517.016	90
517.232	98
517.448	98
517.664	89
517.879	112
518.095	93
518.311	81
518.527	97
518.742	92
518.958	99
519.173	91
519.389	96
519.605	99
519.82	107
520.036	105
520.251	114
520.467	99
520.682	100
520.898	91
521.113	100
521.329	132
521.544	176
521.76	464
521.975	1899
522.19	1139
522.406	241
522.621	113
522.836	96
523.052	88
523.267	83
523.482	93
523.698	98
523.913	106
524.128	96
524.343	91
524.559	97
524.774	86
524.989	96
525.204	92
525.419	80
525.634	75
525.849	95
526.064	83
526.28	105
526.495	94
526.71	81
526.925	78
527.14	75
527.355	83
527.57	95
527.785	97
527.999	95
528.214	106
528.429	86
528.644	91
528.859	83
529.074	90
529.289	126
529.503	152
529.718	92
529.933	86
530.148	89
530.363	98
530.577	91
530.792	86
531.007	95
531.221	90
531.436	87
531.651	82
531.865	96
532.08	101
532.295	88
532.509	103
532.724	100
532.938	107
533.153	83
533.367	92
533.582	87
533.796	93
534.011	98
534.225	81
534.44	88
534.654	88
534.868	100
535.083	93
535.297	99
535.511	106
535.726	100
535.94	90
536.154	88
536.369	70
536.583	77
536.797	90
537.011	88
537.225	99
537.44	97
537.654	77
537.868	74
538.082	75
538.296	94
538.51	88
538.724	87
538.938	76
539.153	95
539.367	102
539.581	92
539.795	82
540.009	69
540.222	97
540.436	94
540.65	91
540.864	90
541.078	65
541.292	99
541.506	94
541.72	90
541.934	91
542.147	83
542.361	84
542.575	86
542.789	88
543.002	84
543.216	83
543.43	81
543.644	104
543.857	90
544.071	84
544.285	90
544.498	86
544.712	81
544.925	82
545.139	95
545.352	81
545.566	93
545.779	89
545.993	82
546.206	91
546.42	86
546.633	72
546.847	93
547.06	86
547.274	73
547.487	86
547.7	81
547.914	80
548.127	91
548.34	96
548.554	95
548.767	109
548.98	82
549.193	90
549.407	84
549.62	79
549.833	92
550.046	89
550.259	81
550.473	80
550.686	98
550.899	93
551.112	80
551.325	91
551.538	87
551.751	80
551.964	86
552.177	91
552.39	103
552.603	95
552.816	93
553.029	66
553.242	97
553.455	92
553.667	100
553.88	99
554.093	94
554.306	80
554.519	81
554.732	64
554.944	75
555.157	88
555.37	83
555.583	93
555.795	97
556.008	96
556.221	81
556.433	93
556.646	82
556.859	77
557.071	84
557.284	89
557.496	93
557.709	87
557.921	99
558.134	75
558.346	86
558.559	85
558.771	75
558.984	89
559.196	89
559.409	89
559.621	89
559.833	82
560.046	78
560.258	86
560.47	80
560.683	82
560.895	77
561.107	64
561.32	83
561.532	80
561.744	94
561.956	98
562.168	86
562.381	85
562.593	77
562.805	80
563.017	80
563.229	89
563.441	74
563.653	83
563.865	81
564.077	77
564.289	77
564.501	86
564.713	93
564.925	93
565.137	88
565.349	104
565.561	82
565.773	99
565.985	88
566.197	69
566.408	90
566.62	78
566.832	88
567.044	80
567.255	88
567.467	87
567.679	88
567.891	83
568.102	92
568.314	79
568.526	76
568.737	89
568.949	82
569.161	91
569.372	79
569.584	74
569.795	80
570.007	124
570.218	213
570.43	108
570.641	85
570.853	86
571.064	90
571.276	79
571.487	86
571.698	87
571.91	98
572.121	84
572.333	90
572.544	79
572.755	83
572.966	88
573.178	75
573.389	99
573.6	89
573.811	76
574.023	89
574.234	87
574.445	96
574.656	86
574.867	93
575.078	88
575.289	87
575.501	92
575.712	78
575.923	76
576.134	91
576.345	96
576.556	104
576.767	93
576.978	82
577.188	95
577.399	90
577.61	90
577.821	103
578.032	113
578.243	238
578.454	644
578.665	189
578.875	95
579.086	92
579.297	97
579.508	87
579.718	101
579.929	76
580.14	81
580.35	96
580.561	80
580.772	89
580.982	78
581.193	90
581.403	79
581.614	94
581.825	95
582.035	87
582.246	90
582.456	80
582.667	86
582.877	94
583.087	85
583.298	76
583.508	87
583.719	90
583.929	97
584.139	89
584.35	88
584.56	71
584.77	80
584.981	76
585.191	77
585.401	86
585.611	92
585.821	98
586.032	94
586.242	86
