Data from Uncirc_1992_H10_HRD10591_00084.txt Node
Date: Wed Jan 03 11:46:33 EST 2024
User: Yrep
Spectrometer: HR+D1059
Trigger mode: 1
Integration Time (sec): 1.000000E-1
Scans to average: 1
Electric dark correction enabled: true
Nonlinearity correction enabled: false
Boxcar width: 0
XAxis mode: Wavelengths
Number of Pixels in Spectrum: 2048
>>>>>Begin Spectral Data<<<<<
223.165	-11.44
223.4	-11.44
223.635	-11.44
223.869	-22.44
224.104	-17.44
224.338	-21.44
224.573	-25.44
224.808	-9.44
225.042	-1.44
225.277	-0.44
225.511	0.56
225.746	7.56
225.98	-1.44
226.215	9.56
226.449	15.56
226.683	20.56
226.918	30.56
227.152	26.56
227.387	34.56
227.621	41.56
227.856	56.56
228.09	44.56
228.324	54.56
228.559	55.56
228.793	71.56
229.027	65.56
229.262	87.56
229.496	71.56
229.73	74.56
229.964	99.56
230.199	67.56
230.433	75.56
230.667	77.56
230.901	62.56
231.136	77.56
231.37	81.56
231.604	98.56
231.838	86.56
232.072	84.56
232.306	91.56
232.541	79.56
232.775	80.56
233.009	82.56
233.243	88.56
233.477	106.56
233.711	74.56
233.945	86.56
234.179	91.56
234.413	85.56
234.647	75.56
234.881	97.56
235.115	94.56
235.349	82.56
235.583	82.56
235.817	83.56
236.051	82.56
236.285	80.56
236.519	85.56
236.753	91.56
236.987	96.56
237.221	90.56
237.455	100.56
237.689	78.56
237.922	92.56
238.156	90.56
238.39	71.56
238.624	87.56
238.858	81.56
239.091	72.56
239.325	87.56
239.559	72.56
239.793	75.56
240.027	77.56
240.26	84.56
240.494	89.56
240.728	91.56
240.961	77.56
241.195	89.56
241.429	86.56
241.662	73.56
241.896	71.56
242.13	87.56
242.363	91.56
242.597	84.56
242.83	91.56
243.064	83.56
243.298	85.56
243.531	84.56
243.765	77.56
243.998	76.56
244.232	80.56
244.465	78.56
244.699	80.56
244.932	73.56
245.166	78.56
245.399	86.56
245.633	84.56
245.866	63.56
246.099	81.56
246.333	91.56
246.566	79.56
246.8	82.56
247.033	83.56
247.266	88.56
247.5	102.56
247.733	94.56
247.966	88.56
248.2	84.56
248.433	94.56
248.666	70.56
248.899	64.56
249.133	80.56
249.366	85.56
249.599	106.56
249.832	93.56
250.066	83.56
250.299	78.56
250.532	95.56
250.765	87.56
250.998	89.56
251.231	94.56
251.465	86.56
251.698	70.56
251.931	76.56
252.164	86.56
252.397	76.56
252.63	75.56
252.863	81.56
253.096	66.56
253.329	91.56
253.562	75.56
253.795	86.56
254.028	75.56
254.261	76.56
254.494	82.56
254.727	70.56
254.96	82.56
255.193	86.56
255.426	92.56
255.659	81.56
255.892	94.56
256.124	79.56
256.357	98.56
256.59	78.56
256.823	68.56
257.056	86.56
257.289	79.56
257.521	79.56
257.754	83.56
257.987	88.56
258.22	100.56
258.452	92.56
258.685	84.56
258.918	87.56
259.151	89.56
259.383	89.56
259.616	78.56
259.849	93.56
260.081	87.56
260.314	78.56
260.547	84.56
260.779	90.56
261.012	90.56
261.244	91.56
261.477	84.56
261.71	85.56
261.942	108.56
262.175	114.56
262.407	94.56
262.64	88.56
262.872	87.56
263.105	98.56
263.337	100.56
263.57	88.56
263.802	101.56
264.035	85.56
264.267	89.56
264.499	90.56
264.732	85.56
264.964	98.56
265.197	75.56
265.429	84.56
265.661	105.56
265.894	91.56
266.126	98.56
266.358	88.56
266.591	100.56
266.823	89.56
267.055	77.56
267.287	83.56
267.52	71.56
267.752	82.56
267.984	82.56
268.216	90.56
268.448	96.56
268.681	80.56
268.913	81.56
269.145	98.56
269.377	83.56
269.609	86.56
269.841	88.56
270.073	80.56
270.306	91.56
270.538	87.56
270.77	87.56
271.002	89.56
271.234	99.56
271.466	82.56
271.698	94.56
271.93	98.56
272.162	80.56
272.394	80.56
272.626	89.56
272.858	94.56
273.09	85.56
273.322	94.56
273.553	84.56
273.785	99.56
274.017	88.56
274.249	76.56
274.481	89.56
274.713	107.56
274.945	97.56
275.176	104.56
275.408	87.56
275.64	81.56
275.872	81.56
276.104	104.56
276.335	98.56
276.567	100.56
276.799	101.56
277.031	105.56
277.262	83.56
277.494	98.56
277.726	97.56
277.957	79.56
278.189	96.56
278.421	86.56
278.652	103.56
278.884	104.56
279.115	83.56
279.347	93.56
279.579	96.56
279.81	103.56
280.042	92.56
280.273	87.56
280.505	83.56
280.736	104.56
280.968	90.56
281.199	95.56
281.431	95.56
281.662	80.56
281.894	102.56
282.125	89.56
282.356	106.56
282.588	131.56
282.819	116.56
283.051	96.56
283.282	109.56
283.513	85.56
283.745	83.56
283.976	99.56
284.207	96.56
284.439	80.56
284.67	79.56
284.901	84.56
285.132	89.56
285.364	98.56
285.595	87.56
285.826	93.56
286.057	91.56
286.288	90.56
286.52	90.56
286.751	99.56
286.982	96.56
287.213	86.56
287.444	89.56
287.675	99.56
287.906	93.56
288.138	89.56
288.369	89.56
288.6	88.56
288.831	90.56
289.062	91.56
289.293	89.56
289.524	96.56
289.755	101.56
289.986	104.56
290.217	85.56
290.448	92.56
290.679	94.56
290.91	94.56
291.141	96.56
291.371	76.56
291.602	90.56
291.833	94.56
292.064	92.56
292.295	96.56
292.526	95.56
292.757	102.56
292.987	96.56
293.218	87.56
293.449	99.56
293.68	101.56
293.91	96.56
294.141	94.56
294.372	99.56
294.603	82.56
294.833	94.56
295.064	88.56
295.295	100.56
295.525	89.56
295.756	116.56
295.987	106.56
296.217	125.56
296.448	110.56
296.679	98.56
296.909	97.56
297.14	90.56
297.37	108.56
297.601	94.56
297.831	87.56
298.062	85.56
298.292	90.56
298.523	89.56
298.753	112.56
298.984	98.56
299.214	90.56
299.445	96.56
299.675	103.56
299.905	101.56
300.136	102.56
300.366	88.56
300.597	100.56
300.827	92.56
301.057	102.56
301.288	96.56
301.518	95.56
301.748	108.56
301.979	88.56
302.209	87.56
302.439	95.56
302.669	98.56
302.9	91.56
303.13	100.56
303.36	100.56
303.59	96.56
303.82	101.56
304.051	85.56
304.281	95.56
304.511	98.56
304.741	97.56
304.971	101.56
305.201	86.56
305.431	85.56
305.661	100.56
305.891	80.56
306.121	108.56
306.352	93.56
306.582	116.56
306.812	85.56
307.042	101.56
307.272	93.56
307.502	103.56
307.731	106.56
307.961	95.56
308.191	98.56
308.421	90.56
308.651	94.56
308.881	89.56
309.111	111.56
309.341	96.56
309.571	94.56
309.8	98.56
310.03	92.56
310.26	98.56
310.49	96.56
310.72	107.56
310.949	100.56
311.179	103.56
311.409	87.56
311.639	102.56
311.868	99.56
312.098	82.56
312.328	98.56
312.557	106.56
312.787	104.56
313.017	101.56
313.246	95.56
313.476	82.56
313.706	96.56
313.935	104.56
314.165	93.56
314.394	105.56
314.624	95.56
314.853	103.56
315.083	115.56
315.312	90.56
315.542	99.56
315.771	105.56
316.001	94.56
316.23	88.56
316.46	97.56
316.689	92.56
316.919	94.56
317.148	90.56
317.377	111.56
317.607	87.56
317.836	96.56
318.065	91.56
318.295	95.56
318.524	82.56
318.753	105.56
318.983	94.56
319.212	103.56
319.441	107.56
319.67	105.56
319.9	101.56
320.129	101.56
320.358	105.56
320.587	86.56
320.816	107.56
321.046	114.56
321.275	102.56
321.504	113.56
321.733	106.56
321.962	85.56
322.191	96.56
322.42	95.56
322.649	111.56
322.878	103.56
323.108	127.56
323.337	130.56
323.566	119.56
323.795	136.56
324.024	184.56
324.253	336.56
324.482	677.56
324.71	1386.56
324.939	1773.56
325.168	667.56
325.397	230.56
325.626	146.56
325.855	123.56
326.084	120.56
326.313	138.56
326.542	140.56
326.77	201.56
326.999	373.56
327.228	789.56
327.457	1387.56
327.686	1102.56
327.914	324.56
328.143	176.56
328.372	146.56
328.6	115.56
328.829	126.56
329.058	119.56
329.287	128.56
329.515	107.56
329.744	97.56
329.972	104.56
330.201	104.56
330.43	97.56
330.658	130.56
330.887	142.56
331.115	108.56
331.344	112.56
331.572	98.56
331.801	91.56
332.03	115.56
332.258	96.56
332.486	107.56
332.715	97.56
332.943	99.56
333.172	106.56
333.4	102.56
333.629	109.56
333.857	121.56
334.085	112.56
334.314	98.56
334.542	82.56
334.771	98.56
334.999	100.56
335.227	103.56
335.455	102.56
335.684	98.56
335.912	99.56
336.14	105.56
336.369	94.56
336.597	103.56
336.825	92.56
337.053	100.56
337.281	88.56
337.51	94.56
337.738	105.56
337.966	81.56
338.194	95.56
338.422	99.56
338.65	103.56
338.878	99.56
339.106	93.56
339.334	102.56
339.562	102.56
339.79	86.56
340.018	90.56
340.246	108.56
340.474	86.56
340.702	96.56
340.93	101.56
341.158	90.56
341.386	101.56
341.614	85.56
341.842	114.56
342.07	96.56
342.298	89.56
342.526	107.56
342.754	87.56
342.981	88.56
343.209	107.56
343.437	112.56
343.665	109.56
343.893	102.56
344.12	92.56
344.348	98.56
344.576	104.56
344.804	102.56
345.031	110.56
345.259	100.56
345.487	93.56
345.714	98.56
345.942	89.56
346.17	81.56
346.397	94.56
346.625	98.56
346.853	88.56
347.08	106.56
347.308	84.56
347.535	101.56
347.763	113.56
347.99	102.56
348.218	91.56
348.445	100.56
348.673	92.56
348.9	97.56
349.128	104.56
349.355	95.56
349.583	89.56
349.81	96.56
350.037	90.56
350.265	100.56
350.492	93.56
350.72	105.56
350.947	104.56
351.174	99.56
351.402	114.56
351.629	99.56
351.856	88.56
352.083	111.56
352.311	100.56
352.538	108.56
352.765	113.56
352.992	108.56
353.22	102.56
353.447	102.56
353.674	108.56
353.901	104.56
354.128	96.56
354.355	96.56
354.583	108.56
354.81	105.56
355.037	100.56
355.264	101.56
355.491	100.56
355.718	80.56
355.945	102.56
356.172	74.56
356.399	108.56
356.626	100.56
356.853	93.56
357.08	95.56
357.307	91.56
357.534	116.56
357.761	107.56
357.988	82.56
358.215	103.56
358.441	98.56
358.668	86.56
358.895	105.56
359.122	97.56
359.349	91.56
359.576	102.56
359.802	115.56
360.029	112.56
360.256	112.56
360.483	95.56
360.709	90.56
360.936	101.56
361.163	102.56
361.39	115.56
361.616	102.56
361.843	110.56
362.07	83.56
362.296	106.56
362.523	91.56
362.749	94.56
362.976	107.56
363.203	103.56
363.429	96.56
363.656	91.56
363.882	115.56
364.109	96.56
364.335	104.56
364.562	91.56
364.788	64.56
365.015	100.56
365.241	97.56
365.468	107.56
365.694	108.56
365.92	103.56
366.147	85.56
366.373	95.56
366.599	106.56
366.826	93.56
367.052	111.56
367.278	106.56
367.505	101.56
367.731	82.56
367.957	103.56
368.184	96.56
368.41	102.56
368.636	123.56
368.862	124.56
369.089	105.56
369.315	105.56
369.541	99.56
369.767	92.56
369.993	102.56
370.219	107.56
370.445	96.56
370.672	113.56
370.898	90.56
371.124	96.56
371.35	96.56
371.576	95.56
371.802	105.56
372.028	99.56
372.254	100.56
372.48	92.56
372.706	88.56
372.932	105.56
373.158	82.56
373.384	91.56
373.61	105.56
373.835	89.56
374.061	88.56
374.287	73.56
374.513	99.56
374.739	81.56
374.965	94.56
375.191	89.56
375.416	90.56
375.642	85.56
375.868	75.56
376.094	99.56
376.319	94.56
376.545	91.56
376.771	89.56
376.997	91.56
377.222	96.56
377.448	98.56
377.674	84.56
377.899	87.56
378.125	89.56
378.35	90.56
378.576	95.56
378.802	99.56
379.027	86.56
379.253	103.56
379.478	102.56
379.704	94.56
379.929	96.56
380.155	95.56
380.38	90.56
380.606	98.56
380.831	82.56
381.057	96.56
381.282	95.56
381.507	89.56
381.733	91.56
381.958	103.56
382.184	96.56
382.409	106.56
382.634	105.56
382.86	104.56
383.085	106.56
383.31	100.56
383.535	97.56
383.761	103.56
383.986	93.56
384.211	115.56
384.436	90.56
384.662	104.56
384.887	108.56
385.112	112.56
385.337	100.56
385.562	90.56
385.787	98.56
386.013	121.56
386.238	122.56
386.463	105.56
386.688	104.56
386.913	104.56
387.138	98.56
387.363	96.56
387.588	107.56
387.813	107.56
388.038	97.56
388.263	112.56
388.488	120.56
388.713	112.56
388.938	104.56
389.163	100.56
389.387	99.56
389.612	93.56
389.837	106.56
390.062	100.56
390.287	89.56
390.512	106.56
390.736	95.56
390.961	82.56
391.186	99.56
391.411	106.56
391.636	100.56
391.86	94.56
392.085	94.56
392.31	94.56
392.534	95.56
392.759	96.56
392.984	96.56
393.208	87.56
393.433	97.56
393.658	89.56
393.882	68.56
394.107	92.56
394.331	92.56
394.556	98.56
394.78	104.56
395.005	87.56
395.229	92.56
395.454	99.56
395.678	96.56
395.903	99.56
396.127	85.56
396.352	108.56
396.576	89.56
396.801	94.56
397.025	89.56
397.249	103.56
397.474	91.56
397.698	84.56
397.922	78.56
398.147	94.56
398.371	98.56
398.595	87.56
398.82	86.56
399.044	85.56
399.268	96.56
399.492	99.56
399.717	99.56
399.941	95.56
400.165	106.56
400.389	86.56
400.613	110.56
400.837	92.56
401.062	97.56
401.286	99.56
401.51	104.56
401.734	97.56
401.958	111.56
402.182	124.56
402.406	147.56
402.63	112.56
402.854	106.56
403.078	95.56
403.302	89.56
403.526	89.56
403.75	80.56
403.974	86.56
404.198	95.56
404.422	80.56
404.645	84.56
404.869	101.56
405.093	103.56
405.317	119.56
405.541	107.56
405.765	111.56
405.988	124.56
406.212	139.56
406.436	188.56
406.66	144.56
406.883	93.56
407.107	98.56
407.331	84.56
407.555	98.56
407.778	119.56
408.002	103.56
408.226	99.56
408.449	82.56
408.673	87.56
408.896	105.56
409.12	100.56
409.344	99.56
409.567	98.56
409.791	97.56
410.014	111.56
410.238	94.56
410.461	87.56
410.685	94.56
410.908	94.56
411.132	106.56
411.355	100.56
411.578	107.56
411.802	93.56
412.025	95.56
412.249	97.56
412.472	86.56
412.695	91.56
412.919	92.56
413.142	86.56
413.365	82.56
413.589	83.56
413.812	101.56
414.035	90.56
414.258	91.56
414.482	90.56
414.705	101.56
414.928	100.56
415.151	103.56
415.374	90.56
415.597	93.56
415.821	96.56
416.044	85.56
416.267	94.56
416.49	107.56
416.713	91.56
416.936	92.56
417.159	99.56
417.382	95.56
417.605	93.56
417.828	99.56
418.051	90.56
418.274	87.56
418.497	108.56
418.72	93.56
418.943	90.56
419.166	95.56
419.389	100.56
419.611	94.56
419.834	99.56
420.057	81.56
420.28	96.56
420.503	84.56
420.726	89.56
420.948	93.56
421.171	102.56
421.394	102.56
421.617	87.56
421.839	97.56
422.062	95.56
422.285	98.56
422.507	95.56
422.73	103.56
422.953	104.56
423.175	96.56
423.398	90.56
423.621	91.56
423.843	82.56
424.066	96.56
424.288	79.56
424.511	104.56
424.733	88.56
424.956	92.56
425.178	108.56
425.401	89.56
425.623	103.56
425.846	97.56
426.068	95.56
426.291	97.56
426.513	103.56
426.735	102.56
426.958	91.56
427.18	102.56
427.402	131.56
427.625	145.56
427.847	126.56
428.069	116.56
428.292	103.56
428.514	91.56
428.736	99.56
428.958	91.56
429.181	101.56
429.403	81.56
429.625	92.56
429.847	94.56
430.069	103.56
430.292	98.56
430.514	97.56
430.736	101.56
430.958	101.56
431.18	89.56
431.402	91.56
431.624	88.56
431.846	98.56
432.068	100.56
432.29	91.56
432.512	97.56
432.734	91.56
432.956	94.56
433.178	91.56
433.4	103.56
433.622	83.56
433.844	94.56
434.066	89.56
434.287	95.56
434.509	90.56
434.731	94.56
434.953	84.56
435.175	94.56
435.397	92.56
435.618	105.56
435.84	112.56
436.062	116.56
436.284	102.56
436.505	101.56
436.727	96.56
436.949	98.56
437.17	92.56
437.392	100.56
437.614	97.56
437.835	104.56
438.057	126.56
438.278	113.56
438.5	82.56
438.721	116.56
438.943	96.56
439.165	100.56
439.386	88.56
439.608	87.56
439.829	87.56
440.05	117.56
440.272	143.56
440.493	94.56
440.715	91.56
440.936	107.56
441.158	86.56
441.379	75.56
441.6	93.56
441.822	100.56
442.043	85.56
442.264	109.56
442.486	82.56
442.707	94.56
442.928	117.56
443.149	119.56
443.371	122.56
443.592	103.56
443.813	109.56
444.034	99.56
444.255	102.56
444.476	92.56
444.698	96.56
444.919	80.56
445.14	130.56
445.361	126.56
445.582	131.56
445.803	124.56
446.024	122.56
446.245	137.56
446.466	114.56
446.687	88.56
446.908	86.56
447.129	99.56
447.35	108.56
447.571	98.56
447.792	96.56
448.013	107.56
448.234	99.56
448.455	87.56
448.675	107.56
448.896	109.56
449.117	101.56
449.338	104.56
449.559	110.56
449.779	125.56
450	108.56
450.221	95.56
450.442	102.56
450.662	94.56
450.883	123.56
451.104	106.56
451.324	83.56
451.545	74.56
451.766	86.56
451.986	85.56
452.207	103.56
452.428	92.56
452.648	114.56
452.869	104.56
453.089	103.56
453.31	106.56
453.53	108.56
453.751	97.56
453.971	97.56
454.192	109.56
454.412	86.56
454.633	83.56
454.853	98.56
455.073	104.56
455.294	87.56
455.514	103.56
455.734	93.56
455.955	98.56
456.175	99.56
456.395	93.56
456.616	81.56
456.836	94.56
457.056	86.56
457.276	91.56
457.497	90.56
457.717	92.56
457.937	86.56
458.157	111.56
458.377	94.56
458.598	109.56
458.818	133.56
459.038	143.56
459.258	110.56
459.478	96.56
459.698	95.56
459.918	90.56
460.138	78.56
460.358	89.56
460.578	90.56
460.798	88.56
461.018	102.56
461.238	91.56
461.458	86.56
461.678	86.56
461.898	95.56
462.118	95.56
462.338	92.56
462.558	91.56
462.777	80.56
462.997	81.56
463.217	90.56
463.437	83.56
463.657	82.56
463.876	93.56
464.096	99.56
464.316	99.56
464.536	84.56
464.755	106.56
464.975	106.56
465.195	132.56
465.414	124.56
465.634	96.56
465.854	91.56
466.073	92.56
466.293	103.56
466.512	100.56
466.732	94.56
466.951	92.56
467.171	86.56
467.391	79.56
467.61	104.56
467.829	95.56
468.049	88.56
468.268	104.56
468.488	82.56
468.707	104.56
468.927	88.56
469.146	92.56
469.365	100.56
469.585	78.56
469.804	94.56
470.023	87.56
470.243	86.56
470.462	92.56
470.681	102.56
470.901	97.56
471.12	104.56
471.339	83.56
471.558	86.56
471.777	88.56
471.997	98.56
472.216	104.56
472.435	95.56
472.654	91.56
472.873	93.56
473.092	93.56
473.311	95.56
473.53	80.56
473.749	82.56
473.968	96.56
474.187	99.56
474.406	98.56
474.625	89.56
474.844	85.56
475.063	84.56
475.282	84.56
475.501	84.56
475.72	84.56
475.939	109.56
476.158	79.56
476.377	100.56
476.596	89.56
476.814	100.56
477.033	93.56
477.252	94.56
477.471	82.56
477.69	87.56
477.908	86.56
478.127	108.56
478.346	98.56
478.564	102.56
478.783	94.56
479.002	95.56
479.22	88.56
479.439	95.56
479.658	102.56
479.876	98.56
480.095	97.56
480.313	100.56
480.532	93.56
480.751	95.56
480.969	113.56
481.188	110.56
481.406	100.56
481.624	102.56
481.843	95.56
482.061	97.56
482.28	96.56
482.498	93.56
482.717	94.56
482.935	104.56
483.153	84.56
483.372	98.56
483.59	96.56
483.808	83.56
484.027	90.56
484.245	97.56
484.463	86.56
484.681	94.56
484.9	93.56
485.118	101.56
485.336	85.56
485.554	88.56
485.772	90.56
485.99	104.56
486.209	121.56
486.427	109.56
486.645	103.56
486.863	89.56
487.081	108.56
487.299	98.56
487.517	96.56
487.735	91.56
487.953	90.56
488.171	89.56
488.389	97.56
488.607	108.56
488.825	86.56
489.043	89.56
489.261	92.56
489.479	91.56
489.696	93.56
489.914	96.56
490.132	97.56
490.35	89.56
490.568	88.56
490.786	95.56
491.003	106.56
491.221	91.56
491.439	95.56
491.657	96.56
491.874	88.56
492.092	87.56
492.31	101.56
492.527	99.56
492.745	94.56
492.963	94.56
493.18	101.56
493.398	99.56
493.615	115.56
493.833	97.56
494.05	84.56
494.268	88.56
494.485	95.56
494.703	98.56
494.92	105.56
495.138	93.56
495.355	102.56
495.573	96.56
495.79	89.56
496.008	85.56
496.225	98.56
496.442	99.56
496.66	101.56
496.877	86.56
497.094	97.56
497.312	94.56
497.529	100.56
497.746	88.56
497.963	98.56
498.181	98.56
498.398	107.56
498.615	105.56
498.832	100.56
499.049	99.56
499.267	88.56
499.484	104.56
499.701	99.56
499.918	80.56
500.135	87.56
500.352	97.56
500.569	83.56
500.786	90.56
501.003	101.56
501.22	83.56
501.437	91.56
501.654	104.56
501.871	106.56
502.088	95.56
502.305	83.56
502.522	112.56
502.739	101.56
502.956	98.56
503.172	96.56
503.389	86.56
503.606	110.56
503.823	96.56
504.04	103.56
504.256	96.56
504.473	97.56
504.69	84.56
504.907	94.56
505.123	106.56
505.34	98.56
505.557	92.56
505.773	96.56
505.99	84.56
506.207	82.56
506.423	98.56
506.64	84.56
506.856	84.56
507.073	102.56
507.289	98.56
507.506	105.56
507.722	112.56
507.939	92.56
508.155	96.56
508.372	94.56
508.588	94.56
508.805	98.56
509.021	108.56
509.238	91.56
509.454	104.56
509.67	104.56
509.887	117.56
510.103	135.56
510.319	184.56
510.536	644.56
510.752	1918.56
510.968	538.56
511.184	143.56
511.401	115.56
511.617	105.56
511.833	80.56
512.049	83.56
512.265	96.56
512.481	90.56
512.698	102.56
512.914	113.56
513.13	96.56
513.346	95.56
513.562	106.56
513.778	110.56
513.994	96.56
