Data from Uncirc_1992_H10_HRD10591_00061.txt Node
Date: Wed Jan 03 11:46:28 EST 2024
User: Yrep
Spectrometer: HR+D1059
Trigger mode: 1
Integration Time (sec): 1.000000E-1
Scans to average: 1
Electric dark correction enabled: true
Nonlinearity correction enabled: false
Boxcar width: 0
XAxis mode: Wavelengths
Number of Pixels in Spectrum: 2048
>>>>>Begin Spectral Data<<<<<
223.165	-18.25
223.4	-18.25
223.635	-18.25
223.869	-26.25
224.104	-24.25
224.338	-7.25
224.573	-14.25
224.808	-22.25
225.042	-5.25
225.277	6.75
225.511	2.75
225.746	4.75
225.98	7.75
226.215	6.75
226.449	14.75
226.683	11.75
226.918	19.75
227.152	42.75
227.387	65.75
227.621	27.75
227.856	45.75
228.09	47.75
228.324	65.75
228.559	67.75
228.793	74.75
229.027	63.75
229.262	66.75
229.496	84.75
229.73	92.75
229.964	75.75
230.199	77.75
230.433	73.75
230.667	61.75
230.901	65.75
231.136	80.75
231.37	81.75
231.604	79.75
231.838	79.75
232.072	71.75
232.306	85.75
232.541	82.75
232.775	86.75
233.009	85.75
233.243	66.75
233.477	79.75
233.711	80.75
233.945	85.75
234.179	88.75
234.413	86.75
234.647	78.75
234.881	68.75
235.115	75.75
235.349	70.75
235.583	70.75
235.817	81.75
236.051	89.75
236.285	76.75
236.519	81.75
236.753	67.75
236.987	90.75
237.221	82.75
237.455	76.75
237.689	81.75
237.922	80.75
238.156	68.75
238.39	69.75
238.624	68.75
238.858	77.75
239.091	62.75
239.325	75.75
239.559	83.75
239.793	90.75
240.027	78.75
240.26	68.75
240.494	79.75
240.728	81.75
240.961	72.75
241.195	81.75
241.429	78.75
241.662	66.75
241.896	77.75
242.13	77.75
242.363	79.75
242.597	78.75
242.83	80.75
243.064	67.75
243.298	64.75
243.531	75.75
243.765	75.75
243.998	94.75
244.232	74.75
244.465	87.75
244.699	67.75
244.932	77.75
245.166	89.75
245.399	74.75
245.633	75.75
245.866	97.75
246.099	79.75
246.333	65.75
246.566	96.75
246.8	95.75
247.033	75.75
247.266	90.75
247.5	85.75
247.733	92.75
247.966	67.75
248.2	80.75
248.433	71.75
248.666	71.75
248.899	85.75
249.133	89.75
249.366	89.75
249.599	102.75
249.832	98.75
250.066	101.75
250.299	74.75
250.532	86.75
250.765	75.75
250.998	70.75
251.231	85.75
251.465	82.75
251.698	89.75
251.931	68.75
252.164	89.75
252.397	87.75
252.63	80.75
252.863	76.75
253.096	69.75
253.329	76.75
253.562	84.75
253.795	70.75
254.028	93.75
254.261	73.75
254.494	79.75
254.727	93.75
254.96	107.75
255.193	85.75
255.426	78.75
255.659	77.75
255.892	72.75
256.124	77.75
256.357	90.75
256.59	78.75
256.823	83.75
257.056	85.75
257.289	74.75
257.521	76.75
257.754	82.75
257.987	67.75
258.22	70.75
258.452	88.75
258.685	84.75
258.918	76.75
259.151	77.75
259.383	75.75
259.616	72.75
259.849	86.75
260.081	82.75
260.314	89.75
260.547	73.75
260.779	83.75
261.012	85.75
261.244	88.75
261.477	85.75
261.71	79.75
261.942	99.75
262.175	119.75
262.407	82.75
262.64	90.75
262.872	95.75
263.105	82.75
263.337	83.75
263.57	90.75
263.802	80.75
264.035	84.75
264.267	77.75
264.499	91.75
264.732	81.75
264.964	78.75
265.197	85.75
265.429	80.75
265.661	100.75
265.894	82.75
266.126	83.75
266.358	78.75
266.591	79.75
266.823	94.75
267.055	70.75
267.287	88.75
267.52	73.75
267.752	87.75
267.984	83.75
268.216	89.75
268.448	76.75
268.681	86.75
268.913	84.75
269.145	88.75
269.377	91.75
269.609	86.75
269.841	85.75
270.073	88.75
270.306	83.75
270.538	85.75
270.77	86.75
271.002	74.75
271.234	97.75
271.466	85.75
271.698	78.75
271.93	66.75
272.162	97.75
272.394	95.75
272.626	76.75
272.858	82.75
273.09	74.75
273.322	74.75
273.553	63.75
273.785	79.75
274.017	83.75
274.249	79.75
274.481	84.75
274.713	88.75
274.945	90.75
275.176	84.75
275.408	90.75
275.64	75.75
275.872	66.75
276.104	92.75
276.335	95.75
276.567	102.75
276.799	91.75
277.031	101.75
277.262	98.75
277.494	98.75
277.726	87.75
277.957	85.75
278.189	83.75
278.421	78.75
278.652	87.75
278.884	85.75
279.115	96.75
279.347	86.75
279.579	94.75
279.81	89.75
280.042	82.75
280.273	77.75
280.505	91.75
280.736	92.75
280.968	83.75
281.199	90.75
281.431	82.75
281.662	87.75
281.894	83.75
282.125	99.75
282.356	117.75
282.588	131.75
282.819	104.75
283.051	80.75
283.282	78.75
283.513	89.75
283.745	77.75
283.976	95.75
284.207	78.75
284.439	70.75
284.67	79.75
284.901	77.75
285.132	79.75
285.364	90.75
285.595	86.75
285.826	93.75
286.057	75.75
286.288	92.75
286.52	89.75
286.751	106.75
286.982	98.75
287.213	85.75
287.444	102.75
287.675	101.75
287.906	83.75
288.138	85.75
288.369	88.75
288.6	87.75
288.831	82.75
289.062	90.75
289.293	90.75
289.524	98.75
289.755	86.75
289.986	70.75
290.217	89.75
290.448	83.75
290.679	67.75
290.91	91.75
291.141	96.75
291.371	84.75
291.602	88.75
291.833	92.75
292.064	95.75
292.295	94.75
292.526	84.75
292.757	88.75
292.987	90.75
293.218	82.75
293.449	81.75
293.68	93.75
293.91	87.75
294.141	75.75
294.372	86.75
294.603	81.75
294.833	98.75
295.064	91.75
295.295	85.75
295.525	85.75
295.756	105.75
295.987	107.75
296.217	132.75
296.448	112.75
296.679	80.75
296.909	100.75
297.14	95.75
297.37	96.75
297.601	78.75
297.831	87.75
298.062	97.75
298.292	87.75
298.523	83.75
298.753	108.75
298.984	89.75
299.214	99.75
299.445	87.75
299.675	89.75
299.905	94.75
300.136	92.75
300.366	85.75
300.597	105.75
300.827	98.75
301.057	87.75
301.288	100.75
301.518	75.75
301.748	89.75
301.979	79.75
302.209	83.75
302.439	85.75
302.669	90.75
302.9	83.75
303.13	97.75
303.36	97.75
303.59	100.75
303.82	98.75
304.051	92.75
304.281	87.75
304.511	87.75
304.741	80.75
304.971	87.75
305.201	82.75
305.431	98.75
305.661	91.75
305.891	94.75
306.121	84.75
306.352	92.75
306.582	93.75
306.812	97.75
307.042	85.75
307.272	87.75
307.502	88.75
307.731	89.75
307.961	100.75
308.191	87.75
308.421	78.75
308.651	84.75
308.881	98.75
309.111	93.75
309.341	101.75
309.571	95.75
309.8	95.75
310.03	100.75
310.26	89.75
310.49	101.75
310.72	99.75
310.949	108.75
311.179	107.75
311.409	99.75
311.639	86.75
311.868	92.75
312.098	87.75
312.328	88.75
312.557	84.75
312.787	95.75
313.017	92.75
313.246	81.75
313.476	97.75
313.706	94.75
313.935	106.75
314.165	95.75
314.394	93.75
314.624	103.75
314.853	96.75
315.083	91.75
315.312	91.75
315.542	93.75
315.771	93.75
316.001	93.75
316.23	83.75
316.46	86.75
316.689	96.75
316.919	90.75
317.148	93.75
317.377	92.75
317.607	105.75
317.836	87.75
318.065	91.75
318.295	96.75
318.524	85.75
318.753	81.75
318.983	98.75
319.212	85.75
319.441	94.75
319.67	96.75
319.9	102.75
320.129	82.75
320.358	95.75
320.587	114.75
320.816	105.75
321.046	103.75
321.275	82.75
321.504	112.75
321.733	90.75
321.962	96.75
322.191	106.75
322.42	89.75
322.649	102.75
322.878	104.75
323.108	102.75
323.337	112.75
323.566	120.75
323.795	131.75
324.024	186.75
324.253	350.75
324.482	732.75
324.71	1453.75
324.939	1900.75
325.168	706.75
325.397	219.75
325.626	151.75
325.855	122.75
326.084	118.75
326.313	132.75
326.542	155.75
326.77	202.75
326.999	401.75
327.228	863.75
327.457	1470.75
327.686	1177.75
327.914	334.75
328.143	175.75
328.372	130.75
328.6	132.75
328.829	118.75
329.058	123.75
329.287	115.75
329.515	116.75
329.744	109.75
329.972	98.75
330.201	103.75
330.43	111.75
330.658	117.75
330.887	122.75
331.115	133.75
331.344	104.75
331.572	97.75
331.801	98.75
332.03	102.75
332.258	97.75
332.486	90.75
332.715	99.75
332.943	100.75
333.172	93.75
333.4	75.75
333.629	98.75
333.857	110.75
334.085	92.75
334.314	103.75
334.542	76.75
334.771	95.75
334.999	92.75
335.227	94.75
335.455	101.75
335.684	105.75
335.912	102.75
336.14	90.75
336.369	95.75
336.597	98.75
336.825	90.75
337.053	93.75
337.281	96.75
337.51	91.75
337.738	96.75
337.966	101.75
338.194	91.75
338.422	99.75
338.65	94.75
338.878	100.75
339.106	95.75
339.334	93.75
339.562	93.75
339.79	84.75
340.018	94.75
340.246	80.75
340.474	90.75
340.702	102.75
340.93	91.75
341.158	92.75
341.386	96.75
341.614	96.75
341.842	90.75
342.07	87.75
342.298	80.75
342.526	95.75
342.754	94.75
342.981	85.75
343.209	113.75
343.437	90.75
343.665	98.75
343.893	95.75
344.12	105.75
344.348	87.75
344.576	95.75
344.804	84.75
345.031	104.75
345.259	98.75
345.487	85.75
345.714	85.75
345.942	112.75
346.17	87.75
346.397	93.75
346.625	95.75
346.853	90.75
347.08	102.75
347.308	77.75
347.535	100.75
347.763	101.75
347.99	109.75
348.218	112.75
348.445	93.75
348.673	88.75
348.9	97.75
349.128	100.75
349.355	94.75
349.583	97.75
349.81	83.75
350.037	89.75
350.265	97.75
350.492	86.75
350.72	94.75
350.947	97.75
351.174	86.75
351.402	93.75
351.629	95.75
351.856	92.75
352.083	101.75
352.311	104.75
352.538	110.75
352.765	111.75
352.992	109.75
353.22	101.75
353.447	81.75
353.674	89.75
353.901	98.75
354.128	92.75
354.355	91.75
354.583	90.75
354.81	89.75
355.037	102.75
355.264	88.75
355.491	86.75
355.718	100.75
355.945	103.75
356.172	96.75
356.399	103.75
356.626	108.75
356.853	89.75
357.08	94.75
357.307	98.75
357.534	96.75
357.761	96.75
357.988	86.75
358.215	82.75
358.441	97.75
358.668	87.75
358.895	100.75
359.122	97.75
359.349	90.75
359.576	76.75
359.802	98.75
360.029	112.75
360.256	99.75
360.483	93.75
360.709	94.75
360.936	100.75
361.163	107.75
361.39	82.75
361.616	110.75
361.843	89.75
362.07	99.75
362.296	95.75
362.523	93.75
362.749	101.75
362.976	101.75
363.203	90.75
363.429	87.75
363.656	91.75
363.882	101.75
364.109	85.75
364.335	91.75
364.562	92.75
364.788	89.75
365.015	87.75
365.241	89.75
365.468	100.75
365.694	110.75
365.92	90.75
366.147	82.75
366.373	85.75
366.599	94.75
366.826	89.75
367.052	96.75
367.278	85.75
367.505	89.75
367.731	88.75
367.957	90.75
368.184	89.75
368.41	94.75
368.636	101.75
368.862	113.75
369.089	101.75
369.315	87.75
369.541	84.75
369.767	92.75
369.993	97.75
370.219	93.75
370.445	84.75
370.672	84.75
370.898	90.75
371.124	85.75
371.35	87.75
371.576	100.75
371.802	83.75
372.028	84.75
372.254	84.75
372.48	93.75
372.706	107.75
372.932	95.75
373.158	91.75
373.384	92.75
373.61	89.75
373.835	92.75
374.061	82.75
374.287	92.75
374.513	99.75
374.739	79.75
374.965	79.75
375.191	98.75
375.416	94.75
375.642	98.75
375.868	93.75
376.094	93.75
376.319	100.75
376.545	99.75
376.771	92.75
376.997	87.75
377.222	78.75
377.448	93.75
377.674	93.75
377.899	94.75
378.125	111.75
378.35	109.75
378.576	84.75
378.802	83.75
379.027	85.75
379.253	92.75
379.478	84.75
379.704	81.75
379.929	90.75
380.155	98.75
380.38	98.75
380.606	91.75
380.831	103.75
381.057	107.75
381.282	97.75
381.507	91.75
381.733	86.75
381.958	91.75
382.184	110.75
382.409	89.75
382.634	106.75
382.86	99.75
383.085	91.75
383.31	77.75
383.535	100.75
383.761	110.75
383.986	84.75
384.211	97.75
384.436	99.75
384.662	97.75
384.887	98.75
385.112	103.75
385.337	110.75
385.562	105.75
385.787	92.75
386.013	121.75
386.238	114.75
386.463	103.75
386.688	101.75
386.913	87.75
387.138	94.75
387.363	103.75
387.588	107.75
387.813	105.75
388.038	96.75
388.263	81.75
388.488	102.75
388.713	95.75
388.938	91.75
389.163	90.75
389.387	79.75
389.612	95.75
389.837	93.75
390.062	103.75
390.287	94.75
390.512	99.75
390.736	99.75
390.961	90.75
391.186	88.75
391.411	114.75
391.636	106.75
391.86	95.75
392.085	101.75
392.31	86.75
392.534	85.75
392.759	79.75
392.984	78.75
393.208	94.75
393.433	97.75
393.658	88.75
393.882	89.75
394.107	83.75
394.331	73.75
394.556	87.75
394.78	99.75
395.005	77.75
395.229	93.75
395.454	96.75
395.678	86.75
395.903	94.75
396.127	87.75
396.352	95.75
396.576	90.75
396.801	99.75
397.025	85.75
397.249	86.75
397.474	86.75
397.698	77.75
397.922	68.75
398.147	67.75
398.371	83.75
398.595	82.75
398.82	97.75
399.044	89.75
399.268	80.75
399.492	95.75
399.717	99.75
399.941	86.75
400.165	95.75
400.389	90.75
400.613	76.75
400.837	102.75
401.062	93.75
401.286	98.75
401.51	99.75
401.734	96.75
401.958	97.75
402.182	128.75
402.406	155.75
402.63	114.75
402.854	87.75
403.078	100.75
403.302	101.75
403.526	86.75
403.75	102.75
403.974	79.75
404.198	93.75
404.422	84.75
404.645	88.75
404.869	85.75
405.093	87.75
405.317	85.75
405.541	88.75
405.765	100.75
405.988	116.75
406.212	160.75
406.436	210.75
406.66	132.75
406.883	103.75
407.107	95.75
407.331	94.75
407.555	91.75
407.778	90.75
408.002	91.75
408.226	86.75
408.449	93.75
408.673	103.75
408.896	85.75
409.12	103.75
409.344	95.75
409.567	89.75
409.791	90.75
410.014	89.75
410.238	96.75
410.461	93.75
410.685	102.75
410.908	105.75
411.132	91.75
411.355	90.75
411.578	77.75
411.802	91.75
412.025	77.75
412.249	94.75
412.472	93.75
412.695	80.75
412.919	86.75
413.142	82.75
413.365	75.75
413.589	88.75
413.812	90.75
414.035	83.75
414.258	95.75
414.482	88.75
414.705	86.75
414.928	90.75
415.151	100.75
415.374	101.75
415.597	88.75
415.821	90.75
416.044	86.75
416.267	77.75
416.49	85.75
416.713	79.75
416.936	85.75
417.159	107.75
417.382	82.75
417.605	93.75
417.828	91.75
418.051	98.75
418.274	94.75
418.497	84.75
418.72	87.75
418.943	83.75
419.166	89.75
419.389	103.75
419.611	81.75
419.834	76.75
420.057	100.75
420.28	86.75
420.503	87.75
420.726	89.75
420.948	88.75
421.171	81.75
421.394	92.75
421.617	91.75
421.839	92.75
422.062	85.75
422.285	83.75
422.507	99.75
422.73	107.75
422.953	86.75
423.175	101.75
423.398	83.75
423.621	91.75
423.843	94.75
424.066	89.75
424.288	75.75
424.511	81.75
424.733	93.75
424.956	97.75
425.178	106.75
425.401	93.75
425.623	101.75
425.846	94.75
426.068	78.75
426.291	76.75
426.513	82.75
426.735	83.75
426.958	109.75
427.18	107.75
427.402	124.75
427.625	133.75
427.847	116.75
428.069	110.75
428.292	99.75
428.514	80.75
428.736	90.75
428.958	83.75
429.181	95.75
429.403	81.75
429.625	82.75
429.847	80.75
430.069	94.75
430.292	78.75
430.514	95.75
430.736	103.75
430.958	86.75
431.18	73.75
431.402	89.75
431.624	87.75
431.846	85.75
432.068	80.75
432.29	89.75
432.512	99.75
432.734	90.75
432.956	85.75
433.178	81.75
433.4	86.75
433.622	91.75
433.844	87.75
434.066	98.75
434.287	87.75
434.509	80.75
434.731	90.75
434.953	88.75
435.175	79.75
435.397	97.75
435.618	89.75
435.84	108.75
436.062	109.75
436.284	96.75
436.505	109.75
436.727	96.75
436.949	90.75
437.17	89.75
437.392	93.75
437.614	82.75
437.835	116.75
438.057	117.75
438.278	89.75
438.5	107.75
438.721	109.75
438.943	84.75
439.165	97.75
439.386	89.75
439.608	101.75
439.829	92.75
440.05	111.75
440.272	138.75
440.493	95.75
440.715	82.75
440.936	92.75
441.158	77.75
441.379	92.75
441.6	98.75
441.822	110.75
442.043	103.75
442.264	109.75
442.486	93.75
442.707	82.75
442.928	87.75
443.149	93.75
443.371	110.75
443.592	96.75
443.813	109.75
444.034	88.75
444.255	103.75
444.476	95.75
444.698	78.75
444.919	91.75
445.14	129.75
445.361	122.75
445.582	110.75
445.803	122.75
446.024	129.75
446.245	137.75
446.466	102.75
446.687	75.75
446.908	97.75
447.129	83.75
447.35	93.75
447.571	93.75
447.792	83.75
448.013	107.75
448.234	102.75
448.455	88.75
448.675	102.75
448.896	121.75
449.117	97.75
449.338	102.75
449.559	116.75
449.779	141.75
450	101.75
450.221	86.75
450.442	91.75
450.662	89.75
450.883	106.75
451.104	105.75
451.324	94.75
451.545	84.75
451.766	91.75
451.986	87.75
452.207	89.75
452.428	95.75
452.648	95.75
452.869	103.75
453.089	113.75
453.31	109.75
453.53	86.75
453.751	82.75
453.971	94.75
454.192	110.75
454.412	96.75
454.633	94.75
454.853	95.75
455.073	92.75
455.294	97.75
455.514	101.75
455.734	98.75
455.955	89.75
456.175	81.75
456.395	71.75
456.616	77.75
456.836	95.75
457.056	88.75
457.276	88.75
457.497	84.75
457.717	77.75
457.937	81.75
458.157	89.75
458.377	98.75
458.598	91.75
458.818	131.75
459.038	140.75
459.258	107.75
459.478	92.75
459.698	97.75
459.918	88.75
460.138	89.75
460.358	108.75
460.578	95.75
460.798	97.75
461.018	83.75
461.238	81.75
461.458	93.75
461.678	84.75
461.898	94.75
462.118	84.75
462.338	79.75
462.558	88.75
462.777	94.75
462.997	91.75
463.217	87.75
463.437	82.75
463.657	91.75
463.876	85.75
464.096	95.75
464.316	94.75
464.536	101.75
464.755	103.75
464.975	99.75
465.195	155.75
465.414	143.75
465.634	84.75
465.854	92.75
466.073	89.75
466.293	93.75
466.512	89.75
466.732	81.75
466.951	74.75
467.171	90.75
467.391	91.75
467.61	95.75
467.829	99.75
468.049	78.75
468.268	89.75
468.488	108.75
468.707	73.75
468.927	74.75
469.146	81.75
469.365	77.75
469.585	79.75
469.804	94.75
470.023	86.75
470.243	91.75
470.462	107.75
470.681	100.75
470.901	77.75
471.12	73.75
471.339	89.75
471.558	95.75
471.777	68.75
471.997	72.75
472.216	77.75
472.435	88.75
472.654	76.75
472.873	97.75
473.092	88.75
473.311	76.75
473.53	94.75
473.749	85.75
473.968	95.75
474.187	92.75
474.406	84.75
474.625	93.75
474.844	80.75
475.063	75.75
475.282	76.75
475.501	75.75
475.72	101.75
475.939	81.75
476.158	78.75
476.377	79.75
476.596	93.75
476.814	97.75
477.033	91.75
477.252	85.75
477.471	96.75
477.69	97.75
477.908	87.75
478.127	90.75
478.346	98.75
478.564	91.75
478.783	101.75
479.002	101.75
479.22	75.75
479.439	93.75
479.658	94.75
479.876	98.75
480.095	86.75
480.313	85.75
480.532	97.75
480.751	82.75
480.969	89.75
481.188	102.75
481.406	95.75
481.624	83.75
481.843	96.75
482.061	85.75
482.28	70.75
482.498	96.75
482.717	83.75
482.935	110.75
483.153	79.75
483.372	83.75
483.59	75.75
483.808	88.75
484.027	91.75
484.245	90.75
484.463	97.75
484.681	95.75
484.9	93.75
485.118	84.75
485.336	81.75
485.554	91.75
485.772	87.75
485.99	113.75
486.209	92.75
486.427	124.75
486.645	108.75
486.863	99.75
487.081	90.75
487.299	79.75
487.517	87.75
487.735	91.75
487.953	91.75
488.171	89.75
488.389	106.75
488.607	107.75
488.825	92.75
489.043	91.75
489.261	74.75
489.479	87.75
489.696	108.75
489.914	92.75
490.132	96.75
490.35	100.75
490.568	86.75
490.786	80.75
491.003	94.75
491.221	77.75
491.439	84.75
491.657	77.75
491.874	111.75
492.092	85.75
492.31	87.75
492.527	106.75
492.745	97.75
492.963	86.75
493.18	96.75
493.398	90.75
493.615	102.75
493.833	92.75
494.05	80.75
494.268	101.75
494.485	81.75
494.703	90.75
494.92	78.75
495.138	75.75
495.355	88.75
495.573	93.75
495.79	91.75
496.008	104.75
496.225	87.75
496.442	91.75
496.66	95.75
496.877	97.75
497.094	85.75
497.312	80.75
497.529	89.75
497.746	84.75
497.963	90.75
498.181	96.75
498.398	99.75
498.615	98.75
498.832	111.75
499.049	103.75
499.267	95.75
499.484	92.75
499.701	98.75
499.918	81.75
500.135	83.75
500.352	75.75
500.569	85.75
500.786	92.75
501.003	103.75
501.22	90.75
501.437	89.75
501.654	101.75
501.871	114.75
502.088	89.75
502.305	78.75
502.522	89.75
502.739	91.75
502.956	85.75
503.172	102.75
503.389	101.75
503.606	114.75
503.823	87.75
504.04	83.75
504.256	82.75
504.473	91.75
504.69	93.75
504.907	85.75
505.123	93.75
505.34	85.75
505.557	93.75
505.773	89.75
505.99	82.75
506.207	88.75
506.423	102.75
506.64	89.75
506.856	77.75
507.073	102.75
507.289	90.75
507.506	88.75
507.722	116.75
507.939	106.75
508.155	100.75
508.372	85.75
508.588	84.75
508.805	85.75
509.021	92.75
509.238	102.75
509.454	94.75
509.67	107.75
509.887	95.75
510.103	109.75
510.319	206.75
510.536	737.75
510.752	2172.75
510.968	611.75
511.184	141.75
511.401	118.75
511.617	105.75
511.833	92.75
512.049	97.75
512.265	93.75
512.481	89.75
512.698	83.75
512.914	91.75
513.13	92.75
513.346	100.75
513.562	97.75
513.778	90.75
513.994	97.75
514.21	94.75
514.426	120.75
514.642	121.75
514.858	129.75
515.074	154.75
515.29	429.75
515.506	1311.75
515.721	484.75
515.937	149.75
516.153	95.75
