Data from Uncirc_1992_H10_HRD10591_00011.txt Node
Date: Wed Jan 03 11:46:18 EST 2024
User: Yrep
Spectrometer: HR+D1059
Trigger mode: 1
Integration Time (sec): 1.000000E-1
Scans to average: 1
Electric dark correction enabled: true
Nonlinearity correction enabled: false
Boxcar width: 0
XAxis mode: Wavelengths
Number of Pixels in Spectrum: 2048
>>>>>Begin Spectral Data<<<<<
223.165	-21.06
223.4	-21.06
223.635	-21.06
223.869	-32.06
224.104	-7.06
224.338	-21.06
224.573	-8.06
224.808	-23.06
225.042	-4.06
225.277	-6.06
225.511	-4.06
225.746	-4.06
225.98	10.94
226.215	12.94
226.449	28.94
226.683	26.94
226.918	14.94
227.152	35.94
227.387	25.94
227.621	28.94
227.856	50.94
228.09	41.94
228.324	51.94
228.559	60.94
228.793	44.94
229.027	54.94
229.262	75.94
229.496	71.94
229.73	72.94
229.964	77.94
230.199	60.94
230.433	82.94
230.667	79.94
230.901	76.94
231.136	72.94
231.37	80.94
231.604	84.94
231.838	87.94
232.072	67.94
232.306	73.94
232.541	85.94
232.775	86.94
233.009	68.94
233.243	75.94
233.477	82.94
233.711	78.94
233.945	94.94
234.179	76.94
234.413	93.94
234.647	62.94
234.881	79.94
235.115	86.94
235.349	68.94
235.583	74.94
235.817	94.94
236.051	87.94
236.285	74.94
236.519	64.94
236.753	61.94
236.987	71.94
237.221	83.94
237.455	85.94
237.689	84.94
237.922	87.94
238.156	83.94
238.39	80.94
238.624	80.94
238.858	77.94
239.091	73.94
239.325	75.94
239.559	70.94
239.793	73.94
240.027	81.94
240.26	80.94
240.494	72.94
240.728	75.94
240.961	81.94
241.195	69.94
241.429	71.94
241.662	71.94
241.896	74.94
242.13	80.94
242.363	86.94
242.597	82.94
242.83	64.94
243.064	80.94
243.298	78.94
243.531	67.94
243.765	79.94
243.998	68.94
244.232	81.94
244.465	95.94
244.699	81.94
244.932	69.94
245.166	78.94
245.399	68.94
245.633	73.94
245.866	81.94
246.099	85.94
246.333	79.94
246.566	87.94
246.8	83.94
247.033	85.94
247.266	68.94
247.5	95.94
247.733	73.94
247.966	95.94
248.2	71.94
248.433	87.94
248.666	72.94
248.899	78.94
249.133	68.94
249.366	87.94
249.599	93.94
249.832	71.94
250.066	86.94
250.299	87.94
250.532	88.94
250.765	87.94
250.998	85.94
251.231	69.94
251.465	85.94
251.698	65.94
251.931	73.94
252.164	85.94
252.397	82.94
252.63	81.94
252.863	67.94
253.096	75.94
253.329	81.94
253.562	73.94
253.795	85.94
254.028	83.94
254.261	68.94
254.494	71.94
254.727	75.94
254.96	92.94
255.193	79.94
255.426	73.94
255.659	83.94
255.892	80.94
256.124	56.94
256.357	90.94
256.59	67.94
256.823	77.94
257.056	56.94
257.289	74.94
257.521	78.94
257.754	84.94
257.987	78.94
258.22	84.94
258.452	75.94
258.685	75.94
258.918	66.94
259.151	79.94
259.383	75.94
259.616	78.94
259.849	75.94
260.081	83.94
260.314	85.94
260.547	85.94
260.779	72.94
261.012	70.94
261.244	65.94
261.477	85.94
261.71	78.94
261.942	105.94
262.175	95.94
262.407	99.94
262.64	76.94
262.872	67.94
263.105	72.94
263.337	84.94
263.57	76.94
263.802	89.94
264.035	73.94
264.267	81.94
264.499	81.94
264.732	84.94
264.964	87.94
265.197	76.94
265.429	84.94
265.661	73.94
265.894	88.94
266.126	83.94
266.358	83.94
266.591	72.94
266.823	79.94
267.055	84.94
267.287	83.94
267.52	73.94
267.752	74.94
267.984	69.94
268.216	77.94
268.448	78.94
268.681	84.94
268.913	90.94
269.145	97.94
269.377	85.94
269.609	75.94
269.841	93.94
270.073	75.94
270.306	88.94
270.538	86.94
270.77	77.94
271.002	90.94
271.234	79.94
271.466	85.94
271.698	83.94
271.93	95.94
272.162	89.94
272.394	84.94
272.626	75.94
272.858	80.94
273.09	72.94
273.322	83.94
273.553	87.94
273.785	81.94
274.017	89.94
274.249	77.94
274.481	81.94
274.713	85.94
274.945	92.94
275.176	97.94
275.408	87.94
275.64	75.94
275.872	71.94
276.104	87.94
276.335	96.94
276.567	97.94
276.799	100.94
277.031	106.94
277.262	98.94
277.494	96.94
277.726	74.94
277.957	85.94
278.189	88.94
278.421	78.94
278.652	83.94
278.884	76.94
279.115	97.94
279.347	87.94
279.579	82.94
279.81	87.94
280.042	87.94
280.273	84.94
280.505	101.94
280.736	84.94
280.968	91.94
281.199	84.94
281.431	85.94
281.662	90.94
281.894	76.94
282.125	85.94
282.356	114.94
282.588	100.94
282.819	111.94
283.051	92.94
283.282	73.94
283.513	80.94
283.745	71.94
283.976	77.94
284.207	89.94
284.439	98.94
284.67	87.94
284.901	90.94
285.132	80.94
285.364	75.94
285.595	79.94
285.826	73.94
286.057	91.94
286.288	74.94
286.52	74.94
286.751	90.94
286.982	79.94
287.213	73.94
287.444	83.94
287.675	83.94
287.906	95.94
288.138	98.94
288.369	98.94
288.6	86.94
288.831	85.94
289.062	85.94
289.293	77.94
289.524	83.94
289.755	74.94
289.986	104.94
290.217	96.94
290.448	82.94
290.679	95.94
290.91	92.94
291.141	90.94
291.371	85.94
291.602	89.94
291.833	97.94
292.064	89.94
292.295	83.94
292.526	81.94
292.757	82.94
292.987	90.94
293.218	92.94
293.449	85.94
293.68	84.94
293.91	83.94
294.141	90.94
294.372	90.94
294.603	82.94
294.833	108.94
295.064	105.94
295.295	74.94
295.525	93.94
295.756	94.94
295.987	102.94
296.217	118.94
296.448	123.94
296.679	103.94
296.909	97.94
297.14	75.94
297.37	103.94
297.601	84.94
297.831	85.94
298.062	98.94
298.292	85.94
298.523	93.94
298.753	84.94
298.984	97.94
299.214	85.94
299.445	89.94
299.675	95.94
299.905	85.94
300.136	74.94
300.366	88.94
300.597	87.94
300.827	87.94
301.057	104.94
301.288	92.94
301.518	84.94
301.748	103.94
301.979	92.94
302.209	89.94
302.439	94.94
302.669	96.94
302.9	88.94
303.13	88.94
303.36	89.94
303.59	95.94
303.82	90.94
304.051	88.94
304.281	87.94
304.511	94.94
304.741	90.94
304.971	83.94
305.201	86.94
305.431	85.94
305.661	81.94
305.891	89.94
306.121	99.94
306.352	90.94
306.582	100.94
306.812	79.94
307.042	75.94
307.272	101.94
307.502	98.94
307.731	100.94
307.961	88.94
308.191	94.94
308.421	91.94
308.651	68.94
308.881	89.94
309.111	91.94
309.341	86.94
309.571	72.94
309.8	79.94
310.03	93.94
310.26	79.94
310.49	95.94
310.72	104.94
310.949	106.94
311.179	104.94
311.409	83.94
311.639	91.94
311.868	79.94
312.098	82.94
312.328	102.94
312.557	101.94
312.787	110.94
313.017	93.94
313.246	97.94
313.476	81.94
313.706	92.94
313.935	89.94
314.165	100.94
314.394	94.94
314.624	95.94
314.853	95.94
315.083	93.94
315.312	79.94
315.542	92.94
315.771	98.94
316.001	81.94
316.23	86.94
316.46	96.94
316.689	93.94
316.919	83.94
317.148	95.94
317.377	97.94
317.607	88.94
317.836	97.94
318.065	86.94
318.295	91.94
318.524	80.94
318.753	92.94
318.983	84.94
319.212	94.94
319.441	90.94
319.67	88.94
319.9	114.94
320.129	106.94
320.358	93.94
320.587	87.94
320.816	83.94
321.046	93.94
321.275	86.94
321.504	92.94
321.733	89.94
321.962	103.94
322.191	90.94
322.42	100.94
322.649	94.94
322.878	110.94
323.108	113.94
323.337	124.94
323.566	125.94
323.795	140.94
324.024	171.94
324.253	324.94
324.482	692.94
324.71	1298.94
324.939	1703.94
325.168	610.94
325.397	219.94
325.626	144.94
325.855	110.94
326.084	123.94
326.313	131.94
326.542	122.94
326.77	203.94
326.999	387.94
327.228	770.94
327.457	1337.94
327.686	1073.94
327.914	292.94
328.143	171.94
328.372	147.94
328.6	122.94
328.829	120.94
329.058	132.94
329.287	115.94
329.515	107.94
329.744	92.94
329.972	106.94
330.201	101.94
330.43	100.94
330.658	96.94
330.887	114.94
331.115	110.94
331.344	86.94
331.572	85.94
331.801	100.94
332.03	98.94
332.258	95.94
332.486	85.94
332.715	109.94
332.943	83.94
333.172	100.94
333.4	91.94
333.629	91.94
333.857	89.94
334.085	107.94
334.314	98.94
334.542	105.94
334.771	99.94
334.999	93.94
335.227	87.94
335.455	100.94
335.684	84.94
335.912	85.94
336.14	91.94
336.369	94.94
336.597	90.94
336.825	105.94
337.053	98.94
337.281	82.94
337.51	91.94
337.738	80.94
337.966	88.94
338.194	105.94
338.422	94.94
338.65	97.94
338.878	108.94
339.106	105.94
339.334	85.94
339.562	88.94
339.79	99.94
340.018	85.94
340.246	88.94
340.474	92.94
340.702	82.94
340.93	85.94
341.158	82.94
341.386	105.94
341.614	93.94
341.842	63.94
342.07	93.94
342.298	91.94
342.526	95.94
342.754	100.94
342.981	84.94
343.209	80.94
343.437	94.94
343.665	73.94
343.893	84.94
344.12	84.94
344.348	89.94
344.576	96.94
344.804	93.94
345.031	108.94
345.259	85.94
345.487	105.94
345.714	94.94
345.942	83.94
346.17	87.94
346.397	81.94
346.625	93.94
346.853	97.94
347.08	78.94
347.308	92.94
347.535	94.94
347.763	97.94
347.99	107.94
348.218	103.94
348.445	98.94
348.673	89.94
348.9	103.94
349.128	81.94
349.355	85.94
349.583	92.94
349.81	94.94
350.037	83.94
350.265	104.94
350.492	88.94
350.72	84.94
350.947	98.94
351.174	104.94
351.402	109.94
351.629	108.94
351.856	96.94
352.083	81.94
352.311	100.94
352.538	112.94
352.765	102.94
352.992	116.94
353.22	97.94
353.447	108.94
353.674	109.94
353.901	103.94
354.128	75.94
354.355	89.94
354.583	94.94
354.81	89.94
355.037	100.94
355.264	85.94
355.491	93.94
355.718	90.94
355.945	87.94
356.172	89.94
356.399	99.94
356.626	101.94
356.853	69.94
357.08	108.94
357.307	84.94
357.534	92.94
357.761	88.94
357.988	80.94
358.215	87.94
358.441	92.94
358.668	80.94
358.895	85.94
359.122	93.94
359.349	83.94
359.576	105.94
359.802	78.94
360.029	99.94
360.256	103.94
360.483	102.94
360.709	84.94
360.936	96.94
361.163	95.94
361.39	100.94
361.616	96.94
361.843	87.94
362.07	87.94
362.296	87.94
362.523	83.94
362.749	87.94
362.976	84.94
363.203	81.94
363.429	100.94
363.656	73.94
363.882	90.94
364.109	84.94
364.335	89.94
364.562	90.94
364.788	107.94
365.015	88.94
365.241	102.94
365.468	107.94
365.694	84.94
365.92	95.94
366.147	85.94
366.373	81.94
366.599	68.94
366.826	84.94
367.052	98.94
367.278	91.94
367.505	89.94
367.731	64.94
367.957	83.94
368.184	89.94
368.41	104.94
368.636	98.94
368.862	116.94
369.089	109.94
369.315	89.94
369.541	77.94
369.767	90.94
369.993	91.94
370.219	80.94
370.445	87.94
370.672	91.94
370.898	95.94
371.124	97.94
371.35	98.94
371.576	76.94
371.802	107.94
372.028	78.94
372.254	85.94
372.48	84.94
372.706	96.94
372.932	84.94
373.158	77.94
373.384	87.94
373.61	80.94
373.835	91.94
374.061	89.94
374.287	85.94
374.513	88.94
374.739	93.94
374.965	82.94
375.191	74.94
375.416	100.94
375.642	91.94
375.868	93.94
376.094	93.94
376.319	98.94
376.545	80.94
376.771	84.94
376.997	88.94
377.222	90.94
377.448	83.94
377.674	85.94
377.899	90.94
378.125	88.94
378.35	94.94
378.576	89.94
378.802	76.94
379.027	92.94
379.253	108.94
379.478	98.94
379.704	87.94
379.929	89.94
380.155	99.94
380.38	89.94
380.606	107.94
380.831	96.94
381.057	102.94
381.282	86.94
381.507	91.94
381.733	96.94
381.958	99.94
382.184	84.94
382.409	94.94
382.634	95.94
382.86	91.94
383.085	98.94
383.31	106.94
383.535	86.94
383.761	97.94
383.986	89.94
384.211	97.94
384.436	88.94
384.662	94.94
384.887	96.94
385.112	98.94
385.337	102.94
385.562	98.94
385.787	85.94
386.013	106.94
386.238	92.94
386.463	103.94
386.688	117.94
386.913	116.94
387.138	94.94
387.363	103.94
387.588	107.94
387.813	93.94
388.038	107.94
388.263	112.94
388.488	117.94
388.713	89.94
388.938	80.94
389.163	98.94
389.387	80.94
389.612	85.94
389.837	88.94
390.062	78.94
390.287	92.94
390.512	87.94
390.736	98.94
390.961	87.94
391.186	98.94
391.411	104.94
391.636	81.94
391.86	96.94
392.085	73.94
392.31	87.94
392.534	84.94
392.759	89.94
392.984	81.94
393.208	101.94
393.433	93.94
393.658	99.94
393.882	76.94
394.107	91.94
394.331	95.94
394.556	79.94
394.78	96.94
395.005	103.94
395.229	97.94
395.454	82.94
395.678	88.94
395.903	93.94
396.127	89.94
396.352	91.94
396.576	97.94
396.801	82.94
397.025	89.94
397.249	89.94
397.474	92.94
397.698	82.94
397.922	88.94
398.147	84.94
398.371	93.94
398.595	87.94
398.82	88.94
399.044	91.94
399.268	83.94
399.492	84.94
399.717	73.94
399.941	68.94
400.165	81.94
400.389	83.94
400.613	98.94
400.837	85.94
401.062	81.94
401.286	98.94
401.51	89.94
401.734	94.94
401.958	99.94
402.182	98.94
402.406	127.94
402.63	118.94
402.854	102.94
403.078	83.94
403.302	79.94
403.526	80.94
403.75	81.94
403.974	81.94
404.198	83.94
404.422	68.94
404.645	96.94
404.869	72.94
405.093	90.94
405.317	99.94
405.541	86.94
405.765	101.94
405.988	104.94
406.212	147.94
406.436	181.94
406.66	128.94
406.883	97.94
407.107	94.94
407.331	95.94
407.555	114.94
407.778	96.94
408.002	90.94
408.226	78.94
408.449	94.94
408.673	92.94
408.896	97.94
409.12	93.94
409.344	99.94
409.567	85.94
409.791	74.94
410.014	95.94
410.238	89.94
410.461	94.94
410.685	97.94
410.908	98.94
411.132	114.94
411.355	87.94
411.578	80.94
411.802	80.94
412.025	102.94
412.249	90.94
412.472	96.94
412.695	91.94
412.919	79.94
413.142	76.94
413.365	80.94
413.589	83.94
413.812	89.94
414.035	98.94
414.258	95.94
414.482	78.94
414.705	93.94
414.928	98.94
415.151	106.94
415.374	95.94
415.597	88.94
415.821	93.94
416.044	91.94
416.267	88.94
416.49	101.94
416.713	94.94
416.936	85.94
417.159	87.94
417.382	79.94
417.605	73.94
417.828	95.94
418.051	106.94
418.274	84.94
418.497	84.94
418.72	87.94
418.943	88.94
419.166	90.94
419.389	97.94
419.611	89.94
419.834	96.94
420.057	76.94
420.28	89.94
420.503	98.94
420.726	81.94
420.948	90.94
421.171	76.94
421.394	97.94
421.617	95.94
421.839	88.94
422.062	98.94
422.285	89.94
422.507	100.94
422.73	100.94
422.953	96.94
423.175	83.94
423.398	81.94
423.621	100.94
423.843	83.94
424.066	92.94
424.288	80.94
424.511	94.94
424.733	93.94
424.956	107.94
425.178	95.94
425.401	88.94
425.623	98.94
425.846	93.94
426.068	89.94
426.291	97.94
426.513	82.94
426.735	85.94
426.958	105.94
427.18	94.94
427.402	113.94
427.625	145.94
427.847	108.94
428.069	95.94
428.292	77.94
428.514	83.94
428.736	81.94
428.958	83.94
429.181	79.94
429.403	84.94
429.625	97.94
429.847	90.94
430.069	90.94
430.292	82.94
430.514	82.94
430.736	78.94
430.958	84.94
431.18	76.94
431.402	79.94
431.624	86.94
431.846	87.94
432.068	66.94
432.29	79.94
432.512	106.94
432.734	94.94
432.956	84.94
433.178	106.94
433.4	96.94
433.622	93.94
433.844	94.94
434.066	88.94
434.287	89.94
434.509	82.94
434.731	74.94
434.953	83.94
435.175	81.94
435.397	90.94
435.618	84.94
435.84	93.94
436.062	98.94
436.284	100.94
436.505	99.94
436.727	88.94
436.949	87.94
437.17	101.94
437.392	85.94
437.614	81.94
437.835	88.94
438.057	117.94
438.278	100.94
438.5	91.94
438.721	105.94
438.943	95.94
439.165	85.94
439.386	80.94
439.608	92.94
439.829	103.94
440.05	113.94
440.272	124.94
440.493	80.94
440.715	72.94
440.936	85.94
441.158	92.94
441.379	82.94
441.6	95.94
441.822	95.94
442.043	105.94
442.264	103.94
442.486	95.94
442.707	89.94
442.928	97.94
443.149	122.94
443.371	115.94
443.592	107.94
443.813	124.94
444.034	95.94
444.255	80.94
444.476	90.94
444.698	73.94
444.919	80.94
445.14	128.94
445.361	124.94
445.582	108.94
445.803	129.94
446.024	129.94
446.245	121.94
446.466	106.94
446.687	88.94
446.908	99.94
447.129	94.94
447.35	82.94
447.571	79.94
447.792	92.94
448.013	83.94
448.234	98.94
448.455	78.94
448.675	107.94
448.896	108.94
449.117	85.94
449.338	109.94
449.559	110.94
449.779	101.94
450	96.94
450.221	79.94
450.442	91.94
450.662	101.94
450.883	111.94
451.104	104.94
451.324	87.94
451.545	79.94
451.766	75.94
451.986	88.94
452.207	80.94
452.428	97.94
452.648	95.94
452.869	106.94
453.089	100.94
453.31	110.94
453.53	87.94
453.751	83.94
453.971	100.94
454.192	96.94
454.412	94.94
454.633	79.94
454.853	81.94
455.073	77.94
455.294	92.94
455.514	113.94
455.734	87.94
455.955	95.94
456.175	91.94
456.395	83.94
456.616	88.94
456.836	81.94
457.056	91.94
457.276	86.94
457.497	75.94
457.717	83.94
457.937	87.94
458.157	92.94
458.377	87.94
458.598	108.94
458.818	120.94
459.038	147.94
459.258	98.94
459.478	72.94
459.698	88.94
459.918	98.94
460.138	90.94
460.358	75.94
460.578	72.94
460.798	73.94
461.018	87.94
461.238	81.94
461.458	87.94
461.678	89.94
461.898	84.94
462.118	77.94
462.338	93.94
462.558	95.94
462.777	93.94
462.997	79.94
463.217	87.94
463.437	99.94
463.657	88.94
463.876	88.94
464.096	96.94
464.316	98.94
464.536	105.94
464.755	109.94
464.975	108.94
465.195	144.94
465.414	130.94
465.634	80.94
465.854	90.94
466.073	105.94
466.293	88.94
466.512	104.94
466.732	77.94
466.951	84.94
467.171	97.94
467.391	93.94
467.61	102.94
467.829	92.94
468.049	83.94
468.268	81.94
468.488	74.94
468.707	79.94
468.927	81.94
469.146	79.94
469.365	77.94
469.585	92.94
469.804	84.94
470.023	89.94
470.243	105.94
470.462	95.94
470.681	80.94
470.901	90.94
471.12	90.94
471.339	87.94
471.558	71.94
471.777	91.94
471.997	98.94
472.216	91.94
472.435	100.94
472.654	89.94
472.873	92.94
473.092	96.94
473.311	83.94
473.53	94.94
473.749	89.94
473.968	83.94
474.187	92.94
474.406	92.94
474.625	91.94
474.844	106.94
475.063	80.94
475.282	83.94
475.501	76.94
475.72	84.94
475.939	76.94
476.158	80.94
476.377	92.94
476.596	96.94
476.814	100.94
477.033	77.94
477.252	87.94
477.471	75.94
477.69	79.94
477.908	84.94
478.127	93.94
478.346	85.94
478.564	79.94
478.783	84.94
479.002	84.94
479.22	97.94
479.439	109.94
479.658	89.94
479.876	87.94
480.095	77.94
480.313	78.94
480.532	95.94
480.751	81.94
480.969	95.94
481.188	101.94
481.406	100.94
481.624	87.94
481.843	88.94
482.061	93.94
482.28	101.94
482.498	74.94
482.717	93.94
482.935	86.94
483.153	79.94
483.372	92.94
483.59	98.94
483.808	106.94
484.027	91.94
484.245	91.94
484.463	83.94
484.681	82.94
484.9	95.94
485.118	106.94
485.336	97.94
485.554	90.94
485.772	89.94
485.99	100.94
486.209	107.94
486.427	98.94
486.645	123.94
486.863	108.94
487.081	97.94
487.299	88.94
487.517	88.94
487.735	99.94
487.953	100.94
488.171	85.94
488.389	93.94
488.607	85.94
488.825	81.94
489.043	96.94
489.261	84.94
489.479	92.94
489.696	89.94
489.914	95.94
490.132	76.94
490.35	84.94
490.568	76.94
490.786	74.94
491.003	83.94
491.221	93.94
491.439	81.94
491.657	95.94
491.874	104.94
492.092	83.94
492.31	89.94
492.527	86.94
492.745	83.94
492.963	74.94
493.18	86.94
493.398	78.94
493.615	111.94
493.833	104.94
494.05	89.94
494.268	95.94
494.485	90.94
494.703	92.94
494.92	77.94
495.138	89.94
495.355	87.94
495.573	83.94
495.79	87.94
496.008	81.94
496.225	92.94
496.442	87.94
496.66	95.94
496.877	78.94
497.094	81.94
497.312	83.94
497.529	85.94
497.746	97.94
497.963	91.94
498.181	90.94
498.398	103.94
498.615	96.94
498.832	89.94
499.049	88.94
499.267	84.94
499.484	96.94
499.701	86.94
499.918	76.94
500.135	77.94
500.352	85.94
500.569	85.94
500.786	88.94
501.003	105.94
501.22	90.94
501.437	79.94
501.654	84.94
501.871	84.94
502.088	84.94
502.305	88.94
502.522	90.94
502.739	90.94
502.956	79.94
503.172	93.94
503.389	102.94
503.606	103.94
503.823	99.94
504.04	63.94
504.256	74.94
504.473	84.94
504.69	93.94
504.907	104.94
505.123	79.94
505.34	96.94
505.557	85.94
505.773	98.94
505.99	79.94
506.207	86.94
506.423	108.94
506.64	82.94
506.856	93.94
507.073	89.94
507.289	74.94
507.506	93.94
507.722	112.94
507.939	107.94
508.155	88.94
508.372	84.94
508.588	87.94
508.805	93.94
509.021	111.94
509.238	85.94
509.454	84.94
509.67	92.94
509.887	95.94
510.103	125.94
510.319	205.94
510.536	654.94
510.752	1959.94
510.968	553.94
511.184	132.94
511.401	93.94
511.617	98.94
511.833	93.94
512.049	101.94
512.265	110.94
512.481	97.94
512.698	94.94
512.914	104.94
513.13	83.94
513.346	75.94
513.562	91.94
513.778	93.94
513.994	95.94
514.21	96.94
514.426	100.94
514.642	114.94
514.858	120.94
515.074	142.94
515.29	394.94
515.506	1167.94
515.721	437.94
515.937	133.94
516.153	111.94
516.369	94.94
516.585	104.94
