Data from Uncirc_1992_H10_HRD10591_00092.txt Node
Date: Wed Jan 03 11:46:34 EST 2024
User: Yrep
Spectrometer: HR+D1059
Trigger mode: 1
Integration Time (sec): 1.000000E-1
Scans to average: 1
Electric dark correction enabled: true
Nonlinearity correction enabled: false
Boxcar width: 0
XAxis mode: Wavelengths
Number of Pixels in Spectrum: 2048
>>>>>Begin Spectral Data<<<<<
223.165	-10.69
223.4	-10.69
223.635	-10.69
223.869	-29.69
224.104	-26.69
224.338	-19.69
224.573	-7.69
224.808	-13.69
225.042	-5.69
225.277	-2.69
225.511	-5.69
225.746	-6.69
225.98	8.31
226.215	13.31
226.449	14.31
226.683	20.31
226.918	22.31
227.152	50.31
227.387	27.31
227.621	31.31
227.856	43.31
228.09	67.31
228.324	51.31
228.559	52.31
228.793	56.31
229.027	64.31
229.262	61.31
229.496	70.31
229.73	75.31
229.964	79.31
230.199	88.31
230.433	80.31
230.667	84.31
230.901	67.31
231.136	73.31
231.37	86.31
231.604	92.31
231.838	79.31
232.072	72.31
232.306	68.31
232.541	69.31
232.775	92.31
233.009	89.31
233.243	75.31
233.477	83.31
233.711	92.31
233.945	75.31
234.179	65.31
234.413	69.31
234.647	75.31
234.881	91.31
235.115	92.31
235.349	73.31
235.583	77.31
235.817	79.31
236.051	67.31
236.285	76.31
236.519	74.31
236.753	87.31
236.987	77.31
237.221	76.31
237.455	87.31
237.689	77.31
237.922	79.31
238.156	61.31
238.39	75.31
238.624	79.31
238.858	73.31
239.091	65.31
239.325	72.31
239.559	91.31
239.793	83.31
240.027	71.31
240.26	73.31
240.494	72.31
240.728	79.31
240.961	73.31
241.195	80.31
241.429	67.31
241.662	63.31
241.896	62.31
242.13	82.31
242.363	79.31
242.597	75.31
242.83	64.31
243.064	71.31
243.298	67.31
243.531	72.31
243.765	84.31
243.998	65.31
244.232	64.31
244.465	71.31
244.699	82.31
244.932	80.31
245.166	81.31
245.399	80.31
245.633	68.31
245.866	73.31
246.099	82.31
246.333	68.31
246.566	82.31
246.8	76.31
247.033	75.31
247.266	71.31
247.5	78.31
247.733	72.31
247.966	68.31
248.2	76.31
248.433	86.31
248.666	81.31
248.899	76.31
249.133	80.31
249.366	104.31
249.599	83.31
249.832	76.31
250.066	85.31
250.299	77.31
250.532	66.31
250.765	74.31
250.998	73.31
251.231	74.31
251.465	80.31
251.698	78.31
251.931	72.31
252.164	69.31
252.397	76.31
252.63	81.31
252.863	93.31
253.096	72.31
253.329	62.31
253.562	79.31
253.795	68.31
254.028	81.31
254.261	91.31
254.494	74.31
254.727	83.31
254.96	75.31
255.193	97.31
255.426	85.31
255.659	84.31
255.892	79.31
256.124	76.31
256.357	80.31
256.59	79.31
256.823	68.31
257.056	89.31
257.289	82.31
257.521	87.31
257.754	84.31
257.987	87.31
258.22	79.31
258.452	68.31
258.685	91.31
258.918	78.31
259.151	83.31
259.383	83.31
259.616	87.31
259.849	92.31
260.081	67.31
260.314	77.31
260.547	82.31
260.779	85.31
261.012	82.31
261.244	87.31
261.477	83.31
261.71	91.31
261.942	111.31
262.175	103.31
262.407	75.31
262.64	81.31
262.872	81.31
263.105	73.31
263.337	89.31
263.57	79.31
263.802	88.31
264.035	78.31
264.267	71.31
264.499	58.31
264.732	74.31
264.964	75.31
265.197	89.31
265.429	73.31
265.661	89.31
265.894	66.31
266.126	82.31
266.358	86.31
266.591	79.31
266.823	87.31
267.055	89.31
267.287	69.31
267.52	68.31
267.752	88.31
267.984	80.31
268.216	83.31
268.448	85.31
268.681	79.31
268.913	65.31
269.145	77.31
269.377	91.31
269.609	78.31
269.841	100.31
270.073	82.31
270.306	84.31
270.538	76.31
270.77	77.31
271.002	85.31
271.234	67.31
271.466	77.31
271.698	95.31
271.93	74.31
272.162	73.31
272.394	89.31
272.626	71.31
272.858	91.31
273.09	77.31
273.322	88.31
273.553	79.31
273.785	92.31
274.017	97.31
274.249	90.31
274.481	95.31
274.713	98.31
274.945	85.31
275.176	79.31
275.408	62.31
275.64	78.31
275.872	84.31
276.104	94.31
276.335	90.31
276.567	98.31
276.799	110.31
277.031	93.31
277.262	81.31
277.494	76.31
277.726	75.31
277.957	90.31
278.189	87.31
278.421	91.31
278.652	88.31
278.884	92.31
279.115	86.31
279.347	90.31
279.579	78.31
279.81	90.31
280.042	74.31
280.273	78.31
280.505	84.31
280.736	88.31
280.968	79.31
281.199	87.31
281.431	89.31
281.662	79.31
281.894	91.31
282.125	97.31
282.356	124.31
282.588	136.31
282.819	109.31
283.051	85.31
283.282	75.31
283.513	91.31
283.745	79.31
283.976	75.31
284.207	85.31
284.439	82.31
284.67	84.31
284.901	83.31
285.132	82.31
285.364	79.31
285.595	86.31
285.826	87.31
286.057	91.31
286.288	84.31
286.52	74.31
286.751	74.31
286.982	76.31
287.213	99.31
287.444	82.31
287.675	91.31
287.906	94.31
288.138	87.31
288.369	84.31
288.6	82.31
288.831	88.31
289.062	89.31
289.293	88.31
289.524	83.31
289.755	87.31
289.986	80.31
290.217	70.31
290.448	98.31
290.679	96.31
290.91	91.31
291.141	82.31
291.371	94.31
291.602	90.31
291.833	89.31
292.064	92.31
292.295	84.31
292.526	82.31
292.757	89.31
292.987	91.31
293.218	81.31
293.449	87.31
293.68	93.31
293.91	90.31
294.141	92.31
294.372	80.31
294.603	104.31
294.833	83.31
295.064	76.31
295.295	84.31
295.525	103.31
295.756	101.31
295.987	112.31
296.217	117.31
296.448	128.31
296.679	100.31
296.909	87.31
297.14	83.31
297.37	81.31
297.601	87.31
297.831	75.31
298.062	89.31
298.292	92.31
298.523	83.31
298.753	77.31
298.984	88.31
299.214	93.31
299.445	88.31
299.675	81.31
299.905	87.31
300.136	103.31
300.366	94.31
300.597	86.31
300.827	84.31
301.057	79.31
301.288	92.31
301.518	101.31
301.748	95.31
301.979	94.31
302.209	85.31
302.439	89.31
302.669	95.31
302.9	91.31
303.13	78.31
303.36	95.31
303.59	95.31
303.82	97.31
304.051	89.31
304.281	80.31
304.511	77.31
304.741	87.31
304.971	90.31
305.201	87.31
305.431	91.31
305.661	78.31
305.891	75.31
306.121	98.31
306.352	100.31
306.582	104.31
306.812	97.31
307.042	95.31
307.272	95.31
307.502	92.31
307.731	88.31
307.961	84.31
308.191	93.31
308.421	90.31
308.651	90.31
308.881	94.31
309.111	90.31
309.341	96.31
309.571	99.31
309.8	104.31
310.03	87.31
310.26	94.31
310.49	98.31
310.72	107.31
310.949	113.31
311.179	98.31
311.409	89.31
311.639	85.31
311.868	86.31
312.098	101.31
312.328	74.31
312.557	100.31
312.787	92.31
313.017	92.31
313.246	94.31
313.476	92.31
313.706	91.31
313.935	87.31
314.165	93.31
314.394	95.31
314.624	95.31
314.853	95.31
315.083	82.31
315.312	90.31
315.542	87.31
315.771	96.31
316.001	89.31
316.23	79.31
316.46	84.31
316.689	89.31
316.919	88.31
317.148	100.31
317.377	105.31
317.607	93.31
317.836	91.31
318.065	89.31
318.295	90.31
318.524	85.31
318.753	94.31
318.983	95.31
319.212	78.31
319.441	97.31
319.67	107.31
319.9	87.31
320.129	96.31
320.358	99.31
320.587	89.31
320.816	91.31
321.046	100.31
321.275	95.31
321.504	96.31
321.733	110.31
321.962	88.31
322.191	116.31
322.42	101.31
322.649	98.31
322.878	95.31
323.108	108.31
323.337	115.31
323.566	124.31
323.795	156.31
324.024	205.31
324.253	348.31
324.482	737.31
324.71	1519.31
324.939	1964.31
325.168	726.31
325.397	240.31
325.626	147.31
325.855	135.31
326.084	117.31
326.313	109.31
326.542	140.31
326.77	203.31
326.999	409.31
327.228	859.31
327.457	1514.31
327.686	1215.31
327.914	340.31
328.143	179.31
328.372	125.31
328.6	120.31
328.829	100.31
329.058	117.31
329.287	111.31
329.515	101.31
329.744	92.31
329.972	94.31
330.201	110.31
330.43	106.31
330.658	113.31
330.887	125.31
331.115	107.31
331.344	91.31
331.572	90.31
331.801	99.31
332.03	121.31
332.258	91.31
332.486	96.31
332.715	95.31
332.943	94.31
333.172	89.31
333.4	85.31
333.629	95.31
333.857	107.31
334.085	101.31
334.314	89.31
334.542	99.31
334.771	119.31
334.999	99.31
335.227	95.31
335.455	89.31
335.684	93.31
335.912	96.31
336.14	91.31
336.369	83.31
336.597	93.31
336.825	89.31
337.053	84.31
337.281	85.31
337.51	82.31
337.738	85.31
337.966	86.31
338.194	89.31
338.422	78.31
338.65	93.31
338.878	79.31
339.106	89.31
339.334	86.31
339.562	83.31
339.79	90.31
340.018	92.31
340.246	92.31
340.474	107.31
340.702	97.31
340.93	91.31
341.158	100.31
341.386	89.31
341.614	91.31
341.842	88.31
342.07	89.31
342.298	95.31
342.526	89.31
342.754	87.31
342.981	81.31
343.209	89.31
343.437	96.31
343.665	89.31
343.893	92.31
344.12	83.31
344.348	93.31
344.576	97.31
344.804	99.31
345.031	91.31
345.259	95.31
345.487	86.31
345.714	80.31
345.942	79.31
346.17	93.31
346.397	89.31
346.625	93.31
346.853	93.31
347.08	79.31
347.308	96.31
347.535	84.31
347.763	93.31
347.99	100.31
348.218	92.31
348.445	97.31
348.673	93.31
348.9	88.31
349.128	95.31
349.355	87.31
349.583	91.31
349.81	97.31
350.037	99.31
350.265	108.31
350.492	86.31
350.72	102.31
350.947	94.31
351.174	94.31
351.402	118.31
351.629	80.31
351.856	97.31
352.083	89.31
352.311	108.31
352.538	105.31
352.765	115.31
352.992	115.31
353.22	96.31
353.447	78.31
353.674	92.31
353.901	108.31
354.128	77.31
354.355	94.31
354.583	96.31
354.81	96.31
355.037	98.31
355.264	92.31
355.491	87.31
355.718	94.31
355.945	77.31
356.172	103.31
356.399	104.31
356.626	95.31
356.853	96.31
357.08	98.31
357.307	104.31
357.534	84.31
357.761	81.31
357.988	95.31
358.215	97.31
358.441	91.31
358.668	88.31
358.895	87.31
359.122	80.31
359.349	97.31
359.576	81.31
359.802	87.31
360.029	109.31
360.256	108.31
360.483	87.31
360.709	91.31
360.936	80.31
361.163	96.31
361.39	79.31
361.616	93.31
361.843	102.31
362.07	97.31
362.296	88.31
362.523	84.31
362.749	85.31
362.976	72.31
363.203	81.31
363.429	93.31
363.656	70.31
363.882	87.31
364.109	96.31
364.335	89.31
364.562	86.31
364.788	81.31
365.015	96.31
365.241	89.31
365.468	104.31
365.694	106.31
365.92	101.31
366.147	99.31
366.373	84.31
366.599	99.31
366.826	82.31
367.052	84.31
367.278	95.31
367.505	93.31
367.731	99.31
367.957	77.31
368.184	104.31
368.41	99.31
368.636	107.31
368.862	119.31
369.089	92.31
369.315	98.31
369.541	95.31
369.767	96.31
369.993	96.31
370.219	82.31
370.445	79.31
370.672	93.31
370.898	73.31
371.124	77.31
371.35	95.31
371.576	80.31
371.802	80.31
372.028	84.31
372.254	105.31
372.48	77.31
372.706	88.31
372.932	84.31
373.158	88.31
373.384	87.31
373.61	100.31
373.835	93.31
374.061	84.31
374.287	89.31
374.513	95.31
374.739	80.31
374.965	86.31
375.191	92.31
375.416	77.31
375.642	70.31
375.868	104.31
376.094	93.31
376.319	73.31
376.545	91.31
376.771	88.31
376.997	81.31
377.222	84.31
377.448	90.31
377.674	84.31
377.899	82.31
378.125	92.31
378.35	94.31
378.576	87.31
378.802	84.31
379.027	90.31
379.253	95.31
379.478	93.31
379.704	83.31
379.929	102.31
380.155	87.31
380.38	84.31
380.606	95.31
380.831	104.31
381.057	97.31
381.282	96.31
381.507	94.31
381.733	104.31
381.958	101.31
382.184	89.31
382.409	100.31
382.634	102.31
382.86	95.31
383.085	107.31
383.31	96.31
383.535	96.31
383.761	87.31
383.986	100.31
384.211	82.31
384.436	91.31
384.662	97.31
384.887	105.31
385.112	96.31
385.337	89.31
385.562	98.31
385.787	97.31
386.013	97.31
386.238	100.31
386.463	95.31
386.688	93.31
386.913	83.31
387.138	112.31
387.363	94.31
387.588	100.31
387.813	91.31
388.038	101.31
388.263	105.31
388.488	106.31
388.713	84.31
388.938	97.31
389.163	90.31
389.387	87.31
389.612	87.31
389.837	89.31
390.062	98.31
390.287	87.31
390.512	97.31
390.736	88.31
390.961	91.31
391.186	78.31
391.411	94.31
391.636	97.31
391.86	83.31
392.085	88.31
392.31	87.31
392.534	71.31
392.759	90.31
392.984	80.31
393.208	82.31
393.433	79.31
393.658	87.31
393.882	58.31
394.107	84.31
394.331	77.31
394.556	91.31
394.78	94.31
395.005	83.31
395.229	73.31
395.454	87.31
395.678	64.31
395.903	79.31
396.127	87.31
396.352	82.31
396.576	79.31
396.801	89.31
397.025	95.31
397.249	79.31
397.474	103.31
397.698	98.31
397.922	75.31
398.147	89.31
398.371	87.31
398.595	87.31
398.82	85.31
399.044	72.31
399.268	91.31
399.492	87.31
399.717	83.31
399.941	100.31
400.165	105.31
400.389	86.31
400.613	68.31
400.837	83.31
401.062	104.31
401.286	78.31
401.51	97.31
401.734	87.31
401.958	101.31
402.182	124.31
402.406	159.31
402.63	112.31
402.854	86.31
403.078	96.31
403.302	70.31
403.526	92.31
403.75	101.31
403.974	94.31
404.198	90.31
404.422	95.31
404.645	83.31
404.869	96.31
405.093	86.31
405.317	92.31
405.541	105.31
405.765	99.31
405.988	105.31
406.212	174.31
406.436	230.31
406.66	136.31
406.883	100.31
407.107	101.31
407.331	98.31
407.555	85.31
407.778	92.31
408.002	95.31
408.226	81.31
408.449	83.31
408.673	93.31
408.896	87.31
409.12	94.31
409.344	94.31
409.567	97.31
409.791	93.31
410.014	83.31
410.238	89.31
410.461	84.31
410.685	80.31
410.908	108.31
411.132	93.31
411.355	97.31
411.578	82.31
411.802	92.31
412.025	93.31
412.249	84.31
412.472	99.31
412.695	91.31
412.919	72.31
413.142	91.31
413.365	80.31
413.589	80.31
413.812	85.31
414.035	84.31
414.258	78.31
414.482	99.31
414.705	89.31
414.928	91.31
415.151	64.31
415.374	90.31
415.597	97.31
415.821	94.31
416.044	90.31
416.267	84.31
416.49	93.31
416.713	90.31
416.936	76.31
417.159	87.31
417.382	83.31
417.605	86.31
417.828	93.31
418.051	92.31
418.274	79.31
418.497	79.31
418.72	74.31
418.943	95.31
419.166	80.31
419.389	94.31
419.611	82.31
419.834	92.31
420.057	94.31
420.28	78.31
420.503	84.31
420.726	80.31
420.948	74.31
421.171	103.31
421.394	83.31
421.617	92.31
421.839	78.31
422.062	103.31
422.285	86.31
422.507	75.31
422.73	96.31
422.953	86.31
423.175	84.31
423.398	81.31
423.621	80.31
423.843	85.31
424.066	82.31
424.288	85.31
424.511	87.31
424.733	101.31
424.956	103.31
425.178	81.31
425.401	97.31
425.623	107.31
425.846	101.31
426.068	81.31
426.291	97.31
426.513	100.31
426.735	99.31
426.958	88.31
427.18	97.31
427.402	132.31
427.625	151.31
427.847	101.31
428.069	95.31
428.292	70.31
428.514	82.31
428.736	82.31
428.958	74.31
429.181	94.31
429.403	90.31
429.625	81.31
429.847	78.31
430.069	100.31
430.292	92.31
430.514	78.31
430.736	89.31
430.958	86.31
431.18	88.31
431.402	81.31
431.624	79.31
431.846	73.31
432.068	75.31
432.29	77.31
432.512	83.31
432.734	90.31
432.956	83.31
433.178	90.31
433.4	84.31
433.622	87.31
433.844	79.31
434.066	92.31
434.287	95.31
434.509	95.31
434.731	82.31
434.953	89.31
435.175	73.31
435.397	105.31
435.618	111.31
435.84	89.31
436.062	117.31
436.284	120.31
436.505	98.31
436.727	88.31
436.949	90.31
437.17	81.31
437.392	95.31
437.614	91.31
437.835	98.31
438.057	101.31
438.278	109.31
438.5	107.31
438.721	122.31
438.943	101.31
439.165	91.31
439.386	87.31
439.608	96.31
439.829	91.31
440.05	110.31
440.272	130.31
440.493	89.31
440.715	79.31
440.936	84.31
441.158	90.31
441.379	79.31
441.6	89.31
441.822	88.31
442.043	84.31
442.264	96.31
442.486	95.31
442.707	93.31
442.928	95.31
443.149	112.31
443.371	120.31
443.592	91.31
443.813	103.31
444.034	101.31
444.255	87.31
444.476	100.31
444.698	81.31
444.919	79.31
445.14	129.31
445.361	107.31
445.582	105.31
445.803	125.31
446.024	111.31
446.245	128.31
446.466	91.31
446.687	81.31
446.908	85.31
447.129	87.31
447.35	71.31
447.571	90.31
447.792	92.31
448.013	98.31
448.234	94.31
448.455	96.31
448.675	107.31
448.896	95.31
449.117	98.31
449.338	106.31
449.559	109.31
449.779	115.31
450	81.31
450.221	84.31
450.442	78.31
450.662	96.31
450.883	105.31
451.104	99.31
451.324	83.31
451.545	93.31
451.766	78.31
451.986	86.31
452.207	93.31
452.428	103.31
452.648	85.31
452.869	113.31
453.089	107.31
453.31	121.31
453.53	87.31
453.751	80.31
453.971	93.31
454.192	93.31
454.412	96.31
454.633	81.31
454.853	80.31
455.073	84.31
455.294	82.31
455.514	112.31
455.734	84.31
455.955	83.31
456.175	77.31
456.395	70.31
456.616	79.31
456.836	95.31
457.056	82.31
457.276	84.31
457.497	86.31
457.717	94.31
457.937	92.31
458.157	84.31
458.377	95.31
458.598	97.31
458.818	141.31
459.038	159.31
459.258	104.31
459.478	87.31
459.698	85.31
459.918	91.31
460.138	85.31
460.358	97.31
460.578	88.31
460.798	83.31
461.018	88.31
461.238	77.31
461.458	75.31
461.678	91.31
461.898	85.31
462.118	83.31
462.338	78.31
462.558	90.31
462.777	75.31
462.997	80.31
463.217	78.31
463.437	75.31
463.657	73.31
463.876	88.31
464.096	80.31
464.316	98.31
464.536	95.31
464.755	96.31
464.975	103.31
465.195	138.31
465.414	128.31
465.634	93.31
465.854	83.31
466.073	83.31
466.293	82.31
466.512	75.31
466.732	72.31
466.951	90.31
467.171	90.31
467.391	86.31
467.61	115.31
467.829	96.31
468.049	93.31
468.268	81.31
468.488	77.31
468.707	93.31
468.927	82.31
469.146	92.31
469.365	78.31
469.585	81.31
469.804	96.31
470.023	108.31
470.243	93.31
470.462	101.31
470.681	98.31
470.901	91.31
471.12	89.31
471.339	79.31
471.558	80.31
471.777	81.31
471.997	87.31
472.216	88.31
472.435	90.31
472.654	75.31
472.873	95.31
473.092	93.31
473.311	83.31
473.53	89.31
473.749	80.31
473.968	90.31
474.187	96.31
474.406	80.31
474.625	82.31
474.844	83.31
475.063	84.31
475.282	74.31
475.501	78.31
475.72	84.31
475.939	77.31
476.158	80.31
476.377	82.31
476.596	79.31
476.814	96.31
477.033	82.31
477.252	100.31
477.471	81.31
477.69	80.31
477.908	90.31
478.127	84.31
478.346	93.31
478.564	97.31
478.783	97.31
479.002	78.31
479.22	95.31
479.439	95.31
479.658	85.31
479.876	82.31
480.095	83.31
480.313	92.31
480.532	83.31
480.751	74.31
480.969	91.31
481.188	107.31
481.406	85.31
481.624	74.31
481.843	94.31
482.061	86.31
482.28	83.31
482.498	104.31
482.717	81.31
482.935	87.31
483.153	83.31
483.372	85.31
483.59	76.31
483.808	92.31
484.027	71.31
484.245	95.31
484.463	82.31
484.681	102.31
484.9	93.31
485.118	89.31
485.336	94.31
485.554	103.31
485.772	92.31
485.99	73.31
486.209	103.31
486.427	107.31
486.645	104.31
486.863	89.31
487.081	100.31
487.299	98.31
487.517	91.31
487.735	92.31
487.953	100.31
488.171	84.31
488.389	81.31
488.607	98.31
488.825	89.31
489.043	91.31
489.261	84.31
489.479	92.31
489.696	94.31
489.914	92.31
490.132	81.31
490.35	70.31
490.568	82.31
490.786	87.31
491.003	80.31
491.221	89.31
491.439	88.31
491.657	101.31
491.874	82.31
492.092	80.31
492.31	94.31
492.527	84.31
492.745	86.31
492.963	81.31
493.18	87.31
493.398	91.31
493.615	89.31
493.833	92.31
494.05	85.31
494.268	84.31
494.485	100.31
494.703	83.31
494.92	94.31
495.138	97.31
495.355	83.31
495.573	78.31
495.79	86.31
496.008	72.31
496.225	90.31
496.442	87.31
496.66	97.31
496.877	82.31
497.094	104.31
497.312	68.31
497.529	93.31
497.746	95.31
497.963	84.31
498.181	91.31
498.398	79.31
498.615	108.31
498.832	91.31
499.049	80.31
499.267	89.31
499.484	77.31
499.701	84.31
499.918	108.31
500.135	91.31
500.352	104.31
500.569	85.31
500.786	95.31
501.003	87.31
501.22	88.31
501.437	89.31
501.654	101.31
501.871	90.31
502.088	95.31
502.305	94.31
502.522	82.31
502.739	98.31
502.956	87.31
503.172	89.31
503.389	91.31
503.606	109.31
503.823	87.31
504.04	71.31
504.256	83.31
504.473	91.31
504.69	94.31
504.907	88.31
505.123	87.31
505.34	80.31
505.557	82.31
505.773	73.31
505.99	91.31
506.207	104.31
506.423	82.31
506.64	99.31
506.856	96.31
507.073	95.31
507.289	88.31
507.506	87.31
507.722	96.31
507.939	125.31
508.155	89.31
508.372	74.31
508.588	87.31
508.805	93.31
509.021	88.31
509.238	84.31
509.454	83.31
509.67	104.31
509.887	96.31
510.103	139.31
510.319	213.31
510.536	743.31
510.752	2319.31
510.968	627.31
511.184	153.31
511.401	109.31
511.617	80.31
511.833	95.31
512.049	92.31
512.265	93.31
512.481	81.31
512.698	101.31
512.914	88.31
513.13	98.31
513.346	75.31
513.562	99.31
513.778	78.31
513.994	100.31
514.21	107.31
514.426	90.31
514.642	140.31
514.858	121.31
515.074	149.31
515.29	439.31
515.506	1394.31
515.721	511.31
515.937	151.31
516.153	108.31
516.369	93.31
516.585	90.31
516.801	107.31
517.016	93.31
