Data from Uncirc_1992_H10_HRD10591_00057.txt Node
Date: Wed Jan 03 11:46:27 EST 2024
User: Yrep
Spectrometer: HR+D1059
Trigger mode: 1
Integration Time (sec): 1.000000E-1
Scans to average: 1
Electric dark correction enabled: true
Nonlinearity correction enabled: false
Boxcar width: 0
XAxis mode: Wavelengths
Number of Pixels in Spectrum: 2048
>>>>>Begin Spectral Data<<<<<
223.165	-19.88
223.4	-19.88
223.635	-19.88
223.869	-22.88
224.104	-23.88
224.338	-5.88
224.573	-12.88
224.808	-7.88
225.042	5.12
225.277	-4.88
225.511	-11.88
225.746	-0.88
225.98	-5.88
226.215	21.12
226.449	4.12
226.683	29.12
226.918	25.12
227.152	32.12
227.387	33.12
227.621	31.12
227.856	50.12
228.09	56.12
228.324	54.12
228.559	60.12
228.793	67.12
229.027	68.12
229.262	64.12
229.496	84.12
229.73	98.12
229.964	87.12
230.199	76.12
230.433	78.12
230.667	90.12
230.901	82.12
231.136	96.12
231.37	72.12
231.604	74.12
231.838	93.12
232.072	76.12
232.306	76.12
232.541	79.12
232.775	85.12
233.009	76.12
233.243	78.12
233.477	67.12
233.711	73.12
233.945	88.12
234.179	84.12
234.413	79.12
234.647	94.12
234.881	82.12
235.115	78.12
235.349	86.12
235.583	88.12
235.817	77.12
236.051	83.12
236.285	79.12
236.519	85.12
236.753	76.12
236.987	66.12
237.221	74.12
237.455	76.12
237.689	78.12
237.922	68.12
238.156	70.12
238.39	75.12
238.624	70.12
238.858	67.12
239.091	75.12
239.325	72.12
239.559	53.12
239.793	77.12
240.027	84.12
240.26	78.12
240.494	92.12
240.728	79.12
240.961	56.12
241.195	74.12
241.429	72.12
241.662	69.12
241.896	71.12
242.13	74.12
242.363	67.12
242.597	64.12
242.83	57.12
243.064	89.12
243.298	72.12
243.531	82.12
243.765	74.12
243.998	75.12
244.232	98.12
244.465	76.12
244.699	92.12
244.932	71.12
245.166	82.12
245.399	81.12
245.633	81.12
245.866	76.12
246.099	78.12
246.333	83.12
246.566	84.12
246.8	85.12
247.033	87.12
247.266	85.12
247.5	87.12
247.733	99.12
247.966	67.12
248.2	87.12
248.433	81.12
248.666	78.12
248.899	84.12
249.133	87.12
249.366	101.12
249.599	95.12
249.832	84.12
250.066	83.12
250.299	78.12
250.532	90.12
250.765	63.12
250.998	71.12
251.231	92.12
251.465	86.12
251.698	87.12
251.931	78.12
252.164	75.12
252.397	72.12
252.63	72.12
252.863	90.12
253.096	80.12
253.329	91.12
253.562	81.12
253.795	64.12
254.028	84.12
254.261	90.12
254.494	81.12
254.727	82.12
254.96	87.12
255.193	83.12
255.426	77.12
255.659	99.12
255.892	94.12
256.124	82.12
256.357	77.12
256.59	71.12
256.823	82.12
257.056	63.12
257.289	91.12
257.521	89.12
257.754	91.12
257.987	81.12
258.22	84.12
258.452	78.12
258.685	77.12
258.918	76.12
259.151	79.12
259.383	81.12
259.616	84.12
259.849	97.12
260.081	80.12
260.314	83.12
260.547	97.12
260.779	92.12
261.012	79.12
261.244	87.12
261.477	87.12
261.71	101.12
261.942	109.12
262.175	120.12
262.407	85.12
262.64	83.12
262.872	77.12
263.105	85.12
263.337	89.12
263.57	88.12
263.802	69.12
264.035	90.12
264.267	74.12
264.499	74.12
264.732	82.12
264.964	86.12
265.197	71.12
265.429	94.12
265.661	82.12
265.894	89.12
266.126	93.12
266.358	95.12
266.591	93.12
266.823	89.12
267.055	72.12
267.287	89.12
267.52	84.12
267.752	83.12
267.984	90.12
268.216	91.12
268.448	88.12
268.681	82.12
268.913	84.12
269.145	85.12
269.377	95.12
269.609	90.12
269.841	90.12
270.073	91.12
270.306	95.12
270.538	83.12
270.77	84.12
271.002	81.12
271.234	94.12
271.466	78.12
271.698	77.12
271.93	75.12
272.162	87.12
272.394	76.12
272.626	78.12
272.858	72.12
273.09	80.12
273.322	80.12
273.553	69.12
273.785	92.12
274.017	80.12
274.249	109.12
274.481	95.12
274.713	94.12
274.945	79.12
275.176	85.12
275.408	94.12
275.64	93.12
275.872	78.12
276.104	83.12
276.335	85.12
276.567	108.12
276.799	116.12
277.031	101.12
277.262	71.12
277.494	83.12
277.726	88.12
277.957	90.12
278.189	74.12
278.421	76.12
278.652	87.12
278.884	80.12
279.115	88.12
279.347	90.12
279.579	104.12
279.81	88.12
280.042	90.12
280.273	82.12
280.505	90.12
280.736	84.12
280.968	95.12
281.199	86.12
281.431	92.12
281.662	98.12
281.894	87.12
282.125	94.12
282.356	114.12
282.588	124.12
282.819	124.12
283.051	96.12
283.282	87.12
283.513	90.12
283.745	76.12
283.976	93.12
284.207	81.12
284.439	71.12
284.67	80.12
284.901	86.12
285.132	85.12
285.364	87.12
285.595	86.12
285.826	84.12
286.057	93.12
286.288	94.12
286.52	79.12
286.751	94.12
286.982	86.12
287.213	91.12
287.444	85.12
287.675	79.12
287.906	81.12
288.138	91.12
288.369	91.12
288.6	92.12
288.831	94.12
289.062	83.12
289.293	86.12
289.524	85.12
289.755	83.12
289.986	102.12
290.217	74.12
290.448	79.12
290.679	81.12
290.91	89.12
291.141	91.12
291.371	97.12
291.602	91.12
291.833	95.12
292.064	95.12
292.295	94.12
292.526	77.12
292.757	84.12
292.987	98.12
293.218	101.12
293.449	86.12
293.68	93.12
293.91	80.12
294.141	107.12
294.372	86.12
294.603	84.12
294.833	92.12
295.064	87.12
295.295	93.12
295.525	107.12
295.756	94.12
295.987	94.12
296.217	127.12
296.448	128.12
296.679	93.12
296.909	90.12
297.14	96.12
297.37	98.12
297.601	88.12
297.831	99.12
298.062	106.12
298.292	88.12
298.523	82.12
298.753	72.12
298.984	89.12
299.214	78.12
299.445	99.12
299.675	76.12
299.905	96.12
300.136	99.12
300.366	96.12
300.597	90.12
300.827	84.12
301.057	104.12
301.288	94.12
301.518	87.12
301.748	94.12
301.979	108.12
302.209	83.12
302.439	93.12
302.669	78.12
302.9	96.12
303.13	90.12
303.36	90.12
303.59	97.12
303.82	84.12
304.051	85.12
304.281	94.12
304.511	98.12
304.741	79.12
304.971	84.12
305.201	97.12
305.431	91.12
305.661	88.12
305.891	86.12
306.121	106.12
306.352	104.12
306.582	86.12
306.812	94.12
307.042	97.12
307.272	87.12
307.502	91.12
307.731	106.12
307.961	75.12
308.191	97.12
308.421	99.12
308.651	88.12
308.881	85.12
309.111	92.12
309.341	79.12
309.571	107.12
309.8	105.12
310.03	78.12
310.26	97.12
310.49	90.12
310.72	100.12
310.949	99.12
311.179	100.12
311.409	91.12
311.639	94.12
311.868	96.12
312.098	93.12
312.328	92.12
312.557	104.12
312.787	105.12
313.017	92.12
313.246	95.12
313.476	95.12
313.706	91.12
313.935	92.12
314.165	93.12
314.394	98.12
314.624	92.12
314.853	96.12
315.083	88.12
315.312	87.12
315.542	93.12
315.771	92.12
316.001	100.12
316.23	85.12
316.46	83.12
316.689	101.12
316.919	91.12
317.148	90.12
317.377	99.12
317.607	95.12
317.836	90.12
318.065	103.12
318.295	96.12
318.524	84.12
318.753	78.12
318.983	87.12
319.212	108.12
319.441	106.12
319.67	111.12
319.9	95.12
320.129	97.12
320.358	96.12
320.587	86.12
320.816	109.12
321.046	91.12
321.275	99.12
321.504	103.12
321.733	96.12
321.962	103.12
322.191	96.12
322.42	112.12
322.649	101.12
322.878	102.12
323.108	102.12
323.337	125.12
323.566	128.12
323.795	156.12
324.024	207.12
324.253	366.12
324.482	743.12
324.71	1468.12
324.939	1898.12
325.168	711.12
325.397	210.12
325.626	158.12
325.855	123.12
326.084	128.12
326.313	123.12
326.542	123.12
326.77	204.12
326.999	398.12
327.228	808.12
327.457	1461.12
327.686	1150.12
327.914	337.12
328.143	176.12
328.372	146.12
328.6	122.12
328.829	101.12
329.058	119.12
329.287	103.12
329.515	110.12
329.744	103.12
329.972	100.12
330.201	107.12
330.43	103.12
330.658	123.12
330.887	120.12
331.115	111.12
331.344	86.12
331.572	112.12
331.801	94.12
332.03	110.12
332.258	98.12
332.486	103.12
332.715	87.12
332.943	96.12
333.172	93.12
333.4	81.12
333.629	118.12
333.857	108.12
334.085	111.12
334.314	93.12
334.542	93.12
334.771	96.12
334.999	101.12
335.227	98.12
335.455	89.12
335.684	87.12
335.912	115.12
336.14	104.12
336.369	94.12
336.597	99.12
336.825	97.12
337.053	86.12
337.281	95.12
337.51	81.12
337.738	88.12
337.966	104.12
338.194	99.12
338.422	107.12
338.65	92.12
338.878	86.12
339.106	87.12
339.334	92.12
339.562	100.12
339.79	83.12
340.018	98.12
340.246	86.12
340.474	97.12
340.702	79.12
340.93	85.12
341.158	93.12
341.386	96.12
341.614	105.12
341.842	88.12
342.07	76.12
342.298	100.12
342.526	100.12
342.754	86.12
342.981	98.12
343.209	112.12
343.437	97.12
343.665	100.12
343.893	84.12
344.12	103.12
344.348	88.12
344.576	86.12
344.804	79.12
345.031	98.12
345.259	95.12
345.487	66.12
345.714	95.12
345.942	98.12
346.17	87.12
346.397	96.12
346.625	100.12
346.853	90.12
347.08	104.12
347.308	95.12
347.535	97.12
347.763	106.12
347.99	89.12
348.218	112.12
348.445	111.12
348.673	84.12
348.9	99.12
349.128	98.12
349.355	92.12
349.583	97.12
349.81	82.12
350.037	91.12
350.265	90.12
350.492	103.12
350.72	99.12
350.947	94.12
351.174	98.12
351.402	107.12
351.629	106.12
351.856	99.12
352.083	106.12
352.311	103.12
352.538	105.12
352.765	109.12
352.992	111.12
353.22	96.12
353.447	92.12
353.674	90.12
353.901	94.12
354.128	108.12
354.355	96.12
354.583	97.12
354.81	115.12
355.037	90.12
355.264	89.12
355.491	97.12
355.718	88.12
355.945	90.12
356.172	94.12
356.399	103.12
356.626	95.12
356.853	94.12
357.08	102.12
357.307	89.12
357.534	87.12
357.761	82.12
357.988	88.12
358.215	89.12
358.441	94.12
358.668	93.12
358.895	97.12
359.122	102.12
359.349	93.12
359.576	93.12
359.802	100.12
360.029	103.12
360.256	116.12
360.483	91.12
360.709	92.12
360.936	103.12
361.163	96.12
361.39	84.12
361.616	93.12
361.843	88.12
362.07	102.12
362.296	88.12
362.523	90.12
362.749	87.12
362.976	92.12
363.203	93.12
363.429	96.12
363.656	87.12
363.882	79.12
364.109	109.12
364.335	81.12
364.562	90.12
364.788	96.12
365.015	92.12
365.241	113.12
365.468	112.12
365.694	94.12
365.92	107.12
366.147	83.12
366.373	96.12
366.599	86.12
366.826	78.12
367.052	82.12
367.278	81.12
367.505	86.12
367.731	84.12
367.957	81.12
368.184	86.12
368.41	103.12
368.636	124.12
368.862	120.12
369.089	101.12
369.315	98.12
369.541	89.12
369.767	91.12
369.993	88.12
370.219	87.12
370.445	93.12
370.672	84.12
370.898	92.12
371.124	97.12
371.35	100.12
371.576	94.12
371.802	87.12
372.028	84.12
372.254	93.12
372.48	91.12
372.706	80.12
372.932	85.12
373.158	86.12
373.384	92.12
373.61	101.12
373.835	92.12
374.061	99.12
374.287	91.12
374.513	76.12
374.739	88.12
374.965	94.12
375.191	95.12
375.416	77.12
375.642	87.12
375.868	78.12
376.094	95.12
376.319	96.12
376.545	100.12
376.771	80.12
376.997	93.12
377.222	90.12
377.448	95.12
377.674	84.12
377.899	101.12
378.125	92.12
378.35	95.12
378.576	87.12
378.802	92.12
379.027	101.12
379.253	86.12
379.478	94.12
379.704	91.12
379.929	92.12
380.155	95.12
380.38	91.12
380.606	95.12
380.831	102.12
381.057	97.12
381.282	94.12
381.507	101.12
381.733	104.12
381.958	106.12
382.184	91.12
382.409	116.12
382.634	96.12
382.86	91.12
383.085	96.12
383.31	84.12
383.535	97.12
383.761	94.12
383.986	93.12
384.211	104.12
384.436	94.12
384.662	96.12
384.887	98.12
385.112	96.12
385.337	103.12
385.562	89.12
385.787	96.12
386.013	99.12
386.238	114.12
386.463	110.12
386.688	107.12
386.913	101.12
387.138	107.12
387.363	101.12
387.588	103.12
387.813	95.12
388.038	114.12
388.263	95.12
388.488	115.12
388.713	96.12
388.938	104.12
389.163	94.12
389.387	88.12
389.612	86.12
389.837	97.12
390.062	106.12
390.287	80.12
390.512	84.12
390.736	88.12
390.961	93.12
391.186	86.12
391.411	106.12
391.636	96.12
391.86	95.12
392.085	103.12
392.31	82.12
392.534	79.12
392.759	86.12
392.984	85.12
393.208	84.12
393.433	96.12
393.658	91.12
393.882	85.12
394.107	89.12
394.331	80.12
394.556	70.12
394.78	85.12
395.005	88.12
395.229	84.12
395.454	98.12
395.678	92.12
395.903	96.12
396.127	67.12
396.352	71.12
396.576	85.12
396.801	91.12
397.025	84.12
397.249	89.12
397.474	93.12
397.698	76.12
397.922	64.12
398.147	90.12
398.371	88.12
398.595	83.12
398.82	95.12
399.044	91.12
399.268	103.12
399.492	97.12
399.717	86.12
399.941	89.12
400.165	95.12
400.389	89.12
400.613	80.12
400.837	110.12
401.062	91.12
401.286	98.12
401.51	91.12
401.734	84.12
401.958	95.12
402.182	126.12
402.406	154.12
402.63	106.12
402.854	82.12
403.078	101.12
403.302	91.12
403.526	99.12
403.75	88.12
403.974	87.12
404.198	96.12
404.422	92.12
404.645	90.12
404.869	88.12
405.093	97.12
405.317	76.12
405.541	99.12
405.765	92.12
405.988	122.12
406.212	176.12
406.436	220.12
406.66	143.12
406.883	105.12
407.107	86.12
407.331	90.12
407.555	97.12
407.778	91.12
408.002	99.12
408.226	81.12
408.449	83.12
408.673	88.12
408.896	85.12
409.12	91.12
409.344	80.12
409.567	95.12
409.791	94.12
410.014	97.12
410.238	101.12
410.461	102.12
410.685	104.12
410.908	93.12
411.132	98.12
411.355	98.12
411.578	100.12
411.802	93.12
412.025	80.12
412.249	94.12
412.472	89.12
412.695	95.12
412.919	85.12
413.142	101.12
413.365	77.12
413.589	93.12
413.812	96.12
414.035	86.12
414.258	97.12
414.482	91.12
414.705	97.12
414.928	92.12
415.151	95.12
415.374	87.12
415.597	100.12
415.821	76.12
416.044	83.12
416.267	92.12
416.49	91.12
416.713	85.12
416.936	86.12
417.159	82.12
417.382	71.12
417.605	69.12
417.828	86.12
418.051	93.12
418.274	100.12
418.497	102.12
418.72	90.12
418.943	92.12
419.166	94.12
419.389	86.12
419.611	92.12
419.834	96.12
420.057	82.12
420.28	82.12
420.503	90.12
420.726	92.12
420.948	90.12
421.171	94.12
421.394	88.12
421.617	85.12
421.839	84.12
422.062	100.12
422.285	96.12
422.507	103.12
422.73	103.12
422.953	93.12
423.175	97.12
423.398	103.12
423.621	89.12
423.843	70.12
424.066	94.12
424.288	78.12
424.511	86.12
424.733	109.12
424.956	115.12
425.178	96.12
425.401	102.12
425.623	95.12
425.846	90.12
426.068	90.12
426.291	102.12
426.513	98.12
426.735	88.12
426.958	89.12
427.18	102.12
427.402	131.12
427.625	164.12
427.847	124.12
428.069	102.12
428.292	76.12
428.514	85.12
428.736	78.12
428.958	93.12
429.181	92.12
429.403	95.12
429.625	86.12
429.847	93.12
430.069	97.12
430.292	68.12
430.514	94.12
430.736	84.12
430.958	78.12
431.18	86.12
431.402	88.12
431.624	83.12
431.846	74.12
432.068	98.12
432.29	72.12
432.512	87.12
432.734	79.12
432.956	91.12
433.178	98.12
433.4	95.12
433.622	91.12
433.844	94.12
434.066	99.12
434.287	78.12
434.509	85.12
434.731	99.12
434.953	96.12
435.175	86.12
435.397	85.12
435.618	84.12
435.84	102.12
436.062	120.12
436.284	105.12
436.505	108.12
436.727	94.12
436.949	80.12
437.17	86.12
437.392	67.12
437.614	92.12
437.835	110.12
438.057	108.12
438.278	111.12
438.5	107.12
438.721	119.12
438.943	99.12
439.165	74.12
439.386	90.12
439.608	85.12
439.829	87.12
440.05	121.12
440.272	133.12
440.493	95.12
440.715	86.12
440.936	84.12
441.158	81.12
441.379	89.12
441.6	94.12
441.822	94.12
442.043	109.12
442.264	112.12
442.486	97.12
442.707	97.12
442.928	107.12
443.149	110.12
443.371	124.12
443.592	110.12
443.813	108.12
444.034	107.12
444.255	104.12
444.476	85.12
444.698	92.12
444.919	83.12
445.14	115.12
445.361	111.12
445.582	120.12
445.803	128.12
446.024	125.12
446.245	126.12
446.466	114.12
446.687	96.12
446.908	86.12
447.129	101.12
447.35	98.12
447.571	87.12
447.792	93.12
448.013	109.12
448.234	108.12
448.455	104.12
448.675	103.12
448.896	113.12
449.117	104.12
449.338	103.12
449.559	119.12
449.779	122.12
450	89.12
450.221	86.12
450.442	98.12
450.662	94.12
450.883	92.12
451.104	121.12
451.324	101.12
451.545	95.12
451.766	90.12
451.986	76.12
452.207	86.12
452.428	91.12
452.648	90.12
452.869	115.12
453.089	111.12
453.31	120.12
453.53	111.12
453.751	103.12
453.971	98.12
454.192	111.12
454.412	94.12
454.633	86.12
454.853	79.12
455.073	99.12
455.294	82.12
455.514	99.12
455.734	93.12
455.955	80.12
456.175	91.12
456.395	91.12
456.616	82.12
456.836	83.12
457.056	90.12
457.276	86.12
457.497	92.12
457.717	94.12
457.937	100.12
458.157	90.12
458.377	97.12
458.598	93.12
458.818	126.12
459.038	165.12
459.258	117.12
459.478	103.12
459.698	86.12
459.918	88.12
460.138	86.12
460.358	77.12
460.578	83.12
460.798	84.12
461.018	91.12
461.238	79.12
461.458	88.12
461.678	69.12
461.898	99.12
462.118	87.12
462.338	83.12
462.558	92.12
462.777	87.12
462.997	93.12
463.217	86.12
463.437	93.12
463.657	83.12
463.876	103.12
464.096	89.12
464.316	85.12
464.536	90.12
464.755	105.12
464.975	112.12
465.195	159.12
465.414	146.12
465.634	116.12
465.854	89.12
466.073	94.12
466.293	89.12
466.512	90.12
466.732	84.12
466.951	97.12
467.171	97.12
467.391	88.12
467.61	104.12
467.829	103.12
468.049	83.12
468.268	101.12
468.488	71.12
468.707	91.12
468.927	92.12
469.146	88.12
469.365	83.12
469.585	102.12
469.804	97.12
470.023	96.12
470.243	93.12
470.462	88.12
470.681	102.12
470.901	90.12
471.12	93.12
471.339	82.12
471.558	92.12
471.777	87.12
471.997	87.12
472.216	94.12
472.435	102.12
472.654	79.12
472.873	90.12
473.092	86.12
473.311	98.12
473.53	90.12
473.749	87.12
473.968	78.12
474.187	101.12
474.406	104.12
474.625	92.12
474.844	93.12
475.063	92.12
475.282	99.12
475.501	98.12
475.72	109.12
475.939	74.12
476.158	98.12
476.377	85.12
476.596	91.12
476.814	103.12
477.033	93.12
477.252	91.12
477.471	84.12
477.69	71.12
477.908	90.12
478.127	97.12
478.346	83.12
478.564	107.12
478.783	84.12
479.002	90.12
479.22	78.12
479.439	102.12
479.658	105.12
479.876	100.12
480.095	96.12
480.313	94.12
480.532	82.12
480.751	109.12
480.969	102.12
481.188	108.12
481.406	102.12
481.624	98.12
481.843	101.12
482.061	74.12
482.28	89.12
482.498	76.12
482.717	82.12
482.935	99.12
483.153	98.12
483.372	88.12
483.59	85.12
483.808	98.12
484.027	84.12
484.245	92.12
484.463	94.12
484.681	100.12
484.9	95.12
485.118	100.12
485.336	95.12
485.554	96.12
485.772	92.12
485.99	101.12
486.209	97.12
486.427	109.12
486.645	122.12
486.863	116.12
487.081	100.12
487.299	99.12
487.517	109.12
487.735	102.12
487.953	91.12
488.171	95.12
488.389	87.12
488.607	103.12
488.825	91.12
489.043	80.12
489.261	89.12
489.479	106.12
489.696	89.12
489.914	99.12
490.132	90.12
490.35	102.12
490.568	95.12
490.786	88.12
491.003	96.12
491.221	71.12
491.439	108.12
491.657	86.12
491.874	99.12
492.092	95.12
492.31	100.12
492.527	99.12
492.745	86.12
492.963	95.12
493.18	88.12
493.398	96.12
493.615	88.12
493.833	95.12
494.05	89.12
494.268	92.12
494.485	93.12
494.703	95.12
494.92	96.12
495.138	84.12
495.355	86.12
495.573	99.12
495.79	95.12
496.008	86.12
496.225	99.12
496.442	93.12
496.66	94.12
496.877	93.12
497.094	82.12
497.312	72.12
497.529	91.12
497.746	96.12
497.963	95.12
498.181	88.12
498.398	90.12
498.615	101.12
498.832	98.12
499.049	98.12
499.267	92.12
499.484	100.12
499.701	85.12
499.918	108.12
500.135	105.12
500.352	106.12
500.569	92.12
500.786	103.12
501.003	93.12
501.22	98.12
501.437	96.12
501.654	101.12
501.871	103.12
502.088	89.12
502.305	95.12
502.522	88.12
502.739	84.12
502.956	89.12
503.172	102.12
503.389	99.12
503.606	106.12
503.823	99.12
504.04	85.12
504.256	93.12
504.473	103.12
504.69	83.12
504.907	75.12
505.123	80.12
505.34	88.12
505.557	83.12
505.773	92.12
505.99	84.12
506.207	102.12
506.423	95.12
506.64	85.12
506.856	84.12
507.073	92.12
507.289	107.12
507.506	100.12
507.722	108.12
507.939	117.12
508.155	98.12
508.372	84.12
508.588	92.12
508.805	98.12
509.021	97.12
509.238	100.12
509.454	94.12
509.67	111.12
509.887	110.12
510.103	135.12
510.319	203.12
510.536	789.12
510.752	2264.12
510.968	618.12
511.184	138.12
511.401	112.12
511.617	103.12
511.833	91.12
512.049	92.12
512.265	97.12
512.481	81.12
512.698	90.12
512.914	87.12
513.13	83.12
513.346	86.12
513.562	108.12
513.778	96.12
513.994	91.12
514.21	103.12
514.426	97.12
514.642	139.12
514.858	114.12
515.074	168.12
515.29	466.12
515.506	1452.12
515.721	491.12
