Data from Uncirc_1992_H10_HRD10591_00053.txt Node
Date: Wed Jan 03 11:46:26 EST 2024
User: Yrep
Spectrometer: HR+D1059
Trigger mode: 1
Integration Time (sec): 1.000000E-1
Scans to average: 1
Electric dark correction enabled: true
Nonlinearity correction enabled: false
Boxcar width: 0
XAxis mode: Wavelengths
Number of Pixels in Spectrum: 2048
>>>>>Begin Spectral Data<<<<<
223.165	-9.06
223.4	-9.06
223.635	-9.06
223.869	-16.06
224.104	-7.06
224.338	-11.06
224.573	-19.06
224.808	6.94
225.042	-16.06
225.277	-4.06
225.511	-12.06
225.746	-1.06
225.98	10.94
226.215	-2.06
226.449	17.94
226.683	13.94
226.918	22.94
227.152	24.94
227.387	23.94
227.621	38.94
227.856	44.94
228.09	34.94
228.324	34.94
228.559	53.94
228.793	62.94
229.027	61.94
229.262	74.94
229.496	67.94
229.73	74.94
229.964	75.94
230.199	74.94
230.433	78.94
230.667	72.94
230.901	75.94
231.136	66.94
231.37	61.94
231.604	62.94
231.838	81.94
232.072	83.94
232.306	85.94
232.541	92.94
232.775	79.94
233.009	70.94
233.243	77.94
233.477	70.94
233.711	74.94
233.945	65.94
234.179	80.94
234.413	56.94
234.647	74.94
234.881	70.94
235.115	81.94
235.349	88.94
235.583	79.94
235.817	79.94
236.051	80.94
236.285	80.94
236.519	61.94
236.753	77.94
236.987	72.94
237.221	64.94
237.455	75.94
237.689	70.94
237.922	67.94
238.156	81.94
238.39	66.94
238.624	63.94
238.858	67.94
239.091	81.94
239.325	71.94
239.559	83.94
239.793	67.94
240.027	70.94
240.26	87.94
240.494	70.94
240.728	67.94
240.961	66.94
241.195	62.94
241.429	74.94
241.662	79.94
241.896	75.94
242.13	81.94
242.363	65.94
242.597	85.94
242.83	96.94
243.064	83.94
243.298	65.94
243.531	87.94
243.765	72.94
243.998	67.94
244.232	62.94
244.465	80.94
244.699	75.94
244.932	74.94
245.166	80.94
245.399	75.94
245.633	70.94
245.866	86.94
246.099	76.94
246.333	75.94
246.566	76.94
246.8	87.94
247.033	62.94
247.266	66.94
247.5	76.94
247.733	61.94
247.966	83.94
248.2	74.94
248.433	82.94
248.666	90.94
248.899	76.94
249.133	71.94
249.366	75.94
249.599	82.94
249.832	87.94
250.066	91.94
250.299	79.94
250.532	102.94
250.765	80.94
250.998	59.94
251.231	61.94
251.465	71.94
251.698	70.94
251.931	80.94
252.164	72.94
252.397	67.94
252.63	75.94
252.863	65.94
253.096	82.94
253.329	85.94
253.562	83.94
253.795	83.94
254.028	79.94
254.261	76.94
254.494	70.94
254.727	73.94
254.96	79.94
255.193	71.94
255.426	86.94
255.659	85.94
255.892	80.94
256.124	74.94
256.357	76.94
256.59	89.94
256.823	74.94
257.056	77.94
257.289	83.94
257.521	91.94
257.754	82.94
257.987	70.94
258.22	69.94
258.452	65.94
258.685	74.94
258.918	86.94
259.151	85.94
259.383	86.94
259.616	85.94
259.849	80.94
260.081	76.94
260.314	70.94
260.547	81.94
260.779	70.94
261.012	70.94
261.244	77.94
261.477	78.94
261.71	94.94
261.942	103.94
262.175	116.94
262.407	74.94
262.64	76.94
262.872	85.94
263.105	80.94
263.337	81.94
263.57	76.94
263.802	76.94
264.035	85.94
264.267	99.94
264.499	66.94
264.732	94.94
264.964	77.94
265.197	86.94
265.429	68.94
265.661	88.94
265.894	77.94
266.126	82.94
266.358	90.94
266.591	85.94
266.823	80.94
267.055	74.94
267.287	83.94
267.52	76.94
267.752	82.94
267.984	73.94
268.216	88.94
268.448	85.94
268.681	75.94
268.913	82.94
269.145	93.94
269.377	91.94
269.609	70.94
269.841	80.94
270.073	87.94
270.306	76.94
270.538	83.94
270.77	81.94
271.002	86.94
271.234	78.94
271.466	83.94
271.698	74.94
271.93	84.94
272.162	78.94
272.394	89.94
272.626	83.94
272.858	85.94
273.09	81.94
273.322	66.94
273.553	75.94
273.785	88.94
274.017	85.94
274.249	89.94
274.481	88.94
274.713	82.94
274.945	81.94
275.176	72.94
275.408	83.94
275.64	83.94
275.872	78.94
276.104	91.94
276.335	72.94
276.567	99.94
276.799	93.94
277.031	90.94
277.262	86.94
277.494	84.94
277.726	79.94
277.957	91.94
278.189	85.94
278.421	73.94
278.652	80.94
278.884	80.94
279.115	77.94
279.347	89.94
279.579	86.94
279.81	83.94
280.042	73.94
280.273	82.94
280.505	86.94
280.736	86.94
280.968	83.94
281.199	90.94
281.431	77.94
281.662	83.94
281.894	88.94
282.125	86.94
282.356	114.94
282.588	137.94
282.819	112.94
283.051	84.94
283.282	82.94
283.513	83.94
283.745	79.94
283.976	81.94
284.207	86.94
284.439	77.94
284.67	89.94
284.901	82.94
285.132	78.94
285.364	95.94
285.595	85.94
285.826	86.94
286.057	90.94
286.288	94.94
286.52	76.94
286.751	79.94
286.982	86.94
287.213	82.94
287.444	100.94
287.675	90.94
287.906	81.94
288.138	92.94
288.369	104.94
288.6	99.94
288.831	91.94
289.062	86.94
289.293	94.94
289.524	83.94
289.755	89.94
289.986	71.94
290.217	78.94
290.448	87.94
290.679	90.94
290.91	89.94
291.141	90.94
291.371	98.94
291.602	75.94
291.833	78.94
292.064	79.94
292.295	83.94
292.526	87.94
292.757	99.94
292.987	92.94
293.218	87.94
293.449	88.94
293.68	88.94
293.91	69.94
294.141	99.94
294.372	92.94
294.603	95.94
294.833	87.94
295.064	68.94
295.295	75.94
295.525	79.94
295.756	87.94
295.987	108.94
296.217	123.94
296.448	108.94
296.679	83.94
296.909	88.94
297.14	94.94
297.37	79.94
297.601	81.94
297.831	87.94
298.062	90.94
298.292	81.94
298.523	85.94
298.753	88.94
298.984	71.94
299.214	97.94
299.445	94.94
299.675	91.94
299.905	84.94
300.136	80.94
300.366	91.94
300.597	86.94
300.827	86.94
301.057	89.94
301.288	96.94
301.518	82.94
301.748	74.94
301.979	70.94
302.209	82.94
302.439	94.94
302.669	71.94
302.9	89.94
303.13	83.94
303.36	87.94
303.59	103.94
303.82	103.94
304.051	99.94
304.281	74.94
304.511	89.94
304.741	91.94
304.971	85.94
305.201	84.94
305.431	89.94
305.661	104.94
305.891	81.94
306.121	88.94
306.352	99.94
306.582	87.94
306.812	100.94
307.042	84.94
307.272	83.94
307.502	96.94
307.731	93.94
307.961	66.94
308.191	72.94
308.421	90.94
308.651	82.94
308.881	86.94
309.111	73.94
309.341	95.94
309.571	86.94
309.8	96.94
310.03	94.94
310.26	82.94
310.49	91.94
310.72	78.94
310.949	84.94
311.179	92.94
311.409	89.94
311.639	98.94
311.868	92.94
312.098	83.94
312.328	100.94
312.557	103.94
312.787	106.94
313.017	102.94
313.246	87.94
313.476	89.94
313.706	86.94
313.935	91.94
314.165	91.94
314.394	99.94
314.624	93.94
314.853	105.94
315.083	87.94
315.312	93.94
315.542	92.94
315.771	108.94
316.001	88.94
316.23	89.94
316.46	77.94
316.689	74.94
316.919	82.94
317.148	100.94
317.377	99.94
317.607	98.94
317.836	92.94
318.065	86.94
318.295	83.94
318.524	85.94
318.753	75.94
318.983	94.94
319.212	100.94
319.441	96.94
319.67	103.94
319.9	93.94
320.129	75.94
320.358	82.94
320.587	75.94
320.816	100.94
321.046	99.94
321.275	104.94
321.504	96.94
321.733	90.94
321.962	87.94
322.191	103.94
322.42	94.94
322.649	106.94
322.878	110.94
323.108	111.94
323.337	116.94
323.566	101.94
323.795	146.94
324.024	174.94
324.253	348.94
324.482	748.94
324.71	1450.94
324.939	1882.94
325.168	685.94
325.397	226.94
325.626	148.94
325.855	125.94
326.084	124.94
326.313	119.94
326.542	148.94
326.77	213.94
326.999	389.94
327.228	808.94
327.457	1458.94
327.686	1178.94
327.914	312.94
328.143	181.94
328.372	131.94
328.6	111.94
328.829	111.94
329.058	118.94
329.287	113.94
329.515	115.94
329.744	99.94
329.972	95.94
330.201	82.94
330.43	92.94
330.658	109.94
330.887	115.94
331.115	120.94
331.344	84.94
331.572	105.94
331.801	109.94
332.03	98.94
332.258	104.94
332.486	94.94
332.715	95.94
332.943	91.94
333.172	91.94
333.4	96.94
333.629	104.94
333.857	112.94
334.085	98.94
334.314	90.94
334.542	96.94
334.771	79.94
334.999	84.94
335.227	90.94
335.455	76.94
335.684	98.94
335.912	90.94
336.14	90.94
336.369	94.94
336.597	104.94
336.825	90.94
337.053	92.94
337.281	98.94
337.51	96.94
337.738	92.94
337.966	91.94
338.194	91.94
338.422	91.94
338.65	99.94
338.878	87.94
339.106	96.94
339.334	78.94
339.562	75.94
339.79	86.94
340.018	102.94
340.246	94.94
340.474	88.94
340.702	97.94
340.93	72.94
341.158	79.94
341.386	89.94
341.614	92.94
341.842	103.94
342.07	90.94
342.298	95.94
342.526	91.94
342.754	79.94
342.981	84.94
343.209	97.94
343.437	100.94
343.665	87.94
343.893	78.94
344.12	91.94
344.348	106.94
344.576	99.94
344.804	88.94
345.031	89.94
345.259	93.94
345.487	95.94
345.714	80.94
345.942	83.94
346.17	104.94
346.397	99.94
346.625	88.94
346.853	84.94
347.08	86.94
347.308	91.94
347.535	95.94
347.763	86.94
347.99	79.94
348.218	86.94
348.445	112.94
348.673	95.94
348.9	87.94
349.128	91.94
349.355	86.94
349.583	93.94
349.81	77.94
350.037	83.94
350.265	84.94
350.492	91.94
350.72	97.94
350.947	99.94
351.174	97.94
351.402	113.94
351.629	100.94
351.856	113.94
352.083	116.94
352.311	112.94
352.538	113.94
352.765	111.94
352.992	103.94
353.22	99.94
353.447	92.94
353.674	102.94
353.901	99.94
354.128	97.94
354.355	98.94
354.583	109.94
354.81	100.94
355.037	84.94
355.264	86.94
355.491	93.94
355.718	94.94
355.945	81.94
356.172	87.94
356.399	95.94
356.626	99.94
356.853	77.94
357.08	77.94
357.307	92.94
357.534	88.94
357.761	84.94
357.988	92.94
358.215	85.94
358.441	100.94
358.668	86.94
358.895	77.94
359.122	83.94
359.349	85.94
359.576	87.94
359.802	104.94
360.029	114.94
360.256	109.94
360.483	82.94
360.709	80.94
360.936	100.94
361.163	92.94
361.39	91.94
361.616	97.94
361.843	104.94
362.07	91.94
362.296	82.94
362.523	73.94
362.749	101.94
362.976	81.94
363.203	71.94
363.429	87.94
363.656	96.94
363.882	96.94
364.109	89.94
364.335	97.94
364.562	86.94
364.788	96.94
365.015	81.94
365.241	98.94
365.468	95.94
365.694	92.94
365.92	89.94
366.147	75.94
366.373	71.94
366.599	100.94
366.826	91.94
367.052	95.94
367.278	90.94
367.505	99.94
367.731	96.94
367.957	94.94
368.184	87.94
368.41	83.94
368.636	109.94
368.862	124.94
369.089	115.94
369.315	94.94
369.541	106.94
369.767	101.94
369.993	64.94
370.219	97.94
370.445	86.94
370.672	79.94
370.898	89.94
371.124	94.94
371.35	78.94
371.576	94.94
371.802	81.94
372.028	75.94
372.254	73.94
372.48	92.94
372.706	89.94
372.932	80.94
373.158	98.94
373.384	85.94
373.61	87.94
373.835	97.94
374.061	75.94
374.287	82.94
374.513	100.94
374.739	81.94
374.965	93.94
375.191	92.94
375.416	87.94
375.642	97.94
375.868	87.94
376.094	80.94
376.319	93.94
376.545	76.94
376.771	91.94
376.997	90.94
377.222	86.94
377.448	94.94
377.674	87.94
377.899	87.94
378.125	72.94
378.35	81.94
378.576	83.94
378.802	98.94
379.027	100.94
379.253	94.94
379.478	84.94
379.704	95.94
379.929	93.94
380.155	97.94
380.38	90.94
380.606	88.94
380.831	87.94
381.057	111.94
381.282	98.94
381.507	92.94
381.733	89.94
381.958	104.94
382.184	107.94
382.409	95.94
382.634	104.94
382.86	102.94
383.085	87.94
383.31	104.94
383.535	97.94
383.761	98.94
383.986	96.94
384.211	103.94
384.436	96.94
384.662	98.94
384.887	105.94
385.112	95.94
385.337	108.94
385.562	92.94
385.787	87.94
386.013	106.94
386.238	92.94
386.463	103.94
386.688	111.94
386.913	93.94
387.138	95.94
387.363	91.94
387.588	81.94
387.813	94.94
388.038	98.94
388.263	95.94
388.488	104.94
388.713	114.94
388.938	90.94
389.163	98.94
389.387	95.94
389.612	102.94
389.837	92.94
390.062	97.94
390.287	92.94
390.512	74.94
390.736	83.94
390.961	88.94
391.186	97.94
391.411	90.94
391.636	92.94
391.86	74.94
392.085	92.94
392.31	83.94
392.534	91.94
392.759	104.94
392.984	80.94
393.208	89.94
393.433	92.94
393.658	91.94
393.882	90.94
394.107	86.94
394.331	95.94
394.556	82.94
394.78	83.94
395.005	98.94
395.229	75.94
395.454	74.94
395.678	82.94
395.903	89.94
396.127	87.94
396.352	93.94
396.576	94.94
396.801	94.94
397.025	90.94
397.249	89.94
397.474	84.94
397.698	89.94
397.922	79.94
398.147	84.94
398.371	84.94
398.595	84.94
398.82	94.94
399.044	81.94
399.268	76.94
399.492	82.94
399.717	84.94
399.941	82.94
400.165	94.94
400.389	81.94
400.613	94.94
400.837	71.94
401.062	81.94
401.286	89.94
401.51	84.94
401.734	75.94
401.958	90.94
402.182	121.94
402.406	149.94
402.63	109.94
402.854	89.94
403.078	101.94
403.302	74.94
403.526	89.94
403.75	74.94
403.974	91.94
404.198	93.94
404.422	82.94
404.645	85.94
404.869	93.94
405.093	82.94
405.317	96.94
405.541	96.94
405.765	96.94
405.988	100.94
406.212	158.94
406.436	209.94
406.66	122.94
406.883	84.94
407.107	88.94
407.331	90.94
407.555	101.94
407.778	78.94
408.002	86.94
408.226	99.94
408.449	95.94
408.673	90.94
408.896	90.94
409.12	80.94
409.344	88.94
409.567	64.94
409.791	104.94
410.014	88.94
410.238	88.94
410.461	84.94
410.685	94.94
410.908	93.94
411.132	96.94
411.355	89.94
411.578	87.94
411.802	78.94
412.025	74.94
412.249	89.94
412.472	90.94
412.695	95.94
412.919	92.94
413.142	89.94
413.365	83.94
413.589	75.94
413.812	98.94
414.035	88.94
414.258	88.94
414.482	78.94
414.705	78.94
414.928	82.94
415.151	91.94
415.374	103.94
415.597	94.94
415.821	95.94
416.044	92.94
416.267	82.94
416.49	84.94
416.713	94.94
416.936	103.94
417.159	95.94
417.382	87.94
417.605	98.94
417.828	78.94
418.051	96.94
418.274	83.94
418.497	92.94
418.72	78.94
418.943	81.94
419.166	96.94
419.389	94.94
419.611	79.94
419.834	96.94
420.057	88.94
420.28	85.94
420.503	86.94
420.726	92.94
420.948	90.94
421.171	100.94
421.394	102.94
421.617	94.94
421.839	94.94
422.062	78.94
422.285	87.94
422.507	90.94
422.73	92.94
422.953	75.94
423.175	72.94
423.398	81.94
423.621	78.94
423.843	99.94
424.066	91.94
424.288	88.94
424.511	79.94
424.733	94.94
424.956	91.94
425.178	81.94
425.401	83.94
425.623	95.94
425.846	80.94
426.068	88.94
426.291	93.94
426.513	82.94
426.735	87.94
426.958	81.94
427.18	86.94
427.402	129.94
427.625	140.94
427.847	121.94
428.069	105.94
428.292	76.94
428.514	92.94
428.736	89.94
428.958	98.94
429.181	99.94
429.403	90.94
429.625	87.94
429.847	93.94
430.069	93.94
430.292	89.94
430.514	80.94
430.736	74.94
430.958	62.94
431.18	82.94
431.402	83.94
431.624	86.94
431.846	86.94
432.068	88.94
432.29	82.94
432.512	79.94
432.734	94.94
432.956	93.94
433.178	85.94
433.4	93.94
433.622	88.94
433.844	83.94
434.066	94.94
434.287	96.94
434.509	104.94
434.731	100.94
434.953	76.94
435.175	93.94
435.397	76.94
435.618	91.94
435.84	84.94
436.062	106.94
436.284	104.94
436.505	90.94
436.727	99.94
436.949	91.94
437.17	77.94
437.392	99.94
437.614	89.94
437.835	96.94
438.057	105.94
438.278	112.94
438.5	99.94
438.721	106.94
438.943	76.94
439.165	92.94
439.386	86.94
439.608	82.94
439.829	104.94
440.05	106.94
440.272	121.94
440.493	77.94
440.715	73.94
440.936	80.94
441.158	92.94
441.379	78.94
441.6	92.94
441.822	89.94
442.043	90.94
442.264	91.94
442.486	106.94
442.707	92.94
442.928	110.94
443.149	115.94
443.371	116.94
443.592	104.94
443.813	104.94
444.034	107.94
444.255	91.94
444.476	86.94
444.698	80.94
444.919	81.94
445.14	127.94
445.361	123.94
445.582	115.94
445.803	115.94
446.024	108.94
446.245	110.94
446.466	93.94
446.687	76.94
446.908	81.94
447.129	72.94
447.35	81.94
447.571	94.94
447.792	98.94
448.013	83.94
448.234	94.94
448.455	95.94
448.675	104.94
448.896	104.94
449.117	97.94
449.338	93.94
449.559	104.94
449.779	128.94
450	88.94
450.221	89.94
450.442	89.94
450.662	92.94
450.883	87.94
451.104	105.94
451.324	94.94
451.545	89.94
451.766	80.94
451.986	92.94
452.207	92.94
452.428	97.94
452.648	78.94
452.869	104.94
453.089	116.94
453.31	106.94
453.53	92.94
453.751	95.94
453.971	99.94
454.192	81.94
454.412	77.94
454.633	88.94
454.853	73.94
455.073	79.94
455.294	84.94
455.514	90.94
455.734	87.94
455.955	59.94
456.175	74.94
456.395	88.94
456.616	81.94
456.836	80.94
457.056	89.94
457.276	89.94
457.497	81.94
457.717	93.94
457.937	80.94
458.157	72.94
458.377	87.94
458.598	101.94
458.818	130.94
459.038	151.94
459.258	106.94
459.478	100.94
459.698	79.94
459.918	87.94
460.138	79.94
460.358	82.94
460.578	72.94
460.798	92.94
461.018	87.94
461.238	81.94
461.458	89.94
461.678	86.94
461.898	94.94
462.118	81.94
462.338	77.94
462.558	89.94
462.777	86.94
462.997	76.94
463.217	103.94
463.437	80.94
463.657	91.94
463.876	77.94
464.096	86.94
464.316	87.94
464.536	92.94
464.755	91.94
464.975	110.94
465.195	168.94
465.414	154.94
465.634	100.94
465.854	91.94
466.073	82.94
466.293	82.94
466.512	83.94
466.732	84.94
466.951	78.94
467.171	95.94
467.391	92.94
467.61	96.94
467.829	106.94
468.049	90.94
468.268	76.94
468.488	89.94
468.707	105.94
468.927	75.94
469.146	87.94
469.365	95.94
469.585	87.94
469.804	83.94
470.023	100.94
470.243	83.94
470.462	88.94
470.681	93.94
470.901	85.94
471.12	80.94
471.339	90.94
471.558	64.94
471.777	79.94
471.997	87.94
472.216	84.94
472.435	87.94
472.654	83.94
472.873	78.94
473.092	91.94
473.311	91.94
473.53	76.94
473.749	89.94
473.968	90.94
474.187	100.94
474.406	87.94
474.625	79.94
474.844	89.94
475.063	85.94
475.282	85.94
475.501	87.94
475.72	81.94
475.939	78.94
476.158	92.94
476.377	79.94
476.596	94.94
476.814	82.94
477.033	71.94
477.252	89.94
477.471	74.94
477.69	87.94
477.908	89.94
478.127	83.94
478.346	74.94
478.564	86.94
478.783	95.94
479.002	83.94
479.22	97.94
479.439	97.94
479.658	99.94
479.876	93.94
480.095	89.94
480.313	91.94
480.532	87.94
480.751	87.94
480.969	72.94
481.188	88.94
481.406	100.94
481.624	82.94
481.843	87.94
482.061	88.94
482.28	71.94
482.498	90.94
482.717	72.94
482.935	78.94
483.153	88.94
483.372	81.94
483.59	86.94
483.808	86.94
484.027	77.94
484.245	79.94
484.463	90.94
484.681	80.94
484.9	71.94
485.118	67.94
485.336	91.94
485.554	100.94
485.772	82.94
485.99	91.94
486.209	91.94
486.427	94.94
486.645	108.94
486.863	96.94
487.081	86.94
487.299	87.94
487.517	94.94
487.735	84.94
487.953	90.94
488.171	84.94
488.389	99.94
488.607	103.94
488.825	78.94
489.043	87.94
489.261	80.94
489.479	83.94
489.696	88.94
489.914	95.94
490.132	90.94
490.35	84.94
490.568	78.94
490.786	94.94
491.003	86.94
491.221	93.94
491.439	87.94
491.657	87.94
491.874	88.94
492.092	78.94
492.31	87.94
492.527	95.94
492.745	97.94
492.963	95.94
493.18	93.94
493.398	99.94
493.615	95.94
493.833	105.94
494.05	86.94
494.268	110.94
494.485	94.94
494.703	77.94
494.92	78.94
495.138	82.94
495.355	81.94
495.573	93.94
495.79	87.94
496.008	96.94
496.225	95.94
496.442	85.94
496.66	79.94
496.877	87.94
497.094	96.94
497.312	86.94
497.529	90.94
497.746	102.94
497.963	89.94
498.181	102.94
498.398	104.94
498.615	104.94
498.832	103.94
499.049	98.94
499.267	80.94
499.484	94.94
499.701	84.94
499.918	84.94
500.135	84.94
500.352	91.94
500.569	79.94
500.786	87.94
501.003	102.94
501.22	88.94
501.437	94.94
501.654	90.94
501.871	93.94
502.088	91.94
502.305	96.94
502.522	97.94
502.739	83.94
502.956	84.94
503.172	93.94
503.389	89.94
503.606	99.94
503.823	98.94
504.04	89.94
504.256	73.94
504.473	75.94
504.69	95.94
504.907	98.94
505.123	88.94
505.34	91.94
505.557	85.94
505.773	91.94
505.99	74.94
506.207	79.94
506.423	88.94
506.64	94.94
506.856	93.94
507.073	82.94
507.289	89.94
507.506	89.94
507.722	99.94
507.939	112.94
508.155	96.94
508.372	87.94
508.588	87.94
508.805	103.94
509.021	100.94
509.238	90.94
509.454	111.94
509.67	101.94
509.887	98.94
510.103	123.94
510.319	205.94
510.536	721.94
510.752	2179.94
510.968	619.94
511.184	148.94
511.401	108.94
511.617	94.94
511.833	84.94
512.049	83.94
512.265	83.94
512.481	93.94
512.698	78.94
512.914	80.94
513.13	96.94
513.346	95.94
513.562	103.94
513.778	89.94
513.994	99.94
514.21	98.94
514.426	104.94
514.642	131.94
514.858	123.94
515.074	128.94
515.29	392.94
515.506	1302.94
515.721	485.94
515.937	150.94
516.153	108.94
516.369	92.94
516.585	86.94
516.801	82.94
517.016	88.94
