Data from Uncirc_1992_H10_HRD10591_00017.txt Node
Date: Wed Jan 03 11:46:19 EST 2024
User: Yrep
Spectrometer: HR+D1059
Trigger mode: 1
Integration Time (sec): 1.000000E-1
Scans to average: 1
Electric dark correction enabled: true
Nonlinearity correction enabled: false
Boxcar width: 0
XAxis mode: Wavelengths
Number of Pixels in Spectrum: 2048
>>>>>Begin Spectral Data<<<<<
223.165	-12.88
223.4	-12.88
223.635	-12.88
223.869	-15.88
224.104	-18.88
224.338	-4.88
224.573	-22.88
224.808	-17.88
225.042	-13.88
225.277	-5.88
225.511	-6.88
225.746	-5.88
225.98	12.12
226.215	11.12
226.449	30.12
226.683	19.12
226.918	26.12
227.152	27.12
227.387	30.12
227.621	38.12
227.856	39.12
228.09	51.12
228.324	54.12
228.559	66.12
228.793	42.12
229.027	63.12
229.262	65.12
229.496	77.12
229.73	73.12
229.964	85.12
230.199	70.12
230.433	73.12
230.667	84.12
230.901	65.12
231.136	80.12
231.37	80.12
231.604	82.12
231.838	77.12
232.072	77.12
232.306	83.12
232.541	83.12
232.775	90.12
233.009	78.12
233.243	83.12
233.477	95.12
233.711	84.12
233.945	77.12
234.179	88.12
234.413	80.12
234.647	73.12
234.881	80.12
235.115	81.12
235.349	81.12
235.583	89.12
235.817	78.12
236.051	79.12
236.285	70.12
236.519	78.12
236.753	77.12
236.987	79.12
237.221	77.12
237.455	70.12
237.689	86.12
237.922	69.12
238.156	82.12
238.39	70.12
238.624	62.12
238.858	75.12
239.091	70.12
239.325	75.12
239.559	100.12
239.793	77.12
240.027	80.12
240.26	67.12
240.494	92.12
240.728	87.12
240.961	93.12
241.195	77.12
241.429	74.12
241.662	88.12
241.896	68.12
242.13	64.12
242.363	73.12
242.597	92.12
242.83	88.12
243.064	87.12
243.298	69.12
243.531	70.12
243.765	82.12
243.998	83.12
244.232	82.12
244.465	81.12
244.699	81.12
244.932	79.12
245.166	91.12
245.399	75.12
245.633	71.12
245.866	77.12
246.099	81.12
246.333	70.12
246.566	82.12
246.8	95.12
247.033	80.12
247.266	71.12
247.5	85.12
247.733	79.12
247.966	78.12
248.2	93.12
248.433	85.12
248.666	77.12
248.899	83.12
249.133	78.12
249.366	91.12
249.599	85.12
249.832	89.12
250.066	86.12
250.299	81.12
250.532	79.12
250.765	67.12
250.998	88.12
251.231	85.12
251.465	92.12
251.698	91.12
251.931	65.12
252.164	87.12
252.397	80.12
252.63	83.12
252.863	101.12
253.096	79.12
253.329	64.12
253.562	90.12
253.795	94.12
254.028	71.12
254.261	90.12
254.494	77.12
254.727	91.12
254.96	87.12
255.193	73.12
255.426	93.12
255.659	73.12
255.892	82.12
256.124	68.12
256.357	78.12
256.59	89.12
256.823	73.12
257.056	58.12
257.289	87.12
257.521	82.12
257.754	79.12
257.987	65.12
258.22	91.12
258.452	83.12
258.685	93.12
258.918	70.12
259.151	83.12
259.383	82.12
259.616	86.12
259.849	80.12
260.081	83.12
260.314	63.12
260.547	88.12
260.779	74.12
261.012	91.12
261.244	79.12
261.477	87.12
261.71	108.12
261.942	104.12
262.175	101.12
262.407	79.12
262.64	77.12
262.872	78.12
263.105	81.12
263.337	103.12
263.57	82.12
263.802	95.12
264.035	83.12
264.267	78.12
264.499	87.12
264.732	84.12
264.964	71.12
265.197	87.12
265.429	82.12
265.661	70.12
265.894	77.12
266.126	100.12
266.358	74.12
266.591	102.12
266.823	80.12
267.055	75.12
267.287	90.12
267.52	77.12
267.752	76.12
267.984	98.12
268.216	75.12
268.448	92.12
268.681	77.12
268.913	70.12
269.145	77.12
269.377	97.12
269.609	98.12
269.841	85.12
270.073	91.12
270.306	75.12
270.538	87.12
270.77	77.12
271.002	93.12
271.234	93.12
271.466	82.12
271.698	81.12
271.93	90.12
272.162	54.12
272.394	92.12
272.626	89.12
272.858	78.12
273.09	99.12
273.322	82.12
273.553	83.12
273.785	74.12
274.017	74.12
274.249	93.12
274.481	86.12
274.713	79.12
274.945	71.12
275.176	78.12
275.408	71.12
275.64	87.12
275.872	101.12
276.104	81.12
276.335	89.12
276.567	98.12
276.799	95.12
277.031	89.12
277.262	77.12
277.494	97.12
277.726	73.12
277.957	79.12
278.189	73.12
278.421	88.12
278.652	91.12
278.884	67.12
279.115	99.12
279.347	98.12
279.579	82.12
279.81	67.12
280.042	90.12
280.273	77.12
280.505	94.12
280.736	86.12
280.968	92.12
281.199	80.12
281.431	88.12
281.662	98.12
281.894	86.12
282.125	106.12
282.356	107.12
282.588	129.12
282.819	119.12
283.051	79.12
283.282	81.12
283.513	85.12
283.745	79.12
283.976	85.12
284.207	88.12
284.439	79.12
284.67	90.12
284.901	76.12
285.132	78.12
285.364	93.12
285.595	79.12
285.826	83.12
286.057	84.12
286.288	100.12
286.52	70.12
286.751	83.12
286.982	76.12
287.213	75.12
287.444	89.12
287.675	86.12
287.906	83.12
288.138	81.12
288.369	105.12
288.6	84.12
288.831	93.12
289.062	75.12
289.293	85.12
289.524	90.12
289.755	96.12
289.986	80.12
290.217	94.12
290.448	87.12
290.679	84.12
290.91	86.12
291.141	85.12
291.371	95.12
291.602	89.12
291.833	89.12
292.064	85.12
292.295	83.12
292.526	80.12
292.757	76.12
292.987	94.12
293.218	75.12
293.449	86.12
293.68	93.12
293.91	80.12
294.141	92.12
294.372	90.12
294.603	87.12
294.833	98.12
295.064	86.12
295.295	92.12
295.525	87.12
295.756	97.12
295.987	112.12
296.217	113.12
296.448	102.12
296.679	86.12
296.909	87.12
297.14	88.12
297.37	84.12
297.601	88.12
297.831	85.12
298.062	91.12
298.292	94.12
298.523	96.12
298.753	89.12
298.984	73.12
299.214	95.12
299.445	92.12
299.675	87.12
299.905	95.12
300.136	95.12
300.366	78.12
300.597	93.12
300.827	91.12
301.057	91.12
301.288	100.12
301.518	99.12
301.748	93.12
301.979	108.12
302.209	89.12
302.439	102.12
302.669	87.12
302.9	81.12
303.13	102.12
303.36	91.12
303.59	102.12
303.82	94.12
304.051	88.12
304.281	90.12
304.511	94.12
304.741	88.12
304.971	84.12
305.201	90.12
305.431	87.12
305.661	108.12
305.891	106.12
306.121	96.12
306.352	94.12
306.582	77.12
306.812	89.12
307.042	79.12
307.272	81.12
307.502	104.12
307.731	86.12
307.961	86.12
308.191	77.12
308.421	95.12
308.651	94.12
308.881	91.12
309.111	94.12
309.341	96.12
309.571	100.12
309.8	103.12
310.03	98.12
310.26	96.12
310.49	81.12
310.72	102.12
310.949	99.12
311.179	94.12
311.409	84.12
311.639	103.12
311.868	94.12
312.098	116.12
312.328	109.12
312.557	97.12
312.787	81.12
313.017	97.12
313.246	104.12
313.476	92.12
313.706	92.12
313.935	91.12
314.165	104.12
314.394	110.12
314.624	101.12
314.853	103.12
315.083	97.12
315.312	100.12
315.542	83.12
315.771	98.12
316.001	92.12
316.23	91.12
316.46	76.12
316.689	97.12
316.919	89.12
317.148	91.12
317.377	92.12
317.607	99.12
317.836	108.12
318.065	88.12
318.295	92.12
318.524	90.12
318.753	96.12
318.983	91.12
319.212	99.12
319.441	109.12
319.67	108.12
319.9	102.12
320.129	72.12
320.358	101.12
320.587	86.12
320.816	98.12
321.046	91.12
321.275	94.12
321.504	87.12
321.733	85.12
321.962	96.12
322.191	104.12
322.42	97.12
322.649	102.12
322.878	108.12
323.108	110.12
323.337	119.12
323.566	124.12
323.795	133.12
324.024	192.12
324.253	316.12
324.482	678.12
324.71	1349.12
324.939	1691.12
325.168	659.12
325.397	214.12
325.626	140.12
325.855	121.12
326.084	114.12
326.313	122.12
326.542	139.12
326.77	197.12
326.999	381.12
327.228	752.12
327.457	1334.12
327.686	1029.12
327.914	302.12
328.143	171.12
328.372	114.12
328.6	116.12
328.829	124.12
329.058	126.12
329.287	117.12
329.515	113.12
329.744	94.12
329.972	97.12
330.201	99.12
330.43	99.12
330.658	94.12
330.887	111.12
331.115	103.12
331.344	89.12
331.572	89.12
331.801	95.12
332.03	106.12
332.258	94.12
332.486	83.12
332.715	61.12
332.943	91.12
333.172	82.12
333.4	97.12
333.629	97.12
333.857	107.12
334.085	100.12
334.314	91.12
334.542	101.12
334.771	87.12
334.999	96.12
335.227	81.12
335.455	85.12
335.684	89.12
335.912	85.12
336.14	113.12
336.369	97.12
336.597	101.12
336.825	101.12
337.053	98.12
337.281	96.12
337.51	77.12
337.738	106.12
337.966	92.12
338.194	96.12
338.422	93.12
338.65	92.12
338.878	85.12
339.106	81.12
339.334	90.12
339.562	94.12
339.79	96.12
340.018	88.12
340.246	96.12
340.474	90.12
340.702	94.12
340.93	84.12
341.158	95.12
341.386	100.12
341.614	103.12
341.842	103.12
342.07	95.12
342.298	86.12
342.526	84.12
342.754	79.12
342.981	75.12
343.209	85.12
343.437	100.12
343.665	98.12
343.893	84.12
344.12	92.12
344.348	96.12
344.576	89.12
344.804	93.12
345.031	103.12
345.259	89.12
345.487	96.12
345.714	94.12
345.942	72.12
346.17	101.12
346.397	92.12
346.625	103.12
346.853	93.12
347.08	82.12
347.308	98.12
347.535	96.12
347.763	96.12
347.99	107.12
348.218	93.12
348.445	91.12
348.673	89.12
348.9	105.12
349.128	80.12
349.355	93.12
349.583	94.12
349.81	85.12
350.037	87.12
350.265	87.12
350.492	100.12
350.72	89.12
350.947	107.12
351.174	101.12
351.402	100.12
351.629	103.12
351.856	103.12
352.083	104.12
352.311	113.12
352.538	102.12
352.765	106.12
352.992	100.12
353.22	97.12
353.447	102.12
353.674	105.12
353.901	86.12
354.128	89.12
354.355	90.12
354.583	102.12
354.81	89.12
355.037	88.12
355.264	94.12
355.491	98.12
355.718	88.12
355.945	95.12
356.172	96.12
356.399	83.12
356.626	97.12
356.853	90.12
357.08	95.12
357.307	93.12
357.534	82.12
357.761	85.12
357.988	104.12
358.215	98.12
358.441	103.12
358.668	80.12
358.895	92.12
359.122	97.12
359.349	100.12
359.576	89.12
359.802	96.12
360.029	106.12
360.256	113.12
360.483	112.12
360.709	87.12
360.936	69.12
361.163	87.12
361.39	86.12
361.616	84.12
361.843	83.12
362.07	92.12
362.296	98.12
362.523	92.12
362.749	82.12
362.976	92.12
363.203	90.12
363.429	82.12
363.656	97.12
363.882	97.12
364.109	96.12
364.335	94.12
364.562	71.12
364.788	92.12
365.015	81.12
365.241	90.12
365.468	112.12
365.694	99.12
365.92	93.12
366.147	97.12
366.373	83.12
366.599	96.12
366.826	100.12
367.052	92.12
367.278	89.12
367.505	99.12
367.731	97.12
367.957	94.12
368.184	91.12
368.41	102.12
368.636	109.12
368.862	113.12
369.089	95.12
369.315	89.12
369.541	94.12
369.767	81.12
369.993	89.12
370.219	83.12
370.445	77.12
370.672	77.12
370.898	86.12
371.124	78.12
371.35	81.12
371.576	101.12
371.802	102.12
372.028	84.12
372.254	80.12
372.48	99.12
372.706	89.12
372.932	91.12
373.158	90.12
373.384	86.12
373.61	99.12
373.835	84.12
374.061	87.12
374.287	91.12
374.513	90.12
374.739	87.12
374.965	91.12
375.191	84.12
375.416	85.12
375.642	91.12
375.868	100.12
376.094	102.12
376.319	86.12
376.545	88.12
376.771	89.12
376.997	78.12
377.222	89.12
377.448	82.12
377.674	81.12
377.899	88.12
378.125	100.12
378.35	104.12
378.576	78.12
378.802	97.12
379.027	102.12
379.253	94.12
379.478	88.12
379.704	85.12
379.929	92.12
380.155	97.12
380.38	101.12
380.606	100.12
380.831	95.12
381.057	86.12
381.282	90.12
381.507	103.12
381.733	94.12
381.958	103.12
382.184	101.12
382.409	88.12
382.634	97.12
382.86	110.12
383.085	91.12
383.31	108.12
383.535	93.12
383.761	87.12
383.986	102.12
384.211	95.12
384.436	95.12
384.662	86.12
384.887	95.12
385.112	95.12
385.337	106.12
385.562	108.12
385.787	103.12
386.013	105.12
386.238	114.12
386.463	106.12
386.688	108.12
386.913	107.12
387.138	113.12
387.363	101.12
387.588	102.12
387.813	105.12
388.038	109.12
388.263	107.12
388.488	112.12
388.713	95.12
388.938	105.12
389.163	103.12
389.387	101.12
389.612	90.12
389.837	103.12
390.062	82.12
390.287	93.12
390.512	77.12
390.736	84.12
390.961	98.12
391.186	95.12
391.411	89.12
391.636	100.12
391.86	91.12
392.085	81.12
392.31	95.12
392.534	82.12
392.759	93.12
392.984	92.12
393.208	108.12
393.433	102.12
393.658	94.12
393.882	92.12
394.107	85.12
394.331	76.12
394.556	92.12
394.78	89.12
395.005	107.12
395.229	91.12
395.454	93.12
395.678	83.12
395.903	89.12
396.127	77.12
396.352	97.12
396.576	95.12
396.801	89.12
397.025	105.12
397.249	107.12
397.474	94.12
397.698	83.12
397.922	89.12
398.147	97.12
398.371	82.12
398.595	93.12
398.82	85.12
399.044	83.12
399.268	92.12
399.492	85.12
399.717	106.12
399.941	90.12
400.165	86.12
400.389	86.12
400.613	85.12
400.837	101.12
401.062	81.12
401.286	92.12
401.51	96.12
401.734	89.12
401.958	94.12
402.182	118.12
402.406	152.12
402.63	110.12
402.854	86.12
403.078	98.12
403.302	94.12
403.526	93.12
403.75	76.12
403.974	95.12
404.198	88.12
404.422	89.12
404.645	89.12
404.869	90.12
405.093	93.12
405.317	88.12
405.541	87.12
405.765	103.12
405.988	116.12
406.212	150.12
406.436	189.12
406.66	115.12
406.883	92.12
407.107	81.12
407.331	100.12
407.555	102.12
407.778	97.12
408.002	93.12
408.226	90.12
408.449	89.12
408.673	96.12
408.896	92.12
409.12	108.12
409.344	95.12
409.567	93.12
409.791	97.12
410.014	112.12
410.238	97.12
410.461	89.12
410.685	103.12
410.908	85.12
411.132	97.12
411.355	107.12
411.578	99.12
411.802	75.12
412.025	81.12
412.249	86.12
412.472	96.12
412.695	84.12
412.919	88.12
413.142	82.12
413.365	84.12
413.589	93.12
413.812	79.12
414.035	90.12
414.258	78.12
414.482	83.12
414.705	102.12
414.928	86.12
415.151	96.12
415.374	92.12
415.597	79.12
415.821	113.12
416.044	91.12
416.267	94.12
416.49	76.12
416.713	85.12
416.936	85.12
417.159	109.12
417.382	82.12
417.605	87.12
417.828	92.12
418.051	91.12
418.274	91.12
418.497	93.12
418.72	97.12
418.943	82.12
419.166	75.12
419.389	90.12
419.611	81.12
419.834	91.12
420.057	99.12
420.28	95.12
420.503	81.12
420.726	75.12
420.948	78.12
421.171	92.12
421.394	80.12
421.617	100.12
421.839	87.12
422.062	90.12
422.285	90.12
422.507	107.12
422.73	109.12
422.953	105.12
423.175	90.12
423.398	95.12
423.621	82.12
423.843	89.12
424.066	96.12
424.288	84.12
424.511	95.12
424.733	96.12
424.956	101.12
425.178	98.12
425.401	100.12
425.623	110.12
425.846	91.12
426.068	92.12
426.291	92.12
426.513	96.12
426.735	91.12
426.958	97.12
427.18	95.12
427.402	100.12
427.625	150.12
427.847	117.12
428.069	99.12
428.292	81.12
428.514	80.12
428.736	81.12
428.958	88.12
429.181	77.12
429.403	84.12
429.625	98.12
429.847	85.12
430.069	95.12
430.292	94.12
430.514	90.12
430.736	95.12
430.958	89.12
431.18	99.12
431.402	97.12
431.624	76.12
431.846	102.12
432.068	81.12
432.29	76.12
432.512	85.12
432.734	77.12
432.956	76.12
433.178	99.12
433.4	94.12
433.622	85.12
433.844	82.12
434.066	97.12
434.287	89.12
434.509	99.12
434.731	90.12
434.953	84.12
435.175	94.12
435.397	87.12
435.618	93.12
435.84	93.12
436.062	102.12
436.284	111.12
436.505	98.12
436.727	93.12
436.949	95.12
437.17	88.12
437.392	89.12
437.614	99.12
437.835	97.12
438.057	115.12
438.278	105.12
438.5	98.12
438.721	95.12
438.943	102.12
439.165	89.12
439.386	88.12
439.608	91.12
439.829	93.12
440.05	124.12
440.272	121.12
440.493	95.12
440.715	94.12
440.936	91.12
441.158	91.12
441.379	80.12
441.6	96.12
441.822	108.12
442.043	86.12
442.264	101.12
442.486	102.12
442.707	88.12
442.928	106.12
443.149	101.12
443.371	119.12
443.592	105.12
443.813	88.12
444.034	105.12
444.255	98.12
444.476	91.12
444.698	88.12
444.919	79.12
445.14	125.12
445.361	110.12
445.582	116.12
445.803	118.12
446.024	124.12
446.245	138.12
446.466	104.12
446.687	111.12
446.908	94.12
447.129	86.12
447.35	82.12
447.571	90.12
447.792	91.12
448.013	79.12
448.234	91.12
448.455	95.12
448.675	103.12
448.896	98.12
449.117	88.12
449.338	97.12
449.559	104.12
449.779	117.12
450	79.12
450.221	86.12
450.442	82.12
450.662	97.12
450.883	82.12
451.104	111.12
451.324	100.12
451.545	86.12
451.766	85.12
451.986	92.12
452.207	88.12
452.428	95.12
452.648	103.12
452.869	98.12
453.089	99.12
453.31	109.12
453.53	96.12
453.751	94.12
453.971	94.12
454.192	110.12
454.412	79.12
454.633	96.12
454.853	71.12
455.073	82.12
455.294	86.12
455.514	100.12
455.734	90.12
455.955	81.12
456.175	80.12
456.395	87.12
456.616	96.12
456.836	78.12
457.056	82.12
457.276	79.12
457.497	97.12
457.717	86.12
457.937	97.12
458.157	97.12
458.377	82.12
458.598	99.12
458.818	121.12
459.038	131.12
459.258	110.12
459.478	89.12
459.698	91.12
459.918	97.12
460.138	87.12
460.358	89.12
460.578	95.12
460.798	85.12
461.018	83.12
461.238	88.12
461.458	77.12
461.678	85.12
461.898	103.12
462.118	88.12
462.338	87.12
462.558	87.12
462.777	99.12
462.997	90.12
463.217	79.12
463.437	87.12
463.657	84.12
463.876	92.12
464.096	94.12
464.316	84.12
464.536	96.12
464.755	96.12
464.975	107.12
465.195	139.12
465.414	146.12
465.634	90.12
465.854	90.12
466.073	94.12
466.293	84.12
466.512	85.12
466.732	90.12
466.951	76.12
467.171	100.12
467.391	102.12
467.61	105.12
467.829	99.12
468.049	92.12
468.268	87.12
468.488	102.12
468.707	88.12
468.927	95.12
469.146	103.12
469.365	93.12
469.585	83.12
469.804	81.12
470.023	87.12
470.243	87.12
470.462	112.12
470.681	96.12
470.901	90.12
471.12	89.12
471.339	91.12
471.558	91.12
471.777	85.12
471.997	86.12
472.216	78.12
472.435	91.12
472.654	78.12
472.873	90.12
473.092	102.12
473.311	87.12
473.53	83.12
473.749	96.12
473.968	82.12
474.187	93.12
474.406	87.12
474.625	98.12
474.844	108.12
475.063	97.12
475.282	96.12
475.501	85.12
475.72	98.12
475.939	85.12
476.158	87.12
476.377	92.12
476.596	95.12
476.814	93.12
477.033	100.12
477.252	101.12
477.471	88.12
477.69	89.12
477.908	87.12
478.127	108.12
478.346	105.12
478.564	89.12
478.783	103.12
479.002	90.12
479.22	91.12
479.439	106.12
479.658	93.12
479.876	97.12
480.095	90.12
480.313	90.12
480.532	95.12
480.751	102.12
480.969	90.12
481.188	95.12
481.406	94.12
481.624	73.12
481.843	76.12
482.061	97.12
482.28	89.12
482.498	89.12
482.717	90.12
482.935	103.12
483.153	86.12
483.372	90.12
483.59	100.12
483.808	88.12
484.027	98.12
484.245	86.12
484.463	85.12
484.681	94.12
484.9	70.12
485.118	85.12
485.336	89.12
485.554	100.12
485.772	87.12
485.99	93.12
486.209	107.12
486.427	109.12
486.645	104.12
486.863	110.12
487.081	95.12
487.299	94.12
487.517	91.12
487.735	103.12
487.953	104.12
488.171	101.12
488.389	99.12
488.607	110.12
488.825	92.12
489.043	90.12
489.261	95.12
489.479	79.12
489.696	89.12
489.914	96.12
490.132	96.12
490.35	91.12
490.568	93.12
490.786	93.12
491.003	85.12
491.221	102.12
491.439	90.12
491.657	86.12
491.874	89.12
492.092	102.12
492.31	99.12
492.527	97.12
492.745	94.12
492.963	101.12
493.18	112.12
493.398	93.12
493.615	109.12
493.833	91.12
494.05	106.12
494.268	83.12
494.485	99.12
494.703	90.12
494.92	95.12
495.138	87.12
495.355	102.12
495.573	92.12
495.79	95.12
496.008	82.12
496.225	94.12
496.442	89.12
496.66	82.12
496.877	69.12
497.094	79.12
497.312	84.12
497.529	86.12
497.746	95.12
497.963	101.12
498.181	89.12
498.398	103.12
498.615	114.12
498.832	105.12
499.049	95.12
499.267	99.12
499.484	107.12
499.701	103.12
499.918	92.12
500.135	84.12
500.352	80.12
500.569	75.12
500.786	103.12
501.003	98.12
501.22	90.12
501.437	87.12
501.654	91.12
501.871	105.12
502.088	91.12
502.305	96.12
502.522	94.12
502.739	77.12
502.956	82.12
503.172	81.12
503.389	96.12
503.606	106.12
503.823	73.12
504.04	98.12
504.256	98.12
504.473	89.12
504.69	86.12
504.907	97.12
505.123	85.12
505.34	91.12
505.557	100.12
505.773	86.12
505.99	94.12
506.207	83.12
506.423	105.12
506.64	83.12
506.856	83.12
507.073	109.12
507.289	97.12
507.506	107.12
507.722	103.12
507.939	103.12
508.155	98.12
508.372	86.12
508.588	97.12
508.805	92.12
509.021	93.12
509.238	113.12
509.454	99.12
509.67	100.12
509.887	116.12
510.103	114.12
510.319	212.12
510.536	693.12
510.752	1957.12
510.968	552.12
511.184	157.12
511.401	92.12
511.617	99.12
511.833	89.12
512.049	108.12
512.265	89.12
512.481	82.12
512.698	90.12
512.914	93.12
513.13	96.12
513.346	89.12
513.562	96.12
513.778	94.12
513.994	77.12
514.21	85.12
514.426	109.12
514.642	122.12
514.858	134.12
515.074	155.12
515.29	369.12
515.506	1165.12
515.721	433.12
515.937	126.12
