Data from Uncirc_1992_H10_HRD10591_00038.txt Node
Date: Wed Jan 03 11:46:23 EST 2024
User: Yrep
Spectrometer: HR+D1059
Trigger mode: 1
Integration Time (sec): 1.000000E-1
Scans to average: 1
Electric dark correction enabled: true
Nonlinearity correction enabled: false
Boxcar width: 0
XAxis mode: Wavelengths
Number of Pixels in Spectrum: 2048
>>>>>Begin Spectral Data<<<<<
223.165	-19.94
223.4	-19.94
223.635	-19.94
223.869	-21.94
224.104	-27.94
224.338	-18.94
224.573	-8.94
224.808	-8.94
225.042	-8.94
225.277	6.06
225.511	-4.94
225.746	9.06
225.98	-3.94
226.215	11.06
226.449	29.06
226.683	20.06
226.918	32.06
227.152	17.06
227.387	35.06
227.621	33.06
227.856	47.06
228.09	45.06
228.324	60.06
228.559	61.06
228.793	59.06
229.027	63.06
229.262	61.06
229.496	53.06
229.73	72.06
229.964	84.06
230.199	89.06
230.433	74.06
230.667	92.06
230.901	69.06
231.136	73.06
231.37	84.06
231.604	87.06
231.838	78.06
232.072	92.06
232.306	70.06
232.541	92.06
232.775	83.06
233.009	87.06
233.243	80.06
233.477	92.06
233.711	77.06
233.945	80.06
234.179	84.06
234.413	71.06
234.647	86.06
234.881	80.06
235.115	85.06
235.349	81.06
235.583	80.06
235.817	81.06
236.051	83.06
236.285	76.06
236.519	71.06
236.753	84.06
236.987	71.06
237.221	84.06
237.455	78.06
237.689	75.06
237.922	83.06
238.156	65.06
238.39	85.06
238.624	85.06
238.858	91.06
239.091	87.06
239.325	66.06
239.559	64.06
239.793	61.06
240.027	69.06
240.26	85.06
240.494	81.06
240.728	78.06
240.961	89.06
241.195	67.06
241.429	79.06
241.662	76.06
241.896	80.06
242.13	76.06
242.363	71.06
242.597	93.06
242.83	75.06
243.064	72.06
243.298	81.06
243.531	95.06
243.765	65.06
243.998	75.06
244.232	92.06
244.465	87.06
244.699	99.06
244.932	66.06
245.166	82.06
245.399	81.06
245.633	86.06
245.866	95.06
246.099	83.06
246.333	85.06
246.566	73.06
246.8	77.06
247.033	85.06
247.266	75.06
247.5	81.06
247.733	85.06
247.966	85.06
248.2	80.06
248.433	77.06
248.666	74.06
248.899	82.06
249.133	88.06
249.366	69.06
249.599	87.06
249.832	62.06
250.066	89.06
250.299	89.06
250.532	94.06
250.765	89.06
250.998	89.06
251.231	81.06
251.465	87.06
251.698	68.06
251.931	79.06
252.164	79.06
252.397	79.06
252.63	82.06
252.863	88.06
253.096	78.06
253.329	88.06
253.562	79.06
253.795	75.06
254.028	68.06
254.261	81.06
254.494	69.06
254.727	79.06
254.96	81.06
255.193	81.06
255.426	102.06
255.659	75.06
255.892	79.06
256.124	82.06
256.357	77.06
256.59	93.06
256.823	92.06
257.056	87.06
257.289	85.06
257.521	77.06
257.754	88.06
257.987	84.06
258.22	73.06
258.452	89.06
258.685	88.06
258.918	87.06
259.151	78.06
259.383	70.06
259.616	88.06
259.849	79.06
260.081	76.06
260.314	88.06
260.547	83.06
260.779	86.06
261.012	89.06
261.244	85.06
261.477	84.06
261.71	94.06
261.942	100.06
262.175	102.06
262.407	92.06
262.64	98.06
262.872	81.06
263.105	81.06
263.337	91.06
263.57	77.06
263.802	87.06
264.035	72.06
264.267	71.06
264.499	91.06
264.732	67.06
264.964	85.06
265.197	70.06
265.429	93.06
265.661	103.06
265.894	83.06
266.126	86.06
266.358	87.06
266.591	76.06
266.823	99.06
267.055	86.06
267.287	81.06
267.52	97.06
267.752	72.06
267.984	86.06
268.216	76.06
268.448	86.06
268.681	81.06
268.913	88.06
269.145	82.06
269.377	73.06
269.609	73.06
269.841	96.06
270.073	77.06
270.306	85.06
270.538	86.06
270.77	91.06
271.002	89.06
271.234	90.06
271.466	91.06
271.698	99.06
271.93	88.06
272.162	98.06
272.394	84.06
272.626	85.06
272.858	82.06
273.09	83.06
273.322	88.06
273.553	100.06
273.785	86.06
274.017	88.06
274.249	86.06
274.481	86.06
274.713	93.06
274.945	88.06
275.176	84.06
275.408	81.06
275.64	78.06
275.872	101.06
276.104	95.06
276.335	95.06
276.567	102.06
276.799	101.06
277.031	103.06
277.262	85.06
277.494	100.06
277.726	79.06
277.957	79.06
278.189	90.06
278.421	88.06
278.652	79.06
278.884	91.06
279.115	104.06
279.347	98.06
279.579	99.06
279.81	85.06
280.042	94.06
280.273	82.06
280.505	91.06
280.736	92.06
280.968	97.06
281.199	95.06
281.431	92.06
281.662	92.06
281.894	78.06
282.125	77.06
282.356	101.06
282.588	111.06
282.819	106.06
283.051	103.06
283.282	76.06
283.513	88.06
283.745	98.06
283.976	83.06
284.207	95.06
284.439	90.06
284.67	79.06
284.901	107.06
285.132	91.06
285.364	83.06
285.595	85.06
285.826	85.06
286.057	86.06
286.288	67.06
286.52	83.06
286.751	83.06
286.982	95.06
287.213	84.06
287.444	83.06
287.675	84.06
287.906	82.06
288.138	90.06
288.369	97.06
288.6	93.06
288.831	83.06
289.062	87.06
289.293	98.06
289.524	86.06
289.755	91.06
289.986	90.06
290.217	105.06
290.448	71.06
290.679	80.06
290.91	92.06
291.141	90.06
291.371	85.06
291.602	91.06
291.833	82.06
292.064	93.06
292.295	79.06
292.526	79.06
292.757	86.06
292.987	85.06
293.218	85.06
293.449	76.06
293.68	80.06
293.91	96.06
294.141	91.06
294.372	96.06
294.603	80.06
294.833	93.06
295.064	87.06
295.295	98.06
295.525	83.06
295.756	99.06
295.987	109.06
296.217	126.06
296.448	106.06
296.679	96.06
296.909	88.06
297.14	103.06
297.37	95.06
297.601	89.06
297.831	81.06
298.062	98.06
298.292	93.06
298.523	81.06
298.753	76.06
298.984	79.06
299.214	109.06
299.445	99.06
299.675	93.06
299.905	93.06
300.136	77.06
300.366	105.06
300.597	90.06
300.827	93.06
301.057	84.06
301.288	118.06
301.518	97.06
301.748	96.06
301.979	104.06
302.209	102.06
302.439	98.06
302.669	78.06
302.9	95.06
303.13	96.06
303.36	88.06
303.59	93.06
303.82	95.06
304.051	84.06
304.281	87.06
304.511	95.06
304.741	88.06
304.971	68.06
305.201	92.06
305.431	77.06
305.661	92.06
305.891	89.06
306.121	90.06
306.352	92.06
306.582	100.06
306.812	94.06
307.042	90.06
307.272	106.06
307.502	77.06
307.731	85.06
307.961	89.06
308.191	97.06
308.421	98.06
308.651	96.06
308.881	92.06
309.111	96.06
309.341	101.06
309.571	109.06
309.8	100.06
310.03	84.06
310.26	99.06
310.49	87.06
310.72	102.06
310.949	99.06
311.179	97.06
311.409	94.06
311.639	93.06
311.868	89.06
312.098	94.06
312.328	101.06
312.557	100.06
312.787	89.06
313.017	115.06
313.246	89.06
313.476	104.06
313.706	85.06
313.935	85.06
314.165	96.06
314.394	94.06
314.624	83.06
314.853	99.06
315.083	89.06
315.312	97.06
315.542	79.06
315.771	90.06
316.001	88.06
316.23	98.06
316.46	96.06
316.689	95.06
316.919	98.06
317.148	85.06
317.377	110.06
317.607	91.06
317.836	99.06
318.065	104.06
318.295	109.06
318.524	96.06
318.753	98.06
318.983	88.06
319.212	103.06
319.441	111.06
319.67	108.06
319.9	99.06
320.129	84.06
320.358	89.06
320.587	103.06
320.816	94.06
321.046	101.06
321.275	95.06
321.504	94.06
321.733	97.06
321.962	88.06
322.191	85.06
322.42	97.06
322.649	118.06
322.878	105.06
323.108	115.06
323.337	105.06
323.566	126.06
323.795	124.06
324.024	175.06
324.253	296.06
324.482	635.06
324.71	1254.06
324.939	1565.06
325.168	606.06
325.397	203.06
325.626	139.06
325.855	120.06
326.084	122.06
326.313	133.06
326.542	133.06
326.77	183.06
326.999	343.06
327.228	704.06
327.457	1254.06
327.686	1017.06
327.914	300.06
328.143	155.06
328.372	123.06
328.6	127.06
328.829	98.06
329.058	119.06
329.287	120.06
329.515	90.06
329.744	108.06
329.972	91.06
330.201	91.06
330.43	104.06
330.658	115.06
330.887	111.06
331.115	117.06
331.344	100.06
331.572	92.06
331.801	97.06
332.03	96.06
332.258	87.06
332.486	97.06
332.715	92.06
332.943	103.06
333.172	99.06
333.4	104.06
333.629	108.06
333.857	109.06
334.085	107.06
334.314	93.06
334.542	85.06
334.771	79.06
334.999	89.06
335.227	85.06
335.455	96.06
335.684	80.06
335.912	101.06
336.14	113.06
336.369	92.06
336.597	96.06
336.825	101.06
337.053	101.06
337.281	97.06
337.51	87.06
337.738	101.06
337.966	98.06
338.194	91.06
338.422	96.06
338.65	95.06
338.878	80.06
339.106	84.06
339.334	88.06
339.562	88.06
339.79	102.06
340.018	89.06
340.246	91.06
340.474	87.06
340.702	90.06
340.93	102.06
341.158	83.06
341.386	99.06
341.614	100.06
341.842	94.06
342.07	87.06
342.298	104.06
342.526	83.06
342.754	104.06
342.981	97.06
343.209	89.06
343.437	93.06
343.665	83.06
343.893	109.06
344.12	93.06
344.348	91.06
344.576	98.06
344.804	96.06
345.031	91.06
345.259	95.06
345.487	103.06
345.714	115.06
345.942	83.06
346.17	102.06
346.397	99.06
346.625	102.06
346.853	93.06
347.08	93.06
347.308	95.06
347.535	97.06
347.763	104.06
347.99	109.06
348.218	106.06
348.445	95.06
348.673	97.06
348.9	87.06
349.128	115.06
349.355	103.06
349.583	97.06
349.81	100.06
350.037	95.06
350.265	91.06
350.492	92.06
350.72	96.06
350.947	87.06
351.174	108.06
351.402	95.06
351.629	88.06
351.856	105.06
352.083	106.06
352.311	106.06
352.538	101.06
352.765	100.06
352.992	110.06
353.22	115.06
353.447	98.06
353.674	111.06
353.901	103.06
354.128	102.06
354.355	81.06
354.583	100.06
354.81	109.06
355.037	113.06
355.264	82.06
355.491	94.06
355.718	103.06
355.945	100.06
356.172	86.06
356.399	100.06
356.626	92.06
356.853	104.06
357.08	96.06
357.307	88.06
357.534	89.06
357.761	106.06
357.988	96.06
358.215	94.06
358.441	96.06
358.668	93.06
358.895	100.06
359.122	93.06
359.349	84.06
359.576	90.06
359.802	95.06
360.029	93.06
360.256	101.06
360.483	99.06
360.709	101.06
360.936	82.06
361.163	86.06
361.39	83.06
361.616	86.06
361.843	91.06
362.07	100.06
362.296	90.06
362.523	94.06
362.749	96.06
362.976	96.06
363.203	88.06
363.429	93.06
363.656	101.06
363.882	82.06
364.109	83.06
364.335	84.06
364.562	84.06
364.788	97.06
365.015	93.06
365.241	105.06
365.468	111.06
365.694	109.06
365.92	98.06
366.147	98.06
366.373	88.06
366.599	104.06
366.826	89.06
367.052	91.06
367.278	106.06
367.505	107.06
367.731	100.06
367.957	114.06
368.184	87.06
368.41	94.06
368.636	100.06
368.862	117.06
369.089	104.06
369.315	88.06
369.541	95.06
369.767	87.06
369.993	83.06
370.219	84.06
370.445	99.06
370.672	81.06
370.898	89.06
371.124	83.06
371.35	78.06
371.576	97.06
371.802	87.06
372.028	93.06
372.254	104.06
372.48	91.06
372.706	93.06
372.932	74.06
373.158	91.06
373.384	98.06
373.61	99.06
373.835	100.06
374.061	87.06
374.287	91.06
374.513	95.06
374.739	98.06
374.965	78.06
375.191	98.06
375.416	92.06
375.642	88.06
375.868	99.06
376.094	88.06
376.319	92.06
376.545	86.06
376.771	96.06
376.997	92.06
377.222	98.06
377.448	100.06
377.674	87.06
377.899	85.06
378.125	102.06
378.35	85.06
378.576	89.06
378.802	99.06
379.027	77.06
379.253	96.06
379.478	90.06
379.704	97.06
379.929	95.06
380.155	102.06
380.38	108.06
380.606	102.06
380.831	91.06
381.057	101.06
381.282	83.06
381.507	89.06
381.733	100.06
381.958	96.06
382.184	83.06
382.409	85.06
382.634	99.06
382.86	101.06
383.085	88.06
383.31	103.06
383.535	95.06
383.761	104.06
383.986	104.06
384.211	91.06
384.436	92.06
384.662	100.06
384.887	102.06
385.112	106.06
385.337	103.06
385.562	111.06
385.787	114.06
386.013	93.06
386.238	102.06
386.463	95.06
386.688	100.06
386.913	106.06
387.138	100.06
387.363	97.06
387.588	93.06
387.813	111.06
388.038	99.06
388.263	102.06
388.488	105.06
388.713	96.06
388.938	104.06
389.163	121.06
389.387	101.06
389.612	92.06
389.837	91.06
390.062	97.06
390.287	107.06
390.512	95.06
390.736	88.06
390.961	78.06
391.186	94.06
391.411	98.06
391.636	102.06
391.86	94.06
392.085	84.06
392.31	103.06
392.534	100.06
392.759	82.06
392.984	96.06
393.208	98.06
393.433	87.06
393.658	102.06
393.882	96.06
394.107	86.06
394.331	88.06
394.556	94.06
394.78	91.06
395.005	100.06
395.229	108.06
395.454	99.06
395.678	78.06
395.903	89.06
396.127	90.06
396.352	81.06
396.576	87.06
396.801	95.06
397.025	86.06
397.249	85.06
397.474	97.06
397.698	89.06
397.922	89.06
398.147	84.06
398.371	99.06
398.595	94.06
398.82	85.06
399.044	103.06
399.268	97.06
399.492	89.06
399.717	86.06
399.941	86.06
400.165	105.06
400.389	84.06
400.613	94.06
400.837	111.06
401.062	101.06
401.286	86.06
401.51	87.06
401.734	78.06
401.958	99.06
402.182	115.06
402.406	129.06
402.63	107.06
402.854	96.06
403.078	97.06
403.302	87.06
403.526	88.06
403.75	77.06
403.974	105.06
404.198	87.06
404.422	92.06
404.645	97.06
404.869	96.06
405.093	86.06
405.317	96.06
405.541	112.06
405.765	107.06
405.988	98.06
406.212	161.06
406.436	203.06
406.66	122.06
406.883	82.06
407.107	97.06
407.331	110.06
407.555	95.06
407.778	98.06
408.002	101.06
408.226	89.06
408.449	84.06
408.673	87.06
408.896	101.06
409.12	96.06
409.344	95.06
409.567	94.06
409.791	98.06
410.014	94.06
410.238	91.06
410.461	84.06
410.685	99.06
410.908	97.06
411.132	113.06
411.355	94.06
411.578	94.06
411.802	100.06
412.025	82.06
412.249	87.06
412.472	87.06
412.695	92.06
412.919	89.06
413.142	98.06
413.365	83.06
413.589	85.06
413.812	84.06
414.035	85.06
414.258	82.06
414.482	87.06
414.705	93.06
414.928	90.06
415.151	105.06
415.374	106.06
415.597	78.06
415.821	91.06
416.044	88.06
416.267	83.06
416.49	98.06
416.713	100.06
416.936	93.06
417.159	89.06
417.382	80.06
417.605	85.06
417.828	101.06
418.051	104.06
418.274	97.06
418.497	81.06
418.72	94.06
418.943	97.06
419.166	86.06
419.389	94.06
419.611	79.06
419.834	101.06
420.057	92.06
420.28	76.06
420.503	101.06
420.726	100.06
420.948	99.06
421.171	83.06
421.394	80.06
421.617	105.06
421.839	90.06
422.062	93.06
422.285	88.06
422.507	97.06
422.73	95.06
422.953	100.06
423.175	86.06
423.398	93.06
423.621	97.06
423.843	80.06
424.066	93.06
424.288	93.06
424.511	89.06
424.733	100.06
424.956	105.06
425.178	98.06
425.401	97.06
425.623	93.06
425.846	99.06
426.068	83.06
426.291	99.06
426.513	88.06
426.735	91.06
426.958	87.06
427.18	105.06
427.402	119.06
427.625	143.06
427.847	107.06
428.069	101.06
428.292	80.06
428.514	97.06
428.736	98.06
428.958	95.06
429.181	85.06
429.403	91.06
429.625	88.06
429.847	79.06
430.069	91.06
430.292	93.06
430.514	91.06
430.736	82.06
430.958	87.06
431.18	95.06
431.402	93.06
431.624	94.06
431.846	95.06
432.068	78.06
432.29	90.06
432.512	78.06
432.734	78.06
432.956	93.06
433.178	109.06
433.4	90.06
433.622	93.06
433.844	97.06
434.066	94.06
434.287	100.06
434.509	85.06
434.731	100.06
434.953	91.06
435.175	72.06
435.397	101.06
435.618	99.06
435.84	99.06
436.062	120.06
436.284	109.06
436.505	107.06
436.727	110.06
436.949	97.06
437.17	106.06
437.392	88.06
437.614	94.06
437.835	104.06
438.057	117.06
438.278	104.06
438.5	103.06
438.721	109.06
438.943	87.06
439.165	89.06
439.386	83.06
439.608	94.06
439.829	84.06
440.05	109.06
440.272	129.06
440.493	104.06
440.715	95.06
440.936	73.06
441.158	77.06
441.379	88.06
441.6	92.06
441.822	97.06
442.043	84.06
442.264	99.06
442.486	90.06
442.707	88.06
442.928	94.06
443.149	123.06
443.371	114.06
443.592	102.06
443.813	101.06
444.034	101.06
444.255	91.06
444.476	91.06
444.698	92.06
444.919	85.06
445.14	131.06
445.361	112.06
445.582	83.06
445.803	102.06
446.024	104.06
446.245	111.06
446.466	89.06
446.687	91.06
446.908	93.06
447.129	91.06
447.35	88.06
447.571	88.06
447.792	101.06
448.013	93.06
448.234	99.06
448.455	84.06
448.675	105.06
448.896	116.06
449.117	104.06
449.338	98.06
449.559	97.06
449.779	121.06
450	88.06
450.221	88.06
450.442	87.06
450.662	102.06
450.883	102.06
451.104	98.06
451.324	93.06
451.545	83.06
451.766	95.06
451.986	93.06
452.207	86.06
452.428	81.06
452.648	99.06
452.869	117.06
453.089	120.06
453.31	102.06
453.53	101.06
453.751	92.06
453.971	96.06
454.192	93.06
454.412	88.06
454.633	95.06
454.853	86.06
455.073	107.06
455.294	70.06
455.514	102.06
455.734	93.06
455.955	96.06
456.175	79.06
456.395	76.06
456.616	77.06
456.836	95.06
457.056	79.06
457.276	87.06
457.497	91.06
457.717	82.06
457.937	105.06
458.157	94.06
458.377	89.06
458.598	111.06
458.818	119.06
459.038	147.06
459.258	95.06
459.478	77.06
459.698	94.06
459.918	104.06
460.138	87.06
460.358	78.06
460.578	91.06
460.798	105.06
461.018	83.06
461.238	93.06
461.458	82.06
461.678	94.06
461.898	91.06
462.118	85.06
462.338	85.06
462.558	80.06
462.777	85.06
462.997	95.06
463.217	75.06
463.437	92.06
463.657	71.06
463.876	85.06
464.096	89.06
464.316	98.06
464.536	95.06
464.755	105.06
464.975	101.06
465.195	143.06
465.414	131.06
465.634	88.06
465.854	85.06
466.073	92.06
466.293	99.06
466.512	103.06
466.732	99.06
466.951	85.06
467.171	89.06
467.391	97.06
467.61	105.06
467.829	107.06
468.049	79.06
468.268	80.06
468.488	105.06
468.707	99.06
468.927	82.06
469.146	76.06
469.365	82.06
469.585	95.06
469.804	91.06
470.023	98.06
470.243	85.06
470.462	114.06
470.681	118.06
470.901	91.06
471.12	95.06
471.339	91.06
471.558	93.06
471.777	88.06
471.997	78.06
472.216	97.06
472.435	82.06
472.654	82.06
472.873	89.06
473.092	88.06
473.311	96.06
473.53	85.06
473.749	85.06
473.968	89.06
474.187	100.06
474.406	95.06
474.625	87.06
474.844	72.06
475.063	87.06
475.282	81.06
475.501	84.06
475.72	89.06
475.939	84.06
476.158	90.06
476.377	85.06
476.596	105.06
476.814	93.06
477.033	86.06
477.252	90.06
477.471	76.06
477.69	84.06
477.908	85.06
478.127	84.06
478.346	69.06
478.564	95.06
478.783	94.06
479.002	77.06
479.22	99.06
479.439	100.06
479.658	95.06
479.876	96.06
480.095	85.06
480.313	101.06
480.532	96.06
480.751	93.06
480.969	75.06
481.188	84.06
481.406	88.06
481.624	72.06
481.843	87.06
482.061	94.06
482.28	84.06
482.498	107.06
482.717	103.06
482.935	107.06
483.153	75.06
483.372	93.06
483.59	81.06
483.808	107.06
484.027	89.06
484.245	88.06
484.463	85.06
484.681	97.06
484.9	103.06
485.118	91.06
485.336	88.06
485.554	98.06
485.772	100.06
485.99	95.06
486.209	99.06
486.427	102.06
486.645	112.06
486.863	105.06
487.081	77.06
487.299	98.06
487.517	98.06
487.735	104.06
487.953	92.06
488.171	94.06
488.389	99.06
488.607	95.06
488.825	76.06
489.043	95.06
489.261	94.06
489.479	91.06
489.696	90.06
489.914	81.06
490.132	91.06
490.35	90.06
490.568	96.06
490.786	92.06
491.003	87.06
491.221	93.06
491.439	83.06
491.657	99.06
491.874	92.06
492.092	95.06
492.31	93.06
492.527	95.06
492.745	82.06
492.963	96.06
493.18	87.06
493.398	109.06
493.615	108.06
493.833	94.06
494.05	89.06
494.268	93.06
494.485	86.06
494.703	102.06
494.92	96.06
495.138	105.06
495.355	92.06
495.573	102.06
495.79	92.06
496.008	84.06
496.225	79.06
496.442	77.06
496.66	89.06
496.877	95.06
497.094	85.06
497.312	101.06
497.529	88.06
497.746	101.06
497.963	99.06
498.181	92.06
498.398	103.06
498.615	104.06
498.832	114.06
499.049	107.06
499.267	96.06
499.484	105.06
499.701	101.06
499.918	83.06
500.135	103.06
500.352	95.06
500.569	91.06
500.786	94.06
501.003	98.06
501.22	88.06
501.437	99.06
501.654	95.06
501.871	101.06
502.088	91.06
502.305	90.06
502.522	93.06
502.739	82.06
502.956	87.06
503.172	85.06
503.389	96.06
503.606	102.06
503.823	96.06
504.04	99.06
504.256	89.06
504.473	86.06
504.69	87.06
504.907	94.06
505.123	87.06
505.34	101.06
505.557	85.06
505.773	91.06
505.99	84.06
506.207	93.06
506.423	91.06
506.64	92.06
506.856	85.06
507.073	103.06
507.289	89.06
507.506	102.06
507.722	109.06
507.939	97.06
508.155	99.06
508.372	90.06
508.588	77.06
508.805	102.06
509.021	95.06
509.238	79.06
509.454	85.06
509.67	97.06
509.887	113.06
510.103	111.06
510.319	203.06
510.536	638.06
510.752	1898.06
510.968	531.06
511.184	139.06
511.401	110.06
511.617	95.06
511.833	98.06
512.049	94.06
512.265	81.06
512.481	100.06
512.698	100.06
512.914	81.06
513.13	106.06
513.346	103.06
513.562	93.06
513.778	85.06
513.994	101.06
514.21	84.06
514.426	116.06
514.642	110.06
514.858	118.06
515.074	149.06
515.29	361.06
515.506	1107.06
