Data from Uncirc_1992_H10_HRD10591_00065.txt Node
Date: Wed Jan 03 11:46:29 EST 2024
User: Yrep
Spectrometer: HR+D1059
Trigger mode: 1
Integration Time (sec): 1.000000E-1
Scans to average: 1
Electric dark correction enabled: true
Nonlinearity correction enabled: false
Boxcar width: 0
XAxis mode: Wavelengths
Number of Pixels in Spectrum: 2048
>>>>>Begin Spectral Data<<<<<
223.165	-20.25
223.4	-20.25
223.635	-20.25
223.869	-19.25
224.104	-28.25
224.338	-18.25
224.573	-12.25
224.808	-12.25
225.042	-2.25
225.277	-1.25
225.511	-4.25
225.746	-1.25
225.98	10.75
226.215	3.75
226.449	17.75
226.683	25.75
226.918	20.75
227.152	40.75
227.387	37.75
227.621	29.75
227.856	35.75
228.09	29.75
228.324	39.75
228.559	58.75
228.793	51.75
229.027	70.75
229.262	71.75
229.496	68.75
229.73	81.75
229.964	70.75
230.199	65.75
230.433	91.75
230.667	66.75
230.901	69.75
231.136	64.75
231.37	77.75
231.604	95.75
231.838	82.75
232.072	81.75
232.306	69.75
232.541	62.75
232.775	77.75
233.009	78.75
233.243	90.75
233.477	74.75
233.711	85.75
233.945	80.75
234.179	77.75
234.413	80.75
234.647	91.75
234.881	68.75
235.115	76.75
235.349	81.75
235.583	86.75
235.817	82.75
236.051	83.75
236.285	69.75
236.519	69.75
236.753	77.75
236.987	78.75
237.221	87.75
237.455	87.75
237.689	91.75
237.922	89.75
238.156	79.75
238.39	73.75
238.624	76.75
238.858	73.75
239.091	66.75
239.325	79.75
239.559	74.75
239.793	66.75
240.027	83.75
240.26	66.75
240.494	75.75
240.728	84.75
240.961	85.75
241.195	86.75
241.429	88.75
241.662	70.75
241.896	81.75
242.13	83.75
242.363	82.75
242.597	77.75
242.83	77.75
243.064	78.75
243.298	83.75
243.531	73.75
243.765	88.75
243.998	71.75
244.232	77.75
244.465	90.75
244.699	82.75
244.932	69.75
245.166	95.75
245.399	75.75
245.633	65.75
245.866	77.75
246.099	73.75
246.333	75.75
246.566	65.75
246.8	53.75
247.033	80.75
247.266	70.75
247.5	75.75
247.733	90.75
247.966	77.75
248.2	76.75
248.433	95.75
248.666	69.75
248.899	71.75
249.133	95.75
249.366	102.75
249.599	89.75
249.832	84.75
250.066	86.75
250.299	85.75
250.532	76.75
250.765	81.75
250.998	77.75
251.231	84.75
251.465	81.75
251.698	69.75
251.931	100.75
252.164	79.75
252.397	85.75
252.63	74.75
252.863	75.75
253.096	76.75
253.329	82.75
253.562	82.75
253.795	98.75
254.028	83.75
254.261	79.75
254.494	73.75
254.727	74.75
254.96	81.75
255.193	85.75
255.426	87.75
255.659	82.75
255.892	80.75
256.124	69.75
256.357	92.75
256.59	80.75
256.823	54.75
257.056	85.75
257.289	83.75
257.521	81.75
257.754	76.75
257.987	99.75
258.22	79.75
258.452	69.75
258.685	73.75
258.918	70.75
259.151	83.75
259.383	70.75
259.616	69.75
259.849	81.75
260.081	81.75
260.314	88.75
260.547	80.75
260.779	92.75
261.012	87.75
261.244	94.75
261.477	108.75
261.71	93.75
261.942	105.75
262.175	114.75
262.407	88.75
262.64	93.75
262.872	79.75
263.105	89.75
263.337	90.75
263.57	85.75
263.802	82.75
264.035	93.75
264.267	78.75
264.499	90.75
264.732	81.75
264.964	82.75
265.197	81.75
265.429	80.75
265.661	74.75
265.894	88.75
266.126	84.75
266.358	87.75
266.591	82.75
266.823	75.75
267.055	76.75
267.287	89.75
267.52	73.75
267.752	78.75
267.984	62.75
268.216	89.75
268.448	94.75
268.681	68.75
268.913	89.75
269.145	79.75
269.377	84.75
269.609	84.75
269.841	93.75
270.073	92.75
270.306	86.75
270.538	90.75
270.77	82.75
271.002	89.75
271.234	79.75
271.466	82.75
271.698	71.75
271.93	93.75
272.162	80.75
272.394	81.75
272.626	82.75
272.858	103.75
273.09	91.75
273.322	80.75
273.553	82.75
273.785	94.75
274.017	90.75
274.249	97.75
274.481	95.75
274.713	93.75
274.945	82.75
275.176	85.75
275.408	87.75
275.64	84.75
275.872	82.75
276.104	93.75
276.335	91.75
276.567	85.75
276.799	98.75
277.031	91.75
277.262	93.75
277.494	96.75
277.726	91.75
277.957	90.75
278.189	96.75
278.421	89.75
278.652	86.75
278.884	89.75
279.115	94.75
279.347	93.75
279.579	80.75
279.81	89.75
280.042	80.75
280.273	92.75
280.505	94.75
280.736	83.75
280.968	81.75
281.199	86.75
281.431	88.75
281.662	89.75
281.894	100.75
282.125	97.75
282.356	112.75
282.588	134.75
282.819	111.75
283.051	85.75
283.282	91.75
283.513	83.75
283.745	78.75
283.976	86.75
284.207	83.75
284.439	86.75
284.67	90.75
284.901	91.75
285.132	65.75
285.364	84.75
285.595	81.75
285.826	82.75
286.057	88.75
286.288	83.75
286.52	87.75
286.751	88.75
286.982	94.75
287.213	81.75
287.444	93.75
287.675	85.75
287.906	91.75
288.138	93.75
288.369	103.75
288.6	99.75
288.831	94.75
289.062	98.75
289.293	82.75
289.524	77.75
289.755	91.75
289.986	85.75
290.217	93.75
290.448	89.75
290.679	86.75
290.91	84.75
291.141	91.75
291.371	90.75
291.602	88.75
291.833	90.75
292.064	79.75
292.295	79.75
292.526	89.75
292.757	88.75
292.987	100.75
293.218	68.75
293.449	73.75
293.68	83.75
293.91	90.75
294.141	91.75
294.372	87.75
294.603	85.75
294.833	93.75
295.064	89.75
295.295	85.75
295.525	85.75
295.756	92.75
295.987	124.75
296.217	136.75
296.448	128.75
296.679	110.75
296.909	91.75
297.14	89.75
297.37	90.75
297.601	89.75
297.831	76.75
298.062	76.75
298.292	99.75
298.523	79.75
298.753	90.75
298.984	90.75
299.214	89.75
299.445	93.75
299.675	100.75
299.905	106.75
300.136	78.75
300.366	85.75
300.597	85.75
300.827	91.75
301.057	98.75
301.288	105.75
301.518	93.75
301.748	76.75
301.979	100.75
302.209	93.75
302.439	84.75
302.669	95.75
302.9	93.75
303.13	100.75
303.36	108.75
303.59	98.75
303.82	102.75
304.051	98.75
304.281	89.75
304.511	109.75
304.741	93.75
304.971	86.75
305.201	95.75
305.431	83.75
305.661	99.75
305.891	86.75
306.121	102.75
306.352	98.75
306.582	114.75
306.812	91.75
307.042	97.75
307.272	96.75
307.502	83.75
307.731	90.75
307.961	92.75
308.191	98.75
308.421	102.75
308.651	90.75
308.881	98.75
309.111	92.75
309.341	91.75
309.571	90.75
309.8	92.75
310.03	85.75
310.26	90.75
310.49	101.75
310.72	100.75
310.949	102.75
311.179	124.75
311.409	102.75
311.639	91.75
311.868	85.75
312.098	94.75
312.328	102.75
312.557	102.75
312.787	91.75
313.017	89.75
313.246	93.75
313.476	100.75
313.706	89.75
313.935	101.75
314.165	111.75
314.394	98.75
314.624	101.75
314.853	97.75
315.083	112.75
315.312	99.75
315.542	102.75
315.771	90.75
316.001	90.75
316.23	84.75
316.46	92.75
316.689	85.75
316.919	90.75
317.148	82.75
317.377	96.75
317.607	88.75
317.836	98.75
318.065	90.75
318.295	81.75
318.524	84.75
318.753	97.75
318.983	107.75
319.212	100.75
319.441	90.75
319.67	118.75
319.9	96.75
320.129	92.75
320.358	97.75
320.587	107.75
320.816	110.75
321.046	104.75
321.275	111.75
321.504	105.75
321.733	99.75
321.962	103.75
322.191	101.75
322.42	97.75
322.649	108.75
322.878	112.75
323.108	127.75
323.337	140.75
323.566	126.75
323.795	140.75
324.024	186.75
324.253	370.75
324.482	815.75
324.71	1660.75
324.939	2139.75
325.168	765.75
325.397	230.75
325.626	120.75
325.855	136.75
326.084	127.75
326.313	124.75
326.542	150.75
326.77	218.75
326.999	450.75
327.228	916.75
327.457	1677.75
327.686	1320.75
327.914	374.75
328.143	192.75
328.372	136.75
328.6	120.75
328.829	108.75
329.058	138.75
329.287	137.75
329.515	105.75
329.744	91.75
329.972	100.75
330.201	106.75
330.43	122.75
330.658	124.75
330.887	131.75
331.115	118.75
331.344	103.75
331.572	111.75
331.801	93.75
332.03	98.75
332.258	94.75
332.486	100.75
332.715	103.75
332.943	94.75
333.172	107.75
333.4	94.75
333.629	105.75
333.857	95.75
334.085	102.75
334.314	105.75
334.542	84.75
334.771	110.75
334.999	77.75
335.227	92.75
335.455	106.75
335.684	98.75
335.912	87.75
336.14	94.75
336.369	80.75
336.597	105.75
336.825	96.75
337.053	84.75
337.281	94.75
337.51	96.75
337.738	102.75
337.966	77.75
338.194	99.75
338.422	94.75
338.65	101.75
338.878	91.75
339.106	92.75
339.334	95.75
339.562	92.75
339.79	90.75
340.018	96.75
340.246	91.75
340.474	77.75
340.702	75.75
340.93	87.75
341.158	91.75
341.386	109.75
341.614	103.75
341.842	97.75
342.07	93.75
342.298	84.75
342.526	85.75
342.754	88.75
342.981	85.75
343.209	77.75
343.437	102.75
343.665	87.75
343.893	89.75
344.12	88.75
344.348	99.75
344.576	87.75
344.804	96.75
345.031	93.75
345.259	91.75
345.487	84.75
345.714	92.75
345.942	89.75
346.17	91.75
346.397	94.75
346.625	84.75
346.853	102.75
347.08	87.75
347.308	106.75
347.535	103.75
347.763	101.75
347.99	103.75
348.218	109.75
348.445	97.75
348.673	101.75
348.9	80.75
349.128	94.75
349.355	89.75
349.583	99.75
349.81	97.75
350.037	83.75
350.265	85.75
350.492	86.75
350.72	109.75
350.947	110.75
351.174	107.75
351.402	127.75
351.629	104.75
351.856	81.75
352.083	98.75
352.311	111.75
352.538	95.75
352.765	112.75
352.992	115.75
353.22	108.75
353.447	111.75
353.674	112.75
353.901	93.75
354.128	93.75
354.355	99.75
354.583	105.75
354.81	87.75
355.037	103.75
355.264	92.75
355.491	89.75
355.718	102.75
355.945	96.75
356.172	118.75
356.399	90.75
356.626	99.75
356.853	98.75
357.08	106.75
357.307	88.75
357.534	96.75
357.761	87.75
357.988	94.75
358.215	105.75
358.441	95.75
358.668	101.75
358.895	80.75
359.122	91.75
359.349	102.75
359.576	90.75
359.802	103.75
360.029	106.75
360.256	106.75
360.483	106.75
360.709	83.75
360.936	86.75
361.163	95.75
361.39	81.75
361.616	93.75
361.843	97.75
362.07	90.75
362.296	96.75
362.523	81.75
362.749	101.75
362.976	86.75
363.203	89.75
363.429	87.75
363.656	110.75
363.882	91.75
364.109	95.75
364.335	94.75
364.562	91.75
364.788	83.75
365.015	95.75
365.241	114.75
365.468	109.75
365.694	90.75
365.92	101.75
366.147	93.75
366.373	89.75
366.599	100.75
366.826	76.75
367.052	92.75
367.278	108.75
367.505	89.75
367.731	105.75
367.957	99.75
368.184	93.75
368.41	103.75
368.636	128.75
368.862	118.75
369.089	112.75
369.315	101.75
369.541	88.75
369.767	77.75
369.993	80.75
370.219	85.75
370.445	98.75
370.672	91.75
370.898	95.75
371.124	87.75
371.35	96.75
371.576	86.75
371.802	87.75
372.028	82.75
372.254	90.75
372.48	89.75
372.706	84.75
372.932	90.75
373.158	91.75
373.384	82.75
373.61	84.75
373.835	108.75
374.061	97.75
374.287	91.75
374.513	84.75
374.739	86.75
374.965	94.75
375.191	79.75
375.416	75.75
375.642	82.75
375.868	74.75
376.094	95.75
376.319	88.75
376.545	92.75
376.771	87.75
376.997	94.75
377.222	78.75
377.448	94.75
377.674	93.75
377.899	90.75
378.125	79.75
378.35	100.75
378.576	94.75
378.802	86.75
379.027	108.75
379.253	91.75
379.478	84.75
379.704	95.75
379.929	88.75
380.155	96.75
380.38	100.75
380.606	92.75
380.831	107.75
381.057	100.75
381.282	94.75
381.507	99.75
381.733	98.75
381.958	94.75
382.184	98.75
382.409	104.75
382.634	98.75
382.86	102.75
383.085	105.75
383.31	102.75
383.535	102.75
383.761	95.75
383.986	101.75
384.211	94.75
384.436	98.75
384.662	102.75
384.887	96.75
385.112	94.75
385.337	92.75
385.562	100.75
385.787	90.75
386.013	100.75
386.238	106.75
386.463	106.75
386.688	97.75
386.913	95.75
387.138	104.75
387.363	102.75
387.588	91.75
387.813	91.75
388.038	97.75
388.263	109.75
388.488	102.75
388.713	105.75
388.938	94.75
389.163	107.75
389.387	99.75
389.612	85.75
389.837	98.75
390.062	86.75
390.287	99.75
390.512	96.75
390.736	97.75
390.961	97.75
391.186	99.75
391.411	94.75
391.636	94.75
391.86	95.75
392.085	98.75
392.31	84.75
392.534	84.75
392.759	77.75
392.984	81.75
393.208	77.75
393.433	92.75
393.658	79.75
393.882	82.75
394.107	86.75
394.331	85.75
394.556	90.75
394.78	90.75
395.005	99.75
395.229	75.75
395.454	97.75
395.678	76.75
395.903	91.75
396.127	99.75
396.352	88.75
396.576	87.75
396.801	97.75
397.025	86.75
397.249	74.75
397.474	102.75
397.698	84.75
397.922	75.75
398.147	81.75
398.371	103.75
398.595	85.75
398.82	84.75
399.044	75.75
399.268	90.75
399.492	100.75
399.717	84.75
399.941	93.75
400.165	106.75
400.389	101.75
400.613	79.75
400.837	89.75
401.062	90.75
401.286	88.75
401.51	93.75
401.734	105.75
401.958	102.75
402.182	126.75
402.406	135.75
402.63	106.75
402.854	81.75
403.078	108.75
403.302	92.75
403.526	79.75
403.75	85.75
403.974	88.75
404.198	87.75
404.422	80.75
404.645	98.75
404.869	83.75
405.093	102.75
405.317	79.75
405.541	103.75
405.765	93.75
405.988	124.75
406.212	165.75
406.436	229.75
406.66	144.75
406.883	90.75
407.107	98.75
407.331	95.75
407.555	100.75
407.778	103.75
408.002	87.75
408.226	84.75
408.449	89.75
408.673	99.75
408.896	99.75
409.12	95.75
409.344	90.75
409.567	88.75
409.791	97.75
410.014	102.75
410.238	95.75
410.461	103.75
410.685	83.75
410.908	85.75
411.132	110.75
411.355	93.75
411.578	101.75
411.802	97.75
412.025	98.75
412.249	87.75
412.472	97.75
412.695	93.75
412.919	81.75
413.142	80.75
413.365	77.75
413.589	78.75
413.812	83.75
414.035	95.75
414.258	98.75
414.482	98.75
414.705	91.75
414.928	88.75
415.151	82.75
415.374	83.75
415.597	86.75
415.821	91.75
416.044	90.75
416.267	92.75
416.49	105.75
416.713	69.75
416.936	83.75
417.159	83.75
417.382	91.75
417.605	92.75
417.828	95.75
418.051	100.75
418.274	92.75
418.497	98.75
418.72	92.75
418.943	75.75
419.166	78.75
419.389	92.75
419.611	100.75
419.834	86.75
420.057	83.75
420.28	84.75
420.503	80.75
420.726	90.75
420.948	100.75
421.171	93.75
421.394	91.75
421.617	83.75
421.839	94.75
422.062	94.75
422.285	71.75
422.507	80.75
422.73	89.75
422.953	87.75
423.175	77.75
423.398	97.75
423.621	82.75
423.843	90.75
424.066	85.75
424.288	85.75
424.511	89.75
424.733	90.75
424.956	119.75
425.178	106.75
425.401	87.75
425.623	87.75
425.846	83.75
426.068	97.75
426.291	92.75
426.513	81.75
426.735	89.75
426.958	98.75
427.18	105.75
427.402	147.75
427.625	156.75
427.847	123.75
428.069	94.75
428.292	95.75
428.514	95.75
428.736	97.75
428.958	85.75
429.181	97.75
429.403	84.75
429.625	89.75
429.847	82.75
430.069	93.75
430.292	111.75
430.514	102.75
430.736	90.75
430.958	95.75
431.18	89.75
431.402	90.75
431.624	94.75
431.846	97.75
432.068	97.75
432.29	78.75
432.512	77.75
432.734	105.75
432.956	82.75
433.178	94.75
433.4	99.75
433.622	114.75
433.844	87.75
434.066	87.75
434.287	68.75
434.509	76.75
434.731	99.75
434.953	99.75
435.175	94.75
435.397	77.75
435.618	99.75
435.84	100.75
436.062	128.75
436.284	123.75
436.505	80.75
436.727	108.75
436.949	95.75
437.17	77.75
437.392	88.75
437.614	94.75
437.835	100.75
438.057	122.75
438.278	93.75
438.5	91.75
438.721	121.75
438.943	89.75
439.165	78.75
439.386	81.75
439.608	99.75
439.829	105.75
440.05	129.75
440.272	134.75
440.493	95.75
440.715	93.75
440.936	88.75
441.158	95.75
441.379	93.75
441.6	88.75
441.822	95.75
442.043	106.75
442.264	103.75
442.486	75.75
442.707	100.75
442.928	98.75
443.149	122.75
443.371	107.75
443.592	110.75
443.813	106.75
444.034	115.75
444.255	90.75
444.476	91.75
444.698	83.75
444.919	93.75
445.14	127.75
445.361	116.75
445.582	121.75
445.803	121.75
446.024	134.75
446.245	133.75
446.466	96.75
446.687	84.75
446.908	93.75
447.129	95.75
447.35	75.75
447.571	98.75
447.792	91.75
448.013	111.75
448.234	117.75
448.455	105.75
448.675	99.75
448.896	118.75
449.117	100.75
449.338	111.75
449.559	125.75
449.779	149.75
450	114.75
450.221	92.75
450.442	79.75
450.662	98.75
450.883	99.75
451.104	99.75
451.324	89.75
451.545	86.75
451.766	81.75
451.986	105.75
452.207	79.75
452.428	103.75
452.648	112.75
452.869	93.75
453.089	116.75
453.31	117.75
453.53	94.75
453.751	102.75
453.971	100.75
454.192	108.75
454.412	89.75
454.633	96.75
454.853	94.75
455.073	72.75
455.294	97.75
455.514	102.75
455.734	98.75
455.955	93.75
456.175	96.75
456.395	96.75
456.616	80.75
456.836	86.75
457.056	89.75
457.276	91.75
457.497	88.75
457.717	82.75
457.937	70.75
458.157	81.75
458.377	89.75
458.598	107.75
458.818	157.75
459.038	160.75
459.258	112.75
459.478	96.75
459.698	91.75
459.918	101.75
460.138	73.75
460.358	87.75
460.578	94.75
460.798	83.75
461.018	81.75
461.238	73.75
461.458	92.75
461.678	89.75
461.898	83.75
462.118	91.75
462.338	87.75
462.558	88.75
462.777	91.75
462.997	89.75
463.217	87.75
463.437	82.75
463.657	84.75
463.876	83.75
464.096	95.75
464.316	98.75
464.536	101.75
464.755	80.75
464.975	97.75
465.195	144.75
465.414	151.75
465.634	112.75
465.854	88.75
466.073	100.75
466.293	86.75
466.512	83.75
466.732	87.75
466.951	88.75
467.171	88.75
467.391	91.75
467.61	108.75
467.829	94.75
468.049	107.75
468.268	82.75
468.488	81.75
468.707	68.75
468.927	82.75
469.146	84.75
469.365	84.75
469.585	80.75
469.804	105.75
470.023	89.75
470.243	87.75
470.462	95.75
470.681	109.75
470.901	90.75
471.12	86.75
471.339	95.75
471.558	87.75
471.777	84.75
471.997	68.75
472.216	85.75
472.435	92.75
472.654	86.75
472.873	100.75
473.092	89.75
473.311	82.75
473.53	86.75
473.749	91.75
473.968	91.75
474.187	90.75
474.406	94.75
474.625	93.75
474.844	91.75
475.063	82.75
475.282	78.75
475.501	77.75
475.72	95.75
475.939	82.75
476.158	92.75
476.377	86.75
476.596	95.75
476.814	95.75
477.033	80.75
477.252	93.75
477.471	86.75
477.69	93.75
477.908	89.75
478.127	90.75
478.346	91.75
478.564	91.75
478.783	91.75
479.002	75.75
479.22	84.75
479.439	104.75
479.658	99.75
479.876	100.75
480.095	95.75
480.313	94.75
480.532	84.75
480.751	81.75
480.969	91.75
481.188	90.75
481.406	109.75
481.624	97.75
481.843	75.75
482.061	83.75
482.28	91.75
482.498	83.75
482.717	87.75
482.935	85.75
483.153	88.75
483.372	93.75
483.59	97.75
483.808	91.75
484.027	82.75
484.245	97.75
484.463	85.75
484.681	95.75
484.9	107.75
485.118	102.75
485.336	94.75
485.554	90.75
485.772	114.75
485.99	110.75
486.209	107.75
486.427	116.75
486.645	116.75
486.863	110.75
487.081	102.75
487.299	107.75
487.517	91.75
487.735	79.75
487.953	87.75
488.171	102.75
488.389	79.75
488.607	100.75
488.825	78.75
489.043	85.75
489.261	95.75
489.479	90.75
489.696	101.75
489.914	95.75
490.132	94.75
490.35	93.75
490.568	99.75
490.786	82.75
491.003	78.75
491.221	81.75
491.439	91.75
491.657	94.75
491.874	92.75
492.092	94.75
492.31	104.75
492.527	108.75
492.745	84.75
492.963	105.75
493.18	79.75
493.398	99.75
493.615	100.75
493.833	96.75
494.05	93.75
494.268	85.75
494.485	86.75
494.703	98.75
494.92	83.75
495.138	92.75
495.355	80.75
495.573	96.75
495.79	110.75
496.008	93.75
496.225	99.75
496.442	94.75
496.66	97.75
496.877	85.75
497.094	106.75
497.312	75.75
497.529	81.75
497.746	96.75
497.963	89.75
498.181	99.75
498.398	89.75
498.615	112.75
498.832	96.75
499.049	98.75
499.267	92.75
499.484	92.75
499.701	73.75
499.918	79.75
500.135	94.75
500.352	80.75
500.569	82.75
500.786	94.75
501.003	103.75
501.22	81.75
501.437	85.75
501.654	98.75
501.871	98.75
502.088	95.75
502.305	102.75
502.522	93.75
502.739	86.75
502.956	85.75
503.172	93.75
503.389	98.75
503.606	96.75
503.823	85.75
504.04	93.75
504.256	101.75
504.473	84.75
504.69	90.75
504.907	104.75
505.123	101.75
505.34	79.75
505.557	91.75
505.773	85.75
505.99	95.75
506.207	93.75
506.423	89.75
506.64	89.75
506.856	105.75
507.073	87.75
507.289	89.75
507.506	107.75
507.722	102.75
507.939	109.75
508.155	105.75
508.372	103.75
508.588	76.75
508.805	106.75
509.021	98.75
509.238	100.75
509.454	91.75
509.67	92.75
509.887	113.75
510.103	134.75
510.319	212.75
510.536	787.75
510.752	2412.75
510.968	660.75
511.184	137.75
511.401	97.75
511.617	99.75
511.833	90.75
512.049	93.75
512.265	84.75
512.481	93.75
512.698	90.75
512.914	103.75
513.13	75.75
513.346	97.75
513.562	95.75
513.778	89.75
513.994	104.75
514.21	88.75
514.426	133.75
514.642	127.75
514.858	123.75
515.074	149.75
515.29	471.75
515.506	1489.75
