Data from Uncirc_1992_H10_HRD10591_00046.txt Node
Date: Wed Jan 03 11:46:25 EST 2024
User: Yrep
Spectrometer: HR+D1059
Trigger mode: 1
Integration Time (sec): 1.000000E-1
Scans to average: 1
Electric dark correction enabled: true
Nonlinearity correction enabled: false
Boxcar width: 0
XAxis mode: Wavelengths
Number of Pixels in Spectrum: 2048
>>>>>Begin Spectral Data<<<<<
223.165	-16.62
223.4	-16.62
223.635	-16.62
223.869	-15.62
224.104	-28.62
224.338	-17.62
224.573	-10.62
224.808	-9.62
225.042	-13.62
225.277	8.38
225.511	-13.62
225.746	7.38
225.98	-2.62
226.215	14.38
226.449	20.38
226.683	31.38
226.918	22.38
227.152	24.38
227.387	32.38
227.621	31.38
227.856	36.38
228.09	56.38
228.324	49.38
228.559	61.38
228.793	50.38
229.027	78.38
229.262	57.38
229.496	77.38
229.73	76.38
229.964	82.38
230.199	68.38
230.433	78.38
230.667	80.38
230.901	61.38
231.136	71.38
231.37	75.38
231.604	82.38
231.838	88.38
232.072	79.38
232.306	80.38
232.541	82.38
232.775	78.38
233.009	84.38
233.243	95.38
233.477	99.38
233.711	84.38
233.945	77.38
234.179	81.38
234.413	80.38
234.647	86.38
234.881	73.38
235.115	80.38
235.349	84.38
235.583	69.38
235.817	85.38
236.051	68.38
236.285	84.38
236.519	90.38
236.753	70.38
236.987	73.38
237.221	92.38
237.455	74.38
237.689	81.38
237.922	75.38
238.156	70.38
238.39	85.38
238.624	68.38
238.858	67.38
239.091	98.38
239.325	76.38
239.559	80.38
239.793	74.38
240.027	74.38
240.26	79.38
240.494	82.38
240.728	69.38
240.961	72.38
241.195	82.38
241.429	80.38
241.662	75.38
241.896	76.38
242.13	69.38
242.363	82.38
242.597	69.38
242.83	80.38
243.064	79.38
243.298	76.38
243.531	72.38
243.765	61.38
243.998	90.38
244.232	67.38
244.465	68.38
244.699	92.38
244.932	79.38
245.166	57.38
245.399	75.38
245.633	86.38
245.866	71.38
246.099	77.38
246.333	67.38
246.566	62.38
246.8	81.38
247.033	84.38
247.266	81.38
247.5	77.38
247.733	78.38
247.966	61.38
248.2	74.38
248.433	90.38
248.666	88.38
248.899	85.38
249.133	86.38
249.366	101.38
249.599	92.38
249.832	86.38
250.066	83.38
250.299	89.38
250.532	81.38
250.765	82.38
250.998	85.38
251.231	82.38
251.465	77.38
251.698	65.38
251.931	90.38
252.164	90.38
252.397	74.38
252.63	70.38
252.863	59.38
253.096	84.38
253.329	91.38
253.562	81.38
253.795	82.38
254.028	103.38
254.261	75.38
254.494	79.38
254.727	79.38
254.96	95.38
255.193	67.38
255.426	87.38
255.659	97.38
255.892	88.38
256.124	84.38
256.357	99.38
256.59	69.38
256.823	80.38
257.056	82.38
257.289	82.38
257.521	79.38
257.754	87.38
257.987	86.38
258.22	66.38
258.452	90.38
258.685	70.38
258.918	76.38
259.151	87.38
259.383	80.38
259.616	68.38
259.849	68.38
260.081	88.38
260.314	81.38
260.547	84.38
260.779	72.38
261.012	101.38
261.244	93.38
261.477	80.38
261.71	81.38
261.942	103.38
262.175	102.38
262.407	86.38
262.64	85.38
262.872	80.38
263.105	76.38
263.337	85.38
263.57	84.38
263.802	79.38
264.035	92.38
264.267	80.38
264.499	100.38
264.732	86.38
264.964	84.38
265.197	84.38
265.429	79.38
265.661	78.38
265.894	78.38
266.126	90.38
266.358	86.38
266.591	78.38
266.823	93.38
267.055	80.38
267.287	84.38
267.52	96.38
267.752	89.38
267.984	90.38
268.216	91.38
268.448	85.38
268.681	82.38
268.913	95.38
269.145	79.38
269.377	82.38
269.609	76.38
269.841	82.38
270.073	76.38
270.306	90.38
270.538	87.38
270.77	87.38
271.002	82.38
271.234	99.38
271.466	84.38
271.698	77.38
271.93	89.38
272.162	82.38
272.394	94.38
272.626	78.38
272.858	75.38
273.09	91.38
273.322	98.38
273.553	82.38
273.785	81.38
274.017	74.38
274.249	83.38
274.481	87.38
274.713	94.38
274.945	86.38
275.176	95.38
275.408	84.38
275.64	78.38
275.872	84.38
276.104	92.38
276.335	89.38
276.567	99.38
276.799	97.38
277.031	93.38
277.262	91.38
277.494	94.38
277.726	97.38
277.957	78.38
278.189	85.38
278.421	71.38
278.652	93.38
278.884	85.38
279.115	93.38
279.347	81.38
279.579	75.38
279.81	94.38
280.042	96.38
280.273	80.38
280.505	90.38
280.736	84.38
280.968	82.38
281.199	85.38
281.431	82.38
281.662	75.38
281.894	92.38
282.125	118.38
282.356	108.38
282.588	116.38
282.819	113.38
283.051	102.38
283.282	77.38
283.513	85.38
283.745	104.38
283.976	96.38
284.207	90.38
284.439	88.38
284.67	92.38
284.901	84.38
285.132	100.38
285.364	99.38
285.595	82.38
285.826	91.38
286.057	81.38
286.288	90.38
286.52	92.38
286.751	86.38
286.982	74.38
287.213	87.38
287.444	89.38
287.675	83.38
287.906	85.38
288.138	100.38
288.369	90.38
288.6	97.38
288.831	81.38
289.062	107.38
289.293	82.38
289.524	96.38
289.755	94.38
289.986	95.38
290.217	71.38
290.448	94.38
290.679	104.38
290.91	82.38
291.141	86.38
291.371	90.38
291.602	76.38
291.833	85.38
292.064	87.38
292.295	86.38
292.526	103.38
292.757	92.38
292.987	92.38
293.218	94.38
293.449	94.38
293.68	92.38
293.91	88.38
294.141	99.38
294.372	98.38
294.603	94.38
294.833	82.38
295.064	82.38
295.295	83.38
295.525	90.38
295.756	86.38
295.987	114.38
296.217	122.38
296.448	109.38
296.679	91.38
296.909	95.38
297.14	93.38
297.37	93.38
297.601	95.38
297.831	87.38
298.062	92.38
298.292	87.38
298.523	92.38
298.753	84.38
298.984	85.38
299.214	92.38
299.445	86.38
299.675	91.38
299.905	90.38
300.136	90.38
300.366	77.38
300.597	98.38
300.827	89.38
301.057	105.38
301.288	92.38
301.518	88.38
301.748	87.38
301.979	103.38
302.209	93.38
302.439	95.38
302.669	97.38
302.9	89.38
303.13	94.38
303.36	87.38
303.59	83.38
303.82	108.38
304.051	94.38
304.281	87.38
304.511	82.38
304.741	98.38
304.971	91.38
305.201	99.38
305.431	89.38
305.661	90.38
305.891	89.38
306.121	93.38
306.352	93.38
306.582	93.38
306.812	101.38
307.042	92.38
307.272	100.38
307.502	91.38
307.731	106.38
307.961	92.38
308.191	96.38
308.421	94.38
308.651	99.38
308.881	101.38
309.111	87.38
309.341	80.38
309.571	103.38
309.8	86.38
310.03	103.38
310.26	108.38
310.49	87.38
310.72	93.38
310.949	108.38
311.179	96.38
311.409	87.38
311.639	83.38
311.868	82.38
312.098	89.38
312.328	79.38
312.557	104.38
312.787	106.38
313.017	91.38
313.246	101.38
313.476	90.38
313.706	87.38
313.935	93.38
314.165	101.38
314.394	95.38
314.624	86.38
314.853	85.38
315.083	102.38
315.312	92.38
315.542	93.38
315.771	94.38
316.001	91.38
316.23	88.38
316.46	99.38
316.689	94.38
316.919	95.38
317.148	81.38
317.377	101.38
317.607	90.38
317.836	91.38
318.065	79.38
318.295	107.38
318.524	87.38
318.753	85.38
318.983	100.38
319.212	91.38
319.441	102.38
319.67	101.38
319.9	93.38
320.129	87.38
320.358	96.38
320.587	101.38
320.816	114.38
321.046	90.38
321.275	100.38
321.504	81.38
321.733	100.38
321.962	101.38
322.191	101.38
322.42	101.38
322.649	116.38
322.878	90.38
323.108	98.38
323.337	113.38
323.566	119.38
323.795	114.38
324.024	158.38
324.253	336.38
324.482	670.38
324.71	1350.38
324.939	1764.38
325.168	631.38
325.397	207.38
325.626	126.38
325.855	121.38
326.084	116.38
326.313	127.38
326.542	145.38
326.77	199.38
326.999	385.38
327.228	780.38
327.457	1378.38
327.686	1093.38
327.914	303.38
328.143	191.38
328.372	138.38
328.6	117.38
328.829	114.38
329.058	119.38
329.287	111.38
329.515	95.38
329.744	110.38
329.972	99.38
330.201	112.38
330.43	97.38
330.658	115.38
330.887	134.38
331.115	111.38
331.344	91.38
331.572	98.38
331.801	99.38
332.03	102.38
332.258	96.38
332.486	100.38
332.715	99.38
332.943	108.38
333.172	89.38
333.4	94.38
333.629	109.38
333.857	106.38
334.085	99.38
334.314	106.38
334.542	99.38
334.771	100.38
334.999	95.38
335.227	99.38
335.455	95.38
335.684	109.38
335.912	79.38
336.14	107.38
336.369	93.38
336.597	100.38
336.825	99.38
337.053	80.38
337.281	87.38
337.51	104.38
337.738	103.38
337.966	94.38
338.194	108.38
338.422	114.38
338.65	92.38
338.878	92.38
339.106	96.38
339.334	86.38
339.562	86.38
339.79	77.38
340.018	99.38
340.246	96.38
340.474	83.38
340.702	96.38
340.93	95.38
341.158	91.38
341.386	87.38
341.614	104.38
341.842	89.38
342.07	84.38
342.298	82.38
342.526	76.38
342.754	101.38
342.981	104.38
343.209	91.38
343.437	99.38
343.665	82.38
343.893	78.38
344.12	86.38
344.348	91.38
344.576	82.38
344.804	99.38
345.031	98.38
345.259	100.38
345.487	96.38
345.714	84.38
345.942	83.38
346.17	91.38
346.397	82.38
346.625	85.38
346.853	97.38
347.08	97.38
347.308	99.38
347.535	107.38
347.763	99.38
347.99	104.38
348.218	98.38
348.445	104.38
348.673	89.38
348.9	94.38
349.128	96.38
349.355	94.38
349.583	85.38
349.81	96.38
350.037	84.38
350.265	95.38
350.492	89.38
350.72	98.38
350.947	114.38
351.174	103.38
351.402	111.38
351.629	99.38
351.856	100.38
352.083	96.38
352.311	124.38
352.538	102.38
352.765	109.38
352.992	112.38
353.22	97.38
353.447	107.38
353.674	99.38
353.901	107.38
354.128	88.38
354.355	101.38
354.583	110.38
354.81	108.38
355.037	95.38
355.264	101.38
355.491	96.38
355.718	100.38
355.945	100.38
356.172	87.38
356.399	95.38
356.626	96.38
356.853	100.38
357.08	98.38
357.307	91.38
357.534	82.38
357.761	84.38
357.988	100.38
358.215	99.38
358.441	96.38
358.668	88.38
358.895	88.38
359.122	86.38
359.349	95.38
359.576	93.38
359.802	90.38
360.029	103.38
360.256	111.38
360.483	113.38
360.709	97.38
360.936	94.38
361.163	99.38
361.39	97.38
361.616	103.38
361.843	99.38
362.07	87.38
362.296	103.38
362.523	92.38
362.749	83.38
362.976	103.38
363.203	91.38
363.429	83.38
363.656	90.38
363.882	92.38
364.109	101.38
364.335	99.38
364.562	103.38
364.788	95.38
365.015	100.38
365.241	102.38
365.468	112.38
365.694	90.38
365.92	85.38
366.147	85.38
366.373	82.38
366.599	71.38
366.826	103.38
367.052	89.38
367.278	90.38
367.505	101.38
367.731	90.38
367.957	85.38
368.184	104.38
368.41	95.38
368.636	103.38
368.862	112.38
369.089	110.38
369.315	83.38
369.541	90.38
369.767	95.38
369.993	103.38
370.219	100.38
370.445	92.38
370.672	94.38
370.898	83.38
371.124	85.38
371.35	99.38
371.576	91.38
371.802	72.38
372.028	88.38
372.254	98.38
372.48	83.38
372.706	92.38
372.932	81.38
373.158	98.38
373.384	88.38
373.61	87.38
373.835	91.38
374.061	92.38
374.287	100.38
374.513	80.38
374.739	94.38
374.965	77.38
375.191	86.38
375.416	91.38
375.642	98.38
375.868	84.38
376.094	98.38
376.319	90.38
376.545	95.38
376.771	99.38
376.997	101.38
377.222	77.38
377.448	91.38
377.674	78.38
377.899	84.38
378.125	93.38
378.35	90.38
378.576	96.38
378.802	91.38
379.027	85.38
379.253	86.38
379.478	77.38
379.704	93.38
379.929	92.38
380.155	89.38
380.38	94.38
380.606	98.38
380.831	86.38
381.057	96.38
381.282	92.38
381.507	83.38
381.733	93.38
381.958	90.38
382.184	86.38
382.409	101.38
382.634	98.38
382.86	96.38
383.085	103.38
383.31	103.38
383.535	92.38
383.761	106.38
383.986	97.38
384.211	83.38
384.436	102.38
384.662	106.38
384.887	110.38
385.112	103.38
385.337	96.38
385.562	81.38
385.787	98.38
386.013	106.38
386.238	131.38
386.463	95.38
386.688	119.38
386.913	115.38
387.138	111.38
387.363	110.38
387.588	110.38
387.813	107.38
388.038	113.38
388.263	104.38
388.488	92.38
388.713	104.38
388.938	100.38
389.163	94.38
389.387	97.38
389.612	95.38
389.837	96.38
390.062	103.38
390.287	93.38
390.512	96.38
390.736	88.38
390.961	86.38
391.186	98.38
391.411	90.38
391.636	95.38
391.86	95.38
392.085	93.38
392.31	80.38
392.534	95.38
392.759	89.38
392.984	88.38
393.208	88.38
393.433	95.38
393.658	99.38
393.882	80.38
394.107	85.38
394.331	102.38
394.556	93.38
394.78	82.38
395.005	87.38
395.229	88.38
395.454	99.38
395.678	90.38
395.903	89.38
396.127	97.38
396.352	86.38
396.576	82.38
396.801	95.38
397.025	81.38
397.249	92.38
397.474	83.38
397.698	87.38
397.922	94.38
398.147	97.38
398.371	97.38
398.595	85.38
398.82	88.38
399.044	91.38
399.268	93.38
399.492	90.38
399.717	96.38
399.941	88.38
400.165	90.38
400.389	84.38
400.613	90.38
400.837	86.38
401.062	102.38
401.286	96.38
401.51	91.38
401.734	83.38
401.958	108.38
402.182	119.38
402.406	134.38
402.63	115.38
402.854	96.38
403.078	88.38
403.302	81.38
403.526	94.38
403.75	89.38
403.974	80.38
404.198	84.38
404.422	84.38
404.645	83.38
404.869	93.38
405.093	79.38
405.317	102.38
405.541	110.38
405.765	85.38
405.988	111.38
406.212	156.38
406.436	198.38
406.66	123.38
406.883	106.38
407.107	95.38
407.331	86.38
407.555	97.38
407.778	90.38
408.002	93.38
408.226	105.38
408.449	95.38
408.673	96.38
408.896	99.38
409.12	100.38
409.344	74.38
409.567	92.38
409.791	102.38
410.014	87.38
410.238	107.38
410.461	98.38
410.685	100.38
410.908	95.38
411.132	104.38
411.355	98.38
411.578	94.38
411.802	76.38
412.025	88.38
412.249	92.38
412.472	91.38
412.695	77.38
412.919	93.38
413.142	92.38
413.365	99.38
413.589	87.38
413.812	93.38
414.035	95.38
414.258	82.38
414.482	102.38
414.705	86.38
414.928	82.38
415.151	94.38
415.374	89.38
415.597	94.38
415.821	89.38
416.044	84.38
416.267	97.38
416.49	89.38
416.713	78.38
416.936	92.38
417.159	98.38
417.382	82.38
417.605	87.38
417.828	103.38
418.051	101.38
418.274	95.38
418.497	80.38
418.72	82.38
418.943	85.38
419.166	105.38
419.389	79.38
419.611	91.38
419.834	103.38
420.057	88.38
420.28	82.38
420.503	83.38
420.726	69.38
420.948	87.38
421.171	95.38
421.394	98.38
421.617	82.38
421.839	70.38
422.062	87.38
422.285	72.38
422.507	86.38
422.73	94.38
422.953	93.38
423.175	82.38
423.398	99.38
423.621	86.38
423.843	79.38
424.066	90.38
424.288	85.38
424.511	95.38
424.733	100.38
424.956	97.38
425.178	98.38
425.401	103.38
425.623	93.38
425.846	94.38
426.068	97.38
426.291	87.38
426.513	96.38
426.735	91.38
426.958	97.38
427.18	100.38
427.402	126.38
427.625	131.38
427.847	129.38
428.069	101.38
428.292	85.38
428.514	96.38
428.736	87.38
428.958	80.38
429.181	87.38
429.403	89.38
429.625	84.38
429.847	90.38
430.069	93.38
430.292	83.38
430.514	92.38
430.736	80.38
430.958	99.38
431.18	98.38
431.402	78.38
431.624	90.38
431.846	81.38
432.068	96.38
432.29	84.38
432.512	90.38
432.734	104.38
432.956	90.38
433.178	85.38
433.4	101.38
433.622	96.38
433.844	87.38
434.066	86.38
434.287	91.38
434.509	98.38
434.731	95.38
434.953	94.38
435.175	89.38
435.397	98.38
435.618	98.38
435.84	110.38
436.062	114.38
436.284	102.38
436.505	100.38
436.727	96.38
436.949	91.38
437.17	82.38
437.392	106.38
437.614	91.38
437.835	98.38
438.057	115.38
438.278	106.38
438.5	104.38
438.721	108.38
438.943	95.38
439.165	92.38
439.386	90.38
439.608	84.38
439.829	91.38
440.05	125.38
440.272	121.38
440.493	96.38
440.715	85.38
440.936	85.38
441.158	85.38
441.379	85.38
441.6	76.38
441.822	90.38
442.043	88.38
442.264	92.38
442.486	85.38
442.707	98.38
442.928	100.38
443.149	141.38
443.371	111.38
443.592	100.38
443.813	95.38
444.034	102.38
444.255	96.38
444.476	95.38
444.698	97.38
444.919	86.38
445.14	139.38
445.361	120.38
445.582	106.38
445.803	131.38
446.024	127.38
446.245	129.38
446.466	105.38
446.687	86.38
446.908	88.38
447.129	86.38
447.35	94.38
447.571	88.38
447.792	91.38
448.013	95.38
448.234	108.38
448.455	93.38
448.675	109.38
448.896	119.38
449.117	90.38
449.338	96.38
449.559	117.38
449.779	124.38
450	88.38
450.221	93.38
450.442	94.38
450.662	96.38
450.883	112.38
451.104	91.38
451.324	79.38
451.545	82.38
451.766	86.38
451.986	75.38
452.207	90.38
452.428	87.38
452.648	102.38
452.869	111.38
453.089	114.38
453.31	113.38
453.53	102.38
453.751	95.38
453.971	91.38
454.192	99.38
454.412	94.38
454.633	99.38
454.853	95.38
455.073	87.38
455.294	90.38
455.514	108.38
455.734	80.38
455.955	98.38
456.175	99.38
456.395	84.38
456.616	95.38
456.836	79.38
457.056	95.38
457.276	84.38
457.497	94.38
457.717	78.38
457.937	92.38
458.157	89.38
458.377	87.38
458.598	97.38
458.818	140.38
459.038	126.38
459.258	112.38
459.478	90.38
459.698	82.38
459.918	93.38
460.138	93.38
460.358	87.38
460.578	96.38
460.798	102.38
461.018	92.38
461.238	99.38
461.458	92.38
461.678	87.38
461.898	74.38
462.118	88.38
462.338	90.38
462.558	95.38
462.777	96.38
462.997	96.38
463.217	85.38
463.437	85.38
463.657	95.38
463.876	92.38
464.096	79.38
464.316	91.38
464.536	101.38
464.755	84.38
464.975	101.38
465.195	135.38
465.414	131.38
465.634	100.38
465.854	80.38
466.073	89.38
466.293	84.38
466.512	86.38
466.732	86.38
466.951	87.38
467.171	91.38
467.391	89.38
467.61	106.38
467.829	97.38
468.049	92.38
468.268	101.38
468.488	91.38
468.707	82.38
468.927	83.38
469.146	87.38
469.365	93.38
469.585	83.38
469.804	114.38
470.023	108.38
470.243	98.38
470.462	95.38
470.681	101.38
470.901	79.38
471.12	77.38
471.339	76.38
471.558	109.38
471.777	99.38
471.997	83.38
472.216	79.38
472.435	86.38
472.654	81.38
472.873	94.38
473.092	87.38
473.311	96.38
473.53	84.38
473.749	84.38
473.968	82.38
474.187	106.38
474.406	91.38
474.625	95.38
474.844	97.38
475.063	72.38
475.282	97.38
475.501	89.38
475.72	91.38
475.939	83.38
476.158	82.38
476.377	78.38
476.596	91.38
476.814	81.38
477.033	100.38
477.252	91.38
477.471	93.38
477.69	79.38
477.908	95.38
478.127	99.38
478.346	86.38
478.564	86.38
478.783	99.38
479.002	100.38
479.22	104.38
479.439	113.38
479.658	107.38
479.876	94.38
480.095	91.38
480.313	95.38
480.532	83.38
480.751	76.38
480.969	90.38
481.188	101.38
481.406	99.38
481.624	100.38
481.843	82.38
482.061	88.38
482.28	89.38
482.498	84.38
482.717	72.38
482.935	81.38
483.153	93.38
483.372	78.38
483.59	92.38
483.808	82.38
484.027	96.38
484.245	88.38
484.463	81.38
484.681	94.38
484.9	110.38
485.118	99.38
485.336	91.38
485.554	91.38
485.772	83.38
485.99	100.38
486.209	96.38
486.427	111.38
486.645	100.38
486.863	114.38
487.081	98.38
487.299	86.38
487.517	103.38
487.735	89.38
487.953	86.38
488.171	91.38
488.389	104.38
488.607	99.38
488.825	86.38
489.043	92.38
489.261	84.38
489.479	76.38
489.696	92.38
489.914	89.38
490.132	80.38
490.35	97.38
490.568	112.38
490.786	90.38
491.003	96.38
491.221	90.38
491.439	94.38
491.657	88.38
491.874	89.38
492.092	93.38
492.31	83.38
492.527	101.38
492.745	105.38
492.963	98.38
493.18	90.38
493.398	91.38
493.615	108.38
493.833	99.38
494.05	91.38
494.268	89.38
494.485	101.38
494.703	100.38
494.92	102.38
495.138	99.38
495.355	86.38
495.573	95.38
495.79	84.38
496.008	107.38
496.225	78.38
496.442	102.38
496.66	87.38
496.877	98.38
497.094	94.38
497.312	105.38
497.529	92.38
497.746	94.38
497.963	91.38
498.181	103.38
498.398	97.38
498.615	103.38
498.832	94.38
499.049	97.38
499.267	102.38
499.484	88.38
499.701	92.38
499.918	81.38
500.135	84.38
500.352	99.38
500.569	86.38
500.786	107.38
501.003	70.38
501.22	98.38
501.437	102.38
501.654	102.38
501.871	94.38
502.088	99.38
502.305	84.38
502.522	85.38
502.739	82.38
502.956	108.38
503.172	94.38
503.389	95.38
503.606	97.38
503.823	96.38
504.04	90.38
504.256	91.38
504.473	75.38
504.69	86.38
504.907	88.38
505.123	92.38
505.34	82.38
505.557	73.38
505.773	91.38
505.99	81.38
506.207	99.38
506.423	85.38
506.64	95.38
506.856	88.38
507.073	90.38
507.289	95.38
507.506	96.38
507.722	95.38
507.939	98.38
508.155	94.38
508.372	87.38
508.588	91.38
508.805	95.38
509.021	102.38
509.238	100.38
509.454	103.38
509.67	85.38
509.887	107.38
510.103	131.38
510.319	167.38
510.536	605.38
510.752	1903.38
510.968	554.38
511.184	150.38
511.401	107.38
511.617	95.38
511.833	80.38
512.049	92.38
512.265	91.38
512.481	80.38
512.698	89.38
512.914	87.38
513.13	100.38
513.346	96.38
513.562	87.38
513.778	97.38
513.994	102.38
514.21	95.38
514.426	106.38
514.642	126.38
514.858	129.38
515.074	136.38
515.29	375.38
515.506	1170.38
515.721	432.38
