Data from Uncirc_1992_H10_HRD10591_00033.txt Node
Date: Wed Jan 03 11:46:22 EST 2024
User: Yrep
Spectrometer: HR+D1059
Trigger mode: 1
Integration Time (sec): 1.000000E-1
Scans to average: 1
Electric dark correction enabled: true
Nonlinearity correction enabled: false
Boxcar width: 0
XAxis mode: Wavelengths
Number of Pixels in Spectrum: 2048
>>>>>Begin Spectral Data<<<<<
223.165	-15.19
223.4	-15.19
223.635	-15.19
223.869	-14.19
224.104	-17.19
224.338	-10.19
224.573	-15.19
224.808	-4.19
225.042	-2.19
225.277	-8.19
225.511	-12.19
225.746	3.81
225.98	8.81
226.215	8.81
226.449	8.81
226.683	13.81
226.918	29.81
227.152	24.81
227.387	34.81
227.621	28.81
227.856	39.81
228.09	51.81
228.324	51.81
228.559	56.81
228.793	60.81
229.027	61.81
229.262	51.81
229.496	77.81
229.73	85.81
229.964	78.81
230.199	53.81
230.433	73.81
230.667	85.81
230.901	78.81
231.136	74.81
231.37	75.81
231.604	75.81
231.838	80.81
232.072	76.81
232.306	95.81
232.541	73.81
232.775	66.81
233.009	79.81
233.243	68.81
233.477	93.81
233.711	87.81
233.945	72.81
234.179	63.81
234.413	77.81
234.647	61.81
234.881	89.81
235.115	79.81
235.349	72.81
235.583	89.81
235.817	86.81
236.051	74.81
236.285	77.81
236.519	79.81
236.753	69.81
236.987	81.81
237.221	74.81
237.455	77.81
237.689	86.81
237.922	72.81
238.156	71.81
238.39	56.81
238.624	69.81
238.858	84.81
239.091	84.81
239.325	72.81
239.559	79.81
239.793	77.81
240.027	83.81
240.26	68.81
240.494	81.81
240.728	60.81
240.961	68.81
241.195	80.81
241.429	81.81
241.662	74.81
241.896	83.81
242.13	60.81
242.363	75.81
242.597	69.81
242.83	75.81
243.064	76.81
243.298	74.81
243.531	66.81
243.765	96.81
243.998	65.81
244.232	85.81
244.465	80.81
244.699	60.81
244.932	64.81
245.166	90.81
245.399	86.81
245.633	75.81
245.866	74.81
246.099	83.81
246.333	83.81
246.566	74.81
246.8	62.81
247.033	73.81
247.266	77.81
247.5	84.81
247.733	79.81
247.966	79.81
248.2	83.81
248.433	63.81
248.666	76.81
248.899	65.81
249.133	74.81
249.366	92.81
249.599	93.81
249.832	81.81
250.066	73.81
250.299	79.81
250.532	75.81
250.765	79.81
250.998	79.81
251.231	75.81
251.465	68.81
251.698	81.81
251.931	89.81
252.164	69.81
252.397	77.81
252.63	78.81
252.863	93.81
253.096	72.81
253.329	76.81
253.562	77.81
253.795	65.81
254.028	63.81
254.261	72.81
254.494	74.81
254.727	65.81
254.96	79.81
255.193	89.81
255.426	88.81
255.659	71.81
255.892	74.81
256.124	76.81
256.357	81.81
256.59	84.81
256.823	78.81
257.056	90.81
257.289	77.81
257.521	91.81
257.754	87.81
257.987	71.81
258.22	83.81
258.452	88.81
258.685	65.81
258.918	81.81
259.151	72.81
259.383	87.81
259.616	80.81
259.849	87.81
260.081	68.81
260.314	95.81
260.547	85.81
260.779	71.81
261.012	82.81
261.244	72.81
261.477	92.81
261.71	92.81
261.942	99.81
262.175	109.81
262.407	100.81
262.64	74.81
262.872	77.81
263.105	85.81
263.337	88.81
263.57	95.81
263.802	92.81
264.035	80.81
264.267	81.81
264.499	81.81
264.732	90.81
264.964	87.81
265.197	75.81
265.429	89.81
265.661	76.81
265.894	66.81
266.126	84.81
266.358	101.81
266.591	94.81
266.823	88.81
267.055	80.81
267.287	78.81
267.52	93.81
267.752	87.81
267.984	87.81
268.216	75.81
268.448	88.81
268.681	87.81
268.913	75.81
269.145	85.81
269.377	99.81
269.609	79.81
269.841	85.81
270.073	77.81
270.306	85.81
270.538	75.81
270.77	83.81
271.002	86.81
271.234	94.81
271.466	76.81
271.698	81.81
271.93	77.81
272.162	90.81
272.394	92.81
272.626	89.81
272.858	81.81
273.09	77.81
273.322	78.81
273.553	65.81
273.785	73.81
274.017	74.81
274.249	72.81
274.481	78.81
274.713	82.81
274.945	72.81
275.176	82.81
275.408	86.81
275.64	91.81
275.872	89.81
276.104	82.81
276.335	85.81
276.567	96.81
276.799	93.81
277.031	99.81
277.262	84.81
277.494	62.81
277.726	86.81
277.957	79.81
278.189	88.81
278.421	74.81
278.652	86.81
278.884	88.81
279.115	83.81
279.347	79.81
279.579	81.81
279.81	89.81
280.042	85.81
280.273	87.81
280.505	90.81
280.736	83.81
280.968	101.81
281.199	71.81
281.431	83.81
281.662	90.81
281.894	95.81
282.125	88.81
282.356	109.81
282.588	124.81
282.819	95.81
283.051	91.81
283.282	96.81
283.513	85.81
283.745	84.81
283.976	81.81
284.207	91.81
284.439	93.81
284.67	82.81
284.901	85.81
285.132	93.81
285.364	90.81
285.595	88.81
285.826	77.81
286.057	82.81
286.288	94.81
286.52	85.81
286.751	77.81
286.982	75.81
287.213	76.81
287.444	85.81
287.675	91.81
287.906	97.81
288.138	88.81
288.369	90.81
288.6	98.81
288.831	73.81
289.062	83.81
289.293	92.81
289.524	89.81
289.755	93.81
289.986	76.81
290.217	85.81
290.448	94.81
290.679	71.81
290.91	75.81
291.141	87.81
291.371	89.81
291.602	101.81
291.833	96.81
292.064	77.81
292.295	81.81
292.526	77.81
292.757	105.81
292.987	92.81
293.218	101.81
293.449	86.81
293.68	78.81
293.91	66.81
294.141	80.81
294.372	73.81
294.603	87.81
294.833	80.81
295.064	87.81
295.295	84.81
295.525	94.81
295.756	91.81
295.987	115.81
296.217	146.81
296.448	114.81
296.679	84.81
296.909	85.81
297.14	80.81
297.37	64.81
297.601	90.81
297.831	77.81
298.062	83.81
298.292	91.81
298.523	93.81
298.753	80.81
298.984	87.81
299.214	87.81
299.445	90.81
299.675	78.81
299.905	96.81
300.136	86.81
300.366	93.81
300.597	79.81
300.827	82.81
301.057	78.81
301.288	104.81
301.518	85.81
301.748	83.81
301.979	96.81
302.209	89.81
302.439	85.81
302.669	90.81
302.9	76.81
303.13	86.81
303.36	87.81
303.59	93.81
303.82	99.81
304.051	104.81
304.281	98.81
304.511	97.81
304.741	86.81
304.971	91.81
305.201	86.81
305.431	98.81
305.661	96.81
305.891	92.81
306.121	97.81
306.352	104.81
306.582	101.81
306.812	96.81
307.042	89.81
307.272	84.81
307.502	92.81
307.731	93.81
307.961	86.81
308.191	77.81
308.421	91.81
308.651	99.81
308.881	90.81
309.111	86.81
309.341	85.81
309.571	99.81
309.8	93.81
310.03	88.81
310.26	80.81
310.49	93.81
310.72	79.81
310.949	97.81
311.179	86.81
311.409	90.81
311.639	88.81
311.868	99.81
312.098	84.81
312.328	91.81
312.557	108.81
312.787	87.81
313.017	88.81
313.246	100.81
313.476	95.81
313.706	100.81
313.935	85.81
314.165	104.81
314.394	100.81
314.624	88.81
314.853	83.81
315.083	112.81
315.312	94.81
315.542	91.81
315.771	95.81
316.001	75.81
316.23	99.81
316.46	86.81
316.689	84.81
316.919	89.81
317.148	90.81
317.377	95.81
317.607	88.81
317.836	81.81
318.065	89.81
318.295	100.81
318.524	89.81
318.753	93.81
318.983	92.81
319.212	96.81
319.441	99.81
319.67	94.81
319.9	92.81
320.129	103.81
320.358	79.81
320.587	96.81
320.816	96.81
321.046	99.81
321.275	105.81
321.504	75.81
321.733	89.81
321.962	107.81
322.191	115.81
322.42	90.81
322.649	97.81
322.878	107.81
323.108	114.81
323.337	120.81
323.566	122.81
323.795	135.81
324.024	186.81
324.253	338.81
324.482	699.81
324.71	1409.81
324.939	1848.81
325.168	670.81
325.397	228.81
325.626	139.81
325.855	123.81
326.084	119.81
326.313	124.81
326.542	137.81
326.77	215.81
326.999	399.81
327.228	798.81
327.457	1423.81
327.686	1117.81
327.914	317.81
328.143	181.81
328.372	139.81
328.6	122.81
328.829	109.81
329.058	112.81
329.287	115.81
329.515	104.81
329.744	101.81
329.972	95.81
330.201	111.81
330.43	107.81
330.658	122.81
330.887	126.81
331.115	113.81
331.344	83.81
331.572	104.81
331.801	103.81
332.03	100.81
332.258	99.81
332.486	107.81
332.715	113.81
332.943	99.81
333.172	99.81
333.4	84.81
333.629	97.81
333.857	104.81
334.085	106.81
334.314	93.81
334.542	93.81
334.771	92.81
334.999	100.81
335.227	93.81
335.455	108.81
335.684	93.81
335.912	90.81
336.14	91.81
336.369	110.81
336.597	99.81
336.825	98.81
337.053	85.81
337.281	89.81
337.51	89.81
337.738	93.81
337.966	105.81
338.194	90.81
338.422	95.81
338.65	80.81
338.878	92.81
339.106	76.81
339.334	84.81
339.562	75.81
339.79	85.81
340.018	79.81
340.246	75.81
340.474	89.81
340.702	75.81
340.93	96.81
341.158	79.81
341.386	95.81
341.614	89.81
341.842	88.81
342.07	85.81
342.298	82.81
342.526	82.81
342.754	75.81
342.981	86.81
343.209	94.81
343.437	102.81
343.665	110.81
343.893	80.81
344.12	90.81
344.348	110.81
344.576	97.81
344.804	99.81
345.031	99.81
345.259	99.81
345.487	109.81
345.714	80.81
345.942	91.81
346.17	89.81
346.397	97.81
346.625	90.81
346.853	103.81
347.08	91.81
347.308	89.81
347.535	88.81
347.763	93.81
347.99	100.81
348.218	109.81
348.445	96.81
348.673	98.81
348.9	96.81
349.128	88.81
349.355	92.81
349.583	84.81
349.81	102.81
350.037	104.81
350.265	99.81
350.492	92.81
350.72	88.81
350.947	100.81
351.174	104.81
351.402	108.81
351.629	89.81
351.856	98.81
352.083	99.81
352.311	98.81
352.538	91.81
352.765	117.81
352.992	109.81
353.22	108.81
353.447	102.81
353.674	93.81
353.901	103.81
354.128	100.81
354.355	97.81
354.583	88.81
354.81	91.81
355.037	105.81
355.264	83.81
355.491	97.81
355.718	78.81
355.945	94.81
356.172	96.81
356.399	96.81
356.626	91.81
356.853	96.81
357.08	76.81
357.307	80.81
357.534	104.81
357.761	96.81
357.988	83.81
358.215	90.81
358.441	92.81
358.668	88.81
358.895	101.81
359.122	92.81
359.349	67.81
359.576	99.81
359.802	101.81
360.029	99.81
360.256	112.81
360.483	110.81
360.709	92.81
360.936	96.81
361.163	98.81
361.39	97.81
361.616	110.81
361.843	80.81
362.07	100.81
362.296	96.81
362.523	99.81
362.749	85.81
362.976	108.81
363.203	98.81
363.429	85.81
363.656	105.81
363.882	90.81
364.109	96.81
364.335	87.81
364.562	87.81
364.788	79.81
365.015	103.81
365.241	95.81
365.468	93.81
365.694	101.81
365.92	91.81
366.147	85.81
366.373	78.81
366.599	91.81
366.826	97.81
367.052	91.81
367.278	92.81
367.505	78.81
367.731	90.81
367.957	93.81
368.184	107.81
368.41	100.81
368.636	105.81
368.862	123.81
369.089	91.81
369.315	77.81
369.541	89.81
369.767	92.81
369.993	85.81
370.219	103.81
370.445	88.81
370.672	73.81
370.898	81.81
371.124	95.81
371.35	93.81
371.576	88.81
371.802	88.81
372.028	81.81
372.254	93.81
372.48	91.81
372.706	82.81
372.932	80.81
373.158	89.81
373.384	83.81
373.61	89.81
373.835	92.81
374.061	90.81
374.287	96.81
374.513	87.81
374.739	89.81
374.965	91.81
375.191	83.81
375.416	97.81
375.642	96.81
375.868	95.81
376.094	81.81
376.319	80.81
376.545	81.81
376.771	99.81
376.997	72.81
377.222	82.81
377.448	90.81
377.674	90.81
377.899	100.81
378.125	94.81
378.35	98.81
378.576	81.81
378.802	90.81
379.027	82.81
379.253	100.81
379.478	88.81
379.704	88.81
379.929	86.81
380.155	98.81
380.38	100.81
380.606	98.81
380.831	90.81
381.057	93.81
381.282	100.81
381.507	80.81
381.733	101.81
381.958	95.81
382.184	107.81
382.409	87.81
382.634	97.81
382.86	92.81
383.085	96.81
383.31	84.81
383.535	106.81
383.761	98.81
383.986	76.81
384.211	85.81
384.436	92.81
384.662	99.81
384.887	115.81
385.112	95.81
385.337	85.81
385.562	103.81
385.787	109.81
386.013	113.81
386.238	96.81
386.463	105.81
386.688	104.81
386.913	96.81
387.138	103.81
387.363	97.81
387.588	92.81
387.813	100.81
388.038	109.81
388.263	99.81
388.488	98.81
388.713	80.81
388.938	101.81
389.163	110.81
389.387	98.81
389.612	88.81
389.837	89.81
390.062	104.81
390.287	99.81
390.512	100.81
390.736	98.81
390.961	99.81
391.186	93.81
391.411	79.81
391.636	100.81
391.86	103.81
392.085	77.81
392.31	84.81
392.534	76.81
392.759	89.81
392.984	95.81
393.208	104.81
393.433	91.81
393.658	101.81
393.882	75.81
394.107	89.81
394.331	107.81
394.556	99.81
394.78	93.81
395.005	99.81
395.229	83.81
395.454	82.81
395.678	88.81
395.903	92.81
396.127	95.81
396.352	84.81
396.576	90.81
396.801	95.81
397.025	101.81
397.249	97.81
397.474	94.81
397.698	88.81
397.922	91.81
398.147	89.81
398.371	100.81
398.595	95.81
398.82	86.81
399.044	83.81
399.268	91.81
399.492	82.81
399.717	93.81
399.941	94.81
400.165	95.81
400.389	89.81
400.613	84.81
400.837	92.81
401.062	90.81
401.286	87.81
401.51	89.81
401.734	95.81
401.958	108.81
402.182	115.81
402.406	160.81
402.63	106.81
402.854	94.81
403.078	77.81
403.302	93.81
403.526	88.81
403.75	84.81
403.974	85.81
404.198	84.81
404.422	99.81
404.645	78.81
404.869	95.81
405.093	102.81
405.317	94.81
405.541	85.81
405.765	97.81
405.988	107.81
406.212	167.81
406.436	194.81
406.66	132.81
406.883	93.81
407.107	92.81
407.331	78.81
407.555	79.81
407.778	103.81
408.002	94.81
408.226	91.81
408.449	81.81
408.673	101.81
408.896	88.81
409.12	92.81
409.344	83.81
409.567	98.81
409.791	84.81
410.014	85.81
410.238	97.81
410.461	100.81
410.685	82.81
410.908	99.81
411.132	94.81
411.355	95.81
411.578	87.81
411.802	88.81
412.025	84.81
412.249	92.81
412.472	92.81
412.695	84.81
412.919	97.81
413.142	92.81
413.365	87.81
413.589	87.81
413.812	77.81
414.035	105.81
414.258	97.81
414.482	77.81
414.705	79.81
414.928	79.81
415.151	97.81
415.374	104.81
415.597	83.81
415.821	71.81
416.044	72.81
416.267	85.81
416.49	77.81
416.713	84.81
416.936	80.81
417.159	82.81
417.382	98.81
417.605	91.81
417.828	88.81
418.051	95.81
418.274	95.81
418.497	78.81
418.72	92.81
418.943	85.81
419.166	99.81
419.389	98.81
419.611	84.81
419.834	80.81
420.057	99.81
420.28	100.81
420.503	94.81
420.726	83.81
420.948	97.81
421.171	92.81
421.394	96.81
421.617	95.81
421.839	78.81
422.062	89.81
422.285	96.81
422.507	93.81
422.73	98.81
422.953	82.81
423.175	83.81
423.398	103.81
423.621	92.81
423.843	79.81
424.066	81.81
424.288	88.81
424.511	87.81
424.733	72.81
424.956	115.81
425.178	96.81
425.401	83.81
425.623	93.81
425.846	97.81
426.068	100.81
426.291	91.81
426.513	95.81
426.735	97.81
426.958	98.81
427.18	104.81
427.402	119.81
427.625	121.81
427.847	110.81
428.069	84.81
428.292	79.81
428.514	79.81
428.736	76.81
428.958	84.81
429.181	97.81
429.403	91.81
429.625	99.81
429.847	92.81
430.069	100.81
430.292	80.81
430.514	84.81
430.736	89.81
430.958	82.81
431.18	94.81
431.402	89.81
431.624	78.81
431.846	91.81
432.068	104.81
432.29	83.81
432.512	79.81
432.734	82.81
432.956	85.81
433.178	90.81
433.4	95.81
433.622	91.81
433.844	99.81
434.066	106.81
434.287	98.81
434.509	100.81
434.731	81.81
434.953	90.81
435.175	99.81
435.397	85.81
435.618	93.81
435.84	91.81
436.062	106.81
436.284	109.81
436.505	113.81
436.727	93.81
436.949	91.81
437.17	90.81
437.392	87.81
437.614	97.81
437.835	105.81
438.057	114.81
438.278	94.81
438.5	89.81
438.721	106.81
438.943	103.81
439.165	82.81
439.386	98.81
439.608	94.81
439.829	98.81
440.05	114.81
440.272	121.81
440.493	100.81
440.715	73.81
440.936	71.81
441.158	90.81
441.379	90.81
441.6	92.81
441.822	83.81
442.043	93.81
442.264	88.81
442.486	87.81
442.707	79.81
442.928	99.81
443.149	124.81
443.371	127.81
443.592	100.81
443.813	107.81
444.034	99.81
444.255	81.81
444.476	81.81
444.698	98.81
444.919	99.81
445.14	132.81
445.361	120.81
445.582	118.81
445.803	119.81
446.024	116.81
446.245	124.81
446.466	104.81
446.687	85.81
446.908	93.81
447.129	96.81
447.35	90.81
447.571	86.81
447.792	97.81
448.013	81.81
448.234	91.81
448.455	81.81
448.675	103.81
448.896	105.81
449.117	104.81
449.338	106.81
449.559	112.81
449.779	128.81
450	100.81
450.221	109.81
450.442	90.81
450.662	92.81
450.883	100.81
451.104	107.81
451.324	92.81
451.545	82.81
451.766	66.81
451.986	84.81
452.207	87.81
452.428	87.81
452.648	100.81
452.869	119.81
453.089	103.81
453.31	108.81
453.53	90.81
453.751	94.81
453.971	89.81
454.192	87.81
454.412	85.81
454.633	78.81
454.853	85.81
455.073	83.81
455.294	87.81
455.514	92.81
455.734	81.81
455.955	82.81
456.175	93.81
456.395	96.81
456.616	94.81
456.836	81.81
457.056	80.81
457.276	81.81
457.497	94.81
457.717	89.81
457.937	68.81
458.157	88.81
458.377	84.81
458.598	117.81
458.818	143.81
459.038	148.81
459.258	114.81
459.478	99.81
459.698	77.81
459.918	88.81
460.138	79.81
460.358	91.81
460.578	88.81
460.798	105.81
461.018	80.81
461.238	81.81
461.458	96.81
461.678	75.81
461.898	91.81
462.118	91.81
462.338	89.81
462.558	75.81
462.777	95.81
462.997	87.81
463.217	90.81
463.437	99.81
463.657	93.81
463.876	77.81
464.096	93.81
464.316	100.81
464.536	90.81
464.755	96.81
464.975	104.81
465.195	135.81
465.414	138.81
465.634	84.81
465.854	84.81
466.073	79.81
466.293	81.81
466.512	83.81
466.732	77.81
466.951	89.81
467.171	100.81
467.391	98.81
467.61	84.81
467.829	88.81
468.049	84.81
468.268	91.81
468.488	99.81
468.707	88.81
468.927	98.81
469.146	62.81
469.365	86.81
469.585	95.81
469.804	79.81
470.023	93.81
470.243	80.81
470.462	94.81
470.681	105.81
470.901	89.81
471.12	79.81
471.339	88.81
471.558	97.81
471.777	91.81
471.997	82.81
472.216	89.81
472.435	95.81
472.654	81.81
472.873	75.81
473.092	89.81
473.311	79.81
473.53	91.81
473.749	84.81
473.968	97.81
474.187	96.81
474.406	90.81
474.625	84.81
474.844	89.81
475.063	78.81
475.282	85.81
475.501	85.81
475.72	83.81
475.939	79.81
476.158	89.81
476.377	92.81
476.596	78.81
476.814	92.81
477.033	96.81
477.252	85.81
477.471	85.81
477.69	86.81
477.908	91.81
478.127	90.81
478.346	81.81
478.564	79.81
478.783	84.81
479.002	74.81
479.22	91.81
479.439	98.81
479.658	111.81
479.876	75.81
480.095	83.81
480.313	90.81
480.532	97.81
480.751	98.81
480.969	98.81
481.188	103.81
481.406	92.81
481.624	87.81
481.843	87.81
482.061	88.81
482.28	90.81
482.498	79.81
482.717	91.81
482.935	99.81
483.153	98.81
483.372	95.81
483.59	101.81
483.808	84.81
484.027	87.81
484.245	103.81
484.463	77.81
484.681	96.81
484.9	93.81
485.118	89.81
485.336	93.81
485.554	89.81
485.772	100.81
485.99	98.81
486.209	115.81
486.427	99.81
486.645	115.81
486.863	103.81
487.081	98.81
487.299	86.81
487.517	94.81
487.735	83.81
487.953	88.81
488.171	104.81
488.389	100.81
488.607	100.81
488.825	78.81
489.043	89.81
489.261	100.81
489.479	79.81
489.696	96.81
489.914	90.81
490.132	84.81
490.35	95.81
490.568	86.81
490.786	90.81
491.003	87.81
491.221	81.81
491.439	91.81
491.657	98.81
491.874	94.81
492.092	87.81
492.31	82.81
492.527	83.81
492.745	84.81
492.963	90.81
493.18	100.81
493.398	104.81
493.615	105.81
493.833	101.81
494.05	94.81
494.268	66.81
494.485	87.81
494.703	94.81
494.92	79.81
495.138	99.81
495.355	93.81
495.573	99.81
495.79	84.81
496.008	93.81
496.225	89.81
496.442	78.81
496.66	93.81
496.877	90.81
497.094	81.81
497.312	81.81
497.529	91.81
497.746	77.81
497.963	73.81
498.181	92.81
498.398	90.81
498.615	87.81
498.832	92.81
499.049	96.81
499.267	99.81
499.484	90.81
499.701	77.81
499.918	91.81
500.135	85.81
500.352	77.81
500.569	88.81
500.786	106.81
501.003	91.81
501.22	87.81
501.437	88.81
501.654	100.81
501.871	103.81
502.088	95.81
502.305	77.81
502.522	83.81
502.739	97.81
502.956	94.81
503.172	95.81
503.389	93.81
503.606	97.81
503.823	89.81
504.04	80.81
504.256	89.81
504.473	86.81
504.69	91.81
504.907	79.81
505.123	81.81
505.34	97.81
505.557	85.81
505.773	88.81
505.99	88.81
506.207	101.81
506.423	76.81
506.64	100.81
506.856	100.81
507.073	88.81
507.289	100.81
507.506	101.81
507.722	88.81
507.939	97.81
508.155	97.81
508.372	88.81
508.588	89.81
508.805	95.81
509.021	93.81
509.238	75.81
509.454	94.81
509.67	97.81
509.887	112.81
510.103	132.81
510.319	196.81
510.536	714.81
510.752	2157.81
510.968	595.81
511.184	141.81
511.401	89.81
511.617	91.81
511.833	93.81
512.049	87.81
512.265	71.81
512.481	81.81
512.698	95.81
512.914	103.81
513.13	106.81
513.346	85.81
513.562	104.81
513.778	97.81
513.994	99.81
514.21	95.81
514.426	103.81
514.642	125.81
514.858	116.81
515.074	153.81
515.29	427.81
515.506	1304.81
515.721	486.81
515.937	145.81
516.153	120.81
516.369	92.81
516.585	90.81
