Data from Uncirc_1992_H10_HRD10591_00004.txt Node
Date: Wed Jan 03 11:46:17 EST 2024
User: Yrep
Spectrometer: HR+D1059
Trigger mode: 1
Integration Time (sec): 1.000000E-1
Scans to average: 1
Electric dark correction enabled: true
Nonlinearity correction enabled: false
Boxcar width: 0
XAxis mode: Wavelengths
Number of Pixels in Spectrum: 2048
>>>>>Begin Spectral Data<<<<<
223.165	-5.62
223.4	-5.62
223.635	-5.62
223.869	-10.62
224.104	-19.62
224.338	-15.62
224.573	-4.62
224.808	-18.62
225.042	-26.62
225.277	-5.62
225.511	7.38
225.746	7.38
225.98	6.38
226.215	14.38
226.449	10.38
226.683	24.38
226.918	14.38
227.152	22.38
227.387	38.38
227.621	67.38
227.856	65.38
228.09	54.38
228.324	58.38
228.559	68.38
228.793	58.38
229.027	50.38
229.262	78.38
229.496	82.38
229.73	80.38
229.964	86.38
230.199	83.38
230.433	66.38
230.667	78.38
230.901	84.38
231.136	80.38
231.37	79.38
231.604	63.38
231.838	76.38
232.072	68.38
232.306	84.38
232.541	69.38
232.775	79.38
233.009	91.38
233.243	92.38
233.477	87.38
233.711	88.38
233.945	97.38
234.179	95.38
234.413	83.38
234.647	77.38
234.881	77.38
235.115	84.38
235.349	95.38
235.583	90.38
235.817	89.38
236.051	67.38
236.285	78.38
236.519	84.38
236.753	82.38
236.987	86.38
237.221	88.38
237.455	82.38
237.689	88.38
237.922	80.38
238.156	61.38
238.39	67.38
238.624	89.38
238.858	71.38
239.091	88.38
239.325	76.38
239.559	76.38
239.793	79.38
240.027	71.38
240.26	81.38
240.494	82.38
240.728	74.38
240.961	80.38
241.195	96.38
241.429	69.38
241.662	71.38
241.896	86.38
242.13	76.38
242.363	68.38
242.597	91.38
242.83	72.38
243.064	62.38
243.298	80.38
243.531	75.38
243.765	77.38
243.998	84.38
244.232	91.38
244.465	74.38
244.699	87.38
244.932	67.38
245.166	78.38
245.399	74.38
245.633	72.38
245.866	88.38
246.099	77.38
246.333	74.38
246.566	72.38
246.8	92.38
247.033	87.38
247.266	71.38
247.5	83.38
247.733	84.38
247.966	78.38
248.2	81.38
248.433	82.38
248.666	90.38
248.899	81.38
249.133	80.38
249.366	89.38
249.599	98.38
249.832	72.38
250.066	85.38
250.299	88.38
250.532	84.38
250.765	80.38
250.998	67.38
251.231	93.38
251.465	80.38
251.698	93.38
251.931	78.38
252.164	76.38
252.397	94.38
252.63	82.38
252.863	78.38
253.096	80.38
253.329	84.38
253.562	78.38
253.795	87.38
254.028	86.38
254.261	76.38
254.494	93.38
254.727	81.38
254.96	78.38
255.193	87.38
255.426	82.38
255.659	77.38
255.892	79.38
256.124	72.38
256.357	78.38
256.59	79.38
256.823	100.38
257.056	91.38
257.289	79.38
257.521	79.38
257.754	84.38
257.987	86.38
258.22	68.38
258.452	78.38
258.685	90.38
258.918	86.38
259.151	76.38
259.383	89.38
259.616	81.38
259.849	81.38
260.081	88.38
260.314	86.38
260.547	100.38
260.779	82.38
261.012	88.38
261.244	83.38
261.477	86.38
261.71	95.38
261.942	96.38
262.175	94.38
262.407	95.38
262.64	88.38
262.872	71.38
263.105	82.38
263.337	82.38
263.57	81.38
263.802	85.38
264.035	77.38
264.267	72.38
264.499	92.38
264.732	88.38
264.964	98.38
265.197	80.38
265.429	85.38
265.661	91.38
265.894	82.38
266.126	82.38
266.358	71.38
266.591	86.38
266.823	93.38
267.055	92.38
267.287	83.38
267.52	93.38
267.752	87.38
267.984	88.38
268.216	77.38
268.448	72.38
268.681	89.38
268.913	86.38
269.145	106.38
269.377	96.38
269.609	97.38
269.841	86.38
270.073	94.38
270.306	80.38
270.538	78.38
270.77	88.38
271.002	82.38
271.234	102.38
271.466	88.38
271.698	87.38
271.93	83.38
272.162	99.38
272.394	102.38
272.626	92.38
272.858	78.38
273.09	94.38
273.322	87.38
273.553	80.38
273.785	93.38
274.017	96.38
274.249	86.38
274.481	87.38
274.713	81.38
274.945	82.38
275.176	94.38
275.408	88.38
275.64	60.38
275.872	92.38
276.104	88.38
276.335	92.38
276.567	88.38
276.799	104.38
277.031	110.38
277.262	78.38
277.494	75.38
277.726	85.38
277.957	86.38
278.189	91.38
278.421	68.38
278.652	86.38
278.884	84.38
279.115	95.38
279.347	67.38
279.579	98.38
279.81	100.38
280.042	86.38
280.273	105.38
280.505	103.38
280.736	86.38
280.968	89.38
281.199	93.38
281.431	91.38
281.662	92.38
281.894	90.38
282.125	102.38
282.356	110.38
282.588	113.38
282.819	111.38
283.051	88.38
283.282	78.38
283.513	82.38
283.745	88.38
283.976	88.38
284.207	78.38
284.439	89.38
284.67	95.38
284.901	92.38
285.132	95.38
285.364	87.38
285.595	79.38
285.826	93.38
286.057	90.38
286.288	108.38
286.52	84.38
286.751	74.38
286.982	74.38
287.213	87.38
287.444	87.38
287.675	90.38
287.906	94.38
288.138	76.38
288.369	80.38
288.6	95.38
288.831	92.38
289.062	89.38
289.293	101.38
289.524	83.38
289.755	82.38
289.986	89.38
290.217	89.38
290.448	83.38
290.679	87.38
290.91	93.38
291.141	91.38
291.371	95.38
291.602	89.38
291.833	95.38
292.064	87.38
292.295	88.38
292.526	90.38
292.757	91.38
292.987	90.38
293.218	99.38
293.449	92.38
293.68	93.38
293.91	92.38
294.141	98.38
294.372	84.38
294.603	98.38
294.833	95.38
295.064	96.38
295.295	88.38
295.525	76.38
295.756	86.38
295.987	95.38
296.217	115.38
296.448	110.38
296.679	91.38
296.909	79.38
297.14	86.38
297.37	76.38
297.601	86.38
297.831	86.38
298.062	80.38
298.292	91.38
298.523	94.38
298.753	80.38
298.984	106.38
299.214	108.38
299.445	96.38
299.675	86.38
299.905	89.38
300.136	97.38
300.366	101.38
300.597	91.38
300.827	84.38
301.057	98.38
301.288	109.38
301.518	89.38
301.748	87.38
301.979	99.38
302.209	97.38
302.439	96.38
302.669	87.38
302.9	75.38
303.13	96.38
303.36	101.38
303.59	107.38
303.82	88.38
304.051	86.38
304.281	96.38
304.511	68.38
304.741	91.38
304.971	98.38
305.201	86.38
305.431	93.38
305.661	94.38
305.891	92.38
306.121	100.38
306.352	97.38
306.582	89.38
306.812	110.38
307.042	112.38
307.272	90.38
307.502	94.38
307.731	99.38
307.961	88.38
308.191	96.38
308.421	84.38
308.651	88.38
308.881	100.38
309.111	95.38
309.341	84.38
309.571	92.38
309.8	91.38
310.03	84.38
310.26	92.38
310.49	92.38
310.72	97.38
310.949	103.38
311.179	109.38
311.409	93.38
311.639	74.38
311.868	96.38
312.098	96.38
312.328	95.38
312.557	101.38
312.787	107.38
313.017	98.38
313.246	95.38
313.476	103.38
313.706	109.38
313.935	90.38
314.165	96.38
314.394	102.38
314.624	102.38
314.853	90.38
315.083	102.38
315.312	87.38
315.542	94.38
315.771	93.38
316.001	77.38
316.23	101.38
316.46	87.38
316.689	87.38
316.919	98.38
317.148	93.38
317.377	94.38
317.607	96.38
317.836	84.38
318.065	92.38
318.295	91.38
318.524	96.38
318.753	96.38
318.983	100.38
319.212	99.38
319.441	102.38
319.67	103.38
319.9	94.38
320.129	94.38
320.358	104.38
320.587	102.38
320.816	103.38
321.046	92.38
321.275	108.38
321.504	87.38
321.733	99.38
321.962	83.38
322.191	99.38
322.42	98.38
322.649	119.38
322.878	87.38
323.108	117.38
323.337	119.38
323.566	113.38
323.795	122.38
324.024	178.38
324.253	306.38
324.482	623.38
324.71	1157.38
324.939	1532.38
325.168	571.38
325.397	184.38
325.626	128.38
325.855	114.38
326.084	120.38
326.313	110.38
326.542	130.38
326.77	198.38
326.999	350.38
327.228	704.38
327.457	1239.38
327.686	979.38
327.914	284.38
328.143	147.38
328.372	132.38
328.6	113.38
328.829	105.38
329.058	116.38
329.287	94.38
329.515	96.38
329.744	92.38
329.972	88.38
330.201	91.38
330.43	101.38
330.658	104.38
330.887	119.38
331.115	97.38
331.344	102.38
331.572	84.38
331.801	103.38
332.03	96.38
332.258	99.38
332.486	91.38
332.715	103.38
332.943	87.38
333.172	88.38
333.4	93.38
333.629	99.38
333.857	103.38
334.085	102.38
334.314	98.38
334.542	82.38
334.771	88.38
334.999	102.38
335.227	83.38
335.455	95.38
335.684	104.38
335.912	110.38
336.14	107.38
336.369	100.38
336.597	87.38
336.825	101.38
337.053	105.38
337.281	87.38
337.51	95.38
337.738	95.38
337.966	91.38
338.194	90.38
338.422	105.38
338.65	97.38
338.878	96.38
339.106	90.38
339.334	94.38
339.562	93.38
339.79	92.38
340.018	85.38
340.246	86.38
340.474	90.38
340.702	108.38
340.93	106.38
341.158	80.38
341.386	89.38
341.614	94.38
341.842	84.38
342.07	107.38
342.298	104.38
342.526	87.38
342.754	92.38
342.981	78.38
343.209	88.38
343.437	102.38
343.665	89.38
343.893	91.38
344.12	91.38
344.348	84.38
344.576	83.38
344.804	101.38
345.031	79.38
345.259	99.38
345.487	86.38
345.714	120.38
345.942	83.38
346.17	101.38
346.397	90.38
346.625	93.38
346.853	90.38
347.08	92.38
347.308	114.38
347.535	102.38
347.763	91.38
347.99	94.38
348.218	111.38
348.445	101.38
348.673	100.38
348.9	95.38
349.128	98.38
349.355	93.38
349.583	104.38
349.81	95.38
350.037	100.38
350.265	93.38
350.492	96.38
350.72	92.38
350.947	99.38
351.174	107.38
351.402	106.38
351.629	112.38
351.856	102.38
352.083	99.38
352.311	104.38
352.538	108.38
352.765	107.38
352.992	107.38
353.22	99.38
353.447	120.38
353.674	105.38
353.901	97.38
354.128	94.38
354.355	95.38
354.583	103.38
354.81	97.38
355.037	112.38
355.264	95.38
355.491	99.38
355.718	103.38
355.945	91.38
356.172	99.38
356.399	101.38
356.626	95.38
356.853	96.38
357.08	98.38
357.307	83.38
357.534	84.38
357.761	87.38
357.988	72.38
358.215	96.38
358.441	99.38
358.668	100.38
358.895	88.38
359.122	102.38
359.349	94.38
359.576	91.38
359.802	90.38
360.029	99.38
360.256	102.38
360.483	97.38
360.709	104.38
360.936	100.38
361.163	86.38
361.39	83.38
361.616	101.38
361.843	87.38
362.07	80.38
362.296	92.38
362.523	78.38
362.749	98.38
362.976	82.38
363.203	92.38
363.429	86.38
363.656	82.38
363.882	95.38
364.109	97.38
364.335	75.38
364.562	88.38
364.788	94.38
365.015	90.38
365.241	101.38
365.468	105.38
365.694	90.38
365.92	82.38
366.147	83.38
366.373	100.38
366.599	88.38
366.826	79.38
367.052	92.38
367.278	81.38
367.505	98.38
367.731	108.38
367.957	92.38
368.184	96.38
368.41	108.38
368.636	97.38
368.862	111.38
369.089	97.38
369.315	82.38
369.541	84.38
369.767	92.38
369.993	93.38
370.219	96.38
370.445	90.38
370.672	87.38
370.898	88.38
371.124	103.38
371.35	80.38
371.576	93.38
371.802	91.38
372.028	78.38
372.254	100.38
372.48	86.38
372.706	95.38
372.932	104.38
373.158	94.38
373.384	84.38
373.61	99.38
373.835	94.38
374.061	86.38
374.287	94.38
374.513	92.38
374.739	93.38
374.965	103.38
375.191	83.38
375.416	83.38
375.642	94.38
375.868	94.38
376.094	96.38
376.319	92.38
376.545	90.38
376.771	94.38
376.997	86.38
377.222	88.38
377.448	87.38
377.674	95.38
377.899	91.38
378.125	95.38
378.35	86.38
378.576	85.38
378.802	106.38
379.027	83.38
379.253	109.38
379.478	86.38
379.704	95.38
379.929	93.38
380.155	94.38
380.38	93.38
380.606	97.38
380.831	97.38
381.057	109.38
381.282	92.38
381.507	95.38
381.733	99.38
381.958	98.38
382.184	94.38
382.409	99.38
382.634	105.38
382.86	108.38
383.085	107.38
383.31	104.38
383.535	90.38
383.761	113.38
383.986	98.38
384.211	91.38
384.436	92.38
384.662	108.38
384.887	109.38
385.112	95.38
385.337	108.38
385.562	111.38
385.787	122.38
386.013	108.38
386.238	110.38
386.463	108.38
386.688	126.38
386.913	114.38
387.138	105.38
387.363	116.38
387.588	87.38
387.813	97.38
388.038	112.38
388.263	104.38
388.488	105.38
388.713	106.38
388.938	95.38
389.163	99.38
389.387	99.38
389.612	102.38
389.837	87.38
390.062	93.38
390.287	87.38
390.512	92.38
390.736	99.38
390.961	92.38
391.186	97.38
391.411	91.38
391.636	86.38
391.86	95.38
392.085	86.38
392.31	97.38
392.534	94.38
392.759	88.38
392.984	75.38
393.208	96.38
393.433	99.38
393.658	104.38
393.882	98.38
394.107	84.38
394.331	99.38
394.556	91.38
394.78	91.38
395.005	80.38
395.229	78.38
395.454	89.38
395.678	90.38
395.903	89.38
396.127	95.38
396.352	83.38
396.576	77.38
396.801	108.38
397.025	106.38
397.249	91.38
397.474	87.38
397.698	83.38
397.922	87.38
398.147	106.38
398.371	80.38
398.595	89.38
398.82	103.38
399.044	83.38
399.268	84.38
399.492	96.38
399.717	78.38
399.941	92.38
400.165	93.38
400.389	81.38
400.613	85.38
400.837	72.38
401.062	98.38
401.286	90.38
401.51	87.38
401.734	99.38
401.958	91.38
402.182	115.38
402.406	120.38
402.63	99.38
402.854	94.38
403.078	86.38
403.302	82.38
403.526	82.38
403.75	96.38
403.974	82.38
404.198	84.38
404.422	98.38
404.645	91.38
404.869	103.38
405.093	102.38
405.317	88.38
405.541	107.38
405.765	112.38
405.988	112.38
406.212	150.38
406.436	168.38
406.66	122.38
406.883	102.38
407.107	90.38
407.331	87.38
407.555	94.38
407.778	108.38
408.002	104.38
408.226	96.38
408.449	80.38
408.673	91.38
408.896	96.38
409.12	98.38
409.344	91.38
409.567	101.38
409.791	96.38
410.014	97.38
410.238	93.38
410.461	93.38
410.685	86.38
410.908	105.38
411.132	121.38
411.355	96.38
411.578	96.38
411.802	86.38
412.025	92.38
412.249	103.38
412.472	88.38
412.695	72.38
412.919	96.38
413.142	88.38
413.365	88.38
413.589	87.38
413.812	87.38
414.035	98.38
414.258	87.38
414.482	90.38
414.705	103.38
414.928	98.38
415.151	114.38
415.374	99.38
415.597	90.38
415.821	100.38
416.044	90.38
416.267	82.38
416.49	93.38
416.713	94.38
416.936	78.38
417.159	83.38
417.382	79.38
417.605	88.38
417.828	93.38
418.051	101.38
418.274	88.38
418.497	94.38
418.72	80.38
418.943	97.38
419.166	90.38
419.389	98.38
419.611	84.38
419.834	92.38
420.057	99.38
420.28	79.38
420.503	98.38
420.726	91.38
420.948	83.38
421.171	93.38
421.394	95.38
421.617	91.38
421.839	95.38
422.062	87.38
422.285	96.38
422.507	100.38
422.73	104.38
422.953	95.38
423.175	104.38
423.398	87.38
423.621	86.38
423.843	95.38
424.066	90.38
424.288	91.38
424.511	82.38
424.733	82.38
424.956	103.38
425.178	95.38
425.401	92.38
425.623	97.38
425.846	84.38
426.068	84.38
426.291	98.38
426.513	86.38
426.735	103.38
426.958	93.38
427.18	86.38
427.402	108.38
427.625	133.38
427.847	98.38
428.069	97.38
428.292	86.38
428.514	84.38
428.736	79.38
428.958	78.38
429.181	71.38
429.403	93.38
429.625	98.38
429.847	99.38
430.069	93.38
430.292	94.38
430.514	89.38
430.736	79.38
430.958	91.38
431.18	92.38
431.402	77.38
431.624	82.38
431.846	92.38
432.068	94.38
432.29	85.38
432.512	90.38
432.734	88.38
432.956	82.38
433.178	97.38
433.4	88.38
433.622	100.38
433.844	84.38
434.066	80.38
434.287	79.38
434.509	84.38
434.731	81.38
434.953	78.38
435.175	94.38
435.397	85.38
435.618	99.38
435.84	110.38
436.062	126.38
436.284	97.38
436.505	96.38
436.727	84.38
436.949	91.38
437.17	80.38
437.392	88.38
437.614	93.38
437.835	103.38
438.057	118.38
438.278	90.38
438.5	103.38
438.721	87.38
438.943	100.38
439.165	74.38
439.386	78.38
439.608	99.38
439.829	108.38
440.05	95.38
440.272	117.38
440.493	88.38
440.715	93.38
440.936	87.38
441.158	88.38
441.379	91.38
441.6	84.38
441.822	99.38
442.043	94.38
442.264	91.38
442.486	88.38
442.707	88.38
442.928	93.38
443.149	131.38
443.371	107.38
443.592	91.38
443.813	112.38
444.034	107.38
444.255	92.38
444.476	77.38
444.698	84.38
444.919	80.38
445.14	126.38
445.361	111.38
445.582	126.38
445.803	124.38
446.024	128.38
446.245	124.38
446.466	94.38
446.687	96.38
446.908	85.38
447.129	94.38
447.35	80.38
447.571	89.38
447.792	101.38
448.013	89.38
448.234	100.38
448.455	88.38
448.675	91.38
448.896	113.38
449.117	105.38
449.338	94.38
449.559	114.38
449.779	116.38
450	88.38
450.221	82.38
450.442	82.38
450.662	90.38
450.883	92.38
451.104	102.38
451.324	100.38
451.545	92.38
451.766	82.38
451.986	86.38
452.207	95.38
452.428	83.38
452.648	88.38
452.869	94.38
453.089	103.38
453.31	95.38
453.53	88.38
453.751	91.38
453.971	93.38
454.192	106.38
454.412	97.38
454.633	78.38
454.853	106.38
455.073	100.38
455.294	101.38
455.514	93.38
455.734	92.38
455.955	90.38
456.175	91.38
456.395	86.38
456.616	75.38
456.836	97.38
457.056	90.38
457.276	95.38
457.497	99.38
457.717	83.38
457.937	87.38
458.157	94.38
458.377	86.38
458.598	106.38
458.818	138.38
459.038	118.38
459.258	106.38
459.478	89.38
459.698	86.38
459.918	80.38
460.138	86.38
460.358	75.38
460.578	87.38
460.798	95.38
461.018	83.38
461.238	88.38
461.458	106.38
461.678	76.38
461.898	88.38
462.118	91.38
462.338	88.38
462.558	91.38
462.777	83.38
462.997	82.38
463.217	88.38
463.437	78.38
463.657	87.38
463.876	83.38
464.096	94.38
464.316	75.38
464.536	87.38
464.755	97.38
464.975	107.38
465.195	136.38
465.414	126.38
465.634	92.38
465.854	71.38
466.073	92.38
466.293	87.38
466.512	82.38
466.732	93.38
466.951	79.38
467.171	91.38
467.391	93.38
467.61	90.38
467.829	82.38
468.049	83.38
468.268	63.38
468.488	88.38
468.707	89.38
468.927	72.38
469.146	76.38
469.365	91.38
469.585	73.38
469.804	78.38
470.023	97.38
470.243	83.38
470.462	98.38
470.681	101.38
470.901	93.38
471.12	92.38
471.339	81.38
471.558	87.38
471.777	76.38
471.997	91.38
472.216	93.38
472.435	88.38
472.654	86.38
472.873	99.38
473.092	90.38
473.311	92.38
473.53	91.38
473.749	93.38
473.968	90.38
474.187	103.38
474.406	88.38
474.625	80.38
474.844	97.38
475.063	87.38
475.282	84.38
475.501	98.38
475.72	104.38
475.939	82.38
476.158	81.38
476.377	96.38
476.596	93.38
476.814	91.38
477.033	71.38
477.252	67.38
477.471	87.38
477.69	74.38
477.908	84.38
478.127	92.38
478.346	79.38
478.564	90.38
478.783	98.38
479.002	99.38
479.22	87.38
479.439	99.38
479.658	97.38
479.876	92.38
480.095	92.38
480.313	98.38
480.532	87.38
480.751	78.38
480.969	100.38
481.188	93.38
481.406	97.38
481.624	88.38
481.843	82.38
482.061	87.38
482.28	82.38
482.498	103.38
482.717	90.38
482.935	96.38
483.153	84.38
483.372	96.38
483.59	76.38
483.808	97.38
484.027	90.38
484.245	91.38
484.463	90.38
484.681	102.38
484.9	95.38
485.118	103.38
485.336	95.38
485.554	95.38
485.772	108.38
485.99	96.38
486.209	105.38
486.427	93.38
486.645	96.38
486.863	96.38
487.081	95.38
487.299	91.38
487.517	107.38
487.735	87.38
487.953	84.38
488.171	98.38
488.389	102.38
488.607	93.38
488.825	111.38
489.043	82.38
489.261	91.38
489.479	96.38
489.696	83.38
489.914	89.38
490.132	99.38
490.35	82.38
490.568	95.38
490.786	87.38
491.003	103.38
491.221	83.38
491.439	102.38
491.657	89.38
491.874	89.38
492.092	103.38
492.31	94.38
492.527	85.38
492.745	86.38
492.963	94.38
493.18	99.38
493.398	88.38
493.615	97.38
493.833	97.38
494.05	99.38
494.268	91.38
494.485	78.38
494.703	109.38
494.92	96.38
495.138	97.38
495.355	87.38
495.573	98.38
495.79	82.38
496.008	103.38
496.225	95.38
496.442	91.38
496.66	96.38
496.877	86.38
497.094	96.38
497.312	81.38
497.529	94.38
497.746	100.38
497.963	83.38
498.181	92.38
498.398	108.38
498.615	109.38
498.832	105.38
499.049	80.38
499.267	87.38
499.484	91.38
499.701	95.38
499.918	92.38
500.135	83.38
500.352	98.38
500.569	100.38
500.786	91.38
501.003	81.38
501.22	85.38
501.437	86.38
501.654	93.38
501.871	112.38
502.088	99.38
502.305	96.38
502.522	87.38
502.739	94.38
502.956	78.38
503.172	95.38
503.389	104.38
503.606	95.38
503.823	96.38
504.04	76.38
504.256	103.38
504.473	83.38
504.69	98.38
504.907	104.38
505.123	97.38
505.34	104.38
505.557	86.38
505.773	95.38
505.99	96.38
506.207	103.38
506.423	102.38
506.64	99.38
506.856	101.38
507.073	87.38
507.289	81.38
507.506	93.38
507.722	94.38
507.939	95.38
508.155	97.38
508.372	96.38
508.588	98.38
508.805	91.38
509.021	76.38
509.238	93.38
509.454	93.38
509.67	101.38
509.887	112.38
510.103	112.38
510.319	182.38
510.536	550.38
510.752	1598.38
510.968	463.38
511.184	138.38
511.401	88.38
511.617	85.38
511.833	86.38
512.049	108.38
512.265	94.38
512.481	92.38
512.698	91.38
512.914	103.38
513.13	100.38
513.346	84.38
513.562	91.38
513.778	95.38
513.994	103.38
514.21	108.38
514.426	123.38
514.642	121.38
514.858	107.38
515.074	140.38
515.29	328.38
515.506	974.38
515.721	380.38
515.937	140.38
516.153	91.38
