Data from Uncirc_1992_H10_HRD10591_00097.txt Node
Date: Wed Jan 03 11:46:35 EST 2024
User: Yrep
Spectrometer: HR+D1059
Trigger mode: 1
Integration Time (sec): 1.000000E-1
Scans to average: 1
Electric dark correction enabled: true
Nonlinearity correction enabled: false
Boxcar width: 0
XAxis mode: Wavelengths
Number of Pixels in Spectrum: 2048
>>>>>Begin Spectral Data<<<<<
223.165	-31.25
223.4	-31.25
223.635	-31.25
223.869	-24.25
224.104	-22.25
224.338	-14.25
224.573	-15.25
224.808	-17.25
225.042	-3.25
225.277	-10.25
225.511	0.75
225.746	3.75
225.98	12.75
226.215	18.75
226.449	16.75
226.683	27.75
226.918	25.75
227.152	31.75
227.387	43.75
227.621	39.75
227.856	35.75
228.09	52.75
228.324	43.75
228.559	46.75
228.793	53.75
229.027	55.75
229.262	80.75
229.496	74.75
229.73	74.75
229.964	82.75
230.199	67.75
230.433	66.75
230.667	78.75
230.901	80.75
231.136	71.75
231.37	65.75
231.604	82.75
231.838	66.75
232.072	65.75
232.306	68.75
232.541	66.75
232.775	67.75
233.009	70.75
233.243	86.75
233.477	91.75
233.711	85.75
233.945	72.75
234.179	70.75
234.413	96.75
234.647	78.75
234.881	88.75
235.115	94.75
235.349	71.75
235.583	69.75
235.817	76.75
236.051	72.75
236.285	74.75
236.519	59.75
236.753	73.75
236.987	90.75
237.221	85.75
237.455	80.75
237.689	79.75
237.922	67.75
238.156	64.75
238.39	81.75
238.624	64.75
238.858	72.75
239.091	75.75
239.325	86.75
239.559	82.75
239.793	71.75
240.027	76.75
240.26	64.75
240.494	56.75
240.728	73.75
240.961	70.75
241.195	76.75
241.429	73.75
241.662	81.75
241.896	65.75
242.13	71.75
242.363	68.75
242.597	76.75
242.83	86.75
243.064	82.75
243.298	73.75
243.531	80.75
243.765	91.75
243.998	73.75
244.232	92.75
244.465	80.75
244.699	68.75
244.932	76.75
245.166	84.75
245.399	72.75
245.633	67.75
245.866	72.75
246.099	67.75
246.333	84.75
246.566	70.75
246.8	70.75
247.033	78.75
247.266	72.75
247.5	76.75
247.733	91.75
247.966	84.75
248.2	60.75
248.433	83.75
248.666	78.75
248.899	81.75
249.133	85.75
249.366	100.75
249.599	97.75
249.832	78.75
250.066	63.75
250.299	67.75
250.532	80.75
250.765	90.75
250.998	84.75
251.231	69.75
251.465	75.75
251.698	81.75
251.931	79.75
252.164	75.75
252.397	64.75
252.63	75.75
252.863	83.75
253.096	74.75
253.329	72.75
253.562	79.75
253.795	64.75
254.028	76.75
254.261	71.75
254.494	69.75
254.727	87.75
254.96	73.75
255.193	87.75
255.426	74.75
255.659	81.75
255.892	88.75
256.124	74.75
256.357	87.75
256.59	82.75
256.823	84.75
257.056	86.75
257.289	78.75
257.521	88.75
257.754	85.75
257.987	83.75
258.22	79.75
258.452	76.75
258.685	77.75
258.918	82.75
259.151	83.75
259.383	75.75
259.616	76.75
259.849	77.75
260.081	69.75
260.314	73.75
260.547	86.75
260.779	66.75
261.012	85.75
261.244	82.75
261.477	73.75
261.71	81.75
261.942	113.75
262.175	96.75
262.407	86.75
262.64	78.75
262.872	104.75
263.105	68.75
263.337	74.75
263.57	84.75
263.802	86.75
264.035	82.75
264.267	81.75
264.499	75.75
264.732	96.75
264.964	76.75
265.197	85.75
265.429	82.75
265.661	71.75
265.894	84.75
266.126	85.75
266.358	86.75
266.591	69.75
266.823	87.75
267.055	87.75
267.287	76.75
267.52	82.75
267.752	81.75
267.984	92.75
268.216	81.75
268.448	82.75
268.681	76.75
268.913	79.75
269.145	82.75
269.377	79.75
269.609	79.75
269.841	78.75
270.073	72.75
270.306	72.75
270.538	79.75
270.77	89.75
271.002	98.75
271.234	76.75
271.466	77.75
271.698	82.75
271.93	80.75
272.162	62.75
272.394	87.75
272.626	89.75
272.858	83.75
273.09	79.75
273.322	90.75
273.553	78.75
273.785	87.75
274.017	83.75
274.249	72.75
274.481	94.75
274.713	90.75
274.945	84.75
275.176	84.75
275.408	91.75
275.64	75.75
275.872	70.75
276.104	68.75
276.335	89.75
276.567	87.75
276.799	110.75
277.031	92.75
277.262	74.75
277.494	90.75
277.726	86.75
277.957	94.75
278.189	85.75
278.421	77.75
278.652	93.75
278.884	83.75
279.115	77.75
279.347	92.75
279.579	91.75
279.81	94.75
280.042	102.75
280.273	87.75
280.505	88.75
280.736	76.75
280.968	81.75
281.199	72.75
281.431	86.75
281.662	86.75
281.894	92.75
282.125	93.75
282.356	111.75
282.588	125.75
282.819	98.75
283.051	95.75
283.282	89.75
283.513	78.75
283.745	79.75
283.976	76.75
284.207	63.75
284.439	90.75
284.67	74.75
284.901	76.75
285.132	90.75
285.364	87.75
285.595	65.75
285.826	72.75
286.057	92.75
286.288	76.75
286.52	75.75
286.751	78.75
286.982	76.75
287.213	92.75
287.444	98.75
287.675	91.75
287.906	83.75
288.138	88.75
288.369	77.75
288.6	72.75
288.831	64.75
289.062	86.75
289.293	78.75
289.524	70.75
289.755	82.75
289.986	89.75
290.217	83.75
290.448	77.75
290.679	84.75
290.91	76.75
291.141	62.75
291.371	70.75
291.602	82.75
291.833	72.75
292.064	71.75
292.295	94.75
292.526	87.75
292.757	68.75
292.987	78.75
293.218	79.75
293.449	87.75
293.68	84.75
293.91	87.75
294.141	93.75
294.372	79.75
294.603	86.75
294.833	87.75
295.064	81.75
295.295	89.75
295.525	76.75
295.756	92.75
295.987	118.75
296.217	123.75
296.448	115.75
296.679	86.75
296.909	100.75
297.14	88.75
297.37	82.75
297.601	84.75
297.831	90.75
298.062	78.75
298.292	76.75
298.523	83.75
298.753	86.75
298.984	89.75
299.214	78.75
299.445	90.75
299.675	88.75
299.905	93.75
300.136	83.75
300.366	80.75
300.597	98.75
300.827	90.75
301.057	96.75
301.288	83.75
301.518	87.75
301.748	104.75
301.979	99.75
302.209	83.75
302.439	90.75
302.669	94.75
302.9	88.75
303.13	90.75
303.36	87.75
303.59	101.75
303.82	84.75
304.051	93.75
304.281	88.75
304.511	90.75
304.741	84.75
304.971	63.75
305.201	78.75
305.431	89.75
305.661	94.75
305.891	87.75
306.121	84.75
306.352	96.75
306.582	104.75
306.812	97.75
307.042	82.75
307.272	81.75
307.502	101.75
307.731	82.75
307.961	95.75
308.191	79.75
308.421	77.75
308.651	90.75
308.881	84.75
309.111	89.75
309.341	91.75
309.571	92.75
309.8	100.75
310.03	99.75
310.26	104.75
310.49	83.75
310.72	88.75
310.949	90.75
311.179	76.75
311.409	86.75
311.639	89.75
311.868	91.75
312.098	71.75
312.328	77.75
312.557	90.75
312.787	100.75
313.017	95.75
313.246	96.75
313.476	86.75
313.706	84.75
313.935	90.75
314.165	91.75
314.394	100.75
314.624	93.75
314.853	103.75
315.083	90.75
315.312	84.75
315.542	67.75
315.771	94.75
316.001	83.75
316.23	89.75
316.46	81.75
316.689	94.75
316.919	87.75
317.148	86.75
317.377	94.75
317.607	100.75
317.836	84.75
318.065	78.75
318.295	85.75
318.524	98.75
318.753	90.75
318.983	92.75
319.212	82.75
319.441	99.75
319.67	104.75
319.9	93.75
320.129	84.75
320.358	89.75
320.587	93.75
320.816	77.75
321.046	97.75
321.275	92.75
321.504	94.75
321.733	91.75
321.962	108.75
322.191	91.75
322.42	102.75
322.649	107.75
322.878	111.75
323.108	110.75
323.337	111.75
323.566	104.75
323.795	134.75
324.024	200.75
324.253	348.75
324.482	688.75
324.71	1457.75
324.939	1856.75
325.168	702.75
325.397	200.75
325.626	129.75
325.855	127.75
326.084	128.75
326.313	121.75
326.542	147.75
326.77	206.75
326.999	383.75
327.228	818.75
327.457	1456.75
327.686	1142.75
327.914	334.75
328.143	174.75
328.372	126.75
328.6	101.75
328.829	106.75
329.058	105.75
329.287	122.75
329.515	99.75
329.744	99.75
329.972	95.75
330.201	93.75
330.43	91.75
330.658	117.75
330.887	128.75
331.115	92.75
331.344	96.75
331.572	96.75
331.801	97.75
332.03	91.75
332.258	104.75
332.486	82.75
332.715	104.75
332.943	81.75
333.172	90.75
333.4	90.75
333.629	83.75
333.857	97.75
334.085	113.75
334.314	92.75
334.542	98.75
334.771	102.75
334.999	88.75
335.227	95.75
335.455	94.75
335.684	102.75
335.912	91.75
336.14	86.75
336.369	93.75
336.597	75.75
336.825	102.75
337.053	94.75
337.281	88.75
337.51	77.75
337.738	76.75
337.966	84.75
338.194	82.75
338.422	116.75
338.65	94.75
338.878	75.75
339.106	87.75
339.334	88.75
339.562	84.75
339.79	88.75
340.018	79.75
340.246	87.75
340.474	87.75
340.702	92.75
340.93	98.75
341.158	87.75
341.386	92.75
341.614	96.75
341.842	78.75
342.07	86.75
342.298	90.75
342.526	84.75
342.754	84.75
342.981	92.75
343.209	86.75
343.437	99.75
343.665	85.75
343.893	96.75
344.12	77.75
344.348	83.75
344.576	92.75
344.804	86.75
345.031	84.75
345.259	86.75
345.487	102.75
345.714	90.75
345.942	96.75
346.17	97.75
346.397	84.75
346.625	98.75
346.853	94.75
347.08	80.75
347.308	89.75
347.535	90.75
347.763	89.75
347.99	84.75
348.218	97.75
348.445	103.75
348.673	87.75
348.9	79.75
349.128	77.75
349.355	86.75
349.583	83.75
349.81	98.75
350.037	98.75
350.265	91.75
350.492	82.75
350.72	92.75
350.947	104.75
351.174	121.75
351.402	108.75
351.629	85.75
351.856	89.75
352.083	85.75
352.311	103.75
352.538	91.75
352.765	108.75
352.992	107.75
353.22	102.75
353.447	102.75
353.674	100.75
353.901	87.75
354.128	100.75
354.355	94.75
354.583	94.75
354.81	86.75
355.037	107.75
355.264	78.75
355.491	80.75
355.718	86.75
355.945	84.75
356.172	80.75
356.399	90.75
356.626	82.75
356.853	89.75
357.08	81.75
357.307	83.75
357.534	93.75
357.761	80.75
357.988	90.75
358.215	109.75
358.441	86.75
358.668	95.75
358.895	86.75
359.122	90.75
359.349	75.75
359.576	91.75
359.802	95.75
360.029	105.75
360.256	98.75
360.483	97.75
360.709	90.75
360.936	93.75
361.163	76.75
361.39	93.75
361.616	88.75
361.843	76.75
362.07	89.75
362.296	109.75
362.523	87.75
362.749	94.75
362.976	70.75
363.203	82.75
363.429	89.75
363.656	99.75
363.882	88.75
364.109	85.75
364.335	75.75
364.562	86.75
364.788	84.75
365.015	86.75
365.241	95.75
365.468	96.75
365.694	88.75
365.92	81.75
366.147	86.75
366.373	96.75
366.599	81.75
366.826	88.75
367.052	81.75
367.278	96.75
367.505	83.75
367.731	93.75
367.957	90.75
368.184	92.75
368.41	99.75
368.636	102.75
368.862	105.75
369.089	97.75
369.315	84.75
369.541	79.75
369.767	91.75
369.993	95.75
370.219	83.75
370.445	63.75
370.672	87.75
370.898	89.75
371.124	85.75
371.35	75.75
371.576	81.75
371.802	76.75
372.028	93.75
372.254	86.75
372.48	93.75
372.706	92.75
372.932	89.75
373.158	72.75
373.384	88.75
373.61	93.75
373.835	79.75
374.061	82.75
374.287	85.75
374.513	85.75
374.739	93.75
374.965	83.75
375.191	79.75
375.416	103.75
375.642	87.75
375.868	91.75
376.094	96.75
376.319	87.75
376.545	92.75
376.771	89.75
376.997	91.75
377.222	84.75
377.448	90.75
377.674	88.75
377.899	78.75
378.125	97.75
378.35	95.75
378.576	84.75
378.802	81.75
379.027	94.75
379.253	80.75
379.478	88.75
379.704	78.75
379.929	100.75
380.155	92.75
380.38	96.75
380.606	88.75
380.831	97.75
381.057	93.75
381.282	97.75
381.507	103.75
381.733	90.75
381.958	83.75
382.184	95.75
382.409	94.75
382.634	88.75
382.86	92.75
383.085	94.75
383.31	86.75
383.535	88.75
383.761	104.75
383.986	95.75
384.211	99.75
384.436	84.75
384.662	75.75
384.887	93.75
385.112	77.75
385.337	99.75
385.562	86.75
385.787	102.75
386.013	94.75
386.238	105.75
386.463	111.75
386.688	111.75
386.913	112.75
387.138	92.75
387.363	85.75
387.588	94.75
387.813	94.75
388.038	89.75
388.263	91.75
388.488	97.75
388.713	89.75
388.938	99.75
389.163	84.75
389.387	97.75
389.612	83.75
389.837	78.75
390.062	83.75
390.287	88.75
390.512	80.75
390.736	92.75
390.961	79.75
391.186	76.75
391.411	95.75
391.636	80.75
391.86	98.75
392.085	82.75
392.31	84.75
392.534	68.75
392.759	77.75
392.984	80.75
393.208	86.75
393.433	80.75
393.658	88.75
393.882	78.75
394.107	106.75
394.331	87.75
394.556	75.75
394.78	88.75
395.005	84.75
395.229	85.75
395.454	79.75
395.678	90.75
395.903	93.75
396.127	103.75
396.352	94.75
396.576	74.75
396.801	81.75
397.025	70.75
397.249	95.75
397.474	84.75
397.698	94.75
397.922	88.75
398.147	79.75
398.371	80.75
398.595	83.75
398.82	73.75
399.044	98.75
399.268	83.75
399.492	77.75
399.717	84.75
399.941	81.75
400.165	87.75
400.389	79.75
400.613	82.75
400.837	70.75
401.062	74.75
401.286	78.75
401.51	86.75
401.734	78.75
401.958	102.75
402.182	122.75
402.406	146.75
402.63	111.75
402.854	105.75
403.078	93.75
403.302	90.75
403.526	82.75
403.75	89.75
403.974	84.75
404.198	80.75
404.422	82.75
404.645	77.75
404.869	68.75
405.093	72.75
405.317	81.75
405.541	78.75
405.765	96.75
405.988	108.75
406.212	154.75
406.436	202.75
406.66	130.75
406.883	102.75
407.107	96.75
407.331	87.75
407.555	91.75
407.778	90.75
408.002	92.75
408.226	87.75
408.449	91.75
408.673	76.75
408.896	99.75
409.12	76.75
409.344	89.75
409.567	86.75
409.791	93.75
410.014	99.75
410.238	90.75
410.461	98.75
410.685	80.75
410.908	98.75
411.132	105.75
411.355	78.75
411.578	80.75
411.802	86.75
412.025	100.75
412.249	74.75
412.472	86.75
412.695	87.75
412.919	83.75
413.142	89.75
413.365	82.75
413.589	86.75
413.812	102.75
414.035	92.75
414.258	97.75
414.482	91.75
414.705	95.75
414.928	89.75
415.151	78.75
415.374	91.75
415.597	92.75
415.821	80.75
416.044	84.75
416.267	81.75
416.49	79.75
416.713	80.75
416.936	98.75
417.159	89.75
417.382	87.75
417.605	85.75
417.828	99.75
418.051	95.75
418.274	92.75
418.497	93.75
418.72	96.75
418.943	95.75
419.166	92.75
419.389	80.75
419.611	83.75
419.834	82.75
420.057	98.75
420.28	83.75
420.503	87.75
420.726	87.75
420.948	80.75
421.171	78.75
421.394	94.75
421.617	87.75
421.839	95.75
422.062	80.75
422.285	83.75
422.507	100.75
422.73	95.75
422.953	86.75
423.175	88.75
423.398	83.75
423.621	80.75
423.843	73.75
424.066	85.75
424.288	82.75
424.511	102.75
424.733	99.75
424.956	102.75
425.178	95.75
425.401	87.75
425.623	94.75
425.846	89.75
426.068	99.75
426.291	68.75
426.513	87.75
426.735	93.75
426.958	86.75
427.18	101.75
427.402	134.75
427.625	153.75
427.847	113.75
428.069	103.75
428.292	81.75
428.514	76.75
428.736	84.75
428.958	74.75
429.181	74.75
429.403	88.75
429.625	80.75
429.847	89.75
430.069	86.75
430.292	85.75
430.514	68.75
430.736	82.75
430.958	71.75
431.18	84.75
431.402	82.75
431.624	77.75
431.846	79.75
432.068	80.75
432.29	88.75
432.512	79.75
432.734	78.75
432.956	82.75
433.178	102.75
433.4	82.75
433.622	84.75
433.844	81.75
434.066	92.75
434.287	82.75
434.509	89.75
434.731	95.75
434.953	84.75
435.175	81.75
435.397	84.75
435.618	85.75
435.84	79.75
436.062	114.75
436.284	91.75
436.505	94.75
436.727	94.75
436.949	83.75
437.17	74.75
437.392	91.75
437.614	86.75
437.835	107.75
438.057	122.75
438.278	118.75
438.5	97.75
438.721	111.75
438.943	86.75
439.165	70.75
439.386	88.75
439.608	88.75
439.829	98.75
440.05	113.75
440.272	135.75
440.493	88.75
440.715	83.75
440.936	76.75
441.158	77.75
441.379	66.75
441.6	82.75
441.822	88.75
442.043	86.75
442.264	115.75
442.486	91.75
442.707	84.75
442.928	103.75
443.149	120.75
443.371	117.75
443.592	99.75
443.813	92.75
444.034	115.75
444.255	89.75
444.476	86.75
444.698	91.75
444.919	101.75
445.14	124.75
445.361	110.75
445.582	119.75
445.803	125.75
446.024	118.75
446.245	120.75
446.466	99.75
446.687	99.75
446.908	90.75
447.129	99.75
447.35	78.75
447.571	106.75
447.792	86.75
448.013	82.75
448.234	100.75
448.455	89.75
448.675	118.75
448.896	114.75
449.117	103.75
449.338	98.75
449.559	127.75
449.779	118.75
450	75.75
450.221	84.75
450.442	86.75
450.662	86.75
450.883	104.75
451.104	94.75
451.324	89.75
451.545	84.75
451.766	82.75
451.986	90.75
452.207	78.75
452.428	83.75
452.648	86.75
452.869	109.75
453.089	88.75
453.31	94.75
453.53	89.75
453.751	100.75
453.971	94.75
454.192	122.75
454.412	89.75
454.633	94.75
454.853	78.75
455.073	89.75
455.294	83.75
455.514	92.75
455.734	98.75
455.955	82.75
456.175	76.75
456.395	87.75
456.616	82.75
456.836	75.75
457.056	78.75
457.276	73.75
457.497	83.75
457.717	77.75
457.937	89.75
458.157	100.75
458.377	102.75
458.598	96.75
458.818	125.75
459.038	145.75
459.258	108.75
459.478	104.75
459.698	88.75
459.918	89.75
460.138	86.75
460.358	89.75
460.578	93.75
460.798	89.75
461.018	90.75
461.238	81.75
461.458	77.75
461.678	82.75
461.898	94.75
462.118	91.75
462.338	76.75
462.558	75.75
462.777	78.75
462.997	86.75
463.217	88.75
463.437	85.75
463.657	90.75
463.876	82.75
464.096	76.75
464.316	88.75
464.536	84.75
464.755	86.75
464.975	99.75
465.195	159.75
465.414	144.75
465.634	91.75
465.854	79.75
466.073	77.75
466.293	91.75
466.512	78.75
466.732	72.75
466.951	68.75
467.171	88.75
467.391	73.75
467.61	102.75
467.829	99.75
468.049	80.75
468.268	87.75
468.488	97.75
468.707	85.75
468.927	89.75
469.146	91.75
469.365	94.75
469.585	97.75
469.804	93.75
470.023	93.75
470.243	89.75
470.462	95.75
470.681	97.75
470.901	85.75
471.12	64.75
471.339	78.75
471.558	98.75
471.777	95.75
471.997	83.75
472.216	88.75
472.435	87.75
472.654	94.75
472.873	90.75
473.092	71.75
473.311	83.75
473.53	87.75
473.749	95.75
473.968	84.75
474.187	99.75
474.406	83.75
474.625	99.75
474.844	80.75
475.063	77.75
475.282	83.75
475.501	89.75
475.72	93.75
475.939	96.75
476.158	92.75
476.377	76.75
476.596	83.75
476.814	86.75
477.033	90.75
477.252	94.75
477.471	86.75
477.69	87.75
477.908	93.75
478.127	88.75
478.346	97.75
478.564	90.75
478.783	93.75
479.002	82.75
479.22	94.75
479.439	94.75
479.658	94.75
479.876	76.75
480.095	90.75
480.313	80.75
480.532	83.75
480.751	89.75
480.969	86.75
481.188	109.75
481.406	90.75
481.624	110.75
481.843	91.75
482.061	87.75
482.28	85.75
482.498	77.75
482.717	79.75
482.935	89.75
483.153	83.75
483.372	85.75
483.59	87.75
483.808	83.75
484.027	79.75
484.245	90.75
484.463	82.75
484.681	99.75
484.9	83.75
485.118	80.75
485.336	87.75
485.554	104.75
485.772	88.75
485.99	100.75
486.209	103.75
486.427	102.75
486.645	99.75
486.863	101.75
487.081	105.75
487.299	94.75
487.517	101.75
487.735	86.75
487.953	81.75
488.171	90.75
488.389	99.75
488.607	90.75
488.825	73.75
489.043	89.75
489.261	79.75
489.479	78.75
489.696	83.75
489.914	97.75
490.132	92.75
490.35	87.75
490.568	94.75
490.786	85.75
491.003	93.75
491.221	82.75
491.439	91.75
491.657	97.75
491.874	79.75
492.092	99.75
492.31	87.75
492.527	88.75
492.745	99.75
492.963	102.75
493.18	88.75
493.398	87.75
493.615	97.75
493.833	88.75
494.05	82.75
494.268	100.75
494.485	86.75
494.703	87.75
494.92	87.75
495.138	93.75
495.355	98.75
495.573	95.75
495.79	85.75
496.008	83.75
496.225	104.75
496.442	78.75
496.66	94.75
496.877	86.75
497.094	90.75
497.312	89.75
497.529	97.75
497.746	73.75
497.963	93.75
498.181	86.75
498.398	90.75
498.615	111.75
498.832	91.75
499.049	95.75
499.267	93.75
499.484	84.75
499.701	87.75
499.918	95.75
500.135	91.75
500.352	89.75
500.569	85.75
500.786	99.75
501.003	80.75
501.22	85.75
501.437	91.75
501.654	83.75
501.871	105.75
502.088	89.75
502.305	95.75
502.522	80.75
502.739	95.75
502.956	100.75
503.172	78.75
503.389	89.75
503.606	98.75
503.823	92.75
504.04	94.75
504.256	97.75
504.473	87.75
504.69	98.75
504.907	97.75
505.123	75.75
505.34	76.75
505.557	76.75
505.773	87.75
505.99	84.75
506.207	94.75
506.423	94.75
506.64	92.75
506.856	87.75
507.073	104.75
507.289	90.75
507.506	96.75
507.722	112.75
507.939	99.75
508.155	90.75
508.372	82.75
508.588	99.75
508.805	96.75
509.021	86.75
509.238	98.75
509.454	80.75
509.67	87.75
509.887	99.75
510.103	123.75
510.319	195.75
510.536	703.75
510.752	2129.75
510.968	590.75
511.184	150.75
511.401	97.75
511.617	95.75
511.833	90.75
512.049	93.75
512.265	94.75
512.481	80.75
512.698	91.75
512.914	97.75
513.13	96.75
513.346	77.75
513.562	71.75
513.778	90.75
513.994	100.75
514.21	91.75
514.426	100.75
514.642	119.75
514.858	111.75
515.074	162.75
515.29	392.75
515.506	1241.75
515.721	472.75
515.937	135.75
516.153	96.75
516.369	89.75
516.585	79.75
516.801	92.75
517.016	73.75
517.232	82.75
517.448	81.75
