Data from Uncirc_1994_H10_HRD10591_00064.txt Node
Date: Wed Jan 03 11:39:33 EST 2024
User: Yrep
Spectrometer: HR+D1059
Trigger mode: 1
Integration Time (sec): 1.000000E-1
Scans to average: 1
Electric dark correction enabled: true
Nonlinearity correction enabled: false
Boxcar width: 0
XAxis mode: Wavelengths
Number of Pixels in Spectrum: 2048
>>>>>Begin Spectral Data<<<<<
223.165	-10.38
223.4	-10.38
223.635	-10.38
223.869	-23.38
224.104	-35.38
224.338	-21.38
224.573	-15.38
224.808	-19.38
225.042	0.62
225.277	-6.38
225.511	-8.38
225.746	10.62
225.98	16.62
226.215	19.62
226.449	11.62
226.683	19.62
226.918	18.62
227.152	42.62
227.387	34.62
227.621	41.62
227.856	42.62
228.09	41.62
228.324	53.62
228.559	35.62
228.793	55.62
229.027	67.62
229.262	63.62
229.496	87.62
229.73	87.62
229.964	84.62
230.199	63.62
230.433	71.62
230.667	80.62
230.901	67.62
231.136	68.62
231.37	80.62
231.604	81.62
231.838	73.62
232.072	79.62
232.306	81.62
232.541	79.62
232.775	66.62
233.009	85.62
233.243	73.62
233.477	83.62
233.711	89.62
233.945	99.62
234.179	87.62
234.413	87.62
234.647	94.62
234.881	96.62
235.115	77.62
235.349	89.62
235.583	66.62
235.817	68.62
236.051	79.62
236.285	79.62
236.519	87.62
236.753	88.62
236.987	85.62
237.221	93.62
237.455	98.62
237.689	81.62
237.922	65.62
238.156	69.62
238.39	74.62
238.624	70.62
238.858	68.62
239.091	81.62
239.325	77.62
239.559	85.62
239.793	74.62
240.027	83.62
240.26	72.62
240.494	73.62
240.728	75.62
240.961	81.62
241.195	67.62
241.429	77.62
241.662	83.62
241.896	78.62
242.13	76.62
242.363	66.62
242.597	73.62
242.83	87.62
243.064	85.62
243.298	73.62
243.531	82.62
243.765	85.62
243.998	73.62
244.232	71.62
244.465	85.62
244.699	87.62
244.932	83.62
245.166	80.62
245.399	89.62
245.633	72.62
245.866	76.62
246.099	82.62
246.333	88.62
246.566	68.62
246.8	68.62
247.033	79.62
247.266	79.62
247.5	67.62
247.733	66.62
247.966	77.62
248.2	88.62
248.433	83.62
248.666	85.62
248.899	78.62
249.133	74.62
249.366	103.62
249.599	99.62
249.832	78.62
250.066	71.62
250.299	79.62
250.532	82.62
250.765	79.62
250.998	80.62
251.231	91.62
251.465	85.62
251.698	84.62
251.931	83.62
252.164	80.62
252.397	84.62
252.63	85.62
252.863	82.62
253.096	73.62
253.329	89.62
253.562	75.62
253.795	76.62
254.028	79.62
254.261	68.62
254.494	81.62
254.727	80.62
254.96	91.62
255.193	81.62
255.426	92.62
255.659	70.62
255.892	79.62
256.124	76.62
256.357	79.62
256.59	93.62
256.823	81.62
257.056	86.62
257.289	81.62
257.521	91.62
257.754	80.62
257.987	89.62
258.22	83.62
258.452	79.62
258.685	89.62
258.918	79.62
259.151	69.62
259.383	79.62
259.616	71.62
259.849	79.62
260.081	87.62
260.314	69.62
260.547	79.62
260.779	83.62
261.012	81.62
261.244	81.62
261.477	71.62
261.71	83.62
261.942	98.62
262.175	111.62
262.407	82.62
262.64	78.62
262.872	72.62
263.105	87.62
263.337	72.62
263.57	85.62
263.802	91.62
264.035	77.62
264.267	74.62
264.499	78.62
264.732	83.62
264.964	78.62
265.197	83.62
265.429	85.62
265.661	84.62
265.894	83.62
266.126	85.62
266.358	81.62
266.591	83.62
266.823	79.62
267.055	86.62
267.287	94.62
267.52	68.62
267.752	72.62
267.984	79.62
268.216	88.62
268.448	99.62
268.681	83.62
268.913	87.62
269.145	80.62
269.377	87.62
269.609	77.62
269.841	98.62
270.073	81.62
270.306	92.62
270.538	77.62
270.77	79.62
271.002	75.62
271.234	83.62
271.466	91.62
271.698	86.62
271.93	84.62
272.162	84.62
272.394	80.62
272.626	75.62
272.858	85.62
273.09	72.62
273.322	97.62
273.553	91.62
273.785	75.62
274.017	74.62
274.249	94.62
274.481	73.62
274.713	84.62
274.945	74.62
275.176	82.62
275.408	89.62
275.64	101.62
275.872	110.62
276.104	96.62
276.335	94.62
276.567	102.62
276.799	96.62
277.031	105.62
277.262	98.62
277.494	90.62
277.726	83.62
277.957	88.62
278.189	89.62
278.421	84.62
278.652	94.62
278.884	87.62
279.115	76.62
279.347	70.62
279.579	90.62
279.81	96.62
280.042	89.62
280.273	79.62
280.505	91.62
280.736	99.62
280.968	82.62
281.199	89.62
281.431	91.62
281.662	75.62
281.894	95.62
282.125	111.62
282.356	110.62
282.588	121.62
282.819	106.62
283.051	83.62
283.282	83.62
283.513	109.62
283.745	92.62
283.976	101.62
284.207	86.62
284.439	93.62
284.67	80.62
284.901	82.62
285.132	75.62
285.364	86.62
285.595	68.62
285.826	84.62
286.057	88.62
286.288	87.62
286.52	75.62
286.751	72.62
286.982	86.62
287.213	83.62
287.444	84.62
287.675	105.62
287.906	81.62
288.138	97.62
288.369	95.62
288.6	81.62
288.831	89.62
289.062	97.62
289.293	85.62
289.524	85.62
289.755	74.62
289.986	90.62
290.217	94.62
290.448	79.62
290.679	82.62
290.91	89.62
291.141	89.62
291.371	88.62
291.602	81.62
291.833	89.62
292.064	96.62
292.295	83.62
292.526	101.62
292.757	77.62
292.987	79.62
293.218	90.62
293.449	76.62
293.68	76.62
293.91	90.62
294.141	88.62
294.372	96.62
294.603	76.62
294.833	83.62
295.064	81.62
295.295	93.62
295.525	104.62
295.756	100.62
295.987	124.62
296.217	128.62
296.448	127.62
296.679	97.62
296.909	106.62
297.14	95.62
297.37	78.62
297.601	94.62
297.831	72.62
298.062	96.62
298.292	86.62
298.523	87.62
298.753	88.62
298.984	81.62
299.214	77.62
299.445	91.62
299.675	95.62
299.905	89.62
300.136	83.62
300.366	92.62
300.597	101.62
300.827	76.62
301.057	87.62
301.288	114.62
301.518	103.62
301.748	91.62
301.979	82.62
302.209	100.62
302.439	95.62
302.669	89.62
302.9	75.62
303.13	80.62
303.36	92.62
303.59	93.62
303.82	99.62
304.051	101.62
304.281	95.62
304.511	96.62
304.741	92.62
304.971	73.62
305.201	96.62
305.431	79.62
305.661	89.62
305.891	92.62
306.121	90.62
306.352	106.62
306.582	105.62
306.812	96.62
307.042	72.62
307.272	99.62
307.502	81.62
307.731	102.62
307.961	85.62
308.191	94.62
308.421	87.62
308.651	74.62
308.881	87.62
309.111	94.62
309.341	111.62
309.571	97.62
309.8	99.62
310.03	84.62
310.26	96.62
310.49	99.62
310.72	84.62
310.949	104.62
311.179	92.62
311.409	102.62
311.639	95.62
311.868	86.62
312.098	107.62
312.328	101.62
312.557	94.62
312.787	104.62
313.017	104.62
313.246	87.62
313.476	107.62
313.706	87.62
313.935	85.62
314.165	95.62
314.394	94.62
314.624	91.62
314.853	99.62
315.083	106.62
315.312	93.62
315.542	89.62
315.771	101.62
316.001	90.62
316.23	97.62
316.46	88.62
316.689	93.62
316.919	96.62
317.148	79.62
317.377	83.62
317.607	93.62
317.836	95.62
318.065	81.62
318.295	98.62
318.524	89.62
318.753	96.62
318.983	90.62
319.212	113.62
319.441	111.62
319.67	99.62
319.9	83.62
320.129	81.62
320.358	82.62
320.587	112.62
320.816	105.62
321.046	87.62
321.275	93.62
321.504	93.62
321.733	100.62
321.962	92.62
322.191	93.62
322.42	88.62
322.649	106.62
322.878	112.62
323.108	108.62
323.337	127.62
323.566	125.62
323.795	153.62
324.024	188.62
324.253	376.62
324.482	771.62
324.71	1557.62
324.939	2036.62
325.168	718.62
325.397	228.62
325.626	127.62
325.855	123.62
326.084	123.62
326.313	128.62
326.542	155.62
326.77	212.62
326.999	417.62
327.228	853.62
327.457	1564.62
327.686	1241.62
327.914	348.62
328.143	181.62
328.372	147.62
328.6	115.62
328.829	108.62
329.058	116.62
329.287	112.62
329.515	108.62
329.744	100.62
329.972	93.62
330.201	88.62
330.43	115.62
330.658	109.62
330.887	139.62
331.115	117.62
331.344	94.62
331.572	103.62
331.801	105.62
332.03	92.62
332.258	100.62
332.486	107.62
332.715	104.62
332.943	98.62
333.172	105.62
333.4	97.62
333.629	97.62
333.857	99.62
334.085	94.62
334.314	104.62
334.542	100.62
334.771	100.62
334.999	99.62
335.227	89.62
335.455	98.62
335.684	110.62
335.912	95.62
336.14	95.62
336.369	90.62
336.597	96.62
336.825	91.62
337.053	99.62
337.281	93.62
337.51	81.62
337.738	79.62
337.966	109.62
338.194	96.62
338.422	89.62
338.65	106.62
338.878	100.62
339.106	95.62
339.334	110.62
339.562	86.62
339.79	112.62
340.018	85.62
340.246	102.62
340.474	93.62
340.702	104.62
340.93	84.62
341.158	93.62
341.386	106.62
341.614	102.62
341.842	93.62
342.07	98.62
342.298	93.62
342.526	79.62
342.754	84.62
342.981	89.62
343.209	66.62
343.437	90.62
343.665	87.62
343.893	109.62
344.12	116.62
344.348	100.62
344.576	95.62
344.804	91.62
345.031	89.62
345.259	88.62
345.487	92.62
345.714	122.62
345.942	90.62
346.17	95.62
346.397	88.62
346.625	100.62
346.853	72.62
347.08	75.62
347.308	93.62
347.535	97.62
347.763	102.62
347.99	100.62
348.218	98.62
348.445	105.62
348.673	93.62
348.9	109.62
349.128	91.62
349.355	85.62
349.583	90.62
349.81	105.62
350.037	101.62
350.265	102.62
350.492	105.62
350.72	106.62
350.947	99.62
351.174	104.62
351.402	94.62
351.629	106.62
351.856	85.62
352.083	105.62
352.311	103.62
352.538	108.62
352.765	92.62
352.992	107.62
353.22	114.62
353.447	103.62
353.674	99.62
353.901	92.62
354.128	108.62
354.355	103.62
354.583	78.62
354.81	92.62
355.037	79.62
355.264	87.62
355.491	94.62
355.718	81.62
355.945	114.62
356.172	110.62
356.399	103.62
356.626	93.62
356.853	97.62
357.08	86.62
357.307	96.62
357.534	95.62
357.761	103.62
357.988	104.62
358.215	101.62
358.441	97.62
358.668	81.62
358.895	93.62
359.122	87.62
359.349	81.62
359.576	94.62
359.802	100.62
360.029	109.62
360.256	113.62
360.483	107.62
360.709	99.62
360.936	105.62
361.163	100.62
361.39	100.62
361.616	96.62
361.843	91.62
362.07	84.62
362.296	99.62
362.523	97.62
362.749	84.62
362.976	80.62
363.203	101.62
363.429	91.62
363.656	91.62
363.882	94.62
364.109	92.62
364.335	101.62
364.562	88.62
364.788	83.62
365.015	93.62
365.241	103.62
365.468	111.62
365.694	101.62
365.92	94.62
366.147	99.62
366.373	81.62
366.599	96.62
366.826	95.62
367.052	93.62
367.278	87.62
367.505	90.62
367.731	103.62
367.957	91.62
368.184	101.62
368.41	109.62
368.636	112.62
368.862	112.62
369.089	96.62
369.315	106.62
369.541	85.62
369.767	101.62
369.993	94.62
370.219	91.62
370.445	99.62
370.672	90.62
370.898	67.62
371.124	94.62
371.35	74.62
371.576	77.62
371.802	80.62
372.028	85.62
372.254	96.62
372.48	81.62
372.706	96.62
372.932	87.62
373.158	88.62
373.384	95.62
373.61	87.62
373.835	82.62
374.061	91.62
374.287	93.62
374.513	93.62
374.739	108.62
374.965	77.62
375.191	65.62
375.416	93.62
375.642	91.62
375.868	104.62
376.094	73.62
376.319	90.62
376.545	94.62
376.771	87.62
376.997	73.62
377.222	71.62
377.448	91.62
377.674	81.62
377.899	88.62
378.125	100.62
378.35	93.62
378.576	87.62
378.802	77.62
379.027	91.62
379.253	98.62
379.478	97.62
379.704	87.62
379.929	95.62
380.155	91.62
380.38	89.62
380.606	102.62
380.831	95.62
381.057	100.62
381.282	90.62
381.507	90.62
381.733	80.62
381.958	92.62
382.184	95.62
382.409	97.62
382.634	98.62
382.86	99.62
383.085	89.62
383.31	93.62
383.535	110.62
383.761	107.62
383.986	98.62
384.211	109.62
384.436	76.62
384.662	90.62
384.887	92.62
385.112	102.62
385.337	100.62
385.562	91.62
385.787	98.62
386.013	111.62
386.238	101.62
386.463	107.62
386.688	108.62
386.913	126.62
387.138	77.62
387.363	97.62
387.588	89.62
387.813	114.62
388.038	99.62
388.263	110.62
388.488	96.62
388.713	83.62
388.938	92.62
389.163	95.62
389.387	91.62
389.612	102.62
389.837	106.62
390.062	95.62
390.287	101.62
390.512	98.62
390.736	90.62
390.961	104.62
391.186	89.62
391.411	104.62
391.636	82.62
391.86	86.62
392.085	91.62
392.31	81.62
392.534	80.62
392.759	83.62
392.984	91.62
393.208	96.62
393.433	80.62
393.658	82.62
393.882	99.62
394.107	88.62
394.331	97.62
394.556	84.62
394.78	83.62
395.005	88.62
395.229	79.62
395.454	83.62
395.678	91.62
395.903	96.62
396.127	87.62
396.352	88.62
396.576	91.62
396.801	83.62
397.025	80.62
397.249	100.62
397.474	101.62
397.698	84.62
397.922	93.62
398.147	87.62
398.371	93.62
398.595	94.62
398.82	90.62
399.044	82.62
399.268	96.62
399.492	89.62
399.717	90.62
399.941	82.62
400.165	84.62
400.389	85.62
400.613	91.62
400.837	76.62
401.062	92.62
401.286	82.62
401.51	84.62
401.734	91.62
401.958	97.62
402.182	134.62
402.406	153.62
402.63	109.62
402.854	91.62
403.078	83.62
403.302	91.62
403.526	95.62
403.75	82.62
403.974	95.62
404.198	75.62
404.422	84.62
404.645	86.62
404.869	80.62
405.093	98.62
405.317	93.62
405.541	100.62
405.765	110.62
405.988	120.62
406.212	164.62
406.436	213.62
406.66	155.62
406.883	89.62
407.107	101.62
407.331	93.62
407.555	101.62
407.778	99.62
408.002	103.62
408.226	97.62
408.449	83.62
408.673	91.62
408.896	68.62
409.12	107.62
409.344	88.62
409.567	96.62
409.791	94.62
410.014	91.62
410.238	101.62
410.461	87.62
410.685	87.62
410.908	86.62
411.132	102.62
411.355	103.62
411.578	97.62
411.802	82.62
412.025	85.62
412.249	89.62
412.472	95.62
412.695	85.62
412.919	89.62
413.142	79.62
413.365	92.62
413.589	109.62
413.812	91.62
414.035	91.62
414.258	95.62
414.482	86.62
414.705	91.62
414.928	71.62
415.151	71.62
415.374	99.62
415.597	87.62
415.821	87.62
416.044	91.62
416.267	86.62
416.49	80.62
416.713	91.62
416.936	93.62
417.159	83.62
417.382	87.62
417.605	88.62
417.828	83.62
418.051	91.62
418.274	76.62
418.497	82.62
418.72	92.62
418.943	73.62
419.166	93.62
419.389	92.62
419.611	92.62
419.834	95.62
420.057	88.62
420.28	88.62
420.503	92.62
420.726	91.62
420.948	99.62
421.171	95.62
421.394	92.62
421.617	83.62
421.839	87.62
422.062	88.62
422.285	104.62
422.507	81.62
422.73	88.62
422.953	92.62
423.175	106.62
423.398	93.62
423.621	87.62
423.843	95.62
424.066	72.62
424.288	98.62
424.511	98.62
424.733	95.62
424.956	106.62
425.178	90.62
425.401	102.62
425.623	101.62
425.846	100.62
426.068	85.62
426.291	83.62
426.513	91.62
426.735	91.62
426.958	71.62
427.18	88.62
427.402	133.62
427.625	151.62
427.847	114.62
428.069	92.62
428.292	77.62
428.514	95.62
428.736	83.62
428.958	80.62
429.181	94.62
429.403	83.62
429.625	88.62
429.847	90.62
430.069	97.62
430.292	81.62
430.514	88.62
430.736	81.62
430.958	79.62
431.18	86.62
431.402	91.62
431.624	83.62
431.846	85.62
432.068	92.62
432.29	82.62
432.512	96.62
432.734	89.62
432.956	84.62
433.178	107.62
433.4	112.62
433.622	101.62
433.844	77.62
434.066	96.62
434.287	80.62
434.509	74.62
434.731	80.62
434.953	84.62
435.175	91.62
435.397	89.62
435.618	94.62
435.84	91.62
436.062	133.62
436.284	113.62
436.505	116.62
436.727	85.62
436.949	93.62
437.17	99.62
437.392	78.62
437.614	80.62
437.835	105.62
438.057	106.62
438.278	101.62
438.5	100.62
438.721	111.62
438.943	100.62
439.165	84.62
439.386	95.62
439.608	96.62
439.829	96.62
440.05	124.62
440.272	139.62
440.493	95.62
440.715	93.62
440.936	95.62
441.158	89.62
441.379	94.62
441.6	91.62
441.822	96.62
442.043	97.62
442.264	101.62
442.486	114.62
442.707	89.62
442.928	112.62
443.149	120.62
443.371	140.62
443.592	109.62
443.813	123.62
444.034	112.62
444.255	81.62
444.476	85.62
444.698	96.62
444.919	73.62
445.14	133.62
445.361	114.62
445.582	113.62
445.803	114.62
446.024	138.62
446.245	141.62
446.466	95.62
446.687	85.62
446.908	83.62
447.129	87.62
447.35	94.62
447.571	82.62
447.792	80.62
448.013	107.62
448.234	112.62
448.455	92.62
448.675	112.62
448.896	112.62
449.117	110.62
449.338	107.62
449.559	133.62
449.779	128.62
450	100.62
450.221	83.62
450.442	71.62
450.662	84.62
450.883	106.62
451.104	93.62
451.324	104.62
451.545	82.62
451.766	84.62
451.986	78.62
452.207	95.62
452.428	73.62
452.648	94.62
452.869	110.62
453.089	117.62
453.31	109.62
453.53	86.62
453.751	84.62
453.971	89.62
454.192	100.62
454.412	105.62
454.633	90.62
454.853	79.62
455.073	88.62
455.294	91.62
455.514	81.62
455.734	92.62
455.955	84.62
456.175	88.62
456.395	94.62
456.616	85.62
456.836	85.62
457.056	88.62
457.276	83.62
457.497	92.62
457.717	77.62
457.937	88.62
458.157	80.62
458.377	97.62
458.598	110.62
458.818	136.62
459.038	149.62
459.258	112.62
459.478	89.62
459.698	77.62
459.918	83.62
460.138	91.62
460.358	96.62
460.578	73.62
460.798	94.62
461.018	99.62
461.238	81.62
461.458	87.62
461.678	89.62
461.898	81.62
462.118	89.62
462.338	80.62
462.558	79.62
462.777	96.62
462.997	91.62
463.217	88.62
463.437	82.62
463.657	81.62
463.876	87.62
464.096	80.62
464.316	89.62
464.536	93.62
464.755	101.62
464.975	108.62
465.195	154.62
465.414	157.62
465.634	95.62
465.854	92.62
466.073	102.62
466.293	84.62
466.512	88.62
466.732	87.62
466.951	83.62
467.171	93.62
467.391	80.62
467.61	89.62
467.829	100.62
468.049	103.62
468.268	87.62
468.488	77.62
468.707	79.62
468.927	85.62
469.146	80.62
469.365	81.62
469.585	89.62
469.804	84.62
470.023	92.62
470.243	88.62
470.462	98.62
470.681	111.62
470.901	105.62
471.12	85.62
471.339	98.62
471.558	91.62
471.777	88.62
471.997	79.62
472.216	91.62
472.435	89.62
472.654	94.62
472.873	84.62
473.092	107.62
473.311	93.62
473.53	76.62
473.749	83.62
473.968	97.62
474.187	95.62
474.406	105.62
474.625	104.62
474.844	83.62
475.063	98.62
475.282	79.62
475.501	83.62
475.72	94.62
475.939	80.62
476.158	66.62
476.377	81.62
476.596	100.62
476.814	86.62
477.033	97.62
477.252	96.62
477.471	83.62
477.69	85.62
477.908	78.62
478.127	83.62
478.346	81.62
478.564	90.62
478.783	95.62
479.002	88.62
479.22	77.62
479.439	95.62
479.658	89.62
479.876	93.62
480.095	103.62
480.313	90.62
480.532	84.62
480.751	88.62
480.969	103.62
481.188	91.62
481.406	91.62
481.624	104.62
481.843	79.62
482.061	86.62
482.28	80.62
482.498	78.62
482.717	85.62
482.935	93.62
483.153	84.62
483.372	92.62
483.59	90.62
483.808	95.62
484.027	92.62
484.245	92.62
484.463	77.62
484.681	90.62
484.9	114.62
485.118	100.62
485.336	99.62
485.554	102.62
485.772	105.62
485.99	89.62
486.209	84.62
486.427	80.62
486.645	109.62
486.863	121.62
487.081	87.62
487.299	104.62
487.517	76.62
487.735	98.62
487.953	93.62
488.171	92.62
488.389	105.62
488.607	97.62
488.825	80.62
489.043	69.62
489.261	89.62
489.479	94.62
489.696	86.62
489.914	89.62
490.132	78.62
490.35	95.62
490.568	94.62
490.786	91.62
491.003	97.62
491.221	83.62
491.439	94.62
491.657	99.62
491.874	96.62
492.092	98.62
492.31	91.62
492.527	91.62
492.745	95.62
492.963	100.62
493.18	90.62
493.398	91.62
493.615	95.62
493.833	93.62
494.05	97.62
494.268	84.62
494.485	90.62
494.703	93.62
494.92	81.62
495.138	78.62
495.355	87.62
495.573	92.62
495.79	95.62
496.008	90.62
496.225	90.62
496.442	83.62
496.66	94.62
496.877	97.62
497.094	91.62
497.312	95.62
497.529	106.62
497.746	107.62
497.963	93.62
498.181	101.62
498.398	96.62
498.615	109.62
498.832	98.62
499.049	92.62
499.267	86.62
499.484	87.62
499.701	92.62
499.918	96.62
500.135	84.62
500.352	83.62
500.569	79.62
500.786	88.62
501.003	81.62
501.22	98.62
501.437	96.62
501.654	90.62
501.871	101.62
502.088	98.62
502.305	97.62
502.522	82.62
502.739	83.62
502.956	77.62
503.172	89.62
503.389	108.62
503.606	104.62
503.823	87.62
504.04	91.62
504.256	99.62
504.473	86.62
504.69	91.62
504.907	71.62
505.123	83.62
505.34	84.62
505.557	97.62
505.773	80.62
505.99	89.62
506.207	85.62
506.423	87.62
506.64	93.62
506.856	87.62
507.073	87.62
507.289	102.62
507.506	97.62
507.722	118.62
507.939	116.62
508.155	108.62
508.372	93.62
508.588	92.62
508.805	83.62
509.021	102.62
509.238	101.62
509.454	90.62
509.67	98.62
509.887	98.62
510.103	136.62
510.319	203.62
510.536	737.62
510.752	2195.62
510.968	595.62
511.184	160.62
511.401	111.62
511.617	93.62
511.833	104.62
512.049	91.62
512.265	95.62
512.481	99.62
512.698	92.62
512.914	95.62
513.13	87.62
513.346	105.62
513.562	114.62
513.778	79.62
513.994	90.62
514.21	95.62
514.426	120.62
514.642	116.62
514.858	130.62
515.074	159.62
515.29	433.62
515.506	1319.62
515.721	478.62
