Data from Uncirc_1994_H10_HRD10591_00088.txt Node
Date: Wed Jan 03 11:39:38 EST 2024
User: Yrep
Spectrometer: HR+D1059
Trigger mode: 1
Integration Time (sec): 1.000000E-1
Scans to average: 1
Electric dark correction enabled: true
Nonlinearity correction enabled: false
Boxcar width: 0
XAxis mode: Wavelengths
Number of Pixels in Spectrum: 2048
>>>>>Begin Spectral Data<<<<<
223.165	-14.94
223.4	-14.94
223.635	-14.94
223.869	-12.94
224.104	-3.94
224.338	-6.94
224.573	-26.94
224.808	-7.94
225.042	-20.94
225.277	-2.94
225.511	2.06
225.746	1.06
225.98	15.06
226.215	10.06
226.449	0.06
226.683	20.06
226.918	22.06
227.152	27.06
227.387	32.06
227.621	48.06
227.856	56.06
228.09	40.06
228.324	58.06
228.559	62.06
228.793	61.06
229.027	55.06
229.262	63.06
229.496	60.06
229.73	83.06
229.964	78.06
230.199	74.06
230.433	75.06
230.667	90.06
230.901	83.06
231.136	78.06
231.37	89.06
231.604	72.06
231.838	68.06
232.072	83.06
232.306	86.06
232.541	94.06
232.775	84.06
233.009	68.06
233.243	86.06
233.477	76.06
233.711	78.06
233.945	76.06
234.179	88.06
234.413	82.06
234.647	81.06
234.881	81.06
235.115	78.06
235.349	82.06
235.583	90.06
235.817	81.06
236.051	76.06
236.285	89.06
236.519	81.06
236.753	85.06
236.987	66.06
237.221	78.06
237.455	94.06
237.689	78.06
237.922	85.06
238.156	88.06
238.39	75.06
238.624	74.06
238.858	80.06
239.091	75.06
239.325	63.06
239.559	83.06
239.793	67.06
240.027	86.06
240.26	80.06
240.494	79.06
240.728	81.06
240.961	90.06
241.195	80.06
241.429	73.06
241.662	60.06
241.896	76.06
242.13	95.06
242.363	88.06
242.597	82.06
242.83	84.06
243.064	77.06
243.298	84.06
243.531	68.06
243.765	96.06
243.998	83.06
244.232	89.06
244.465	83.06
244.699	85.06
244.932	64.06
245.166	67.06
245.399	82.06
245.633	74.06
245.866	73.06
246.099	80.06
246.333	86.06
246.566	74.06
246.8	80.06
247.033	89.06
247.266	73.06
247.5	63.06
247.733	92.06
247.966	78.06
248.2	91.06
248.433	75.06
248.666	65.06
248.899	76.06
249.133	74.06
249.366	99.06
249.599	80.06
249.832	84.06
250.066	88.06
250.299	84.06
250.532	92.06
250.765	83.06
250.998	85.06
251.231	93.06
251.465	74.06
251.698	82.06
251.931	73.06
252.164	69.06
252.397	76.06
252.63	86.06
252.863	85.06
253.096	93.06
253.329	82.06
253.562	93.06
253.795	76.06
254.028	82.06
254.261	89.06
254.494	83.06
254.727	72.06
254.96	72.06
255.193	84.06
255.426	84.06
255.659	72.06
255.892	82.06
256.124	77.06
256.357	83.06
256.59	77.06
256.823	79.06
257.056	75.06
257.289	74.06
257.521	91.06
257.754	82.06
257.987	76.06
258.22	78.06
258.452	85.06
258.685	78.06
258.918	81.06
259.151	80.06
259.383	81.06
259.616	78.06
259.849	80.06
260.081	78.06
260.314	79.06
260.547	80.06
260.779	80.06
261.012	86.06
261.244	80.06
261.477	77.06
261.71	89.06
261.942	121.06
262.175	110.06
262.407	99.06
262.64	91.06
262.872	81.06
263.105	82.06
263.337	78.06
263.57	85.06
263.802	77.06
264.035	89.06
264.267	89.06
264.499	80.06
264.732	86.06
264.964	73.06
265.197	84.06
265.429	91.06
265.661	81.06
265.894	69.06
266.126	78.06
266.358	92.06
266.591	90.06
266.823	82.06
267.055	81.06
267.287	77.06
267.52	82.06
267.752	89.06
267.984	72.06
268.216	82.06
268.448	78.06
268.681	83.06
268.913	75.06
269.145	79.06
269.377	96.06
269.609	82.06
269.841	85.06
270.073	76.06
270.306	83.06
270.538	85.06
270.77	70.06
271.002	93.06
271.234	77.06
271.466	71.06
271.698	76.06
271.93	68.06
272.162	81.06
272.394	70.06
272.626	88.06
272.858	76.06
273.09	89.06
273.322	82.06
273.553	67.06
273.785	92.06
274.017	74.06
274.249	94.06
274.481	92.06
274.713	74.06
274.945	81.06
275.176	90.06
275.408	90.06
275.64	87.06
275.872	88.06
276.104	89.06
276.335	97.06
276.567	94.06
276.799	94.06
277.031	95.06
277.262	84.06
277.494	90.06
277.726	91.06
277.957	78.06
278.189	93.06
278.421	78.06
278.652	93.06
278.884	94.06
279.115	75.06
279.347	102.06
279.579	92.06
279.81	68.06
280.042	84.06
280.273	88.06
280.505	99.06
280.736	83.06
280.968	92.06
281.199	93.06
281.431	92.06
281.662	85.06
281.894	87.06
282.125	86.06
282.356	110.06
282.588	125.06
282.819	109.06
283.051	94.06
283.282	78.06
283.513	88.06
283.745	85.06
283.976	92.06
284.207	74.06
284.439	85.06
284.67	91.06
284.901	89.06
285.132	78.06
285.364	96.06
285.595	86.06
285.826	92.06
286.057	68.06
286.288	89.06
286.52	94.06
286.751	93.06
286.982	91.06
287.213	81.06
287.444	95.06
287.675	93.06
287.906	83.06
288.138	95.06
288.369	106.06
288.6	101.06
288.831	78.06
289.062	89.06
289.293	80.06
289.524	89.06
289.755	86.06
289.986	79.06
290.217	79.06
290.448	78.06
290.679	95.06
290.91	92.06
291.141	83.06
291.371	95.06
291.602	79.06
291.833	77.06
292.064	90.06
292.295	94.06
292.526	89.06
292.757	87.06
292.987	78.06
293.218	87.06
293.449	72.06
293.68	79.06
293.91	80.06
294.141	90.06
294.372	92.06
294.603	101.06
294.833	78.06
295.064	88.06
295.295	84.06
295.525	100.06
295.756	93.06
295.987	105.06
296.217	138.06
296.448	129.06
296.679	92.06
296.909	85.06
297.14	90.06
297.37	93.06
297.601	83.06
297.831	97.06
298.062	90.06
298.292	94.06
298.523	94.06
298.753	96.06
298.984	92.06
299.214	96.06
299.445	95.06
299.675	101.06
299.905	85.06
300.136	97.06
300.366	86.06
300.597	86.06
300.827	96.06
301.057	81.06
301.288	101.06
301.518	96.06
301.748	83.06
301.979	100.06
302.209	91.06
302.439	80.06
302.669	79.06
302.9	97.06
303.13	102.06
303.36	107.06
303.59	100.06
303.82	106.06
304.051	107.06
304.281	90.06
304.511	90.06
304.741	85.06
304.971	80.06
305.201	96.06
305.431	74.06
305.661	87.06
305.891	82.06
306.121	81.06
306.352	109.06
306.582	99.06
306.812	95.06
307.042	91.06
307.272	90.06
307.502	93.06
307.731	104.06
307.961	83.06
308.191	94.06
308.421	87.06
308.651	90.06
308.881	104.06
309.111	94.06
309.341	87.06
309.571	104.06
309.8	90.06
310.03	111.06
310.26	89.06
310.49	95.06
310.72	88.06
310.949	96.06
311.179	98.06
311.409	99.06
311.639	80.06
311.868	100.06
312.098	80.06
312.328	90.06
312.557	98.06
312.787	94.06
313.017	89.06
313.246	97.06
313.476	96.06
313.706	98.06
313.935	93.06
314.165	105.06
314.394	96.06
314.624	92.06
314.853	109.06
315.083	80.06
315.312	97.06
315.542	82.06
315.771	98.06
316.001	89.06
316.23	99.06
316.46	91.06
316.689	99.06
316.919	97.06
317.148	105.06
317.377	90.06
317.607	92.06
317.836	77.06
318.065	91.06
318.295	89.06
318.524	91.06
318.753	102.06
318.983	100.06
319.212	102.06
319.441	112.06
319.67	105.06
319.9	110.06
320.129	77.06
320.358	85.06
320.587	109.06
320.816	98.06
321.046	101.06
321.275	117.06
321.504	92.06
321.733	98.06
321.962	97.06
322.191	98.06
322.42	104.06
322.649	113.06
322.878	99.06
323.108	106.06
323.337	130.06
323.566	126.06
323.795	135.06
324.024	178.06
324.253	374.06
324.482	812.06
324.71	1589.06
324.939	2089.06
325.168	776.06
325.397	229.06
325.626	158.06
325.855	125.06
326.084	125.06
326.313	134.06
326.542	143.06
326.77	237.06
326.999	451.06
327.228	891.06
327.457	1609.06
327.686	1260.06
327.914	353.06
328.143	173.06
328.372	144.06
328.6	125.06
328.829	118.06
329.058	131.06
329.287	125.06
329.515	110.06
329.744	99.06
329.972	101.06
330.201	89.06
330.43	103.06
330.658	126.06
330.887	148.06
331.115	110.06
331.344	98.06
331.572	110.06
331.801	102.06
332.03	108.06
332.258	109.06
332.486	101.06
332.715	99.06
332.943	115.06
333.172	114.06
333.4	111.06
333.629	107.06
333.857	118.06
334.085	102.06
334.314	91.06
334.542	76.06
334.771	105.06
334.999	90.06
335.227	96.06
335.455	109.06
335.684	90.06
335.912	95.06
336.14	101.06
336.369	88.06
336.597	93.06
336.825	100.06
337.053	102.06
337.281	81.06
337.51	104.06
337.738	90.06
337.966	93.06
338.194	101.06
338.422	87.06
338.65	97.06
338.878	98.06
339.106	87.06
339.334	79.06
339.562	92.06
339.79	92.06
340.018	85.06
340.246	95.06
340.474	104.06
340.702	83.06
340.93	90.06
341.158	97.06
341.386	104.06
341.614	94.06
341.842	94.06
342.07	108.06
342.298	100.06
342.526	95.06
342.754	85.06
342.981	92.06
343.209	92.06
343.437	112.06
343.665	90.06
343.893	91.06
344.12	82.06
344.348	92.06
344.576	102.06
344.804	93.06
345.031	105.06
345.259	83.06
345.487	103.06
345.714	105.06
345.942	93.06
346.17	81.06
346.397	82.06
346.625	98.06
346.853	91.06
347.08	86.06
347.308	80.06
347.535	102.06
347.763	97.06
347.99	104.06
348.218	96.06
348.445	109.06
348.673	93.06
348.9	94.06
349.128	105.06
349.355	92.06
349.583	87.06
349.81	97.06
350.037	76.06
350.265	85.06
350.492	79.06
350.72	95.06
350.947	100.06
351.174	107.06
351.402	116.06
351.629	98.06
351.856	92.06
352.083	106.06
352.311	110.06
352.538	97.06
352.765	100.06
352.992	95.06
353.22	117.06
353.447	107.06
353.674	96.06
353.901	84.06
354.128	91.06
354.355	93.06
354.583	93.06
354.81	109.06
355.037	108.06
355.264	87.06
355.491	94.06
355.718	96.06
355.945	111.06
356.172	100.06
356.399	103.06
356.626	89.06
356.853	97.06
357.08	109.06
357.307	106.06
357.534	110.06
357.761	96.06
357.988	84.06
358.215	80.06
358.441	93.06
358.668	97.06
358.895	83.06
359.122	94.06
359.349	104.06
359.576	93.06
359.802	116.06
360.029	119.06
360.256	106.06
360.483	98.06
360.709	83.06
360.936	93.06
361.163	78.06
361.39	95.06
361.616	83.06
361.843	76.06
362.07	95.06
362.296	104.06
362.523	96.06
362.749	98.06
362.976	92.06
363.203	97.06
363.429	99.06
363.656	107.06
363.882	90.06
364.109	81.06
364.335	94.06
364.562	98.06
364.788	95.06
365.015	85.06
365.241	88.06
365.468	113.06
365.694	104.06
365.92	91.06
366.147	101.06
366.373	76.06
366.599	90.06
366.826	88.06
367.052	97.06
367.278	97.06
367.505	96.06
367.731	103.06
367.957	87.06
368.184	88.06
368.41	83.06
368.636	108.06
368.862	125.06
369.089	97.06
369.315	94.06
369.541	92.06
369.767	91.06
369.993	89.06
370.219	86.06
370.445	86.06
370.672	93.06
370.898	99.06
371.124	96.06
371.35	93.06
371.576	88.06
371.802	96.06
372.028	84.06
372.254	84.06
372.48	85.06
372.706	84.06
372.932	75.06
373.158	92.06
373.384	85.06
373.61	93.06
373.835	72.06
374.061	93.06
374.287	87.06
374.513	86.06
374.739	84.06
374.965	85.06
375.191	87.06
375.416	80.06
375.642	86.06
375.868	72.06
376.094	81.06
376.319	97.06
376.545	83.06
376.771	88.06
376.997	92.06
377.222	97.06
377.448	74.06
377.674	96.06
377.899	100.06
378.125	85.06
378.35	97.06
378.576	85.06
378.802	93.06
379.027	92.06
379.253	97.06
379.478	88.06
379.704	70.06
379.929	86.06
380.155	99.06
380.38	101.06
380.606	100.06
380.831	86.06
381.057	114.06
381.282	87.06
381.507	92.06
381.733	108.06
381.958	96.06
382.184	103.06
382.409	97.06
382.634	96.06
382.86	101.06
383.085	101.06
383.31	93.06
383.535	103.06
383.761	101.06
383.986	92.06
384.211	91.06
384.436	111.06
384.662	102.06
384.887	82.06
385.112	95.06
385.337	109.06
385.562	96.06
385.787	92.06
386.013	109.06
386.238	102.06
386.463	97.06
386.688	112.06
386.913	97.06
387.138	106.06
387.363	99.06
387.588	96.06
387.813	102.06
388.038	99.06
388.263	99.06
388.488	104.06
388.713	105.06
388.938	97.06
389.163	103.06
389.387	83.06
389.612	98.06
389.837	82.06
390.062	90.06
390.287	96.06
390.512	90.06
390.736	108.06
390.961	92.06
391.186	90.06
391.411	93.06
391.636	82.06
391.86	87.06
392.085	79.06
392.31	81.06
392.534	99.06
392.759	89.06
392.984	94.06
393.208	91.06
393.433	91.06
393.658	81.06
393.882	85.06
394.107	102.06
394.331	81.06
394.556	95.06
394.78	88.06
395.005	71.06
395.229	85.06
395.454	88.06
395.678	101.06
395.903	85.06
396.127	88.06
396.352	82.06
396.576	78.06
396.801	91.06
397.025	82.06
397.249	74.06
397.474	92.06
397.698	82.06
397.922	68.06
398.147	93.06
398.371	88.06
398.595	79.06
398.82	78.06
399.044	93.06
399.268	93.06
399.492	86.06
399.717	83.06
399.941	91.06
400.165	89.06
400.389	97.06
400.613	86.06
400.837	85.06
401.062	94.06
401.286	86.06
401.51	92.06
401.734	77.06
401.958	96.06
402.182	136.06
402.406	153.06
402.63	123.06
402.854	99.06
403.078	85.06
403.302	77.06
403.526	81.06
403.75	80.06
403.974	99.06
404.198	96.06
404.422	91.06
404.645	82.06
404.869	106.06
405.093	84.06
405.317	94.06
405.541	96.06
405.765	101.06
405.988	101.06
406.212	166.06
406.436	219.06
406.66	154.06
406.883	94.06
407.107	98.06
407.331	97.06
407.555	94.06
407.778	105.06
408.002	82.06
408.226	97.06
408.449	88.06
408.673	84.06
408.896	97.06
409.12	93.06
409.344	96.06
409.567	77.06
409.791	92.06
410.014	97.06
410.238	99.06
410.461	83.06
410.685	95.06
410.908	98.06
411.132	113.06
411.355	99.06
411.578	97.06
411.802	88.06
412.025	82.06
412.249	101.06
412.472	99.06
412.695	98.06
412.919	93.06
413.142	86.06
413.365	98.06
413.589	94.06
413.812	83.06
414.035	96.06
414.258	84.06
414.482	80.06
414.705	87.06
414.928	87.06
415.151	85.06
415.374	92.06
415.597	82.06
415.821	83.06
416.044	95.06
416.267	90.06
416.49	89.06
416.713	89.06
416.936	87.06
417.159	78.06
417.382	79.06
417.605	80.06
417.828	97.06
418.051	94.06
418.274	90.06
418.497	78.06
418.72	106.06
418.943	91.06
419.166	102.06
419.389	93.06
419.611	83.06
419.834	80.06
420.057	87.06
420.28	89.06
420.503	94.06
420.726	79.06
420.948	75.06
421.171	102.06
421.394	88.06
421.617	99.06
421.839	85.06
422.062	84.06
422.285	104.06
422.507	106.06
422.73	93.06
422.953	88.06
423.175	92.06
423.398	82.06
423.621	83.06
423.843	79.06
424.066	83.06
424.288	85.06
424.511	92.06
424.733	89.06
424.956	99.06
425.178	102.06
425.401	98.06
425.623	109.06
425.846	91.06
426.068	90.06
426.291	95.06
426.513	77.06
426.735	87.06
426.958	80.06
427.18	98.06
427.402	131.06
427.625	163.06
427.847	130.06
428.069	92.06
428.292	83.06
428.514	93.06
428.736	92.06
428.958	89.06
429.181	84.06
429.403	86.06
429.625	84.06
429.847	82.06
430.069	109.06
430.292	94.06
430.514	95.06
430.736	88.06
430.958	98.06
431.18	104.06
431.402	98.06
431.624	76.06
431.846	81.06
432.068	74.06
432.29	81.06
432.512	99.06
432.734	75.06
432.956	93.06
433.178	108.06
433.4	97.06
433.622	84.06
433.844	102.06
434.066	95.06
434.287	86.06
434.509	80.06
434.731	95.06
434.953	91.06
435.175	92.06
435.397	93.06
435.618	109.06
435.84	87.06
436.062	130.06
436.284	114.06
436.505	83.06
436.727	89.06
436.949	96.06
437.17	88.06
437.392	88.06
437.614	89.06
437.835	108.06
438.057	100.06
438.278	114.06
438.5	97.06
438.721	105.06
438.943	96.06
439.165	98.06
439.386	82.06
439.608	98.06
439.829	92.06
440.05	105.06
440.272	131.06
440.493	101.06
440.715	96.06
440.936	85.06
441.158	82.06
441.379	95.06
441.6	85.06
441.822	98.06
442.043	100.06
442.264	111.06
442.486	95.06
442.707	99.06
442.928	104.06
443.149	121.06
443.371	136.06
443.592	99.06
443.813	98.06
444.034	105.06
444.255	106.06
444.476	102.06
444.698	98.06
444.919	77.06
445.14	121.06
445.361	124.06
445.582	108.06
445.803	133.06
446.024	140.06
446.245	144.06
446.466	110.06
446.687	93.06
446.908	100.06
447.129	89.06
447.35	89.06
447.571	102.06
447.792	103.06
448.013	93.06
448.234	108.06
448.455	106.06
448.675	111.06
448.896	118.06
449.117	97.06
449.338	98.06
449.559	127.06
449.779	133.06
450	96.06
450.221	77.06
450.442	88.06
450.662	93.06
450.883	113.06
451.104	104.06
451.324	84.06
451.545	104.06
451.766	89.06
451.986	86.06
452.207	95.06
452.428	83.06
452.648	93.06
452.869	91.06
453.089	119.06
453.31	118.06
453.53	102.06
453.751	91.06
453.971	110.06
454.192	106.06
454.412	100.06
454.633	88.06
454.853	82.06
455.073	104.06
455.294	94.06
455.514	93.06
455.734	89.06
455.955	76.06
456.175	75.06
456.395	73.06
456.616	83.06
456.836	88.06
457.056	94.06
457.276	96.06
457.497	82.06
457.717	88.06
457.937	86.06
458.157	100.06
458.377	83.06
458.598	104.06
458.818	132.06
459.038	151.06
459.258	118.06
459.478	78.06
459.698	89.06
459.918	93.06
460.138	76.06
460.358	79.06
460.578	75.06
460.798	100.06
461.018	96.06
461.238	102.06
461.458	84.06
461.678	92.06
461.898	88.06
462.118	82.06
462.338	96.06
462.558	89.06
462.777	89.06
462.997	92.06
463.217	84.06
463.437	83.06
463.657	73.06
463.876	82.06
464.096	95.06
464.316	93.06
464.536	84.06
464.755	90.06
464.975	102.06
465.195	156.06
465.414	131.06
465.634	109.06
465.854	83.06
466.073	90.06
466.293	92.06
466.512	89.06
466.732	79.06
466.951	89.06
467.171	89.06
467.391	88.06
467.61	92.06
467.829	97.06
468.049	89.06
468.268	84.06
468.488	85.06
468.707	88.06
468.927	77.06
469.146	72.06
469.365	80.06
469.585	85.06
469.804	96.06
470.023	103.06
470.243	98.06
470.462	89.06
470.681	104.06
470.901	92.06
471.12	90.06
471.339	102.06
471.558	94.06
471.777	97.06
471.997	75.06
472.216	93.06
472.435	90.06
472.654	81.06
472.873	83.06
473.092	78.06
473.311	90.06
473.53	98.06
473.749	75.06
473.968	94.06
474.187	109.06
474.406	108.06
474.625	95.06
474.844	86.06
475.063	93.06
475.282	99.06
475.501	86.06
475.72	92.06
475.939	78.06
476.158	90.06
476.377	81.06
476.596	74.06
476.814	90.06
477.033	78.06
477.252	82.06
477.471	86.06
477.69	99.06
477.908	94.06
478.127	85.06
478.346	89.06
478.564	109.06
478.783	95.06
479.002	93.06
479.22	91.06
479.439	95.06
479.658	97.06
479.876	90.06
480.095	80.06
480.313	101.06
480.532	105.06
480.751	93.06
480.969	82.06
481.188	94.06
481.406	104.06
481.624	87.06
481.843	99.06
482.061	91.06
482.28	88.06
482.498	89.06
482.717	84.06
482.935	90.06
483.153	78.06
483.372	94.06
483.59	85.06
483.808	95.06
484.027	93.06
484.245	92.06
484.463	103.06
484.681	84.06
484.9	82.06
485.118	93.06
485.336	111.06
485.554	86.06
485.772	86.06
485.99	101.06
486.209	91.06
486.427	94.06
486.645	104.06
486.863	108.06
487.081	94.06
487.299	111.06
487.517	102.06
487.735	101.06
487.953	91.06
488.171	105.06
488.389	100.06
488.607	94.06
488.825	76.06
489.043	91.06
489.261	89.06
489.479	81.06
489.696	102.06
489.914	91.06
490.132	96.06
490.35	90.06
490.568	93.06
490.786	91.06
491.003	90.06
491.221	87.06
491.439	85.06
491.657	100.06
491.874	91.06
492.092	95.06
492.31	89.06
492.527	82.06
492.745	89.06
492.963	109.06
493.18	87.06
493.398	78.06
493.615	98.06
493.833	84.06
494.05	102.06
494.268	72.06
494.485	91.06
494.703	92.06
494.92	83.06
495.138	78.06
495.355	91.06
495.573	105.06
495.79	98.06
496.008	85.06
496.225	84.06
496.442	95.06
496.66	96.06
496.877	86.06
497.094	97.06
497.312	105.06
497.529	90.06
497.746	115.06
497.963	80.06
498.181	76.06
498.398	97.06
498.615	109.06
498.832	111.06
499.049	91.06
499.267	91.06
499.484	92.06
499.701	102.06
499.918	86.06
500.135	78.06
500.352	85.06
500.569	95.06
500.786	86.06
501.003	89.06
501.22	91.06
501.437	98.06
501.654	95.06
501.871	99.06
502.088	99.06
502.305	78.06
502.522	83.06
502.739	96.06
502.956	78.06
503.172	88.06
503.389	104.06
503.606	97.06
503.823	90.06
504.04	98.06
504.256	90.06
504.473	91.06
504.69	89.06
504.907	96.06
505.123	103.06
505.34	83.06
505.557	88.06
505.773	79.06
505.99	92.06
506.207	85.06
506.423	91.06
506.64	104.06
506.856	77.06
507.073	96.06
507.289	96.06
507.506	102.06
507.722	125.06
507.939	103.06
508.155	86.06
508.372	85.06
508.588	87.06
508.805	87.06
509.021	89.06
509.238	104.06
509.454	90.06
509.67	96.06
509.887	117.06
510.103	120.06
510.319	211.06
510.536	766.06
510.752	2335.06
510.968	650.06
511.184	158.06
511.401	115.06
511.617	87.06
511.833	99.06
512.049	86.06
512.265	109.06
512.481	94.06
512.698	98.06
512.914	84.06
513.13	91.06
513.346	94.06
513.562	111.06
513.778	108.06
513.994	105.06
514.21	98.06
514.426	115.06
514.642	132.06
514.858	130.06
515.074	175.06
515.29	461.06
515.506	1407.06
515.721	482.06
515.937	148.06
