Data from Uncirc_1994_H10_HRD10591_00059.txt Node
Date: Wed Jan 03 11:39:32 EST 2024
User: Yrep
Spectrometer: HR+D1059
Trigger mode: 1
Integration Time (sec): 1.000000E-1
Scans to average: 1
Electric dark correction enabled: true
Nonlinearity correction enabled: false
Boxcar width: 0
XAxis mode: Wavelengths
Number of Pixels in Spectrum: 2048
>>>>>Begin Spectral Data<<<<<
223.165	-16.75
223.4	-16.75
223.635	-16.75
223.869	-14.75
224.104	-22.75
224.338	-30.75
224.573	-12.75
224.808	-10.75
225.042	-12.75
225.277	-13.75
225.511	-2.75
225.746	15.25
225.98	2.25
226.215	6.25
226.449	14.25
226.683	19.25
226.918	30.25
227.152	50.25
227.387	24.25
227.621	34.25
227.856	36.25
228.09	40.25
228.324	53.25
228.559	57.25
228.793	54.25
229.027	55.25
229.262	73.25
229.496	64.25
229.73	75.25
229.964	83.25
230.199	72.25
230.433	71.25
230.667	73.25
230.901	63.25
231.136	84.25
231.37	85.25
231.604	75.25
231.838	74.25
232.072	80.25
232.306	61.25
232.541	75.25
232.775	68.25
233.009	85.25
233.243	79.25
233.477	88.25
233.711	75.25
233.945	82.25
234.179	85.25
234.413	76.25
234.647	66.25
234.881	69.25
235.115	74.25
235.349	78.25
235.583	80.25
235.817	85.25
236.051	80.25
236.285	83.25
236.519	86.25
236.753	74.25
236.987	87.25
237.221	83.25
237.455	85.25
237.689	75.25
237.922	79.25
238.156	72.25
238.39	82.25
238.624	64.25
238.858	91.25
239.091	72.25
239.325	75.25
239.559	73.25
239.793	82.25
240.027	90.25
240.26	64.25
240.494	81.25
240.728	76.25
240.961	79.25
241.195	77.25
241.429	83.25
241.662	90.25
241.896	65.25
242.13	67.25
242.363	85.25
242.597	69.25
242.83	59.25
243.064	71.25
243.298	64.25
243.531	75.25
243.765	67.25
243.998	76.25
244.232	73.25
244.465	76.25
244.699	95.25
244.932	75.25
245.166	77.25
245.399	81.25
245.633	83.25
245.866	64.25
246.099	71.25
246.333	62.25
246.566	64.25
246.8	80.25
247.033	85.25
247.266	80.25
247.5	73.25
247.733	65.25
247.966	81.25
248.2	80.25
248.433	80.25
248.666	66.25
248.899	81.25
249.133	82.25
249.366	105.25
249.599	97.25
249.832	63.25
250.066	88.25
250.299	82.25
250.532	82.25
250.765	79.25
250.998	57.25
251.231	93.25
251.465	78.25
251.698	78.25
251.931	85.25
252.164	87.25
252.397	77.25
252.63	83.25
252.863	78.25
253.096	73.25
253.329	87.25
253.562	68.25
253.795	94.25
254.028	70.25
254.261	77.25
254.494	79.25
254.727	75.25
254.96	79.25
255.193	73.25
255.426	66.25
255.659	77.25
255.892	64.25
256.124	76.25
256.357	86.25
256.59	82.25
256.823	78.25
257.056	93.25
257.289	77.25
257.521	85.25
257.754	71.25
257.987	92.25
258.22	70.25
258.452	89.25
258.685	86.25
258.918	76.25
259.151	77.25
259.383	86.25
259.616	75.25
259.849	82.25
260.081	75.25
260.314	80.25
260.547	81.25
260.779	73.25
261.012	85.25
261.244	92.25
261.477	83.25
261.71	88.25
261.942	116.25
262.175	121.25
262.407	77.25
262.64	80.25
262.872	77.25
263.105	92.25
263.337	85.25
263.57	89.25
263.802	75.25
264.035	87.25
264.267	78.25
264.499	79.25
264.732	82.25
264.964	89.25
265.197	73.25
265.429	79.25
265.661	87.25
265.894	86.25
266.126	78.25
266.358	74.25
266.591	71.25
266.823	79.25
267.055	72.25
267.287	73.25
267.52	78.25
267.752	86.25
267.984	80.25
268.216	71.25
268.448	83.25
268.681	75.25
268.913	80.25
269.145	89.25
269.377	75.25
269.609	91.25
269.841	73.25
270.073	73.25
270.306	81.25
270.538	79.25
270.77	77.25
271.002	80.25
271.234	88.25
271.466	79.25
271.698	85.25
271.93	89.25
272.162	80.25
272.394	90.25
272.626	84.25
272.858	94.25
273.09	73.25
273.322	88.25
273.553	78.25
273.785	86.25
274.017	92.25
274.249	83.25
274.481	80.25
274.713	92.25
274.945	77.25
275.176	82.25
275.408	79.25
275.64	83.25
275.872	102.25
276.104	84.25
276.335	95.25
276.567	94.25
276.799	98.25
277.031	82.25
277.262	91.25
277.494	81.25
277.726	69.25
277.957	85.25
278.189	86.25
278.421	79.25
278.652	79.25
278.884	65.25
279.115	81.25
279.347	87.25
279.579	83.25
279.81	93.25
280.042	73.25
280.273	91.25
280.505	95.25
280.736	93.25
280.968	85.25
281.199	76.25
281.431	81.25
281.662	93.25
281.894	90.25
282.125	89.25
282.356	122.25
282.588	132.25
282.819	107.25
283.051	77.25
283.282	82.25
283.513	86.25
283.745	79.25
283.976	78.25
284.207	84.25
284.439	67.25
284.67	90.25
284.901	82.25
285.132	80.25
285.364	97.25
285.595	86.25
285.826	63.25
286.057	89.25
286.288	78.25
286.52	95.25
286.751	85.25
286.982	80.25
287.213	80.25
287.444	86.25
287.675	84.25
287.906	99.25
288.138	79.25
288.369	86.25
288.6	89.25
288.831	83.25
289.062	88.25
289.293	93.25
289.524	88.25
289.755	79.25
289.986	97.25
290.217	80.25
290.448	76.25
290.679	70.25
290.91	81.25
291.141	86.25
291.371	66.25
291.602	58.25
291.833	91.25
292.064	94.25
292.295	96.25
292.526	88.25
292.757	98.25
292.987	93.25
293.218	96.25
293.449	91.25
293.68	77.25
293.91	74.25
294.141	88.25
294.372	102.25
294.603	91.25
294.833	82.25
295.064	79.25
295.295	83.25
295.525	89.25
295.756	82.25
295.987	112.25
296.217	117.25
296.448	113.25
296.679	95.25
296.909	67.25
297.14	80.25
297.37	78.25
297.601	85.25
297.831	81.25
298.062	91.25
298.292	89.25
298.523	82.25
298.753	95.25
298.984	81.25
299.214	79.25
299.445	77.25
299.675	86.25
299.905	96.25
300.136	91.25
300.366	76.25
300.597	103.25
300.827	98.25
301.057	95.25
301.288	104.25
301.518	83.25
301.748	81.25
301.979	81.25
302.209	96.25
302.439	82.25
302.669	90.25
302.9	79.25
303.13	81.25
303.36	96.25
303.59	82.25
303.82	101.25
304.051	100.25
304.281	96.25
304.511	88.25
304.741	91.25
304.971	76.25
305.201	82.25
305.431	83.25
305.661	77.25
305.891	98.25
306.121	94.25
306.352	86.25
306.582	102.25
306.812	82.25
307.042	91.25
307.272	93.25
307.502	99.25
307.731	90.25
307.961	83.25
308.191	94.25
308.421	82.25
308.651	99.25
308.881	88.25
309.111	94.25
309.341	94.25
309.571	89.25
309.8	100.25
310.03	87.25
310.26	83.25
310.49	90.25
310.72	93.25
310.949	89.25
311.179	94.25
311.409	81.25
311.639	89.25
311.868	82.25
312.098	82.25
312.328	93.25
312.557	106.25
312.787	94.25
313.017	103.25
313.246	89.25
313.476	91.25
313.706	79.25
313.935	78.25
314.165	94.25
314.394	99.25
314.624	106.25
314.853	85.25
315.083	79.25
315.312	97.25
315.542	76.25
315.771	92.25
316.001	88.25
316.23	86.25
316.46	78.25
316.689	90.25
316.919	86.25
317.148	90.25
317.377	97.25
317.607	105.25
317.836	76.25
318.065	83.25
318.295	90.25
318.524	79.25
318.753	84.25
318.983	87.25
319.212	87.25
319.441	105.25
319.67	95.25
319.9	80.25
320.129	81.25
320.358	96.25
320.587	109.25
320.816	101.25
321.046	119.25
321.275	98.25
321.504	98.25
321.733	91.25
321.962	88.25
322.191	99.25
322.42	95.25
322.649	116.25
322.878	104.25
323.108	107.25
323.337	104.25
323.566	124.25
323.795	141.25
324.024	205.25
324.253	382.25
324.482	807.25
324.71	1631.25
324.939	2114.25
325.168	758.25
325.397	239.25
325.626	149.25
325.855	128.25
326.084	122.25
326.313	134.25
326.542	147.25
326.77	230.25
326.999	440.25
327.228	922.25
327.457	1659.25
327.686	1290.25
327.914	345.25
328.143	187.25
328.372	138.25
328.6	123.25
328.829	101.25
329.058	123.25
329.287	126.25
329.515	115.25
329.744	101.25
329.972	100.25
330.201	99.25
330.43	109.25
330.658	103.25
330.887	121.25
331.115	121.25
331.344	99.25
331.572	97.25
331.801	102.25
332.03	92.25
332.258	86.25
332.486	91.25
332.715	84.25
332.943	89.25
333.172	89.25
333.4	85.25
333.629	96.25
333.857	101.25
334.085	99.25
334.314	85.25
334.542	100.25
334.771	96.25
334.999	86.25
335.227	92.25
335.455	91.25
335.684	109.25
335.912	97.25
336.14	97.25
336.369	95.25
336.597	99.25
336.825	91.25
337.053	95.25
337.281	87.25
337.51	99.25
337.738	96.25
337.966	99.25
338.194	98.25
338.422	107.25
338.65	93.25
338.878	92.25
339.106	95.25
339.334	91.25
339.562	88.25
339.79	102.25
340.018	87.25
340.246	88.25
340.474	94.25
340.702	96.25
340.93	90.25
341.158	91.25
341.386	89.25
341.614	110.25
341.842	84.25
342.07	76.25
342.298	78.25
342.526	92.25
342.754	86.25
342.981	79.25
343.209	90.25
343.437	95.25
343.665	84.25
343.893	94.25
344.12	96.25
344.348	87.25
344.576	88.25
344.804	87.25
345.031	99.25
345.259	103.25
345.487	83.25
345.714	83.25
345.942	87.25
346.17	94.25
346.397	98.25
346.625	85.25
346.853	101.25
347.08	86.25
347.308	87.25
347.535	69.25
347.763	93.25
347.99	107.25
348.218	99.25
348.445	106.25
348.673	87.25
348.9	98.25
349.128	106.25
349.355	81.25
349.583	93.25
349.81	96.25
350.037	94.25
350.265	89.25
350.492	100.25
350.72	108.25
350.947	93.25
351.174	104.25
351.402	113.25
351.629	99.25
351.856	93.25
352.083	112.25
352.311	110.25
352.538	109.25
352.765	107.25
352.992	99.25
353.22	96.25
353.447	96.25
353.674	104.25
353.901	86.25
354.128	102.25
354.355	99.25
354.583	104.25
354.81	89.25
355.037	83.25
355.264	90.25
355.491	90.25
355.718	97.25
355.945	89.25
356.172	96.25
356.399	95.25
356.626	84.25
356.853	94.25
357.08	101.25
357.307	86.25
357.534	82.25
357.761	100.25
357.988	102.25
358.215	88.25
358.441	83.25
358.668	85.25
358.895	93.25
359.122	94.25
359.349	77.25
359.576	95.25
359.802	92.25
360.029	117.25
360.256	102.25
360.483	95.25
360.709	98.25
360.936	84.25
361.163	96.25
361.39	102.25
361.616	96.25
361.843	90.25
362.07	85.25
362.296	81.25
362.523	89.25
362.749	90.25
362.976	105.25
363.203	110.25
363.429	83.25
363.656	97.25
363.882	92.25
364.109	94.25
364.335	104.25
364.562	77.25
364.788	93.25
365.015	93.25
365.241	102.25
365.468	92.25
365.694	102.25
365.92	101.25
366.147	91.25
366.373	94.25
366.599	100.25
366.826	78.25
367.052	86.25
367.278	85.25
367.505	91.25
367.731	86.25
367.957	85.25
368.184	82.25
368.41	90.25
368.636	109.25
368.862	117.25
369.089	99.25
369.315	89.25
369.541	81.25
369.767	101.25
369.993	92.25
370.219	88.25
370.445	78.25
370.672	101.25
370.898	86.25
371.124	95.25
371.35	86.25
371.576	75.25
371.802	73.25
372.028	90.25
372.254	86.25
372.48	88.25
372.706	87.25
372.932	88.25
373.158	69.25
373.384	88.25
373.61	98.25
373.835	88.25
374.061	93.25
374.287	95.25
374.513	93.25
374.739	85.25
374.965	89.25
375.191	94.25
375.416	104.25
375.642	95.25
375.868	87.25
376.094	82.25
376.319	91.25
376.545	77.25
376.771	95.25
376.997	85.25
377.222	66.25
377.448	91.25
377.674	85.25
377.899	93.25
378.125	89.25
378.35	88.25
378.576	85.25
378.802	82.25
379.027	96.25
379.253	94.25
379.478	84.25
379.704	88.25
379.929	97.25
380.155	93.25
380.38	100.25
380.606	86.25
380.831	99.25
381.057	91.25
381.282	89.25
381.507	84.25
381.733	90.25
381.958	98.25
382.184	97.25
382.409	97.25
382.634	83.25
382.86	89.25
383.085	91.25
383.31	90.25
383.535	102.25
383.761	95.25
383.986	92.25
384.211	99.25
384.436	102.25
384.662	90.25
384.887	112.25
385.112	93.25
385.337	98.25
385.562	95.25
385.787	110.25
386.013	92.25
386.238	108.25
386.463	94.25
386.688	121.25
386.913	99.25
387.138	98.25
387.363	102.25
387.588	99.25
387.813	111.25
388.038	110.25
388.263	105.25
388.488	108.25
388.713	103.25
388.938	97.25
389.163	93.25
389.387	93.25
389.612	93.25
389.837	105.25
390.062	103.25
390.287	97.25
390.512	93.25
390.736	87.25
390.961	91.25
391.186	90.25
391.411	104.25
391.636	90.25
391.86	90.25
392.085	86.25
392.31	86.25
392.534	80.25
392.759	77.25
392.984	86.25
393.208	97.25
393.433	80.25
393.658	80.25
393.882	97.25
394.107	87.25
394.331	85.25
394.556	93.25
394.78	84.25
395.005	80.25
395.229	89.25
395.454	85.25
395.678	82.25
395.903	94.25
396.127	86.25
396.352	96.25
396.576	85.25
396.801	85.25
397.025	82.25
397.249	85.25
397.474	81.25
397.698	87.25
397.922	87.25
398.147	81.25
398.371	73.25
398.595	79.25
398.82	61.25
399.044	73.25
399.268	78.25
399.492	81.25
399.717	88.25
399.941	86.25
400.165	87.25
400.389	95.25
400.613	74.25
400.837	94.25
401.062	92.25
401.286	69.25
401.51	86.25
401.734	99.25
401.958	93.25
402.182	117.25
402.406	147.25
402.63	113.25
402.854	91.25
403.078	93.25
403.302	82.25
403.526	102.25
403.75	80.25
403.974	86.25
404.198	91.25
404.422	106.25
404.645	86.25
404.869	100.25
405.093	88.25
405.317	103.25
405.541	109.25
405.765	95.25
405.988	111.25
406.212	157.25
406.436	218.25
406.66	120.25
406.883	104.25
407.107	81.25
407.331	98.25
407.555	97.25
407.778	105.25
408.002	93.25
408.226	87.25
408.449	81.25
408.673	62.25
408.896	109.25
409.12	82.25
409.344	86.25
409.567	87.25
409.791	98.25
410.014	94.25
410.238	93.25
410.461	90.25
410.685	80.25
410.908	89.25
411.132	102.25
411.355	98.25
411.578	76.25
411.802	89.25
412.025	85.25
412.249	92.25
412.472	89.25
412.695	74.25
412.919	74.25
413.142	81.25
413.365	96.25
413.589	96.25
413.812	92.25
414.035	91.25
414.258	85.25
414.482	93.25
414.705	69.25
414.928	87.25
415.151	90.25
415.374	98.25
415.597	88.25
415.821	83.25
416.044	93.25
416.267	94.25
416.49	88.25
416.713	97.25
416.936	84.25
417.159	85.25
417.382	77.25
417.605	74.25
417.828	96.25
418.051	87.25
418.274	94.25
418.497	82.25
418.72	99.25
418.943	95.25
419.166	86.25
419.389	89.25
419.611	73.25
419.834	78.25
420.057	80.25
420.28	65.25
420.503	83.25
420.726	85.25
420.948	86.25
421.171	89.25
421.394	87.25
421.617	76.25
421.839	93.25
422.062	79.25
422.285	80.25
422.507	96.25
422.73	87.25
422.953	90.25
423.175	77.25
423.398	81.25
423.621	90.25
423.843	85.25
424.066	85.25
424.288	90.25
424.511	91.25
424.733	107.25
424.956	110.25
425.178	96.25
425.401	97.25
425.623	99.25
425.846	85.25
426.068	87.25
426.291	88.25
426.513	94.25
426.735	89.25
426.958	89.25
427.18	96.25
427.402	140.25
427.625	167.25
427.847	121.25
428.069	86.25
428.292	81.25
428.514	86.25
428.736	79.25
428.958	85.25
429.181	83.25
429.403	87.25
429.625	75.25
429.847	90.25
430.069	94.25
430.292	99.25
430.514	77.25
430.736	81.25
430.958	93.25
431.18	79.25
431.402	79.25
431.624	82.25
431.846	101.25
432.068	83.25
432.29	90.25
432.512	77.25
432.734	101.25
432.956	88.25
433.178	99.25
433.4	111.25
433.622	96.25
433.844	97.25
434.066	80.25
434.287	80.25
434.509	91.25
434.731	98.25
434.953	94.25
435.175	96.25
435.397	84.25
435.618	85.25
435.84	108.25
436.062	114.25
436.284	108.25
436.505	103.25
436.727	115.25
436.949	99.25
437.17	84.25
437.392	82.25
437.614	90.25
437.835	92.25
438.057	105.25
438.278	118.25
438.5	109.25
438.721	119.25
438.943	105.25
439.165	93.25
439.386	82.25
439.608	90.25
439.829	103.25
440.05	124.25
440.272	135.25
440.493	99.25
440.715	87.25
440.936	78.25
441.158	88.25
441.379	82.25
441.6	104.25
441.822	91.25
442.043	93.25
442.264	102.25
442.486	90.25
442.707	98.25
442.928	111.25
443.149	117.25
443.371	117.25
443.592	109.25
443.813	106.25
444.034	94.25
444.255	96.25
444.476	80.25
444.698	82.25
444.919	86.25
445.14	144.25
445.361	111.25
445.582	114.25
445.803	152.25
446.024	129.25
446.245	125.25
446.466	110.25
446.687	92.25
446.908	91.25
447.129	81.25
447.35	91.25
447.571	102.25
447.792	73.25
448.013	96.25
448.234	98.25
448.455	94.25
448.675	106.25
448.896	130.25
449.117	87.25
449.338	102.25
449.559	129.25
449.779	109.25
450	93.25
450.221	77.25
450.442	72.25
450.662	87.25
450.883	97.25
451.104	117.25
451.324	96.25
451.545	92.25
451.766	81.25
451.986	79.25
452.207	91.25
452.428	95.25
452.648	102.25
452.869	98.25
453.089	118.25
453.31	138.25
453.53	91.25
453.751	87.25
453.971	93.25
454.192	109.25
454.412	98.25
454.633	85.25
454.853	81.25
455.073	88.25
455.294	82.25
455.514	105.25
455.734	80.25
455.955	82.25
456.175	70.25
456.395	93.25
456.616	82.25
456.836	94.25
457.056	91.25
457.276	78.25
457.497	91.25
457.717	92.25
457.937	90.25
458.157	87.25
458.377	97.25
458.598	112.25
458.818	144.25
459.038	152.25
459.258	108.25
459.478	79.25
459.698	60.25
459.918	83.25
460.138	85.25
460.358	95.25
460.578	91.25
460.798	88.25
461.018	93.25
461.238	75.25
461.458	88.25
461.678	61.25
461.898	79.25
462.118	74.25
462.338	90.25
462.558	76.25
462.777	81.25
462.997	81.25
463.217	83.25
463.437	73.25
463.657	74.25
463.876	93.25
464.096	89.25
464.316	84.25
464.536	90.25
464.755	98.25
464.975	105.25
465.195	159.25
465.414	157.25
465.634	106.25
465.854	93.25
466.073	89.25
466.293	84.25
466.512	73.25
466.732	80.25
466.951	75.25
467.171	96.25
467.391	88.25
467.61	104.25
467.829	98.25
468.049	67.25
468.268	80.25
468.488	75.25
468.707	83.25
468.927	92.25
469.146	89.25
469.365	84.25
469.585	85.25
469.804	93.25
470.023	97.25
470.243	102.25
470.462	94.25
470.681	104.25
470.901	89.25
471.12	83.25
471.339	75.25
471.558	77.25
471.777	86.25
471.997	85.25
472.216	85.25
472.435	89.25
472.654	88.25
472.873	96.25
473.092	90.25
473.311	74.25
473.53	94.25
473.749	90.25
473.968	91.25
474.187	93.25
474.406	88.25
474.625	74.25
474.844	89.25
475.063	77.25
475.282	77.25
475.501	70.25
475.72	89.25
475.939	87.25
476.158	83.25
476.377	82.25
476.596	66.25
476.814	86.25
477.033	101.25
477.252	90.25
477.471	97.25
477.69	96.25
477.908	89.25
478.127	90.25
478.346	92.25
478.564	91.25
478.783	92.25
479.002	88.25
479.22	93.25
479.439	101.25
479.658	89.25
479.876	87.25
480.095	94.25
480.313	89.25
480.532	85.25
480.751	90.25
480.969	90.25
481.188	74.25
481.406	89.25
481.624	87.25
481.843	81.25
482.061	90.25
482.28	86.25
482.498	82.25
482.717	86.25
482.935	92.25
483.153	88.25
483.372	77.25
483.59	86.25
483.808	89.25
484.027	93.25
484.245	81.25
484.463	104.25
484.681	106.25
484.9	90.25
485.118	97.25
485.336	83.25
485.554	114.25
485.772	95.25
485.99	104.25
486.209	98.25
486.427	97.25
486.645	104.25
486.863	102.25
487.081	102.25
487.299	83.25
487.517	94.25
487.735	90.25
487.953	72.25
488.171	103.25
488.389	86.25
488.607	103.25
488.825	81.25
489.043	86.25
489.261	98.25
489.479	70.25
489.696	75.25
489.914	98.25
490.132	77.25
490.35	105.25
490.568	79.25
490.786	92.25
491.003	89.25
491.221	91.25
491.439	81.25
491.657	88.25
491.874	96.25
492.092	87.25
492.31	89.25
492.527	86.25
492.745	89.25
492.963	90.25
493.18	92.25
493.398	94.25
493.615	91.25
493.833	95.25
494.05	87.25
494.268	86.25
494.485	102.25
494.703	93.25
494.92	82.25
495.138	95.25
495.355	87.25
495.573	90.25
495.79	99.25
496.008	94.25
496.225	102.25
496.442	89.25
496.66	96.25
496.877	96.25
497.094	91.25
497.312	95.25
497.529	92.25
497.746	102.25
497.963	85.25
498.181	75.25
498.398	102.25
498.615	116.25
498.832	110.25
499.049	82.25
499.267	90.25
499.484	91.25
499.701	88.25
499.918	83.25
500.135	80.25
500.352	83.25
500.569	91.25
500.786	93.25
501.003	72.25
501.22	78.25
501.437	99.25
501.654	98.25
501.871	98.25
502.088	88.25
502.305	86.25
502.522	94.25
502.739	107.25
502.956	104.25
503.172	89.25
503.389	90.25
503.606	89.25
503.823	93.25
504.04	89.25
504.256	89.25
504.473	89.25
504.69	78.25
504.907	86.25
505.123	90.25
505.34	79.25
505.557	86.25
505.773	92.25
505.99	90.25
506.207	89.25
506.423	73.25
506.64	90.25
506.856	82.25
507.073	94.25
507.289	80.25
507.506	110.25
507.722	103.25
507.939	96.25
508.155	94.25
508.372	103.25
508.588	91.25
508.805	90.25
509.021	99.25
509.238	90.25
509.454	96.25
509.67	97.25
509.887	104.25
510.103	130.25
510.319	204.25
510.536	747.25
510.752	2274.25
510.968	655.25
511.184	155.25
511.401	100.25
511.617	105.25
511.833	94.25
512.049	81.25
512.265	96.25
512.481	99.25
512.698	81.25
512.914	98.25
513.13	84.25
513.346	93.25
513.562	95.25
513.778	92.25
513.994	98.25
514.21	90.25
514.426	105.25
514.642	137.25
514.858	115.25
515.074	180.25
515.29	427.25
515.506	1425.25
515.721	506.25
515.937	140.25
516.153	101.25
516.369	92.25
516.585	103.25
