Data from Uncirc_1994_H10_HRD10591_00001.txt Node
Date: Wed Jan 03 11:39:21 EST 2024
User: Yrep
Spectrometer: HR+D1059
Trigger mode: 1
Integration Time (sec): 1.000000E-1
Scans to average: 1
Electric dark correction enabled: true
Nonlinearity correction enabled: false
Boxcar width: 0
XAxis mode: Wavelengths
Number of Pixels in Spectrum: 2048
>>>>>Begin Spectral Data<<<<<
223.165	-10.06
223.4	-10.06
223.635	-10.06
223.869	-20.06
224.104	-20.06
224.338	-11.06
224.573	-19.06
224.808	-5.06
225.042	-8.06
225.277	-10.06
225.511	-6.06
225.746	1.94
225.98	-0.06
226.215	-0.06
226.449	10.94
226.683	22.94
226.918	37.94
227.152	35.94
227.387	40.94
227.621	37.94
227.856	42.94
228.09	48.94
228.324	50.94
228.559	53.94
228.793	58.94
229.027	58.94
229.262	48.94
229.496	64.94
229.73	74.94
229.964	74.94
230.199	72.94
230.433	70.94
230.667	82.94
230.901	74.94
231.136	81.94
231.37	80.94
231.604	76.94
231.838	74.94
232.072	87.94
232.306	90.94
232.541	82.94
232.775	71.94
233.009	81.94
233.243	74.94
233.477	70.94
233.711	86.94
233.945	79.94
234.179	71.94
234.413	72.94
234.647	82.94
234.881	78.94
235.115	86.94
235.349	80.94
235.583	76.94
235.817	64.94
236.051	86.94
236.285	83.94
236.519	82.94
236.753	78.94
236.987	74.94
237.221	80.94
237.455	91.94
237.689	88.94
237.922	63.94
238.156	74.94
238.39	74.94
238.624	74.94
238.858	75.94
239.091	83.94
239.325	87.94
239.559	74.94
239.793	86.94
240.027	78.94
240.26	78.94
240.494	84.94
240.728	76.94
240.961	70.94
241.195	71.94
241.429	74.94
241.662	82.94
241.896	81.94
242.13	79.94
242.363	78.94
242.597	82.94
242.83	83.94
243.064	86.94
243.298	86.94
243.531	73.94
243.765	84.94
243.998	96.94
244.232	86.94
244.465	85.94
244.699	73.94
244.932	89.94
245.166	87.94
245.399	78.94
245.633	61.94
245.866	67.94
246.099	76.94
246.333	75.94
246.566	81.94
246.8	75.94
247.033	79.94
247.266	75.94
247.5	75.94
247.733	68.94
247.966	82.94
248.2	73.94
248.433	86.94
248.666	85.94
248.899	79.94
249.133	83.94
249.366	89.94
249.599	87.94
249.832	74.94
250.066	78.94
250.299	67.94
250.532	66.94
250.765	71.94
250.998	80.94
251.231	80.94
251.465	75.94
251.698	77.94
251.931	76.94
252.164	63.94
252.397	82.94
252.63	69.94
252.863	90.94
253.096	90.94
253.329	72.94
253.562	73.94
253.795	87.94
254.028	73.94
254.261	87.94
254.494	70.94
254.727	88.94
254.96	80.94
255.193	88.94
255.426	80.94
255.659	82.94
255.892	88.94
256.124	95.94
256.357	87.94
256.59	73.94
256.823	80.94
257.056	83.94
257.289	82.94
257.521	82.94
257.754	87.94
257.987	72.94
258.22	84.94
258.452	78.94
258.685	72.94
258.918	83.94
259.151	78.94
259.383	80.94
259.616	85.94
259.849	79.94
260.081	74.94
260.314	86.94
260.547	83.94
260.779	78.94
261.012	80.94
261.244	87.94
261.477	86.94
261.71	96.94
261.942	93.94
262.175	99.94
262.407	77.94
262.64	67.94
262.872	90.94
263.105	66.94
263.337	92.94
263.57	87.94
263.802	83.94
264.035	76.94
264.267	72.94
264.499	78.94
264.732	82.94
264.964	79.94
265.197	74.94
265.429	92.94
265.661	83.94
265.894	94.94
266.126	82.94
266.358	84.94
266.591	90.94
266.823	78.94
267.055	86.94
267.287	80.94
267.52	81.94
267.752	67.94
267.984	94.94
268.216	100.94
268.448	94.94
268.681	80.94
268.913	90.94
269.145	79.94
269.377	88.94
269.609	86.94
269.841	84.94
270.073	87.94
270.306	78.94
270.538	79.94
270.77	79.94
271.002	77.94
271.234	77.94
271.466	86.94
271.698	94.94
271.93	80.94
272.162	88.94
272.394	89.94
272.626	76.94
272.858	83.94
273.09	83.94
273.322	85.94
273.553	74.94
273.785	79.94
274.017	81.94
274.249	80.94
274.481	82.94
274.713	95.94
274.945	87.94
275.176	79.94
275.408	80.94
275.64	91.94
275.872	74.94
276.104	80.94
276.335	88.94
276.567	94.94
276.799	78.94
277.031	101.94
277.262	80.94
277.494	71.94
277.726	87.94
277.957	95.94
278.189	98.94
278.421	80.94
278.652	76.94
278.884	70.94
279.115	80.94
279.347	80.94
279.579	92.94
279.81	92.94
280.042	81.94
280.273	73.94
280.505	82.94
280.736	98.94
280.968	84.94
281.199	83.94
281.431	81.94
281.662	85.94
281.894	71.94
282.125	93.94
282.356	121.94
282.588	115.94
282.819	100.94
283.051	80.94
283.282	83.94
283.513	74.94
283.745	81.94
283.976	77.94
284.207	89.94
284.439	81.94
284.67	91.94
284.901	85.94
285.132	90.94
285.364	76.94
285.595	86.94
285.826	88.94
286.057	94.94
286.288	96.94
286.52	91.94
286.751	75.94
286.982	95.94
287.213	81.94
287.444	98.94
287.675	83.94
287.906	73.94
288.138	95.94
288.369	96.94
288.6	91.94
288.831	88.94
289.062	75.94
289.293	83.94
289.524	75.94
289.755	96.94
289.986	80.94
290.217	78.94
290.448	70.94
290.679	83.94
290.91	81.94
291.141	84.94
291.371	97.94
291.602	91.94
291.833	92.94
292.064	86.94
292.295	83.94
292.526	86.94
292.757	84.94
292.987	86.94
293.218	83.94
293.449	96.94
293.68	81.94
293.91	78.94
294.141	83.94
294.372	92.94
294.603	94.94
294.833	72.94
295.064	68.94
295.295	97.94
295.525	96.94
295.756	104.94
295.987	106.94
296.217	125.94
296.448	111.94
296.679	91.94
296.909	75.94
297.14	87.94
297.37	92.94
297.601	84.94
297.831	82.94
298.062	91.94
298.292	93.94
298.523	79.94
298.753	99.94
298.984	88.94
299.214	95.94
299.445	87.94
299.675	95.94
299.905	87.94
300.136	82.94
300.366	96.94
300.597	89.94
300.827	94.94
301.057	85.94
301.288	83.94
301.518	99.94
301.748	91.94
301.979	103.94
302.209	85.94
302.439	106.94
302.669	99.94
302.9	89.94
303.13	99.94
303.36	98.94
303.59	104.94
303.82	102.94
304.051	95.94
304.281	70.94
304.511	83.94
304.741	89.94
304.971	98.94
305.201	106.94
305.431	90.94
305.661	89.94
305.891	106.94
306.121	96.94
306.352	86.94
306.582	99.94
306.812	95.94
307.042	92.94
307.272	93.94
307.502	98.94
307.731	80.94
307.961	90.94
308.191	89.94
308.421	94.94
308.651	79.94
308.881	91.94
309.111	91.94
309.341	95.94
309.571	96.94
309.8	92.94
310.03	92.94
310.26	98.94
310.49	93.94
310.72	98.94
310.949	97.94
311.179	72.94
311.409	92.94
311.639	97.94
311.868	87.94
312.098	77.94
312.328	94.94
312.557	99.94
312.787	96.94
313.017	103.94
313.246	90.94
313.476	95.94
313.706	92.94
313.935	96.94
314.165	91.94
314.394	92.94
314.624	96.94
314.853	98.94
315.083	77.94
315.312	87.94
315.542	92.94
315.771	95.94
316.001	88.94
316.23	79.94
316.46	86.94
316.689	97.94
316.919	96.94
317.148	102.94
317.377	89.94
317.607	104.94
317.836	92.94
318.065	95.94
318.295	86.94
318.524	87.94
318.753	72.94
318.983	83.94
319.212	97.94
319.441	105.94
319.67	99.94
319.9	100.94
320.129	94.94
320.358	99.94
320.587	108.94
320.816	79.94
321.046	85.94
321.275	94.94
321.504	80.94
321.733	86.94
321.962	90.94
322.191	95.94
322.42	85.94
322.649	98.94
322.878	92.94
323.108	105.94
323.337	110.94
323.566	136.94
323.795	141.94
324.024	176.94
324.253	316.94
324.482	663.94
324.71	1378.94
324.939	1719.94
325.168	662.94
325.397	198.94
325.626	128.94
325.855	102.94
326.084	110.94
326.313	115.94
326.542	118.94
326.77	203.94
326.999	397.94
327.228	778.94
327.457	1326.94
327.686	1047.94
327.914	302.94
328.143	175.94
328.372	131.94
328.6	100.94
328.829	98.94
329.058	109.94
329.287	112.94
329.515	113.94
329.744	84.94
329.972	98.94
330.201	97.94
330.43	96.94
330.658	116.94
330.887	114.94
331.115	115.94
331.344	83.94
331.572	105.94
331.801	105.94
332.03	93.94
332.258	88.94
332.486	109.94
332.715	97.94
332.943	95.94
333.172	99.94
333.4	92.94
333.629	96.94
333.857	96.94
334.085	93.94
334.314	91.94
334.542	91.94
334.771	98.94
334.999	86.94
335.227	89.94
335.455	86.94
335.684	99.94
335.912	95.94
336.14	97.94
336.369	89.94
336.597	86.94
336.825	87.94
337.053	93.94
337.281	84.94
337.51	97.94
337.738	97.94
337.966	99.94
338.194	91.94
338.422	79.94
338.65	87.94
338.878	106.94
339.106	99.94
339.334	87.94
339.562	95.94
339.79	79.94
340.018	87.94
340.246	86.94
340.474	95.94
340.702	98.94
340.93	86.94
341.158	82.94
341.386	91.94
341.614	87.94
341.842	81.94
342.07	91.94
342.298	93.94
342.526	84.94
342.754	93.94
342.981	72.94
343.209	79.94
343.437	84.94
343.665	88.94
343.893	82.94
344.12	83.94
344.348	87.94
344.576	90.94
344.804	78.94
345.031	97.94
345.259	106.94
345.487	94.94
345.714	91.94
345.942	95.94
346.17	89.94
346.397	87.94
346.625	108.94
346.853	94.94
347.08	90.94
347.308	82.94
347.535	83.94
347.763	96.94
347.99	94.94
348.218	97.94
348.445	103.94
348.673	93.94
348.9	87.94
349.128	104.94
349.355	96.94
349.583	92.94
349.81	89.94
350.037	84.94
350.265	83.94
350.492	87.94
350.72	98.94
350.947	97.94
351.174	113.94
351.402	106.94
351.629	82.94
351.856	82.94
352.083	103.94
352.311	84.94
352.538	112.94
352.765	103.94
352.992	108.94
353.22	99.94
353.447	101.94
353.674	98.94
353.901	93.94
354.128	90.94
354.355	100.94
354.583	83.94
354.81	94.94
355.037	78.94
355.264	88.94
355.491	81.94
355.718	83.94
355.945	102.94
356.172	89.94
356.399	86.94
356.626	98.94
356.853	89.94
357.08	79.94
357.307	95.94
357.534	100.94
357.761	90.94
357.988	75.94
358.215	78.94
358.441	99.94
358.668	110.94
358.895	93.94
359.122	83.94
359.349	95.94
359.576	83.94
359.802	101.94
360.029	109.94
360.256	99.94
360.483	90.94
360.709	90.94
360.936	90.94
361.163	75.94
361.39	74.94
361.616	92.94
361.843	80.94
362.07	92.94
362.296	99.94
362.523	83.94
362.749	78.94
362.976	102.94
363.203	91.94
363.429	99.94
363.656	82.94
363.882	88.94
364.109	97.94
364.335	86.94
364.562	86.94
364.788	93.94
365.015	97.94
365.241	81.94
365.468	101.94
365.694	99.94
365.92	97.94
366.147	86.94
366.373	84.94
366.599	75.94
366.826	75.94
367.052	79.94
367.278	66.94
367.505	86.94
367.731	89.94
367.957	83.94
368.184	84.94
368.41	95.94
368.636	98.94
368.862	110.94
369.089	110.94
369.315	104.94
369.541	83.94
369.767	86.94
369.993	97.94
370.219	96.94
370.445	91.94
370.672	78.94
370.898	72.94
371.124	80.94
371.35	79.94
371.576	84.94
371.802	92.94
372.028	90.94
372.254	78.94
372.48	91.94
372.706	91.94
372.932	84.94
373.158	79.94
373.384	86.94
373.61	88.94
373.835	87.94
374.061	85.94
374.287	91.94
374.513	86.94
374.739	72.94
374.965	79.94
375.191	82.94
375.416	92.94
375.642	88.94
375.868	86.94
376.094	94.94
376.319	87.94
376.545	95.94
376.771	89.94
376.997	102.94
377.222	97.94
377.448	86.94
377.674	85.94
377.899	100.94
378.125	83.94
378.35	101.94
378.576	94.94
378.802	88.94
379.027	90.94
379.253	98.94
379.478	90.94
379.704	94.94
379.929	83.94
380.155	89.94
380.38	88.94
380.606	88.94
380.831	85.94
381.057	115.94
381.282	90.94
381.507	96.94
381.733	102.94
381.958	96.94
382.184	111.94
382.409	111.94
382.634	81.94
382.86	99.94
383.085	84.94
383.31	93.94
383.535	89.94
383.761	101.94
383.986	106.94
384.211	82.94
384.436	86.94
384.662	103.94
384.887	105.94
385.112	103.94
385.337	98.94
385.562	115.94
385.787	114.94
386.013	103.94
386.238	108.94
386.463	118.94
386.688	96.94
386.913	102.94
387.138	108.94
387.363	106.94
387.588	111.94
387.813	98.94
388.038	97.94
388.263	114.94
388.488	100.94
388.713	79.94
388.938	96.94
389.163	99.94
389.387	92.94
389.612	73.94
389.837	102.94
390.062	99.94
390.287	89.94
390.512	88.94
390.736	94.94
390.961	105.94
391.186	108.94
391.411	94.94
391.636	81.94
391.86	96.94
392.085	87.94
392.31	90.94
392.534	76.94
392.759	83.94
392.984	100.94
393.208	136.94
393.433	200.94
393.658	189.94
393.882	95.94
394.107	88.94
394.331	98.94
394.556	80.94
394.78	80.94
395.005	99.94
395.229	90.94
395.454	95.94
395.678	76.94
395.903	75.94
396.127	101.94
396.352	99.94
396.576	105.94
396.801	124.94
397.025	152.94
397.249	103.94
397.474	95.94
397.698	78.94
397.922	88.94
398.147	89.94
398.371	90.94
398.595	88.94
398.82	86.94
399.044	84.94
399.268	77.94
399.492	97.94
399.717	99.94
399.941	88.94
400.165	84.94
400.389	81.94
400.613	86.94
400.837	91.94
401.062	92.94
401.286	91.94
401.51	79.94
401.734	93.94
401.958	99.94
402.182	113.94
402.406	134.94
402.63	114.94
402.854	89.94
403.078	79.94
403.302	79.94
403.526	94.94
403.75	82.94
403.974	85.94
404.198	95.94
404.422	81.94
404.645	93.94
404.869	90.94
405.093	107.94
405.317	90.94
405.541	88.94
405.765	91.94
405.988	110.94
406.212	154.94
406.436	176.94
406.66	142.94
406.883	87.94
407.107	84.94
407.331	92.94
407.555	92.94
407.778	95.94
408.002	86.94
408.226	92.94
408.449	92.94
408.673	98.94
408.896	90.94
409.12	87.94
409.344	91.94
409.567	81.94
409.791	80.94
410.014	87.94
410.238	79.94
410.461	95.94
410.685	93.94
410.908	89.94
411.132	107.94
411.355	94.94
411.578	91.94
411.802	84.94
412.025	84.94
412.249	90.94
412.472	101.94
412.695	76.94
412.919	79.94
413.142	93.94
413.365	95.94
413.589	101.94
413.812	98.94
414.035	94.94
414.258	88.94
414.482	83.94
414.705	86.94
414.928	90.94
415.151	77.94
415.374	105.94
415.597	82.94
415.821	86.94
416.044	82.94
416.267	100.94
416.49	86.94
416.713	92.94
416.936	104.94
417.159	77.94
417.382	78.94
417.605	86.94
417.828	87.94
418.051	74.94
418.274	90.94
418.497	97.94
418.72	70.94
418.943	80.94
419.166	78.94
419.389	92.94
419.611	85.94
419.834	83.94
420.057	99.94
420.28	95.94
420.503	72.94
420.726	91.94
420.948	88.94
421.171	90.94
421.394	98.94
421.617	99.94
421.839	93.94
422.062	90.94
422.285	93.94
422.507	101.94
422.73	114.94
422.953	111.94
423.175	90.94
423.398	90.94
423.621	75.94
423.843	98.94
424.066	94.94
424.288	81.94
424.511	92.94
424.733	102.94
424.956	107.94
425.178	106.94
425.401	99.94
425.623	92.94
425.846	81.94
426.068	82.94
426.291	97.94
426.513	101.94
426.735	91.94
426.958	86.94
427.18	104.94
427.402	121.94
427.625	140.94
427.847	104.94
428.069	96.94
428.292	90.94
428.514	96.94
428.736	89.94
428.958	94.94
429.181	80.94
429.403	88.94
429.625	95.94
429.847	92.94
430.069	107.94
430.292	94.94
430.514	89.94
430.736	76.94
430.958	90.94
431.18	92.94
431.402	88.94
431.624	87.94
431.846	79.94
432.068	99.94
432.29	73.94
432.512	85.94
432.734	89.94
432.956	95.94
433.178	93.94
433.4	79.94
433.622	91.94
433.844	97.94
434.066	98.94
434.287	96.94
434.509	89.94
434.731	93.94
434.953	79.94
435.175	90.94
435.397	93.94
435.618	77.94
435.84	99.94
436.062	111.94
436.284	91.94
436.505	101.94
436.727	100.94
436.949	99.94
437.17	90.94
437.392	92.94
437.614	95.94
437.835	108.94
438.057	111.94
438.278	99.94
438.5	106.94
438.721	104.94
438.943	89.94
439.165	104.94
439.386	86.94
439.608	91.94
439.829	93.94
440.05	115.94
440.272	110.94
440.493	85.94
440.715	84.94
440.936	92.94
441.158	91.94
441.379	89.94
441.6	92.94
441.822	95.94
442.043	98.94
442.264	95.94
442.486	98.94
442.707	96.94
442.928	102.94
443.149	118.94
443.371	127.94
443.592	87.94
443.813	99.94
444.034	108.94
444.255	74.94
444.476	81.94
444.698	100.94
444.919	88.94
445.14	134.94
445.361	108.94
445.582	107.94
445.803	135.94
446.024	128.94
446.245	132.94
446.466	91.94
446.687	91.94
446.908	79.94
447.129	78.94
447.35	86.94
447.571	89.94
447.792	89.94
448.013	92.94
448.234	105.94
448.455	95.94
448.675	115.94
448.896	115.94
449.117	100.94
449.338	110.94
449.559	114.94
449.779	112.94
450	92.94
450.221	76.94
450.442	79.94
450.662	83.94
450.883	93.94
451.104	81.94
451.324	91.94
451.545	89.94
451.766	79.94
451.986	97.94
452.207	80.94
452.428	94.94
452.648	107.94
452.869	103.94
453.089	104.94
453.31	97.94
453.53	100.94
453.751	90.94
453.971	84.94
454.192	95.94
454.412	80.94
454.633	88.94
454.853	91.94
455.073	86.94
455.294	96.94
455.514	97.94
455.734	87.94
455.955	89.94
456.175	86.94
456.395	80.94
456.616	79.94
456.836	92.94
457.056	78.94
457.276	75.94
457.497	97.94
457.717	78.94
457.937	97.94
458.157	88.94
458.377	101.94
458.598	94.94
458.818	126.94
459.038	139.94
459.258	113.94
459.478	85.94
459.698	67.94
459.918	83.94
460.138	73.94
460.358	74.94
460.578	87.94
460.798	82.94
461.018	91.94
461.238	89.94
461.458	78.94
461.678	83.94
461.898	84.94
462.118	83.94
462.338	88.94
462.558	75.94
462.777	95.94
462.997	81.94
463.217	82.94
463.437	93.94
463.657	81.94
463.876	84.94
464.096	85.94
464.316	74.94
464.536	79.94
464.755	84.94
464.975	97.94
465.195	139.94
465.414	134.94
465.634	104.94
465.854	82.94
466.073	75.94
466.293	80.94
466.512	87.94
466.732	73.94
466.951	87.94
467.171	90.94
467.391	88.94
467.61	109.94
467.829	93.94
468.049	96.94
468.268	85.94
468.488	80.94
468.707	72.94
468.927	77.94
469.146	79.94
469.365	93.94
469.585	97.94
469.804	77.94
470.023	91.94
470.243	96.94
470.462	114.94
470.681	95.94
470.901	87.94
471.12	74.94
471.339	72.94
471.558	87.94
471.777	89.94
471.997	95.94
472.216	94.94
472.435	91.94
472.654	82.94
472.873	93.94
473.092	82.94
473.311	99.94
473.53	80.94
473.749	83.94
473.968	83.94
474.187	108.94
474.406	93.94
474.625	91.94
474.844	86.94
475.063	79.94
475.282	87.94
475.501	82.94
475.72	88.94
475.939	77.94
476.158	87.94
476.377	86.94
476.596	81.94
476.814	94.94
477.033	85.94
477.252	89.94
477.471	97.94
477.69	90.94
477.908	77.94
478.127	82.94
478.346	88.94
478.564	80.94
478.783	99.94
479.002	86.94
479.22	86.94
479.439	91.94
479.658	100.94
479.876	106.94
480.095	92.94
480.313	88.94
480.532	74.94
480.751	70.94
480.969	94.94
481.188	88.94
481.406	91.94
481.624	90.94
481.843	82.94
482.061	82.94
482.28	85.94
482.498	94.94
482.717	81.94
482.935	93.94
483.153	86.94
483.372	83.94
483.59	88.94
483.808	86.94
484.027	86.94
484.245	93.94
484.463	95.94
484.681	95.94
484.9	96.94
485.118	91.94
485.336	99.94
485.554	93.94
485.772	103.94
485.99	104.94
486.209	108.94
486.427	106.94
486.645	100.94
486.863	119.94
487.081	95.94
487.299	89.94
487.517	92.94
487.735	85.94
487.953	87.94
488.171	85.94
488.389	92.94
488.607	90.94
488.825	93.94
489.043	74.94
489.261	99.94
489.479	86.94
489.696	84.94
489.914	90.94
490.132	98.94
490.35	95.94
490.568	84.94
490.786	80.94
491.003	84.94
491.221	91.94
491.439	97.94
491.657	102.94
491.874	93.94
492.092	93.94
492.31	81.94
492.527	86.94
492.745	80.94
492.963	84.94
493.18	89.94
493.398	80.94
493.615	82.94
493.833	94.94
494.05	98.94
494.268	99.94
494.485	95.94
494.703	90.94
494.92	101.94
495.138	97.94
495.355	87.94
495.573	92.94
495.79	86.94
496.008	84.94
496.225	86.94
496.442	84.94
496.66	87.94
496.877	91.94
497.094	95.94
497.312	91.94
497.529	90.94
497.746	79.94
497.963	89.94
498.181	98.94
498.398	94.94
498.615	98.94
498.832	99.94
499.049	80.94
499.267	93.94
499.484	99.94
499.701	75.94
499.918	83.94
500.135	94.94
500.352	83.94
500.569	87.94
500.786	101.94
501.003	91.94
501.22	89.94
501.437	98.94
501.654	103.94
501.871	105.94
502.088	78.94
502.305	96.94
502.522	88.94
502.739	84.94
502.956	83.94
503.172	91.94
503.389	92.94
503.606	84.94
503.823	86.94
504.04	90.94
504.256	82.94
504.473	82.94
504.69	80.94
504.907	91.94
505.123	95.94
505.34	81.94
505.557	106.94
505.773	98.94
505.99	86.94
506.207	81.94
506.423	87.94
506.64	96.94
506.856	82.94
507.073	88.94
507.289	105.94
507.506	90.94
507.722	107.94
507.939	105.94
508.155	98.94
508.372	95.94
508.588	101.94
508.805	95.94
509.021	102.94
509.238	104.94
509.454	92.94
509.67	96.94
509.887	107.94
510.103	119.94
510.319	198.94
510.536	702.94
510.752	1986.94
510.968	571.94
511.184	151.94
511.401	116.94
511.617	94.94
511.833	85.94
512.049	96.94
512.265	75.94
512.481	95.94
512.698	92.94
512.914	89.94
513.13	107.94
513.346	94.94
513.562	86.94
513.778	97.94
513.994	109.94
514.21	90.94
514.426	109.94
514.642	135.94
514.858	107.94
515.074	165.94
515.29	384.94
515.506	1224.94
515.721	430.94
515.937	140.94
516.153	115.94
516.369	90.94
516.585	83.94
516.801	82.94
517.016	87.94
