Data from Uncirc_1994_H10_HRD10591_00045.txt Node
Date: Wed Jan 03 11:39:29 EST 2024
User: Yrep
Spectrometer: HR+D1059
Trigger mode: 1
Integration Time (sec): 1.000000E-1
Scans to average: 1
Electric dark correction enabled: true
Nonlinearity correction enabled: false
Boxcar width: 0
XAxis mode: Wavelengths
Number of Pixels in Spectrum: 2048
>>>>>Begin Spectral Data<<<<<
223.165	-9.94
223.4	-9.94
223.635	-9.94
223.869	-31.94
224.104	-27.94
224.338	-4.94
224.573	-15.94
224.808	0.06
225.042	8.06
225.277	-3.94
225.511	-16.94
225.746	-3.94
225.98	7.06
226.215	10.06
226.449	13.06
226.683	27.06
226.918	20.06
227.152	30.06
227.387	35.06
227.621	33.06
227.856	45.06
228.09	35.06
228.324	54.06
228.559	64.06
228.793	50.06
229.027	47.06
229.262	52.06
229.496	55.06
229.73	73.06
229.964	91.06
230.199	83.06
230.433	82.06
230.667	81.06
230.901	97.06
231.136	81.06
231.37	92.06
231.604	85.06
231.838	88.06
232.072	76.06
232.306	79.06
232.541	73.06
232.775	81.06
233.009	78.06
233.243	75.06
233.477	82.06
233.711	78.06
233.945	87.06
234.179	79.06
234.413	85.06
234.647	87.06
234.881	84.06
235.115	65.06
235.349	71.06
235.583	86.06
235.817	79.06
236.051	61.06
236.285	96.06
236.519	96.06
236.753	74.06
236.987	74.06
237.221	85.06
237.455	73.06
237.689	70.06
237.922	62.06
238.156	87.06
238.39	81.06
238.624	69.06
238.858	65.06
239.091	73.06
239.325	71.06
239.559	85.06
239.793	80.06
240.027	83.06
240.26	75.06
240.494	74.06
240.728	96.06
240.961	82.06
241.195	73.06
241.429	83.06
241.662	80.06
241.896	75.06
242.13	81.06
242.363	66.06
242.597	75.06
242.83	89.06
243.064	77.06
243.298	72.06
243.531	80.06
243.765	79.06
243.998	87.06
244.232	84.06
244.465	76.06
244.699	71.06
244.932	78.06
245.166	80.06
245.399	68.06
245.633	76.06
245.866	69.06
246.099	74.06
246.333	77.06
246.566	85.06
246.8	90.06
247.033	87.06
247.266	88.06
247.5	74.06
247.733	80.06
247.966	71.06
248.2	93.06
248.433	87.06
248.666	81.06
248.899	69.06
249.133	82.06
249.366	98.06
249.599	84.06
249.832	84.06
250.066	83.06
250.299	85.06
250.532	79.06
250.765	68.06
250.998	84.06
251.231	83.06
251.465	75.06
251.698	80.06
251.931	75.06
252.164	83.06
252.397	88.06
252.63	61.06
252.863	80.06
253.096	72.06
253.329	73.06
253.562	72.06
253.795	75.06
254.028	84.06
254.261	87.06
254.494	81.06
254.727	86.06
254.96	67.06
255.193	75.06
255.426	75.06
255.659	82.06
255.892	87.06
256.124	81.06
256.357	84.06
256.59	81.06
256.823	74.06
257.056	105.06
257.289	83.06
257.521	74.06
257.754	79.06
257.987	82.06
258.22	99.06
258.452	74.06
258.685	87.06
258.918	83.06
259.151	84.06
259.383	80.06
259.616	80.06
259.849	85.06
260.081	84.06
260.314	77.06
260.547	83.06
260.779	73.06
261.012	71.06
261.244	83.06
261.477	65.06
261.71	68.06
261.942	97.06
262.175	116.06
262.407	91.06
262.64	87.06
262.872	82.06
263.105	83.06
263.337	90.06
263.57	80.06
263.802	77.06
264.035	79.06
264.267	95.06
264.499	75.06
264.732	81.06
264.964	87.06
265.197	75.06
265.429	83.06
265.661	87.06
265.894	84.06
266.126	75.06
266.358	72.06
266.591	79.06
266.823	78.06
267.055	85.06
267.287	82.06
267.52	87.06
267.752	83.06
267.984	85.06
268.216	87.06
268.448	76.06
268.681	95.06
268.913	84.06
269.145	73.06
269.377	85.06
269.609	76.06
269.841	96.06
270.073	98.06
270.306	86.06
270.538	80.06
270.77	81.06
271.002	93.06
271.234	91.06
271.466	84.06
271.698	102.06
271.93	75.06
272.162	85.06
272.394	92.06
272.626	75.06
272.858	84.06
273.09	81.06
273.322	84.06
273.553	75.06
273.785	73.06
274.017	88.06
274.249	81.06
274.481	78.06
274.713	85.06
274.945	89.06
275.176	102.06
275.408	83.06
275.64	80.06
275.872	87.06
276.104	86.06
276.335	86.06
276.567	92.06
276.799	93.06
277.031	87.06
277.262	83.06
277.494	97.06
277.726	84.06
277.957	93.06
278.189	80.06
278.421	85.06
278.652	89.06
278.884	79.06
279.115	91.06
279.347	81.06
279.579	88.06
279.81	78.06
280.042	75.06
280.273	83.06
280.505	91.06
280.736	92.06
280.968	70.06
281.199	90.06
281.431	80.06
281.662	94.06
281.894	95.06
282.125	82.06
282.356	105.06
282.588	121.06
282.819	111.06
283.051	91.06
283.282	87.06
283.513	89.06
283.745	74.06
283.976	88.06
284.207	84.06
284.439	91.06
284.67	95.06
284.901	89.06
285.132	100.06
285.364	65.06
285.595	86.06
285.826	87.06
286.057	88.06
286.288	70.06
286.52	89.06
286.751	92.06
286.982	94.06
287.213	80.06
287.444	87.06
287.675	93.06
287.906	76.06
288.138	87.06
288.369	84.06
288.6	89.06
288.831	78.06
289.062	98.06
289.293	81.06
289.524	86.06
289.755	79.06
289.986	88.06
290.217	87.06
290.448	94.06
290.679	92.06
290.91	80.06
291.141	91.06
291.371	90.06
291.602	99.06
291.833	90.06
292.064	88.06
292.295	92.06
292.526	80.06
292.757	91.06
292.987	88.06
293.218	87.06
293.449	97.06
293.68	79.06
293.91	91.06
294.141	79.06
294.372	75.06
294.603	89.06
294.833	87.06
295.064	91.06
295.295	81.06
295.525	79.06
295.756	99.06
295.987	111.06
296.217	127.06
296.448	121.06
296.679	87.06
296.909	83.06
297.14	84.06
297.37	89.06
297.601	86.06
297.831	91.06
298.062	104.06
298.292	82.06
298.523	80.06
298.753	89.06
298.984	84.06
299.214	95.06
299.445	83.06
299.675	97.06
299.905	89.06
300.136	102.06
300.366	75.06
300.597	101.06
300.827	89.06
301.057	101.06
301.288	98.06
301.518	91.06
301.748	94.06
301.979	88.06
302.209	88.06
302.439	92.06
302.669	78.06
302.9	94.06
303.13	89.06
303.36	87.06
303.59	92.06
303.82	94.06
304.051	93.06
304.281	111.06
304.511	93.06
304.741	89.06
304.971	87.06
305.201	97.06
305.431	80.06
305.661	96.06
305.891	90.06
306.121	97.06
306.352	108.06
306.582	89.06
306.812	101.06
307.042	104.06
307.272	99.06
307.502	101.06
307.731	101.06
307.961	84.06
308.191	89.06
308.421	90.06
308.651	95.06
308.881	98.06
309.111	90.06
309.341	95.06
309.571	96.06
309.8	104.06
310.03	91.06
310.26	88.06
310.49	89.06
310.72	98.06
310.949	90.06
311.179	102.06
311.409	78.06
311.639	100.06
311.868	80.06
312.098	87.06
312.328	95.06
312.557	112.06
312.787	89.06
313.017	103.06
313.246	98.06
313.476	77.06
313.706	97.06
313.935	90.06
314.165	96.06
314.394	93.06
314.624	86.06
314.853	96.06
315.083	89.06
315.312	90.06
315.542	100.06
315.771	100.06
316.001	90.06
316.23	82.06
316.46	78.06
316.689	90.06
316.919	89.06
317.148	97.06
317.377	99.06
317.607	108.06
317.836	93.06
318.065	96.06
318.295	90.06
318.524	90.06
318.753	96.06
318.983	89.06
319.212	92.06
319.441	104.06
319.67	105.06
319.9	97.06
320.129	105.06
320.358	101.06
320.587	85.06
320.816	103.06
321.046	93.06
321.275	98.06
321.504	90.06
321.733	96.06
321.962	103.06
322.191	92.06
322.42	103.06
322.649	89.06
322.878	103.06
323.108	112.06
323.337	129.06
323.566	117.06
323.795	131.06
324.024	193.06
324.253	347.06
324.482	700.06
324.71	1435.06
324.939	1859.06
325.168	703.06
325.397	233.06
325.626	147.06
325.855	117.06
326.084	113.06
326.313	97.06
326.542	145.06
326.77	216.06
326.999	424.06
327.228	815.06
327.457	1459.06
327.686	1155.06
327.914	321.06
328.143	168.06
328.372	127.06
328.6	116.06
328.829	109.06
329.058	114.06
329.287	115.06
329.515	104.06
329.744	97.06
329.972	96.06
330.201	88.06
330.43	92.06
330.658	108.06
330.887	140.06
331.115	112.06
331.344	101.06
331.572	101.06
331.801	95.06
332.03	81.06
332.258	92.06
332.486	85.06
332.715	94.06
332.943	85.06
333.172	83.06
333.4	107.06
333.629	95.06
333.857	108.06
334.085	104.06
334.314	101.06
334.542	100.06
334.771	99.06
334.999	93.06
335.227	81.06
335.455	107.06
335.684	90.06
335.912	95.06
336.14	118.06
336.369	96.06
336.597	77.06
336.825	91.06
337.053	97.06
337.281	89.06
337.51	100.06
337.738	101.06
337.966	85.06
338.194	88.06
338.422	96.06
338.65	99.06
338.878	77.06
339.106	77.06
339.334	94.06
339.562	100.06
339.79	97.06
340.018	90.06
340.246	104.06
340.474	103.06
340.702	94.06
340.93	86.06
341.158	86.06
341.386	97.06
341.614	95.06
341.842	92.06
342.07	87.06
342.298	91.06
342.526	84.06
342.754	91.06
342.981	81.06
343.209	98.06
343.437	105.06
343.665	95.06
343.893	97.06
344.12	89.06
344.348	96.06
344.576	104.06
344.804	97.06
345.031	83.06
345.259	98.06
345.487	94.06
345.714	90.06
345.942	90.06
346.17	117.06
346.397	83.06
346.625	92.06
346.853	75.06
347.08	75.06
347.308	81.06
347.535	95.06
347.763	98.06
347.99	106.06
348.218	100.06
348.445	101.06
348.673	86.06
348.9	92.06
349.128	94.06
349.355	105.06
349.583	89.06
349.81	95.06
350.037	90.06
350.265	87.06
350.492	93.06
350.72	88.06
350.947	95.06
351.174	101.06
351.402	101.06
351.629	92.06
351.856	90.06
352.083	90.06
352.311	100.06
352.538	101.06
352.765	114.06
352.992	110.06
353.22	95.06
353.447	100.06
353.674	104.06
353.901	95.06
354.128	89.06
354.355	100.06
354.583	102.06
354.81	110.06
355.037	101.06
355.264	104.06
355.491	92.06
355.718	103.06
355.945	92.06
356.172	86.06
356.399	97.06
356.626	106.06
356.853	88.06
357.08	82.06
357.307	93.06
357.534	99.06
357.761	91.06
357.988	93.06
358.215	99.06
358.441	92.06
358.668	92.06
358.895	89.06
359.122	76.06
359.349	95.06
359.576	87.06
359.802	80.06
360.029	88.06
360.256	86.06
360.483	88.06
360.709	84.06
360.936	95.06
361.163	90.06
361.39	89.06
361.616	101.06
361.843	77.06
362.07	89.06
362.296	86.06
362.523	91.06
362.749	78.06
362.976	87.06
363.203	91.06
363.429	85.06
363.656	92.06
363.882	98.06
364.109	90.06
364.335	92.06
364.562	90.06
364.788	89.06
365.015	88.06
365.241	90.06
365.468	103.06
365.694	108.06
365.92	98.06
366.147	98.06
366.373	67.06
366.599	82.06
366.826	82.06
367.052	85.06
367.278	85.06
367.505	97.06
367.731	92.06
367.957	98.06
368.184	102.06
368.41	82.06
368.636	90.06
368.862	123.06
369.089	97.06
369.315	100.06
369.541	89.06
369.767	95.06
369.993	95.06
370.219	98.06
370.445	93.06
370.672	98.06
370.898	87.06
371.124	89.06
371.35	79.06
371.576	95.06
371.802	75.06
372.028	84.06
372.254	92.06
372.48	80.06
372.706	84.06
372.932	91.06
373.158	93.06
373.384	72.06
373.61	93.06
373.835	90.06
374.061	94.06
374.287	95.06
374.513	82.06
374.739	92.06
374.965	92.06
375.191	86.06
375.416	87.06
375.642	91.06
375.868	87.06
376.094	85.06
376.319	96.06
376.545	88.06
376.771	91.06
376.997	82.06
377.222	78.06
377.448	78.06
377.674	87.06
377.899	75.06
378.125	91.06
378.35	93.06
378.576	86.06
378.802	84.06
379.027	94.06
379.253	92.06
379.478	90.06
379.704	92.06
379.929	83.06
380.155	95.06
380.38	78.06
380.606	98.06
380.831	101.06
381.057	98.06
381.282	93.06
381.507	98.06
381.733	93.06
381.958	93.06
382.184	90.06
382.409	99.06
382.634	107.06
382.86	90.06
383.085	104.06
383.31	96.06
383.535	113.06
383.761	104.06
383.986	92.06
384.211	92.06
384.436	91.06
384.662	103.06
384.887	96.06
385.112	84.06
385.337	102.06
385.562	92.06
385.787	112.06
386.013	105.06
386.238	107.06
386.463	94.06
386.688	99.06
386.913	92.06
387.138	118.06
387.363	103.06
387.588	90.06
387.813	104.06
388.038	113.06
388.263	100.06
388.488	98.06
388.713	91.06
388.938	79.06
389.163	95.06
389.387	97.06
389.612	100.06
389.837	83.06
390.062	100.06
390.287	104.06
390.512	92.06
390.736	92.06
390.961	100.06
391.186	94.06
391.411	84.06
391.636	87.06
391.86	87.06
392.085	88.06
392.31	94.06
392.534	99.06
392.759	80.06
392.984	88.06
393.208	89.06
393.433	85.06
393.658	101.06
393.882	76.06
394.107	81.06
394.331	92.06
394.556	83.06
394.78	89.06
395.005	94.06
395.229	84.06
395.454	80.06
395.678	92.06
395.903	83.06
396.127	88.06
396.352	81.06
396.576	90.06
396.801	95.06
397.025	100.06
397.249	82.06
397.474	99.06
397.698	90.06
397.922	77.06
398.147	88.06
398.371	97.06
398.595	81.06
398.82	81.06
399.044	87.06
399.268	94.06
399.492	87.06
399.717	77.06
399.941	92.06
400.165	98.06
400.389	91.06
400.613	82.06
400.837	95.06
401.062	76.06
401.286	99.06
401.51	86.06
401.734	100.06
401.958	90.06
402.182	116.06
402.406	138.06
402.63	111.06
402.854	95.06
403.078	85.06
403.302	87.06
403.526	77.06
403.75	84.06
403.974	100.06
404.198	93.06
404.422	90.06
404.645	99.06
404.869	93.06
405.093	93.06
405.317	101.06
405.541	108.06
405.765	109.06
405.988	117.06
406.212	153.06
406.436	191.06
406.66	123.06
406.883	91.06
407.107	88.06
407.331	93.06
407.555	90.06
407.778	92.06
408.002	96.06
408.226	91.06
408.449	90.06
408.673	91.06
408.896	84.06
409.12	93.06
409.344	98.06
409.567	100.06
409.791	100.06
410.014	89.06
410.238	87.06
410.461	98.06
410.685	91.06
410.908	97.06
411.132	98.06
411.355	89.06
411.578	87.06
411.802	80.06
412.025	80.06
412.249	84.06
412.472	89.06
412.695	92.06
412.919	85.06
413.142	98.06
413.365	85.06
413.589	79.06
413.812	71.06
414.035	89.06
414.258	92.06
414.482	84.06
414.705	86.06
414.928	100.06
415.151	87.06
415.374	93.06
415.597	102.06
415.821	86.06
416.044	84.06
416.267	90.06
416.49	99.06
416.713	87.06
416.936	92.06
417.159	83.06
417.382	81.06
417.605	92.06
417.828	91.06
418.051	89.06
418.274	100.06
418.497	91.06
418.72	93.06
418.943	87.06
419.166	81.06
419.389	99.06
419.611	85.06
419.834	83.06
420.057	88.06
420.28	104.06
420.503	77.06
420.726	88.06
420.948	100.06
421.171	91.06
421.394	89.06
421.617	90.06
421.839	82.06
422.062	89.06
422.285	85.06
422.507	98.06
422.73	92.06
422.953	78.06
423.175	83.06
423.398	87.06
423.621	87.06
423.843	103.06
424.066	84.06
424.288	83.06
424.511	71.06
424.733	90.06
424.956	98.06
425.178	75.06
425.401	100.06
425.623	102.06
425.846	97.06
426.068	85.06
426.291	92.06
426.513	96.06
426.735	88.06
426.958	88.06
427.18	109.06
427.402	121.06
427.625	141.06
427.847	112.06
428.069	93.06
428.292	82.06
428.514	81.06
428.736	82.06
428.958	87.06
429.181	84.06
429.403	93.06
429.625	89.06
429.847	73.06
430.069	84.06
430.292	91.06
430.514	79.06
430.736	81.06
430.958	80.06
431.18	99.06
431.402	90.06
431.624	93.06
431.846	84.06
432.068	97.06
432.29	79.06
432.512	88.06
432.734	84.06
432.956	87.06
433.178	88.06
433.4	84.06
433.622	101.06
433.844	101.06
434.066	87.06
434.287	95.06
434.509	92.06
434.731	84.06
434.953	76.06
435.175	81.06
435.397	80.06
435.618	82.06
435.84	92.06
436.062	117.06
436.284	109.06
436.505	103.06
436.727	89.06
436.949	83.06
437.17	85.06
437.392	69.06
437.614	87.06
437.835	98.06
438.057	101.06
438.278	105.06
438.5	87.06
438.721	106.06
438.943	96.06
439.165	97.06
439.386	87.06
439.608	107.06
439.829	100.06
440.05	107.06
440.272	139.06
440.493	90.06
440.715	85.06
440.936	77.06
441.158	79.06
441.379	96.06
441.6	91.06
441.822	85.06
442.043	97.06
442.264	112.06
442.486	101.06
442.707	99.06
442.928	96.06
443.149	105.06
443.371	115.06
443.592	113.06
443.813	115.06
444.034	98.06
444.255	94.06
444.476	92.06
444.698	84.06
444.919	87.06
445.14	123.06
445.361	118.06
445.582	109.06
445.803	127.06
446.024	114.06
446.245	118.06
446.466	108.06
446.687	90.06
446.908	87.06
447.129	94.06
447.35	90.06
447.571	84.06
447.792	99.06
448.013	110.06
448.234	86.06
448.455	84.06
448.675	92.06
448.896	125.06
449.117	111.06
449.338	109.06
449.559	126.06
449.779	129.06
450	91.06
450.221	85.06
450.442	86.06
450.662	79.06
450.883	81.06
451.104	112.06
451.324	96.06
451.545	91.06
451.766	90.06
451.986	80.06
452.207	95.06
452.428	79.06
452.648	99.06
452.869	103.06
453.089	98.06
453.31	125.06
453.53	91.06
453.751	87.06
453.971	102.06
454.192	105.06
454.412	82.06
454.633	77.06
454.853	83.06
455.073	98.06
455.294	80.06
455.514	93.06
455.734	83.06
455.955	93.06
456.175	83.06
456.395	83.06
456.616	93.06
456.836	82.06
457.056	88.06
457.276	79.06
457.497	83.06
457.717	83.06
457.937	77.06
458.157	71.06
458.377	92.06
458.598	96.06
458.818	127.06
459.038	131.06
459.258	116.06
459.478	77.06
459.698	91.06
459.918	80.06
460.138	92.06
460.358	95.06
460.578	80.06
460.798	89.06
461.018	93.06
461.238	88.06
461.458	89.06
461.678	91.06
461.898	87.06
462.118	84.06
462.338	69.06
462.558	91.06
462.777	75.06
462.997	83.06
463.217	73.06
463.437	89.06
463.657	84.06
463.876	80.06
464.096	82.06
464.316	85.06
464.536	106.06
464.755	93.06
464.975	103.06
465.195	138.06
465.414	140.06
465.634	79.06
465.854	87.06
466.073	82.06
466.293	79.06
466.512	92.06
466.732	88.06
466.951	85.06
467.171	107.06
467.391	85.06
467.61	95.06
467.829	98.06
468.049	91.06
468.268	90.06
468.488	91.06
468.707	92.06
468.927	86.06
469.146	91.06
469.365	89.06
469.585	73.06
469.804	89.06
470.023	94.06
470.243	81.06
470.462	82.06
470.681	104.06
470.901	84.06
471.12	93.06
471.339	95.06
471.558	72.06
471.777	89.06
471.997	95.06
472.216	79.06
472.435	79.06
472.654	79.06
472.873	80.06
473.092	93.06
473.311	97.06
473.53	77.06
473.749	78.06
473.968	91.06
474.187	102.06
474.406	84.06
474.625	88.06
474.844	91.06
475.063	81.06
475.282	75.06
475.501	68.06
475.72	97.06
475.939	88.06
476.158	90.06
476.377	106.06
476.596	91.06
476.814	84.06
477.033	95.06
477.252	84.06
477.471	84.06
477.69	90.06
477.908	79.06
478.127	78.06
478.346	89.06
478.564	74.06
478.783	84.06
479.002	83.06
479.22	71.06
479.439	96.06
479.658	111.06
479.876	100.06
480.095	80.06
480.313	84.06
480.532	85.06
480.751	95.06
480.969	97.06
481.188	101.06
481.406	101.06
481.624	94.06
481.843	95.06
482.061	84.06
482.28	91.06
482.498	107.06
482.717	85.06
482.935	87.06
483.153	81.06
483.372	89.06
483.59	84.06
483.808	80.06
484.027	93.06
484.245	100.06
484.463	92.06
484.681	92.06
484.9	93.06
485.118	98.06
485.336	92.06
485.554	103.06
485.772	101.06
485.99	95.06
486.209	95.06
486.427	106.06
486.645	107.06
486.863	91.06
487.081	105.06
487.299	94.06
487.517	90.06
487.735	99.06
487.953	86.06
488.171	85.06
488.389	99.06
488.607	91.06
488.825	99.06
489.043	90.06
489.261	78.06
489.479	81.06
489.696	82.06
489.914	101.06
490.132	89.06
490.35	83.06
490.568	95.06
490.786	96.06
491.003	83.06
491.221	95.06
491.439	85.06
491.657	79.06
491.874	91.06
492.092	93.06
492.31	96.06
492.527	93.06
492.745	80.06
492.963	88.06
493.18	99.06
493.398	85.06
493.615	87.06
493.833	91.06
494.05	91.06
494.268	93.06
494.485	89.06
494.703	84.06
494.92	94.06
495.138	68.06
495.355	91.06
495.573	101.06
495.79	97.06
496.008	85.06
496.225	75.06
496.442	88.06
496.66	89.06
496.877	93.06
497.094	98.06
497.312	88.06
497.529	86.06
497.746	95.06
497.963	83.06
498.181	91.06
498.398	87.06
498.615	99.06
498.832	96.06
499.049	88.06
499.267	94.06
499.484	86.06
499.701	94.06
499.918	79.06
500.135	78.06
500.352	95.06
500.569	89.06
500.786	93.06
501.003	91.06
501.22	90.06
501.437	92.06
501.654	88.06
501.871	105.06
502.088	78.06
502.305	84.06
502.522	92.06
502.739	100.06
502.956	91.06
503.172	86.06
503.389	105.06
503.606	95.06
503.823	98.06
504.04	77.06
504.256	92.06
504.473	94.06
504.69	101.06
504.907	102.06
505.123	87.06
505.34	88.06
505.557	82.06
505.773	97.06
505.99	72.06
506.207	81.06
506.423	79.06
506.64	107.06
506.856	89.06
507.073	101.06
507.289	87.06
507.506	93.06
507.722	104.06
507.939	85.06
508.155	93.06
508.372	78.06
508.588	87.06
508.805	99.06
509.021	119.06
509.238	85.06
509.454	77.06
509.67	87.06
509.887	100.06
510.103	120.06
510.319	173.06
510.536	675.06
510.752	2028.06
510.968	563.06
511.184	137.06
511.401	103.06
511.617	85.06
511.833	84.06
512.049	97.06
512.265	94.06
512.481	106.06
512.698	95.06
512.914	101.06
513.13	84.06
513.346	88.06
513.562	92.06
513.778	95.06
513.994	93.06
514.21	92.06
514.426	104.06
514.642	122.06
514.858	101.06
515.074	168.06
515.29	379.06
515.506	1185.06
515.721	452.06
515.937	125.06
516.153	94.06
516.369	90.06
516.585	99.06
