Data from Uncirc_1994_H10_HRD10591_00023.txt Node
Date: Wed Jan 03 11:39:25 EST 2024
User: Yrep
Spectrometer: HR+D1059
Trigger mode: 1
Integration Time (sec): 1.000000E-1
Scans to average: 1
Electric dark correction enabled: true
Nonlinearity correction enabled: false
Boxcar width: 0
XAxis mode: Wavelengths
Number of Pixels in Spectrum: 2048
>>>>>Begin Spectral Data<<<<<
223.165	-24.19
223.4	-24.19
223.635	-24.19
223.869	-14.19
224.104	-15.19
224.338	-10.19
224.573	-22.19
224.808	-9.19
225.042	-4.19
225.277	-20.19
225.511	3.81
225.746	4.81
225.98	6.81
226.215	16.81
226.449	11.81
226.683	15.81
226.918	20.81
227.152	38.81
227.387	36.81
227.621	34.81
227.856	50.81
228.09	50.81
228.324	57.81
228.559	64.81
228.793	58.81
229.027	60.81
229.262	71.81
229.496	80.81
229.73	93.81
229.964	91.81
230.199	75.81
230.433	73.81
230.667	84.81
230.901	69.81
231.136	68.81
231.37	92.81
231.604	83.81
231.838	66.81
232.072	73.81
232.306	87.81
232.541	90.81
232.775	91.81
233.009	72.81
233.243	73.81
233.477	85.81
233.711	79.81
233.945	68.81
234.179	85.81
234.413	82.81
234.647	71.81
234.881	81.81
235.115	68.81
235.349	75.81
235.583	85.81
235.817	75.81
236.051	56.81
236.285	74.81
236.519	83.81
236.753	69.81
236.987	93.81
237.221	91.81
237.455	86.81
237.689	85.81
237.922	68.81
238.156	80.81
238.39	85.81
238.624	77.81
238.858	73.81
239.091	80.81
239.325	91.81
239.559	93.81
239.793	82.81
240.027	82.81
240.26	80.81
240.494	77.81
240.728	84.81
240.961	76.81
241.195	80.81
241.429	83.81
241.662	73.81
241.896	75.81
242.13	82.81
242.363	69.81
242.597	66.81
242.83	78.81
243.064	83.81
243.298	65.81
243.531	79.81
243.765	76.81
243.998	93.81
244.232	92.81
244.465	89.81
244.699	94.81
244.932	74.81
245.166	73.81
245.399	88.81
245.633	71.81
245.866	67.81
246.099	72.81
246.333	70.81
246.566	81.81
246.8	86.81
247.033	73.81
247.266	63.81
247.5	57.81
247.733	73.81
247.966	75.81
248.2	82.81
248.433	76.81
248.666	92.81
248.899	90.81
249.133	84.81
249.366	82.81
249.599	94.81
249.832	64.81
250.066	72.81
250.299	76.81
250.532	82.81
250.765	87.81
250.998	68.81
251.231	73.81
251.465	76.81
251.698	76.81
251.931	78.81
252.164	84.81
252.397	81.81
252.63	73.81
252.863	76.81
253.096	87.81
253.329	82.81
253.562	67.81
253.795	71.81
254.028	87.81
254.261	74.81
254.494	75.81
254.727	87.81
254.96	88.81
255.193	77.81
255.426	71.81
255.659	81.81
255.892	93.81
256.124	77.81
256.357	94.81
256.59	91.81
256.823	72.81
257.056	74.81
257.289	86.81
257.521	81.81
257.754	75.81
257.987	92.81
258.22	79.81
258.452	84.81
258.685	75.81
258.918	84.81
259.151	80.81
259.383	79.81
259.616	75.81
259.849	99.81
260.081	81.81
260.314	82.81
260.547	85.81
260.779	80.81
261.012	100.81
261.244	82.81
261.477	70.81
261.71	79.81
261.942	96.81
262.175	115.81
262.407	95.81
262.64	71.81
262.872	95.81
263.105	81.81
263.337	76.81
263.57	83.81
263.802	77.81
264.035	74.81
264.267	95.81
264.499	85.81
264.732	95.81
264.964	75.81
265.197	86.81
265.429	89.81
265.661	85.81
265.894	91.81
266.126	92.81
266.358	74.81
266.591	66.81
266.823	78.81
267.055	96.81
267.287	71.81
267.52	70.81
267.752	82.81
267.984	89.81
268.216	86.81
268.448	91.81
268.681	77.81
268.913	93.81
269.145	83.81
269.377	100.81
269.609	87.81
269.841	82.81
270.073	81.81
270.306	80.81
270.538	90.81
270.77	87.81
271.002	79.81
271.234	88.81
271.466	87.81
271.698	79.81
271.93	96.81
272.162	95.81
272.394	94.81
272.626	106.81
272.858	85.81
273.09	79.81
273.322	99.81
273.553	76.81
273.785	74.81
274.017	81.81
274.249	77.81
274.481	91.81
274.713	99.81
274.945	87.81
275.176	91.81
275.408	87.81
275.64	85.81
275.872	75.81
276.104	90.81
276.335	91.81
276.567	103.81
276.799	99.81
277.031	92.81
277.262	83.81
277.494	87.81
277.726	80.81
277.957	85.81
278.189	96.81
278.421	79.81
278.652	77.81
278.884	90.81
279.115	97.81
279.347	91.81
279.579	97.81
279.81	86.81
280.042	75.81
280.273	92.81
280.505	92.81
280.736	83.81
280.968	95.81
281.199	79.81
281.431	80.81
281.662	89.81
281.894	99.81
282.125	102.81
282.356	109.81
282.588	139.81
282.819	111.81
283.051	81.81
283.282	97.81
283.513	78.81
283.745	86.81
283.976	82.81
284.207	77.81
284.439	79.81
284.67	90.81
284.901	89.81
285.132	90.81
285.364	75.81
285.595	97.81
285.826	82.81
286.057	84.81
286.288	96.81
286.52	91.81
286.751	89.81
286.982	81.81
287.213	80.81
287.444	88.81
287.675	88.81
287.906	84.81
288.138	82.81
288.369	100.81
288.6	90.81
288.831	84.81
289.062	97.81
289.293	87.81
289.524	96.81
289.755	81.81
289.986	82.81
290.217	81.81
290.448	85.81
290.679	95.81
290.91	99.81
291.141	84.81
291.371	91.81
291.602	83.81
291.833	90.81
292.064	90.81
292.295	80.81
292.526	83.81
292.757	81.81
292.987	103.81
293.218	93.81
293.449	94.81
293.68	82.81
293.91	80.81
294.141	71.81
294.372	99.81
294.603	83.81
294.833	78.81
295.064	69.81
295.295	67.81
295.525	89.81
295.756	99.81
295.987	115.81
296.217	142.81
296.448	115.81
296.679	86.81
296.909	87.81
297.14	91.81
297.37	88.81
297.601	87.81
297.831	82.81
298.062	87.81
298.292	71.81
298.523	95.81
298.753	89.81
298.984	92.81
299.214	88.81
299.445	90.81
299.675	95.81
299.905	109.81
300.136	83.81
300.366	100.81
300.597	93.81
300.827	97.81
301.057	96.81
301.288	89.81
301.518	104.81
301.748	96.81
301.979	90.81
302.209	82.81
302.439	85.81
302.669	91.81
302.9	78.81
303.13	100.81
303.36	92.81
303.59	105.81
303.82	103.81
304.051	88.81
304.281	88.81
304.511	89.81
304.741	85.81
304.971	71.81
305.201	93.81
305.431	84.81
305.661	95.81
305.891	98.81
306.121	85.81
306.352	108.81
306.582	95.81
306.812	89.81
307.042	96.81
307.272	95.81
307.502	94.81
307.731	91.81
307.961	93.81
308.191	90.81
308.421	86.81
308.651	88.81
308.881	103.81
309.111	98.81
309.341	97.81
309.571	99.81
309.8	81.81
310.03	101.81
310.26	99.81
310.49	89.81
310.72	110.81
310.949	99.81
311.179	94.81
311.409	100.81
311.639	94.81
311.868	96.81
312.098	89.81
312.328	91.81
312.557	73.81
312.787	94.81
313.017	101.81
313.246	99.81
313.476	89.81
313.706	82.81
313.935	82.81
314.165	101.81
314.394	101.81
314.624	88.81
314.853	79.81
315.083	103.81
315.312	87.81
315.542	92.81
315.771	76.81
316.001	88.81
316.23	93.81
316.46	82.81
316.689	95.81
316.919	82.81
317.148	99.81
317.377	99.81
317.607	85.81
317.836	90.81
318.065	97.81
318.295	80.81
318.524	91.81
318.753	88.81
318.983	100.81
319.212	97.81
319.441	104.81
319.67	96.81
319.9	91.81
320.129	87.81
320.358	100.81
320.587	95.81
320.816	89.81
321.046	104.81
321.275	95.81
321.504	102.81
321.733	107.81
321.962	90.81
322.191	116.81
322.42	97.81
322.649	105.81
322.878	98.81
323.108	105.81
323.337	126.81
323.566	130.81
323.795	148.81
324.024	197.81
324.253	376.81
324.482	836.81
324.71	1717.81
324.939	2207.81
325.168	826.81
325.397	232.81
325.626	145.81
325.855	120.81
326.084	129.81
326.313	117.81
326.542	145.81
326.77	220.81
326.999	443.81
327.228	929.81
327.457	1719.81
327.686	1365.81
327.914	359.81
328.143	166.81
328.372	135.81
328.6	129.81
328.829	107.81
329.058	110.81
329.287	116.81
329.515	108.81
329.744	104.81
329.972	99.81
330.201	88.81
330.43	91.81
330.658	106.81
330.887	120.81
331.115	111.81
331.344	93.81
331.572	101.81
331.801	91.81
332.03	98.81
332.258	87.81
332.486	84.81
332.715	83.81
332.943	91.81
333.172	85.81
333.4	100.81
333.629	106.81
333.857	121.81
334.085	103.81
334.314	98.81
334.542	87.81
334.771	89.81
334.999	85.81
335.227	98.81
335.455	90.81
335.684	101.81
335.912	83.81
336.14	101.81
336.369	94.81
336.597	94.81
336.825	92.81
337.053	84.81
337.281	94.81
337.51	85.81
337.738	100.81
337.966	84.81
338.194	105.81
338.422	101.81
338.65	91.81
338.878	100.81
339.106	89.81
339.334	93.81
339.562	96.81
339.79	79.81
340.018	88.81
340.246	103.81
340.474	92.81
340.702	81.81
340.93	96.81
341.158	103.81
341.386	92.81
341.614	95.81
341.842	96.81
342.07	94.81
342.298	73.81
342.526	85.81
342.754	95.81
342.981	106.81
343.209	106.81
343.437	106.81
343.665	75.81
343.893	68.81
344.12	81.81
344.348	92.81
344.576	87.81
344.804	89.81
345.031	84.81
345.259	80.81
345.487	82.81
345.714	86.81
345.942	84.81
346.17	83.81
346.397	93.81
346.625	102.81
346.853	87.81
347.08	93.81
347.308	97.81
347.535	114.81
347.763	86.81
347.99	89.81
348.218	83.81
348.445	79.81
348.673	101.81
348.9	88.81
349.128	95.81
349.355	93.81
349.583	96.81
349.81	105.81
350.037	93.81
350.265	99.81
350.492	96.81
350.72	84.81
350.947	109.81
351.174	109.81
351.402	98.81
351.629	103.81
351.856	91.81
352.083	89.81
352.311	88.81
352.538	91.81
352.765	93.81
352.992	114.81
353.22	110.81
353.447	108.81
353.674	103.81
353.901	74.81
354.128	88.81
354.355	95.81
354.583	93.81
354.81	83.81
355.037	106.81
355.264	101.81
355.491	93.81
355.718	81.81
355.945	103.81
356.172	102.81
356.399	111.81
356.626	97.81
356.853	101.81
357.08	83.81
357.307	80.81
357.534	89.81
357.761	98.81
357.988	101.81
358.215	105.81
358.441	92.81
358.668	92.81
358.895	81.81
359.122	87.81
359.349	75.81
359.576	93.81
359.802	85.81
360.029	103.81
360.256	101.81
360.483	87.81
360.709	82.81
360.936	102.81
361.163	81.81
361.39	102.81
361.616	92.81
361.843	91.81
362.07	77.81
362.296	80.81
362.523	91.81
362.749	84.81
362.976	88.81
363.203	101.81
363.429	101.81
363.656	75.81
363.882	81.81
364.109	92.81
364.335	91.81
364.562	87.81
364.788	88.81
365.015	102.81
365.241	103.81
365.468	104.81
365.694	101.81
365.92	95.81
366.147	96.81
366.373	71.81
366.599	81.81
366.826	79.81
367.052	95.81
367.278	88.81
367.505	89.81
367.731	80.81
367.957	94.81
368.184	96.81
368.41	95.81
368.636	111.81
368.862	128.81
369.089	117.81
369.315	85.81
369.541	88.81
369.767	91.81
369.993	88.81
370.219	99.81
370.445	83.81
370.672	74.81
370.898	66.81
371.124	94.81
371.35	81.81
371.576	98.81
371.802	90.81
372.028	89.81
372.254	79.81
372.48	101.81
372.706	79.81
372.932	79.81
373.158	90.81
373.384	95.81
373.61	90.81
373.835	104.81
374.061	76.81
374.287	75.81
374.513	90.81
374.739	84.81
374.965	93.81
375.191	92.81
375.416	87.81
375.642	91.81
375.868	88.81
376.094	80.81
376.319	96.81
376.545	91.81
376.771	99.81
376.997	96.81
377.222	85.81
377.448	77.81
377.674	76.81
377.899	76.81
378.125	84.81
378.35	94.81
378.576	90.81
378.802	88.81
379.027	92.81
379.253	79.81
379.478	83.81
379.704	88.81
379.929	84.81
380.155	92.81
380.38	88.81
380.606	97.81
380.831	94.81
381.057	101.81
381.282	91.81
381.507	89.81
381.733	93.81
381.958	93.81
382.184	85.81
382.409	87.81
382.634	100.81
382.86	95.81
383.085	94.81
383.31	102.81
383.535	112.81
383.761	105.81
383.986	108.81
384.211	87.81
384.436	104.81
384.662	93.81
384.887	105.81
385.112	93.81
385.337	111.81
385.562	99.81
385.787	92.81
386.013	112.81
386.238	100.81
386.463	105.81
386.688	104.81
386.913	104.81
387.138	106.81
387.363	97.81
387.588	95.81
387.813	89.81
388.038	97.81
388.263	103.81
388.488	108.81
388.713	103.81
388.938	103.81
389.163	110.81
389.387	94.81
389.612	95.81
389.837	90.81
390.062	83.81
390.287	98.81
390.512	89.81
390.736	96.81
390.961	92.81
391.186	83.81
391.411	105.81
391.636	99.81
391.86	86.81
392.085	66.81
392.31	100.81
392.534	96.81
392.759	104.81
392.984	84.81
393.208	84.81
393.433	94.81
393.658	100.81
393.882	91.81
394.107	81.81
394.331	98.81
394.556	75.81
394.78	91.81
395.005	85.81
395.229	93.81
395.454	77.81
395.678	93.81
395.903	87.81
396.127	91.81
396.352	94.81
396.576	89.81
396.801	91.81
397.025	104.81
397.249	91.81
397.474	85.81
397.698	85.81
397.922	73.81
398.147	63.81
398.371	100.81
398.595	79.81
398.82	77.81
399.044	77.81
399.268	85.81
399.492	79.81
399.717	89.81
399.941	84.81
400.165	110.81
400.389	81.81
400.613	81.81
400.837	96.81
401.062	76.81
401.286	90.81
401.51	89.81
401.734	90.81
401.958	94.81
402.182	116.81
402.406	136.81
402.63	100.81
402.854	87.81
403.078	84.81
403.302	83.81
403.526	81.81
403.75	101.81
403.974	94.81
404.198	75.81
404.422	81.81
404.645	95.81
404.869	86.81
405.093	107.81
405.317	98.81
405.541	94.81
405.765	87.81
405.988	109.81
406.212	163.81
406.436	215.81
406.66	138.81
406.883	110.81
407.107	100.81
407.331	100.81
407.555	107.81
407.778	91.81
408.002	88.81
408.226	82.81
408.449	91.81
408.673	84.81
408.896	95.81
409.12	99.81
409.344	88.81
409.567	82.81
409.791	104.81
410.014	90.81
410.238	76.81
410.461	79.81
410.685	85.81
410.908	99.81
411.132	109.81
411.355	105.81
411.578	80.81
411.802	79.81
412.025	93.81
412.249	84.81
412.472	78.81
412.695	85.81
412.919	93.81
413.142	85.81
413.365	90.81
413.589	83.81
413.812	100.81
414.035	95.81
414.258	84.81
414.482	81.81
414.705	92.81
414.928	83.81
415.151	71.81
415.374	92.81
415.597	103.81
415.821	95.81
416.044	87.81
416.267	102.81
416.49	84.81
416.713	99.81
416.936	89.81
417.159	87.81
417.382	95.81
417.605	78.81
417.828	104.81
418.051	76.81
418.274	83.81
418.497	89.81
418.72	80.81
418.943	82.81
419.166	87.81
419.389	79.81
419.611	82.81
419.834	97.81
420.057	84.81
420.28	84.81
420.503	94.81
420.726	91.81
420.948	102.81
421.171	95.81
421.394	83.81
421.617	84.81
421.839	103.81
422.062	92.81
422.285	95.81
422.507	103.81
422.73	103.81
422.953	84.81
423.175	101.81
423.398	81.81
423.621	93.81
423.843	87.81
424.066	79.81
424.288	94.81
424.511	93.81
424.733	108.81
424.956	94.81
425.178	84.81
425.401	108.81
425.623	94.81
425.846	80.81
426.068	88.81
426.291	104.81
426.513	92.81
426.735	94.81
426.958	91.81
427.18	95.81
427.402	127.81
427.625	160.81
427.847	123.81
428.069	92.81
428.292	100.81
428.514	80.81
428.736	89.81
428.958	67.81
429.181	87.81
429.403	74.81
429.625	86.81
429.847	87.81
430.069	99.81
430.292	95.81
430.514	76.81
430.736	81.81
430.958	86.81
431.18	84.81
431.402	88.81
431.624	94.81
431.846	97.81
432.068	91.81
432.29	97.81
432.512	94.81
432.734	96.81
432.956	105.81
433.178	84.81
433.4	91.81
433.622	89.81
433.844	97.81
434.066	88.81
434.287	88.81
434.509	82.81
434.731	81.81
434.953	80.81
435.175	81.81
435.397	87.81
435.618	86.81
435.84	103.81
436.062	131.81
436.284	122.81
436.505	105.81
436.727	94.81
436.949	92.81
437.17	90.81
437.392	76.81
437.614	107.81
437.835	93.81
438.057	119.81
438.278	109.81
438.5	100.81
438.721	109.81
438.943	101.81
439.165	84.81
439.386	92.81
439.608	102.81
439.829	93.81
440.05	110.81
440.272	136.81
440.493	89.81
440.715	91.81
440.936	92.81
441.158	90.81
441.379	84.81
441.6	92.81
441.822	103.81
442.043	93.81
442.264	104.81
442.486	105.81
442.707	79.81
442.928	114.81
443.149	142.81
443.371	133.81
443.592	113.81
443.813	118.81
444.034	104.81
444.255	83.81
444.476	85.81
444.698	89.81
444.919	89.81
445.14	118.81
445.361	114.81
445.582	108.81
445.803	128.81
446.024	131.81
446.245	127.81
446.466	115.81
446.687	90.81
446.908	91.81
447.129	91.81
447.35	93.81
447.571	92.81
447.792	93.81
448.013	108.81
448.234	99.81
448.455	109.81
448.675	117.81
448.896	127.81
449.117	100.81
449.338	93.81
449.559	130.81
449.779	138.81
450	93.81
450.221	94.81
450.442	89.81
450.662	99.81
450.883	103.81
451.104	107.81
451.324	100.81
451.545	89.81
451.766	99.81
451.986	89.81
452.207	77.81
452.428	85.81
452.648	103.81
452.869	108.81
453.089	113.81
453.31	118.81
453.53	89.81
453.751	102.81
453.971	88.81
454.192	95.81
454.412	93.81
454.633	97.81
454.853	84.81
455.073	96.81
455.294	88.81
455.514	92.81
455.734	96.81
455.955	82.81
456.175	94.81
456.395	78.81
456.616	78.81
456.836	93.81
457.056	91.81
457.276	82.81
457.497	88.81
457.717	83.81
457.937	73.81
458.157	89.81
458.377	91.81
458.598	106.81
458.818	141.81
459.038	161.81
459.258	117.81
459.478	100.81
459.698	83.81
459.918	89.81
460.138	77.81
460.358	90.81
460.578	89.81
460.798	93.81
461.018	102.81
461.238	88.81
461.458	79.81
461.678	87.81
461.898	85.81
462.118	84.81
462.338	79.81
462.558	93.81
462.777	80.81
462.997	95.81
463.217	89.81
463.437	92.81
463.657	75.81
463.876	93.81
464.096	83.81
464.316	92.81
464.536	98.81
464.755	100.81
464.975	90.81
465.195	133.81
465.414	155.81
465.634	92.81
465.854	80.81
466.073	98.81
466.293	79.81
466.512	89.81
466.732	81.81
466.951	92.81
467.171	91.81
467.391	99.81
467.61	114.81
467.829	93.81
468.049	95.81
468.268	87.81
468.488	98.81
468.707	75.81
468.927	101.81
469.146	82.81
469.365	99.81
469.585	88.81
469.804	113.81
470.023	97.81
470.243	96.81
470.462	97.81
470.681	111.81
470.901	82.81
471.12	96.81
471.339	95.81
471.558	89.81
471.777	85.81
471.997	89.81
472.216	90.81
472.435	84.81
472.654	84.81
472.873	95.81
473.092	86.81
473.311	103.81
473.53	99.81
473.749	96.81
473.968	97.81
474.187	103.81
474.406	95.81
474.625	98.81
474.844	88.81
475.063	80.81
475.282	95.81
475.501	72.81
475.72	91.81
475.939	84.81
476.158	84.81
476.377	99.81
476.596	101.81
476.814	108.81
477.033	84.81
477.252	96.81
477.471	102.81
477.69	85.81
477.908	90.81
478.127	80.81
478.346	99.81
478.564	84.81
478.783	100.81
479.002	93.81
479.22	99.81
479.439	96.81
479.658	105.81
479.876	91.81
480.095	81.81
480.313	95.81
480.532	90.81
480.751	88.81
480.969	89.81
481.188	97.81
481.406	95.81
481.624	91.81
481.843	98.81
482.061	94.81
482.28	84.81
482.498	81.81
482.717	89.81
482.935	93.81
483.153	93.81
483.372	88.81
483.59	82.81
483.808	89.81
484.027	83.81
484.245	78.81
484.463	108.81
484.681	100.81
484.9	97.81
485.118	75.81
485.336	106.81
485.554	76.81
485.772	109.81
485.99	106.81
486.209	106.81
486.427	100.81
486.645	100.81
486.863	101.81
487.081	101.81
487.299	89.81
487.517	94.81
487.735	82.81
487.953	100.81
488.171	95.81
488.389	95.81
488.607	108.81
488.825	98.81
489.043	92.81
489.261	91.81
489.479	93.81
489.696	77.81
489.914	95.81
490.132	93.81
490.35	99.81
490.568	84.81
490.786	73.81
491.003	80.81
491.221	88.81
491.439	89.81
491.657	102.81
491.874	86.81
492.092	87.81
492.31	85.81
492.527	83.81
492.745	101.81
492.963	100.81
493.18	88.81
493.398	83.81
493.615	95.81
493.833	90.81
494.05	97.81
494.268	91.81
494.485	94.81
494.703	73.81
494.92	76.81
495.138	88.81
495.355	96.81
495.573	99.81
495.79	103.81
496.008	107.81
496.225	79.81
496.442	89.81
496.66	94.81
496.877	98.81
497.094	89.81
497.312	97.81
497.529	87.81
497.746	96.81
497.963	98.81
498.181	82.81
498.398	96.81
498.615	108.81
498.832	102.81
499.049	101.81
499.267	89.81
499.484	99.81
499.701	99.81
499.918	92.81
500.135	96.81
500.352	89.81
500.569	91.81
500.786	94.81
501.003	78.81
501.22	76.81
501.437	97.81
501.654	96.81
501.871	105.81
502.088	91.81
502.305	93.81
502.522	95.81
502.739	90.81
502.956	87.81
503.172	99.81
503.389	106.81
503.606	116.81
503.823	94.81
504.04	93.81
504.256	86.81
504.473	84.81
504.69	84.81
504.907	97.81
505.123	87.81
505.34	99.81
505.557	91.81
505.773	100.81
505.99	89.81
506.207	104.81
506.423	83.81
506.64	83.81
506.856	112.81
507.073	100.81
507.289	111.81
507.506	101.81
507.722	109.81
507.939	98.81
508.155	94.81
508.372	75.81
508.588	94.81
508.805	95.81
509.021	91.81
509.238	98.81
509.454	91.81
509.67	99.81
509.887	110.81
510.103	122.81
510.319	205.81
510.536	777.81
510.752	2357.81
510.968	652.81
511.184	159.81
511.401	100.81
511.617	103.81
511.833	95.81
512.049	99.81
512.265	86.81
512.481	100.81
512.698	101.81
512.914	89.81
513.13	97.81
513.346	84.81
513.562	92.81
513.778	95.81
513.994	101.81
514.21	106.81
514.426	127.81
514.642	123.81
514.858	121.81
515.074	160.81
515.29	451.81
515.506	1440.81
515.721	527.81
515.937	146.81
