Data from Uncirc_1994_H10_HRD10591_00035.txt Node
Date: Wed Jan 03 11:39:27 EST 2024
User: Yrep
Spectrometer: HR+D1059
Trigger mode: 1
Integration Time (sec): 1.000000E-1
Scans to average: 1
Electric dark correction enabled: true
Nonlinearity correction enabled: false
Boxcar width: 0
XAxis mode: Wavelengths
Number of Pixels in Spectrum: 2048
>>>>>Begin Spectral Data<<<<<
223.165	-7.62
223.4	-7.62
223.635	-7.62
223.869	-9.62
224.104	-22.62
224.338	-3.62
224.573	-25.62
224.808	-16.62
225.042	-6.62
225.277	-3.62
225.511	-7.62
225.746	7.38
225.98	1.38
226.215	17.38
226.449	7.38
226.683	14.38
226.918	19.38
227.152	36.38
227.387	30.38
227.621	32.38
227.856	34.38
228.09	52.38
228.324	42.38
228.559	49.38
228.793	53.38
229.027	53.38
229.262	66.38
229.496	50.38
229.73	73.38
229.964	73.38
230.199	64.38
230.433	72.38
230.667	69.38
230.901	81.38
231.136	84.38
231.37	84.38
231.604	64.38
231.838	76.38
232.072	73.38
232.306	75.38
232.541	94.38
232.775	82.38
233.009	72.38
233.243	82.38
233.477	75.38
233.711	71.38
233.945	79.38
234.179	84.38
234.413	66.38
234.647	95.38
234.881	77.38
235.115	66.38
235.349	68.38
235.583	63.38
235.817	69.38
236.051	63.38
236.285	67.38
236.519	72.38
236.753	70.38
236.987	72.38
237.221	84.38
237.455	79.38
237.689	67.38
237.922	59.38
238.156	78.38
238.39	77.38
238.624	69.38
238.858	80.38
239.091	81.38
239.325	85.38
239.559	85.38
239.793	82.38
240.027	78.38
240.26	70.38
240.494	65.38
240.728	69.38
240.961	77.38
241.195	74.38
241.429	79.38
241.662	69.38
241.896	86.38
242.13	82.38
242.363	78.38
242.597	80.38
242.83	89.38
243.064	76.38
243.298	74.38
243.531	63.38
243.765	66.38
243.998	71.38
244.232	75.38
244.465	91.38
244.699	89.38
244.932	86.38
245.166	77.38
245.399	71.38
245.633	68.38
245.866	71.38
246.099	64.38
246.333	69.38
246.566	66.38
246.8	87.38
247.033	71.38
247.266	92.38
247.5	77.38
247.733	73.38
247.966	77.38
248.2	79.38
248.433	63.38
248.666	84.38
248.899	62.38
249.133	77.38
249.366	86.38
249.599	82.38
249.832	96.38
250.066	95.38
250.299	88.38
250.532	88.38
250.765	73.38
250.998	79.38
251.231	83.38
251.465	79.38
251.698	81.38
251.931	81.38
252.164	81.38
252.397	74.38
252.63	81.38
252.863	83.38
253.096	83.38
253.329	84.38
253.562	73.38
253.795	74.38
254.028	92.38
254.261	94.38
254.494	81.38
254.727	81.38
254.96	86.38
255.193	85.38
255.426	91.38
255.659	71.38
255.892	86.38
256.124	84.38
256.357	83.38
256.59	87.38
256.823	91.38
257.056	82.38
257.289	74.38
257.521	73.38
257.754	67.38
257.987	66.38
258.22	87.38
258.452	80.38
258.685	78.38
258.918	91.38
259.151	82.38
259.383	72.38
259.616	72.38
259.849	77.38
260.081	76.38
260.314	93.38
260.547	80.38
260.779	96.38
261.012	82.38
261.244	87.38
261.477	89.38
261.71	86.38
261.942	96.38
262.175	101.38
262.407	79.38
262.64	91.38
262.872	87.38
263.105	83.38
263.337	71.38
263.57	82.38
263.802	66.38
264.035	64.38
264.267	61.38
264.499	88.38
264.732	93.38
264.964	72.38
265.197	79.38
265.429	87.38
265.661	89.38
265.894	85.38
266.126	72.38
266.358	74.38
266.591	75.38
266.823	92.38
267.055	86.38
267.287	90.38
267.52	81.38
267.752	95.38
267.984	81.38
268.216	69.38
268.448	76.38
268.681	78.38
268.913	80.38
269.145	85.38
269.377	84.38
269.609	76.38
269.841	72.38
270.073	86.38
270.306	86.38
270.538	87.38
270.77	76.38
271.002	71.38
271.234	79.38
271.466	87.38
271.698	74.38
271.93	87.38
272.162	89.38
272.394	79.38
272.626	97.38
272.858	90.38
273.09	88.38
273.322	75.38
273.553	90.38
273.785	82.38
274.017	80.38
274.249	88.38
274.481	86.38
274.713	85.38
274.945	89.38
275.176	79.38
275.408	93.38
275.64	74.38
275.872	85.38
276.104	81.38
276.335	88.38
276.567	91.38
276.799	103.38
277.031	83.38
277.262	72.38
277.494	79.38
277.726	75.38
277.957	73.38
278.189	81.38
278.421	84.38
278.652	67.38
278.884	81.38
279.115	89.38
279.347	89.38
279.579	82.38
279.81	80.38
280.042	95.38
280.273	91.38
280.505	74.38
280.736	83.38
280.968	95.38
281.199	92.38
281.431	82.38
281.662	84.38
281.894	70.38
282.125	99.38
282.356	94.38
282.588	121.38
282.819	105.38
283.051	75.38
283.282	81.38
283.513	95.38
283.745	86.38
283.976	85.38
284.207	91.38
284.439	98.38
284.67	83.38
284.901	73.38
285.132	97.38
285.364	89.38
285.595	88.38
285.826	86.38
286.057	83.38
286.288	80.38
286.52	63.38
286.751	75.38
286.982	95.38
287.213	76.38
287.444	85.38
287.675	82.38
287.906	85.38
288.138	75.38
288.369	96.38
288.6	87.38
288.831	70.38
289.062	82.38
289.293	89.38
289.524	74.38
289.755	84.38
289.986	75.38
290.217	74.38
290.448	89.38
290.679	96.38
290.91	89.38
291.141	82.38
291.371	98.38
291.602	80.38
291.833	86.38
292.064	77.38
292.295	93.38
292.526	85.38
292.757	74.38
292.987	78.38
293.218	82.38
293.449	90.38
293.68	77.38
293.91	89.38
294.141	94.38
294.372	83.38
294.603	93.38
294.833	86.38
295.064	85.38
295.295	90.38
295.525	96.38
295.756	110.38
295.987	101.38
296.217	127.38
296.448	98.38
296.679	90.38
296.909	83.38
297.14	91.38
297.37	77.38
297.601	77.38
297.831	101.38
298.062	78.38
298.292	89.38
298.523	103.38
298.753	81.38
298.984	93.38
299.214	103.38
299.445	90.38
299.675	107.38
299.905	74.38
300.136	77.38
300.366	89.38
300.597	95.38
300.827	77.38
301.057	93.38
301.288	101.38
301.518	86.38
301.748	77.38
301.979	101.38
302.209	86.38
302.439	86.38
302.669	74.38
302.9	87.38
303.13	94.38
303.36	103.38
303.59	107.38
303.82	91.38
304.051	84.38
304.281	90.38
304.511	95.38
304.741	75.38
304.971	91.38
305.201	77.38
305.431	89.38
305.661	88.38
305.891	94.38
306.121	109.38
306.352	107.38
306.582	83.38
306.812	96.38
307.042	83.38
307.272	81.38
307.502	93.38
307.731	87.38
307.961	82.38
308.191	82.38
308.421	90.38
308.651	82.38
308.881	86.38
309.111	93.38
309.341	93.38
309.571	124.38
309.8	101.38
310.03	105.38
310.26	88.38
310.49	77.38
310.72	97.38
310.949	90.38
311.179	85.38
311.409	81.38
311.639	85.38
311.868	79.38
312.098	89.38
312.328	99.38
312.557	103.38
312.787	115.38
313.017	73.38
313.246	95.38
313.476	75.38
313.706	88.38
313.935	92.38
314.165	93.38
314.394	103.38
314.624	91.38
314.853	108.38
315.083	87.38
315.312	94.38
315.542	79.38
315.771	83.38
316.001	85.38
316.23	97.38
316.46	105.38
316.689	95.38
316.919	85.38
317.148	87.38
317.377	94.38
317.607	94.38
317.836	99.38
318.065	89.38
318.295	89.38
318.524	87.38
318.753	83.38
318.983	96.38
319.212	97.38
319.441	100.38
319.67	96.38
319.9	103.38
320.129	84.38
320.358	78.38
320.587	88.38
320.816	95.38
321.046	103.38
321.275	107.38
321.504	82.38
321.733	90.38
321.962	88.38
322.191	94.38
322.42	106.38
322.649	111.38
322.878	101.38
323.108	110.38
323.337	124.38
323.566	126.38
323.795	139.38
324.024	189.38
324.253	366.38
324.482	755.38
324.71	1563.38
324.939	2001.38
325.168	743.38
325.397	215.38
325.626	136.38
325.855	129.38
326.084	114.38
326.313	118.38
326.542	145.38
326.77	201.38
326.999	445.38
327.228	901.38
327.457	1609.38
327.686	1245.38
327.914	331.38
328.143	175.38
328.372	133.38
328.6	102.38
328.829	122.38
329.058	113.38
329.287	116.38
329.515	113.38
329.744	99.38
329.972	97.38
330.201	91.38
330.43	107.38
330.658	119.38
330.887	124.38
331.115	107.38
331.344	79.38
331.572	88.38
331.801	98.38
332.03	90.38
332.258	77.38
332.486	98.38
332.715	82.38
332.943	87.38
333.172	105.38
333.4	75.38
333.629	86.38
333.857	105.38
334.085	98.38
334.314	92.38
334.542	81.38
334.771	106.38
334.999	92.38
335.227	104.38
335.455	89.38
335.684	80.38
335.912	104.38
336.14	98.38
336.369	96.38
336.597	102.38
336.825	91.38
337.053	92.38
337.281	105.38
337.51	89.38
337.738	104.38
337.966	98.38
338.194	85.38
338.422	90.38
338.65	88.38
338.878	86.38
339.106	64.38
339.334	95.38
339.562	71.38
339.79	90.38
340.018	86.38
340.246	94.38
340.474	86.38
340.702	89.38
340.93	87.38
341.158	88.38
341.386	87.38
341.614	101.38
341.842	97.38
342.07	94.38
342.298	80.38
342.526	83.38
342.754	92.38
342.981	86.38
343.209	90.38
343.437	110.38
343.665	96.38
343.893	95.38
344.12	101.38
344.348	82.38
344.576	103.38
344.804	115.38
345.031	93.38
345.259	98.38
345.487	105.38
345.714	105.38
345.942	86.38
346.17	92.38
346.397	95.38
346.625	101.38
346.853	91.38
347.08	85.38
347.308	84.38
347.535	100.38
347.763	103.38
347.99	90.38
348.218	96.38
348.445	85.38
348.673	98.38
348.9	84.38
349.128	94.38
349.355	99.38
349.583	99.38
349.81	99.38
350.037	95.38
350.265	61.38
350.492	93.38
350.72	102.38
350.947	93.38
351.174	106.38
351.402	110.38
351.629	98.38
351.856	98.38
352.083	86.38
352.311	91.38
352.538	105.38
352.765	99.38
352.992	125.38
353.22	110.38
353.447	101.38
353.674	94.38
353.901	109.38
354.128	95.38
354.355	95.38
354.583	98.38
354.81	81.38
355.037	93.38
355.264	102.38
355.491	94.38
355.718	98.38
355.945	86.38
356.172	96.38
356.399	100.38
356.626	88.38
356.853	111.38
357.08	85.38
357.307	93.38
357.534	93.38
357.761	105.38
357.988	99.38
358.215	90.38
358.441	105.38
358.668	90.38
358.895	87.38
359.122	96.38
359.349	81.38
359.576	93.38
359.802	106.38
360.029	96.38
360.256	107.38
360.483	87.38
360.709	96.38
360.936	92.38
361.163	86.38
361.39	95.38
361.616	85.38
361.843	91.38
362.07	96.38
362.296	88.38
362.523	87.38
362.749	89.38
362.976	87.38
363.203	97.38
363.429	85.38
363.656	91.38
363.882	91.38
364.109	94.38
364.335	96.38
364.562	103.38
364.788	101.38
365.015	90.38
365.241	95.38
365.468	93.38
365.694	106.38
365.92	91.38
366.147	89.38
366.373	79.38
366.599	80.38
366.826	92.38
367.052	94.38
367.278	80.38
367.505	97.38
367.731	80.38
367.957	78.38
368.184	76.38
368.41	97.38
368.636	109.38
368.862	118.38
369.089	93.38
369.315	85.38
369.541	82.38
369.767	102.38
369.993	89.38
370.219	92.38
370.445	91.38
370.672	87.38
370.898	87.38
371.124	87.38
371.35	90.38
371.576	103.38
371.802	78.38
372.028	87.38
372.254	89.38
372.48	88.38
372.706	81.38
372.932	90.38
373.158	86.38
373.384	98.38
373.61	83.38
373.835	97.38
374.061	94.38
374.287	75.38
374.513	82.38
374.739	84.38
374.965	83.38
375.191	83.38
375.416	89.38
375.642	82.38
375.868	89.38
376.094	88.38
376.319	72.38
376.545	83.38
376.771	86.38
376.997	90.38
377.222	89.38
377.448	79.38
377.674	81.38
377.899	97.38
378.125	91.38
378.35	99.38
378.576	81.38
378.802	88.38
379.027	90.38
379.253	91.38
379.478	85.38
379.704	80.38
379.929	90.38
380.155	88.38
380.38	92.38
380.606	85.38
380.831	93.38
381.057	94.38
381.282	101.38
381.507	92.38
381.733	90.38
381.958	101.38
382.184	94.38
382.409	87.38
382.634	95.38
382.86	89.38
383.085	98.38
383.31	93.38
383.535	105.38
383.761	95.38
383.986	112.38
384.211	97.38
384.436	96.38
384.662	104.38
384.887	90.38
385.112	95.38
385.337	101.38
385.562	99.38
385.787	117.38
386.013	100.38
386.238	121.38
386.463	104.38
386.688	125.38
386.913	91.38
387.138	102.38
387.363	98.38
387.588	113.38
387.813	102.38
388.038	95.38
388.263	108.38
388.488	99.38
388.713	93.38
388.938	84.38
389.163	89.38
389.387	92.38
389.612	84.38
389.837	91.38
390.062	89.38
390.287	81.38
390.512	93.38
390.736	97.38
390.961	94.38
391.186	96.38
391.411	71.38
391.636	90.38
391.86	91.38
392.085	78.38
392.31	93.38
392.534	88.38
392.759	82.38
392.984	81.38
393.208	91.38
393.433	109.38
393.658	94.38
393.882	78.38
394.107	96.38
394.331	70.38
394.556	78.38
394.78	92.38
395.005	97.38
395.229	94.38
395.454	80.38
395.678	93.38
395.903	82.38
396.127	83.38
396.352	76.38
396.576	83.38
396.801	82.38
397.025	95.38
397.249	86.38
397.474	87.38
397.698	97.38
397.922	101.38
398.147	90.38
398.371	87.38
398.595	95.38
398.82	92.38
399.044	99.38
399.268	89.38
399.492	69.38
399.717	101.38
399.941	79.38
400.165	92.38
400.389	92.38
400.613	84.38
400.837	88.38
401.062	102.38
401.286	66.38
401.51	75.38
401.734	82.38
401.958	103.38
402.182	130.38
402.406	143.38
402.63	97.38
402.854	91.38
403.078	104.38
403.302	90.38
403.526	90.38
403.75	72.38
403.974	92.38
404.198	97.38
404.422	85.38
404.645	79.38
404.869	91.38
405.093	89.38
405.317	98.38
405.541	90.38
405.765	94.38
405.988	112.38
406.212	168.38
406.436	216.38
406.66	132.38
406.883	110.38
407.107	89.38
407.331	90.38
407.555	98.38
407.778	90.38
408.002	72.38
408.226	89.38
408.449	80.38
408.673	95.38
408.896	103.38
409.12	75.38
409.344	91.38
409.567	73.38
409.791	81.38
410.014	93.38
410.238	93.38
410.461	92.38
410.685	91.38
410.908	92.38
411.132	111.38
411.355	105.38
411.578	90.38
411.802	79.38
412.025	101.38
412.249	84.38
412.472	90.38
412.695	94.38
412.919	91.38
413.142	85.38
413.365	80.38
413.589	86.38
413.812	85.38
414.035	81.38
414.258	87.38
414.482	103.38
414.705	105.38
414.928	90.38
415.151	87.38
415.374	90.38
415.597	86.38
415.821	82.38
416.044	84.38
416.267	89.38
416.49	70.38
416.713	96.38
416.936	83.38
417.159	85.38
417.382	77.38
417.605	78.38
417.828	80.38
418.051	94.38
418.274	72.38
418.497	61.38
418.72	81.38
418.943	93.38
419.166	98.38
419.389	92.38
419.611	75.38
419.834	83.38
420.057	102.38
420.28	103.38
420.503	88.38
420.726	87.38
420.948	96.38
421.171	91.38
421.394	85.38
421.617	79.38
421.839	92.38
422.062	82.38
422.285	93.38
422.507	104.38
422.73	94.38
422.953	92.38
423.175	96.38
423.398	101.38
423.621	94.38
423.843	82.38
424.066	92.38
424.288	96.38
424.511	93.38
424.733	90.38
424.956	96.38
425.178	98.38
425.401	90.38
425.623	97.38
425.846	88.38
426.068	84.38
426.291	101.38
426.513	96.38
426.735	89.38
426.958	86.38
427.18	105.38
427.402	133.38
427.625	154.38
427.847	109.38
428.069	95.38
428.292	96.38
428.514	78.38
428.736	96.38
428.958	79.38
429.181	81.38
429.403	92.38
429.625	83.38
429.847	87.38
430.069	85.38
430.292	99.38
430.514	83.38
430.736	81.38
430.958	96.38
431.18	87.38
431.402	80.38
431.624	86.38
431.846	83.38
432.068	93.38
432.29	82.38
432.512	84.38
432.734	97.38
432.956	89.38
433.178	95.38
433.4	94.38
433.622	88.38
433.844	78.38
434.066	87.38
434.287	103.38
434.509	89.38
434.731	74.38
434.953	76.38
435.175	87.38
435.397	90.38
435.618	93.38
435.84	103.38
436.062	105.38
436.284	98.38
436.505	89.38
436.727	103.38
436.949	94.38
437.17	82.38
437.392	78.38
437.614	74.38
437.835	107.38
438.057	114.38
438.278	104.38
438.5	93.38
438.721	121.38
438.943	92.38
439.165	96.38
439.386	87.38
439.608	92.38
439.829	107.38
440.05	117.38
440.272	138.38
440.493	101.38
440.715	87.38
440.936	85.38
441.158	81.38
441.379	94.38
441.6	74.38
441.822	96.38
442.043	95.38
442.264	101.38
442.486	88.38
442.707	82.38
442.928	109.38
443.149	106.38
443.371	117.38
443.592	101.38
443.813	113.38
444.034	125.38
444.255	88.38
444.476	93.38
444.698	88.38
444.919	103.38
445.14	130.38
445.361	128.38
445.582	114.38
445.803	134.38
446.024	138.38
446.245	131.38
446.466	122.38
446.687	96.38
446.908	87.38
447.129	89.38
447.35	95.38
447.571	84.38
447.792	96.38
448.013	95.38
448.234	109.38
448.455	94.38
448.675	115.38
448.896	119.38
449.117	88.38
449.338	99.38
449.559	122.38
449.779	116.38
450	97.38
450.221	90.38
450.442	83.38
450.662	81.38
450.883	95.38
451.104	116.38
451.324	74.38
451.545	65.38
451.766	81.38
451.986	88.38
452.207	76.38
452.428	87.38
452.648	101.38
452.869	105.38
453.089	105.38
453.31	110.38
453.53	91.38
453.751	89.38
453.971	94.38
454.192	101.38
454.412	77.38
454.633	71.38
454.853	88.38
455.073	89.38
455.294	86.38
455.514	104.38
455.734	94.38
455.955	78.38
456.175	80.38
456.395	79.38
456.616	79.38
456.836	96.38
457.056	81.38
457.276	87.38
457.497	101.38
457.717	69.38
457.937	87.38
458.157	75.38
458.377	84.38
458.598	92.38
458.818	154.38
459.038	131.38
459.258	108.38
459.478	82.38
459.698	98.38
459.918	89.38
460.138	96.38
460.358	82.38
460.578	86.38
460.798	88.38
461.018	90.38
461.238	92.38
461.458	86.38
461.678	75.38
461.898	87.38
462.118	74.38
462.338	79.38
462.558	76.38
462.777	79.38
462.997	78.38
463.217	80.38
463.437	91.38
463.657	89.38
463.876	90.38
464.096	77.38
464.316	94.38
464.536	78.38
464.755	93.38
464.975	96.38
465.195	149.38
465.414	133.38
465.634	89.38
465.854	95.38
466.073	71.38
466.293	71.38
466.512	77.38
466.732	81.38
466.951	97.38
467.171	79.38
467.391	95.38
467.61	92.38
467.829	94.38
468.049	84.38
468.268	79.38
468.488	87.38
468.707	88.38
468.927	97.38
469.146	78.38
469.365	92.38
469.585	89.38
469.804	85.38
470.023	85.38
470.243	106.38
470.462	89.38
470.681	106.38
470.901	90.38
471.12	78.38
471.339	77.38
471.558	80.38
471.777	92.38
471.997	85.38
472.216	80.38
472.435	75.38
472.654	81.38
472.873	90.38
473.092	86.38
473.311	85.38
473.53	71.38
473.749	83.38
473.968	91.38
474.187	110.38
474.406	88.38
474.625	71.38
474.844	97.38
475.063	82.38
475.282	74.38
475.501	80.38
475.72	90.38
475.939	98.38
476.158	81.38
476.377	88.38
476.596	96.38
476.814	90.38
477.033	87.38
477.252	83.38
477.471	94.38
477.69	78.38
477.908	84.38
478.127	91.38
478.346	91.38
478.564	86.38
478.783	75.38
479.002	83.38
479.22	87.38
479.439	102.38
479.658	93.38
479.876	79.38
480.095	76.38
480.313	82.38
480.532	76.38
480.751	86.38
480.969	94.38
481.188	89.38
481.406	91.38
481.624	94.38
481.843	84.38
482.061	83.38
482.28	94.38
482.498	89.38
482.717	81.38
482.935	77.38
483.153	89.38
483.372	87.38
483.59	92.38
483.808	86.38
484.027	67.38
484.245	76.38
484.463	75.38
484.681	90.38
484.9	74.38
485.118	85.38
485.336	89.38
485.554	106.38
485.772	93.38
485.99	110.38
486.209	91.38
486.427	107.38
486.645	100.38
486.863	106.38
487.081	101.38
487.299	90.38
487.517	92.38
487.735	101.38
487.953	90.38
488.171	100.38
488.389	102.38
488.607	95.38
488.825	88.38
489.043	94.38
489.261	97.38
489.479	79.38
489.696	87.38
489.914	95.38
490.132	81.38
490.35	95.38
490.568	81.38
490.786	86.38
491.003	83.38
491.221	83.38
491.439	92.38
491.657	88.38
491.874	101.38
492.092	91.38
492.31	74.38
492.527	85.38
492.745	89.38
492.963	72.38
493.18	86.38
493.398	96.38
493.615	89.38
493.833	83.38
494.05	86.38
494.268	81.38
494.485	84.38
494.703	104.38
494.92	87.38
495.138	78.38
495.355	90.38
495.573	89.38
495.79	102.38
496.008	99.38
496.225	85.38
496.442	80.38
496.66	88.38
496.877	88.38
497.094	79.38
497.312	82.38
497.529	88.38
497.746	77.38
497.963	90.38
498.181	87.38
498.398	83.38
498.615	94.38
498.832	112.38
499.049	100.38
499.267	74.38
499.484	86.38
499.701	87.38
499.918	83.38
500.135	103.38
500.352	85.38
500.569	83.38
500.786	111.38
501.003	96.38
501.22	93.38
501.437	88.38
501.654	88.38
501.871	107.38
502.088	98.38
502.305	89.38
502.522	85.38
502.739	80.38
502.956	83.38
503.172	85.38
503.389	84.38
503.606	97.38
503.823	114.38
504.04	83.38
504.256	105.38
504.473	84.38
504.69	93.38
504.907	101.38
505.123	80.38
505.34	95.38
505.557	91.38
505.773	90.38
505.99	86.38
506.207	88.38
506.423	94.38
506.64	93.38
506.856	83.38
507.073	98.38
507.289	92.38
507.506	77.38
507.722	88.38
507.939	113.38
508.155	95.38
508.372	90.38
508.588	96.38
508.805	87.38
509.021	85.38
509.238	93.38
509.454	103.38
509.67	90.38
509.887	108.38
510.103	139.38
510.319	214.38
510.536	720.38
510.752	2239.38
510.968	604.38
511.184	139.38
511.401	99.38
511.617	100.38
511.833	98.38
512.049	88.38
512.265	90.38
512.481	102.38
512.698	86.38
512.914	86.38
513.13	89.38
513.346	99.38
513.562	88.38
513.778	96.38
513.994	88.38
514.21	91.38
514.426	102.38
514.642	110.38
514.858	119.38
515.074	158.38
515.29	413.38
515.506	1301.38
515.721	489.38
515.937	152.38
516.153	89.38
516.369	89.38
516.585	93.38
516.801	87.38
