Data from Uncirc_1994_H10_HRD10591_00077.txt Node
Date: Wed Jan 03 11:39:36 EST 2024
User: Yrep
Spectrometer: HR+D1059
Trigger mode: 1
Integration Time (sec): 1.000000E-1
Scans to average: 1
Electric dark correction enabled: true
Nonlinearity correction enabled: false
Boxcar width: 0
XAxis mode: Wavelengths
Number of Pixels in Spectrum: 2048
>>>>>Begin Spectral Data<<<<<
223.165	-21.12
223.4	-21.12
223.635	-21.12
223.869	-21.12
224.104	-25.12
224.338	-21.12
224.573	-13.12
224.808	-12.12
225.042	-13.12
225.277	-14.12
225.511	1.88
225.746	0.88
225.98	8.88
226.215	11.88
226.449	21.88
226.683	26.88
226.918	35.88
227.152	32.88
227.387	49.88
227.621	38.88
227.856	37.88
228.09	54.88
228.324	44.88
228.559	54.88
228.793	64.88
229.027	60.88
229.262	72.88
229.496	62.88
229.73	78.88
229.964	80.88
230.199	89.88
230.433	69.88
230.667	87.88
230.901	77.88
231.136	64.88
231.37	72.88
231.604	81.88
231.838	84.88
232.072	78.88
232.306	72.88
232.541	86.88
232.775	79.88
233.009	86.88
233.243	94.88
233.477	98.88
233.711	91.88
233.945	77.88
234.179	74.88
234.413	82.88
234.647	85.88
234.881	76.88
235.115	86.88
235.349	87.88
235.583	86.88
235.817	88.88
236.051	73.88
236.285	70.88
236.519	90.88
236.753	86.88
236.987	91.88
237.221	84.88
237.455	101.88
237.689	86.88
237.922	74.88
238.156	88.88
238.39	88.88
238.624	61.88
238.858	76.88
239.091	72.88
239.325	86.88
239.559	60.88
239.793	94.88
240.027	87.88
240.26	80.88
240.494	90.88
240.728	84.88
240.961	65.88
241.195	75.88
241.429	75.88
241.662	77.88
241.896	78.88
242.13	79.88
242.363	81.88
242.597	72.88
242.83	80.88
243.064	64.88
243.298	76.88
243.531	88.88
243.765	84.88
243.998	77.88
244.232	69.88
244.465	78.88
244.699	85.88
244.932	75.88
245.166	79.88
245.399	89.88
245.633	85.88
245.866	77.88
246.099	79.88
246.333	84.88
246.566	70.88
246.8	91.88
247.033	74.88
247.266	67.88
247.5	74.88
247.733	75.88
247.966	82.88
248.2	81.88
248.433	80.88
248.666	77.88
248.899	78.88
249.133	82.88
249.366	100.88
249.599	89.88
249.832	86.88
250.066	97.88
250.299	73.88
250.532	67.88
250.765	76.88
250.998	84.88
251.231	76.88
251.465	72.88
251.698	97.88
251.931	82.88
252.164	72.88
252.397	88.88
252.63	80.88
252.863	63.88
253.096	80.88
253.329	80.88
253.562	81.88
253.795	93.88
254.028	78.88
254.261	73.88
254.494	72.88
254.727	85.88
254.96	83.88
255.193	83.88
255.426	71.88
255.659	97.88
255.892	94.88
256.124	84.88
256.357	83.88
256.59	82.88
256.823	68.88
257.056	66.88
257.289	80.88
257.521	71.88
257.754	70.88
257.987	82.88
258.22	84.88
258.452	72.88
258.685	82.88
258.918	84.88
259.151	74.88
259.383	78.88
259.616	83.88
259.849	76.88
260.081	75.88
260.314	81.88
260.547	74.88
260.779	76.88
261.012	74.88
261.244	69.88
261.477	89.88
261.71	105.88
261.942	103.88
262.175	110.88
262.407	80.88
262.64	98.88
262.872	83.88
263.105	78.88
263.337	75.88
263.57	85.88
263.802	81.88
264.035	81.88
264.267	78.88
264.499	77.88
264.732	80.88
264.964	84.88
265.197	96.88
265.429	80.88
265.661	87.88
265.894	100.88
266.126	86.88
266.358	85.88
266.591	82.88
266.823	81.88
267.055	76.88
267.287	84.88
267.52	90.88
267.752	74.88
267.984	87.88
268.216	87.88
268.448	72.88
268.681	86.88
268.913	79.88
269.145	77.88
269.377	78.88
269.609	82.88
269.841	67.88
270.073	89.88
270.306	94.88
270.538	89.88
270.77	97.88
271.002	86.88
271.234	83.88
271.466	93.88
271.698	75.88
271.93	77.88
272.162	76.88
272.394	86.88
272.626	75.88
272.858	75.88
273.09	92.88
273.322	76.88
273.553	91.88
273.785	90.88
274.017	95.88
274.249	80.88
274.481	82.88
274.713	76.88
274.945	82.88
275.176	86.88
275.408	81.88
275.64	106.88
275.872	84.88
276.104	97.88
276.335	89.88
276.567	91.88
276.799	92.88
277.031	101.88
277.262	92.88
277.494	101.88
277.726	85.88
277.957	93.88
278.189	108.88
278.421	92.88
278.652	102.88
278.884	92.88
279.115	89.88
279.347	94.88
279.579	94.88
279.81	80.88
280.042	77.88
280.273	85.88
280.505	84.88
280.736	84.88
280.968	91.88
281.199	78.88
281.431	93.88
281.662	93.88
281.894	102.88
282.125	94.88
282.356	101.88
282.588	116.88
282.819	117.88
283.051	95.88
283.282	96.88
283.513	81.88
283.745	75.88
283.976	84.88
284.207	89.88
284.439	88.88
284.67	88.88
284.901	86.88
285.132	95.88
285.364	54.88
285.595	88.88
285.826	67.88
286.057	101.88
286.288	91.88
286.52	77.88
286.751	80.88
286.982	88.88
287.213	93.88
287.444	87.88
287.675	87.88
287.906	87.88
288.138	97.88
288.369	98.88
288.6	85.88
288.831	81.88
289.062	93.88
289.293	82.88
289.524	89.88
289.755	86.88
289.986	80.88
290.217	80.88
290.448	92.88
290.679	85.88
290.91	80.88
291.141	85.88
291.371	86.88
291.602	81.88
291.833	99.88
292.064	95.88
292.295	95.88
292.526	84.88
292.757	88.88
292.987	94.88
293.218	93.88
293.449	90.88
293.68	94.88
293.91	82.88
294.141	76.88
294.372	88.88
294.603	91.88
294.833	93.88
295.064	90.88
295.295	95.88
295.525	95.88
295.756	94.88
295.987	98.88
296.217	143.88
296.448	121.88
296.679	87.88
296.909	82.88
297.14	92.88
297.37	93.88
297.601	92.88
297.831	95.88
298.062	92.88
298.292	88.88
298.523	100.88
298.753	84.88
298.984	89.88
299.214	87.88
299.445	89.88
299.675	86.88
299.905	97.88
300.136	96.88
300.366	76.88
300.597	89.88
300.827	109.88
301.057	97.88
301.288	97.88
301.518	98.88
301.748	93.88
301.979	105.88
302.209	93.88
302.439	78.88
302.669	78.88
302.9	105.88
303.13	100.88
303.36	88.88
303.59	98.88
303.82	116.88
304.051	90.88
304.281	85.88
304.511	89.88
304.741	90.88
304.971	77.88
305.201	83.88
305.431	89.88
305.661	94.88
305.891	101.88
306.121	91.88
306.352	88.88
306.582	105.88
306.812	107.88
307.042	88.88
307.272	86.88
307.502	93.88
307.731	84.88
307.961	96.88
308.191	104.88
308.421	92.88
308.651	92.88
308.881	95.88
309.111	97.88
309.341	85.88
309.571	89.88
309.8	84.88
310.03	104.88
310.26	100.88
310.49	91.88
310.72	98.88
310.949	100.88
311.179	99.88
311.409	99.88
311.639	94.88
311.868	88.88
312.098	94.88
312.328	108.88
312.557	99.88
312.787	109.88
313.017	106.88
313.246	85.88
313.476	93.88
313.706	89.88
313.935	90.88
314.165	101.88
314.394	93.88
314.624	91.88
314.853	97.88
315.083	88.88
315.312	101.88
315.542	101.88
315.771	93.88
316.001	104.88
316.23	94.88
316.46	104.88
316.689	111.88
316.919	95.88
317.148	92.88
317.377	95.88
317.607	89.88
317.836	79.88
318.065	87.88
318.295	85.88
318.524	104.88
318.753	88.88
318.983	83.88
319.212	106.88
319.441	100.88
319.67	89.88
319.9	100.88
320.129	88.88
320.358	96.88
320.587	80.88
320.816	97.88
321.046	113.88
321.275	97.88
321.504	102.88
321.733	89.88
321.962	94.88
322.191	101.88
322.42	108.88
322.649	93.88
322.878	114.88
323.108	98.88
323.337	119.88
323.566	137.88
323.795	150.88
324.024	211.88
324.253	372.88
324.482	796.88
324.71	1651.88
324.939	2110.88
325.168	786.88
325.397	229.88
325.626	148.88
325.855	128.88
326.084	118.88
326.313	138.88
326.542	158.88
326.77	222.88
326.999	443.88
327.228	888.88
327.457	1611.88
327.686	1293.88
327.914	332.88
328.143	180.88
328.372	155.88
328.6	123.88
328.829	113.88
329.058	123.88
329.287	110.88
329.515	122.88
329.744	108.88
329.972	93.88
330.201	81.88
330.43	122.88
330.658	126.88
330.887	139.88
331.115	105.88
331.344	104.88
331.572	84.88
331.801	98.88
332.03	110.88
332.258	96.88
332.486	78.88
332.715	106.88
332.943	93.88
333.172	86.88
333.4	101.88
333.629	92.88
333.857	109.88
334.085	94.88
334.314	80.88
334.542	91.88
334.771	85.88
334.999	90.88
335.227	89.88
335.455	83.88
335.684	79.88
335.912	92.88
336.14	91.88
336.369	92.88
336.597	89.88
336.825	109.88
337.053	84.88
337.281	88.88
337.51	92.88
337.738	93.88
337.966	98.88
338.194	86.88
338.422	93.88
338.65	91.88
338.878	97.88
339.106	105.88
339.334	83.88
339.562	82.88
339.79	91.88
340.018	88.88
340.246	95.88
340.474	94.88
340.702	86.88
340.93	95.88
341.158	104.88
341.386	89.88
341.614	99.88
341.842	95.88
342.07	90.88
342.298	99.88
342.526	107.88
342.754	89.88
342.981	82.88
343.209	82.88
343.437	102.88
343.665	100.88
343.893	98.88
344.12	84.88
344.348	96.88
344.576	97.88
344.804	96.88
345.031	101.88
345.259	97.88
345.487	86.88
345.714	91.88
345.942	85.88
346.17	84.88
346.397	93.88
346.625	82.88
346.853	86.88
347.08	96.88
347.308	102.88
347.535	101.88
347.763	92.88
347.99	102.88
348.218	96.88
348.445	104.88
348.673	99.88
348.9	94.88
349.128	114.88
349.355	82.88
349.583	100.88
349.81	96.88
350.037	95.88
350.265	99.88
350.492	93.88
350.72	105.88
350.947	90.88
351.174	106.88
351.402	94.88
351.629	89.88
351.856	93.88
352.083	91.88
352.311	108.88
352.538	104.88
352.765	117.88
352.992	105.88
353.22	105.88
353.447	106.88
353.674	105.88
353.901	93.88
354.128	88.88
354.355	93.88
354.583	99.88
354.81	110.88
355.037	102.88
355.264	102.88
355.491	81.88
355.718	92.88
355.945	102.88
356.172	92.88
356.399	90.88
356.626	97.88
356.853	97.88
357.08	103.88
357.307	80.88
357.534	97.88
357.761	72.88
357.988	95.88
358.215	89.88
358.441	87.88
358.668	90.88
358.895	87.88
359.122	92.88
359.349	89.88
359.576	83.88
359.802	80.88
360.029	88.88
360.256	102.88
360.483	89.88
360.709	97.88
360.936	100.88
361.163	104.88
361.39	72.88
361.616	79.88
361.843	96.88
362.07	101.88
362.296	89.88
362.523	88.88
362.749	95.88
362.976	90.88
363.203	84.88
363.429	80.88
363.656	85.88
363.882	95.88
364.109	93.88
364.335	92.88
364.562	84.88
364.788	76.88
365.015	86.88
365.241	94.88
365.468	93.88
365.694	107.88
365.92	97.88
366.147	82.88
366.373	87.88
366.599	97.88
366.826	100.88
367.052	94.88
367.278	75.88
367.505	85.88
367.731	108.88
367.957	80.88
368.184	76.88
368.41	95.88
368.636	96.88
368.862	123.88
369.089	118.88
369.315	87.88
369.541	98.88
369.767	91.88
369.993	94.88
370.219	97.88
370.445	84.88
370.672	78.88
370.898	98.88
371.124	86.88
371.35	76.88
371.576	85.88
371.802	91.88
372.028	89.88
372.254	78.88
372.48	88.88
372.706	96.88
372.932	88.88
373.158	71.88
373.384	86.88
373.61	97.88
373.835	90.88
374.061	91.88
374.287	104.88
374.513	93.88
374.739	82.88
374.965	84.88
375.191	96.88
375.416	90.88
375.642	96.88
375.868	97.88
376.094	103.88
376.319	90.88
376.545	101.88
376.771	93.88
376.997	102.88
377.222	96.88
377.448	88.88
377.674	83.88
377.899	89.88
378.125	93.88
378.35	82.88
378.576	82.88
378.802	100.88
379.027	79.88
379.253	90.88
379.478	90.88
379.704	102.88
379.929	95.88
380.155	94.88
380.38	96.88
380.606	95.88
380.831	93.88
381.057	99.88
381.282	88.88
381.507	90.88
381.733	99.88
381.958	96.88
382.184	89.88
382.409	106.88
382.634	94.88
382.86	105.88
383.085	100.88
383.31	96.88
383.535	85.88
383.761	91.88
383.986	114.88
384.211	89.88
384.436	96.88
384.662	86.88
384.887	85.88
385.112	86.88
385.337	108.88
385.562	89.88
385.787	96.88
386.013	115.88
386.238	112.88
386.463	100.88
386.688	99.88
386.913	100.88
387.138	97.88
387.363	107.88
387.588	95.88
387.813	111.88
388.038	97.88
388.263	97.88
388.488	102.88
388.713	111.88
388.938	106.88
389.163	95.88
389.387	93.88
389.612	86.88
389.837	92.88
390.062	97.88
390.287	87.88
390.512	97.88
390.736	88.88
390.961	97.88
391.186	93.88
391.411	107.88
391.636	93.88
391.86	83.88
392.085	96.88
392.31	73.88
392.534	86.88
392.759	91.88
392.984	87.88
393.208	91.88
393.433	85.88
393.658	85.88
393.882	86.88
394.107	94.88
394.331	84.88
394.556	83.88
394.78	86.88
395.005	79.88
395.229	94.88
395.454	87.88
395.678	80.88
395.903	96.88
396.127	95.88
396.352	100.88
396.576	88.88
396.801	87.88
397.025	84.88
397.249	76.88
397.474	97.88
397.698	84.88
397.922	93.88
398.147	76.88
398.371	77.88
398.595	77.88
398.82	68.88
399.044	72.88
399.268	97.88
399.492	90.88
399.717	88.88
399.941	93.88
400.165	98.88
400.389	82.88
400.613	88.88
400.837	78.88
401.062	89.88
401.286	89.88
401.51	69.88
401.734	88.88
401.958	100.88
402.182	113.88
402.406	154.88
402.63	101.88
402.854	74.88
403.078	79.88
403.302	96.88
403.526	89.88
403.75	86.88
403.974	94.88
404.198	89.88
404.422	82.88
404.645	82.88
404.869	91.88
405.093	92.88
405.317	98.88
405.541	94.88
405.765	82.88
405.988	113.88
406.212	173.88
406.436	235.88
406.66	156.88
406.883	124.88
407.107	102.88
407.331	94.88
407.555	109.88
407.778	94.88
408.002	92.88
408.226	95.88
408.449	94.88
408.673	78.88
408.896	83.88
409.12	98.88
409.344	91.88
409.567	83.88
409.791	93.88
410.014	88.88
410.238	89.88
410.461	109.88
410.685	94.88
410.908	90.88
411.132	102.88
411.355	96.88
411.578	100.88
411.802	84.88
412.025	89.88
412.249	96.88
412.472	100.88
412.695	79.88
412.919	88.88
413.142	85.88
413.365	80.88
413.589	90.88
413.812	92.88
414.035	83.88
414.258	84.88
414.482	99.88
414.705	88.88
414.928	93.88
415.151	100.88
415.374	96.88
415.597	83.88
415.821	93.88
416.044	89.88
416.267	94.88
416.49	83.88
416.713	72.88
416.936	112.88
417.159	80.88
417.382	84.88
417.605	92.88
417.828	95.88
418.051	92.88
418.274	88.88
418.497	89.88
418.72	84.88
418.943	88.88
419.166	81.88
419.389	81.88
419.611	93.88
419.834	94.88
420.057	85.88
420.28	91.88
420.503	79.88
420.726	94.88
420.948	104.88
421.171	91.88
421.394	100.88
421.617	88.88
421.839	99.88
422.062	92.88
422.285	91.88
422.507	111.88
422.73	102.88
422.953	89.88
423.175	81.88
423.398	102.88
423.621	73.88
423.843	70.88
424.066	92.88
424.288	91.88
424.511	94.88
424.733	103.88
424.956	101.88
425.178	91.88
425.401	106.88
425.623	103.88
425.846	97.88
426.068	99.88
426.291	89.88
426.513	77.88
426.735	86.88
426.958	84.88
427.18	100.88
427.402	142.88
427.625	164.88
427.847	104.88
428.069	96.88
428.292	84.88
428.514	99.88
428.736	94.88
428.958	92.88
429.181	98.88
429.403	98.88
429.625	82.88
429.847	94.88
430.069	110.88
430.292	77.88
430.514	83.88
430.736	103.88
430.958	89.88
431.18	90.88
431.402	92.88
431.624	78.88
431.846	97.88
432.068	74.88
432.29	85.88
432.512	80.88
432.734	91.88
432.956	100.88
433.178	93.88
433.4	92.88
433.622	99.88
433.844	85.88
434.066	102.88
434.287	91.88
434.509	77.88
434.731	98.88
434.953	106.88
435.175	98.88
435.397	91.88
435.618	106.88
435.84	100.88
436.062	129.88
436.284	104.88
436.505	99.88
436.727	96.88
436.949	96.88
437.17	95.88
437.392	78.88
437.614	97.88
437.835	106.88
438.057	129.88
438.278	100.88
438.5	94.88
438.721	125.88
438.943	100.88
439.165	93.88
439.386	92.88
439.608	91.88
439.829	89.88
440.05	116.88
440.272	125.88
440.493	102.88
440.715	83.88
440.936	89.88
441.158	76.88
441.379	90.88
441.6	90.88
441.822	90.88
442.043	89.88
442.264	96.88
442.486	96.88
442.707	82.88
442.928	105.88
443.149	115.88
443.371	125.88
443.592	104.88
443.813	102.88
444.034	111.88
444.255	101.88
444.476	91.88
444.698	87.88
444.919	96.88
445.14	136.88
445.361	106.88
445.582	120.88
445.803	123.88
446.024	123.88
446.245	135.88
446.466	125.88
446.687	96.88
446.908	85.88
447.129	91.88
447.35	78.88
447.571	103.88
447.792	92.88
448.013	97.88
448.234	101.88
448.455	91.88
448.675	119.88
448.896	112.88
449.117	98.88
449.338	112.88
449.559	125.88
449.779	148.88
450	105.88
450.221	80.88
450.442	98.88
450.662	87.88
450.883	102.88
451.104	102.88
451.324	92.88
451.545	85.88
451.766	91.88
451.986	82.88
452.207	93.88
452.428	77.88
452.648	107.88
452.869	101.88
453.089	99.88
453.31	110.88
453.53	92.88
453.751	78.88
453.971	113.88
454.192	100.88
454.412	87.88
454.633	76.88
454.853	94.88
455.073	91.88
455.294	92.88
455.514	100.88
455.734	96.88
455.955	82.88
456.175	84.88
456.395	93.88
456.616	86.88
456.836	86.88
457.056	67.88
457.276	80.88
457.497	78.88
457.717	85.88
457.937	94.88
458.157	98.88
458.377	93.88
458.598	105.88
458.818	139.88
459.038	149.88
459.258	120.88
459.478	86.88
459.698	77.88
459.918	67.88
460.138	74.88
460.358	93.88
460.578	78.88
460.798	88.88
461.018	97.88
461.238	81.88
461.458	88.88
461.678	81.88
461.898	76.88
462.118	94.88
462.338	73.88
462.558	74.88
462.777	84.88
462.997	78.88
463.217	81.88
463.437	78.88
463.657	93.88
463.876	89.88
464.096	93.88
464.316	102.88
464.536	105.88
464.755	94.88
464.975	104.88
465.195	168.88
465.414	160.88
465.634	103.88
465.854	74.88
466.073	100.88
466.293	96.88
466.512	94.88
466.732	100.88
466.951	89.88
467.171	86.88
467.391	102.88
467.61	108.88
467.829	94.88
468.049	77.88
468.268	97.88
468.488	85.88
468.707	96.88
468.927	90.88
469.146	80.88
469.365	81.88
469.585	75.88
469.804	80.88
470.023	97.88
470.243	94.88
470.462	101.88
470.681	96.88
470.901	99.88
471.12	92.88
471.339	69.88
471.558	83.88
471.777	84.88
471.997	86.88
472.216	81.88
472.435	93.88
472.654	95.88
472.873	91.88
473.092	87.88
473.311	101.88
473.53	83.88
473.749	82.88
473.968	90.88
474.187	110.88
474.406	92.88
474.625	78.88
474.844	88.88
475.063	92.88
475.282	97.88
475.501	82.88
475.72	82.88
475.939	76.88
476.158	84.88
476.377	81.88
476.596	91.88
476.814	87.88
477.033	98.88
477.252	88.88
477.471	94.88
477.69	86.88
477.908	90.88
478.127	83.88
478.346	86.88
478.564	88.88
478.783	101.88
479.002	84.88
479.22	106.88
479.439	94.88
479.658	99.88
479.876	90.88
480.095	91.88
480.313	105.88
480.532	98.88
480.751	101.88
480.969	85.88
481.188	96.88
481.406	95.88
481.624	78.88
481.843	82.88
482.061	79.88
482.28	83.88
482.498	74.88
482.717	81.88
482.935	86.88
483.153	86.88
483.372	99.88
483.59	94.88
483.808	85.88
484.027	92.88
484.245	85.88
484.463	90.88
484.681	89.88
484.9	101.88
485.118	90.88
485.336	97.88
485.554	82.88
485.772	100.88
485.99	108.88
486.209	79.88
486.427	99.88
486.645	100.88
486.863	100.88
487.081	101.88
487.299	89.88
487.517	100.88
487.735	90.88
487.953	94.88
488.171	103.88
488.389	108.88
488.607	105.88
488.825	87.88
489.043	93.88
489.261	91.88
489.479	76.88
489.696	84.88
489.914	93.88
490.132	96.88
490.35	90.88
490.568	82.88
490.786	86.88
491.003	85.88
491.221	96.88
491.439	92.88
491.657	87.88
491.874	95.88
492.092	89.88
492.31	85.88
492.527	89.88
492.745	92.88
492.963	92.88
493.18	91.88
493.398	86.88
493.615	86.88
493.833	93.88
494.05	81.88
494.268	89.88
494.485	93.88
494.703	100.88
494.92	104.88
495.138	85.88
495.355	87.88
495.573	82.88
495.79	82.88
496.008	85.88
496.225	83.88
496.442	91.88
496.66	98.88
496.877	89.88
497.094	95.88
497.312	86.88
497.529	78.88
497.746	97.88
497.963	105.88
498.181	98.88
498.398	110.88
498.615	99.88
498.832	109.88
499.049	98.88
499.267	92.88
499.484	93.88
499.701	92.88
499.918	84.88
500.135	93.88
500.352	98.88
500.569	77.88
500.786	89.88
501.003	86.88
501.22	88.88
501.437	95.88
501.654	91.88
501.871	101.88
502.088	107.88
502.305	91.88
502.522	78.88
502.739	76.88
502.956	89.88
503.172	88.88
503.389	96.88
503.606	90.88
503.823	94.88
504.04	100.88
504.256	97.88
504.473	85.88
504.69	87.88
504.907	91.88
505.123	78.88
505.34	77.88
505.557	84.88
505.773	113.88
505.99	94.88
506.207	99.88
506.423	94.88
506.64	94.88
506.856	83.88
507.073	93.88
507.289	98.88
507.506	105.88
507.722	106.88
507.939	108.88
508.155	104.88
508.372	93.88
508.588	97.88
508.805	96.88
509.021	88.88
509.238	100.88
509.454	106.88
509.67	110.88
509.887	100.88
510.103	123.88
510.319	202.88
510.536	771.88
510.752	2360.88
510.968	621.88
511.184	138.88
511.401	110.88
511.617	101.88
511.833	87.88
512.049	98.88
512.265	84.88
512.481	102.88
512.698	85.88
512.914	98.88
513.13	79.88
513.346	83.88
513.562	107.88
513.778	91.88
513.994	103.88
514.21	105.88
514.426	116.88
514.642	127.88
514.858	129.88
515.074	164.88
515.29	456.88
515.506	1428.88
515.721	507.88
515.937	143.88
