Data from Uncirc_1994_H10_HRD10591_00048.txt Node
Date: Wed Jan 03 11:39:30 EST 2024
User: Yrep
Spectrometer: HR+D1059
Trigger mode: 1
Integration Time (sec): 1.000000E-1
Scans to average: 1
Electric dark correction enabled: true
Nonlinearity correction enabled: false
Boxcar width: 0
XAxis mode: Wavelengths
Number of Pixels in Spectrum: 2048
>>>>>Begin Spectral Data<<<<<
223.165	-18.75
223.4	-18.75
223.635	-18.75
223.869	-19.75
224.104	-20.75
224.338	-10.75
224.573	-6.75
224.808	3.25
225.042	-11.75
225.277	-12.75
225.511	-10.75
225.746	2.25
225.98	9.25
226.215	24.25
226.449	4.25
226.683	18.25
226.918	23.25
227.152	27.25
227.387	36.25
227.621	39.25
227.856	46.25
228.09	41.25
228.324	38.25
228.559	58.25
228.793	58.25
229.027	73.25
229.262	66.25
229.496	86.25
229.73	79.25
229.964	91.25
230.199	79.25
230.433	69.25
230.667	74.25
230.901	93.25
231.136	79.25
231.37	82.25
231.604	92.25
231.838	80.25
232.072	75.25
232.306	83.25
232.541	96.25
232.775	81.25
233.009	83.25
233.243	63.25
233.477	84.25
233.711	75.25
233.945	82.25
234.179	80.25
234.413	85.25
234.647	71.25
234.881	96.25
235.115	78.25
235.349	85.25
235.583	76.25
235.817	94.25
236.051	80.25
236.285	78.25
236.519	79.25
236.753	77.25
236.987	75.25
237.221	89.25
237.455	83.25
237.689	71.25
237.922	85.25
238.156	75.25
238.39	71.25
238.624	59.25
238.858	76.25
239.091	76.25
239.325	83.25
239.559	77.25
239.793	65.25
240.027	85.25
240.26	82.25
240.494	82.25
240.728	74.25
240.961	86.25
241.195	61.25
241.429	81.25
241.662	77.25
241.896	80.25
242.13	77.25
242.363	72.25
242.597	86.25
242.83	74.25
243.064	79.25
243.298	74.25
243.531	74.25
243.765	83.25
243.998	77.25
244.232	73.25
244.465	78.25
244.699	77.25
244.932	67.25
245.166	94.25
245.399	81.25
245.633	78.25
245.866	91.25
246.099	87.25
246.333	80.25
246.566	75.25
246.8	76.25
247.033	68.25
247.266	87.25
247.5	79.25
247.733	74.25
247.966	85.25
248.2	77.25
248.433	61.25
248.666	77.25
248.899	91.25
249.133	76.25
249.366	107.25
249.599	93.25
249.832	82.25
250.066	85.25
250.299	85.25
250.532	86.25
250.765	75.25
250.998	66.25
251.231	73.25
251.465	90.25
251.698	82.25
251.931	74.25
252.164	79.25
252.397	79.25
252.63	84.25
252.863	84.25
253.096	77.25
253.329	83.25
253.562	73.25
253.795	80.25
254.028	71.25
254.261	76.25
254.494	79.25
254.727	85.25
254.96	88.25
255.193	77.25
255.426	81.25
255.659	80.25
255.892	81.25
256.124	92.25
256.357	96.25
256.59	89.25
256.823	86.25
257.056	80.25
257.289	78.25
257.521	69.25
257.754	87.25
257.987	93.25
258.22	65.25
258.452	84.25
258.685	84.25
258.918	95.25
259.151	83.25
259.383	77.25
259.616	85.25
259.849	93.25
260.081	79.25
260.314	83.25
260.547	88.25
260.779	84.25
261.012	85.25
261.244	87.25
261.477	77.25
261.71	93.25
261.942	107.25
262.175	109.25
262.407	88.25
262.64	77.25
262.872	86.25
263.105	91.25
263.337	85.25
263.57	68.25
263.802	76.25
264.035	91.25
264.267	91.25
264.499	89.25
264.732	84.25
264.964	87.25
265.197	83.25
265.429	77.25
265.661	89.25
265.894	90.25
266.126	79.25
266.358	81.25
266.591	96.25
266.823	82.25
267.055	82.25
267.287	92.25
267.52	77.25
267.752	83.25
267.984	92.25
268.216	83.25
268.448	86.25
268.681	82.25
268.913	97.25
269.145	92.25
269.377	77.25
269.609	83.25
269.841	105.25
270.073	78.25
270.306	77.25
270.538	100.25
270.77	73.25
271.002	84.25
271.234	103.25
271.466	89.25
271.698	82.25
271.93	83.25
272.162	98.25
272.394	88.25
272.626	79.25
272.858	75.25
273.09	89.25
273.322	96.25
273.553	82.25
273.785	84.25
274.017	92.25
274.249	82.25
274.481	79.25
274.713	90.25
274.945	83.25
275.176	65.25
275.408	75.25
275.64	82.25
275.872	99.25
276.104	88.25
276.335	84.25
276.567	98.25
276.799	101.25
277.031	91.25
277.262	83.25
277.494	101.25
277.726	69.25
277.957	97.25
278.189	85.25
278.421	89.25
278.652	92.25
278.884	77.25
279.115	81.25
279.347	95.25
279.579	99.25
279.81	81.25
280.042	91.25
280.273	80.25
280.505	84.25
280.736	88.25
280.968	86.25
281.199	87.25
281.431	81.25
281.662	93.25
281.894	79.25
282.125	98.25
282.356	99.25
282.588	123.25
282.819	105.25
283.051	84.25
283.282	90.25
283.513	89.25
283.745	79.25
283.976	85.25
284.207	89.25
284.439	83.25
284.67	105.25
284.901	89.25
285.132	87.25
285.364	96.25
285.595	79.25
285.826	94.25
286.057	83.25
286.288	75.25
286.52	79.25
286.751	90.25
286.982	86.25
287.213	84.25
287.444	81.25
287.675	89.25
287.906	102.25
288.138	105.25
288.369	80.25
288.6	104.25
288.831	84.25
289.062	90.25
289.293	85.25
289.524	87.25
289.755	90.25
289.986	80.25
290.217	62.25
290.448	91.25
290.679	78.25
290.91	89.25
291.141	69.25
291.371	83.25
291.602	95.25
291.833	88.25
292.064	95.25
292.295	84.25
292.526	79.25
292.757	85.25
292.987	94.25
293.218	81.25
293.449	73.25
293.68	91.25
293.91	102.25
294.141	91.25
294.372	91.25
294.603	82.25
294.833	84.25
295.064	79.25
295.295	93.25
295.525	89.25
295.756	94.25
295.987	123.25
296.217	138.25
296.448	113.25
296.679	94.25
296.909	79.25
297.14	89.25
297.37	100.25
297.601	93.25
297.831	79.25
298.062	88.25
298.292	100.25
298.523	103.25
298.753	81.25
298.984	96.25
299.214	89.25
299.445	85.25
299.675	81.25
299.905	106.25
300.136	109.25
300.366	90.25
300.597	89.25
300.827	87.25
301.057	96.25
301.288	91.25
301.518	95.25
301.748	83.25
301.979	96.25
302.209	93.25
302.439	94.25
302.669	84.25
302.9	90.25
303.13	79.25
303.36	80.25
303.59	92.25
303.82	86.25
304.051	84.25
304.281	87.25
304.511	91.25
304.741	91.25
304.971	94.25
305.201	87.25
305.431	90.25
305.661	85.25
305.891	91.25
306.121	91.25
306.352	92.25
306.582	110.25
306.812	85.25
307.042	103.25
307.272	92.25
307.502	87.25
307.731	92.25
307.961	93.25
308.191	88.25
308.421	95.25
308.651	81.25
308.881	101.25
309.111	94.25
309.341	91.25
309.571	103.25
309.8	103.25
310.03	98.25
310.26	97.25
310.49	106.25
310.72	98.25
310.949	101.25
311.179	91.25
311.409	86.25
311.639	94.25
311.868	105.25
312.098	85.25
312.328	96.25
312.557	104.25
312.787	105.25
313.017	102.25
313.246	93.25
313.476	94.25
313.706	81.25
313.935	86.25
314.165	100.25
314.394	104.25
314.624	89.25
314.853	112.25
315.083	88.25
315.312	87.25
315.542	95.25
315.771	86.25
316.001	88.25
316.23	92.25
316.46	86.25
316.689	96.25
316.919	87.25
317.148	87.25
317.377	99.25
317.607	98.25
317.836	82.25
318.065	80.25
318.295	83.25
318.524	95.25
318.753	87.25
318.983	89.25
319.212	107.25
319.441	104.25
319.67	96.25
319.9	101.25
320.129	89.25
320.358	103.25
320.587	96.25
320.816	106.25
321.046	98.25
321.275	87.25
321.504	84.25
321.733	99.25
321.962	98.25
322.191	114.25
322.42	96.25
322.649	99.25
322.878	109.25
323.108	125.25
323.337	119.25
323.566	126.25
323.795	165.25
324.024	199.25
324.253	394.25
324.482	769.25
324.71	1636.25
324.939	2134.25
325.168	788.25
325.397	248.25
325.626	142.25
325.855	130.25
326.084	118.25
326.313	135.25
326.542	155.25
326.77	228.25
326.999	455.25
327.228	921.25
327.457	1632.25
327.686	1288.25
327.914	362.25
328.143	175.25
328.372	142.25
328.6	120.25
328.829	123.25
329.058	128.25
329.287	111.25
329.515	98.25
329.744	96.25
329.972	86.25
330.201	94.25
330.43	109.25
330.658	114.25
330.887	143.25
331.115	140.25
331.344	105.25
331.572	97.25
331.801	86.25
332.03	104.25
332.258	109.25
332.486	92.25
332.715	92.25
332.943	95.25
333.172	88.25
333.4	91.25
333.629	100.25
333.857	108.25
334.085	104.25
334.314	99.25
334.542	93.25
334.771	93.25
334.999	92.25
335.227	93.25
335.455	86.25
335.684	95.25
335.912	95.25
336.14	94.25
336.369	95.25
336.597	90.25
336.825	83.25
337.053	91.25
337.281	87.25
337.51	77.25
337.738	88.25
337.966	79.25
338.194	96.25
338.422	96.25
338.65	93.25
338.878	77.25
339.106	83.25
339.334	90.25
339.562	73.25
339.79	107.25
340.018	97.25
340.246	100.25
340.474	91.25
340.702	87.25
340.93	91.25
341.158	96.25
341.386	108.25
341.614	87.25
341.842	92.25
342.07	97.25
342.298	95.25
342.526	85.25
342.754	91.25
342.981	83.25
343.209	95.25
343.437	84.25
343.665	85.25
343.893	101.25
344.12	83.25
344.348	101.25
344.576	85.25
344.804	103.25
345.031	108.25
345.259	105.25
345.487	98.25
345.714	89.25
345.942	86.25
346.17	96.25
346.397	87.25
346.625	87.25
346.853	87.25
347.08	88.25
347.308	95.25
347.535	81.25
347.763	79.25
347.99	97.25
348.218	98.25
348.445	97.25
348.673	107.25
348.9	94.25
349.128	75.25
349.355	83.25
349.583	97.25
349.81	94.25
350.037	81.25
350.265	98.25
350.492	95.25
350.72	99.25
350.947	115.25
351.174	98.25
351.402	94.25
351.629	95.25
351.856	104.25
352.083	99.25
352.311	101.25
352.538	105.25
352.765	114.25
352.992	125.25
353.22	115.25
353.447	93.25
353.674	101.25
353.901	107.25
354.128	79.25
354.355	78.25
354.583	105.25
354.81	79.25
355.037	89.25
355.264	93.25
355.491	95.25
355.718	98.25
355.945	111.25
356.172	97.25
356.399	98.25
356.626	93.25
356.853	91.25
357.08	81.25
357.307	89.25
357.534	84.25
357.761	96.25
357.988	95.25
358.215	95.25
358.441	106.25
358.668	99.25
358.895	95.25
359.122	90.25
359.349	84.25
359.576	96.25
359.802	92.25
360.029	108.25
360.256	112.25
360.483	104.25
360.709	80.25
360.936	87.25
361.163	93.25
361.39	101.25
361.616	95.25
361.843	92.25
362.07	101.25
362.296	104.25
362.523	91.25
362.749	92.25
362.976	91.25
363.203	102.25
363.429	85.25
363.656	91.25
363.882	98.25
364.109	87.25
364.335	95.25
364.562	91.25
364.788	100.25
365.015	105.25
365.241	100.25
365.468	116.25
365.694	106.25
365.92	87.25
366.147	84.25
366.373	112.25
366.599	99.25
366.826	114.25
367.052	96.25
367.278	76.25
367.505	85.25
367.731	94.25
367.957	86.25
368.184	86.25
368.41	101.25
368.636	99.25
368.862	108.25
369.089	99.25
369.315	84.25
369.541	100.25
369.767	91.25
369.993	92.25
370.219	88.25
370.445	86.25
370.672	78.25
370.898	82.25
371.124	92.25
371.35	68.25
371.576	89.25
371.802	86.25
372.028	97.25
372.254	87.25
372.48	99.25
372.706	90.25
372.932	90.25
373.158	101.25
373.384	95.25
373.61	85.25
373.835	85.25
374.061	96.25
374.287	91.25
374.513	87.25
374.739	109.25
374.965	75.25
375.191	96.25
375.416	76.25
375.642	77.25
375.868	99.25
376.094	85.25
376.319	95.25
376.545	91.25
376.771	108.25
376.997	88.25
377.222	83.25
377.448	84.25
377.674	89.25
377.899	95.25
378.125	119.25
378.35	73.25
378.576	91.25
378.802	81.25
379.027	108.25
379.253	90.25
379.478	66.25
379.704	70.25
379.929	80.25
380.155	87.25
380.38	90.25
380.606	109.25
380.831	87.25
381.057	93.25
381.282	90.25
381.507	91.25
381.733	95.25
381.958	109.25
382.184	113.25
382.409	95.25
382.634	101.25
382.86	105.25
383.085	93.25
383.31	94.25
383.535	80.25
383.761	93.25
383.986	96.25
384.211	101.25
384.436	105.25
384.662	105.25
384.887	101.25
385.112	113.25
385.337	102.25
385.562	91.25
385.787	99.25
386.013	113.25
386.238	120.25
386.463	98.25
386.688	103.25
386.913	97.25
387.138	90.25
387.363	101.25
387.588	104.25
387.813	103.25
388.038	95.25
388.263	112.25
388.488	119.25
388.713	104.25
388.938	96.25
389.163	98.25
389.387	91.25
389.612	97.25
389.837	90.25
390.062	84.25
390.287	93.25
390.512	87.25
390.736	75.25
390.961	83.25
391.186	90.25
391.411	89.25
391.636	89.25
391.86	76.25
392.085	88.25
392.31	89.25
392.534	83.25
392.759	75.25
392.984	82.25
393.208	80.25
393.433	80.25
393.658	89.25
393.882	90.25
394.107	74.25
394.331	81.25
394.556	89.25
394.78	94.25
395.005	85.25
395.229	65.25
395.454	85.25
395.678	85.25
395.903	89.25
396.127	78.25
396.352	82.25
396.576	71.25
396.801	93.25
397.025	93.25
397.249	106.25
397.474	91.25
397.698	91.25
397.922	91.25
398.147	72.25
398.371	95.25
398.595	96.25
398.82	88.25
399.044	86.25
399.268	85.25
399.492	84.25
399.717	93.25
399.941	100.25
400.165	87.25
400.389	91.25
400.613	103.25
400.837	97.25
401.062	91.25
401.286	90.25
401.51	97.25
401.734	98.25
401.958	96.25
402.182	130.25
402.406	135.25
402.63	105.25
402.854	88.25
403.078	72.25
403.302	83.25
403.526	79.25
403.75	90.25
403.974	90.25
404.198	89.25
404.422	80.25
404.645	75.25
404.869	72.25
405.093	101.25
405.317	109.25
405.541	98.25
405.765	95.25
405.988	121.25
406.212	164.25
406.436	237.25
406.66	161.25
406.883	104.25
407.107	92.25
407.331	104.25
407.555	100.25
407.778	93.25
408.002	91.25
408.226	81.25
408.449	81.25
408.673	84.25
408.896	91.25
409.12	94.25
409.344	96.25
409.567	96.25
409.791	98.25
410.014	109.25
410.238	100.25
410.461	84.25
410.685	101.25
410.908	92.25
411.132	91.25
411.355	99.25
411.578	85.25
411.802	76.25
412.025	87.25
412.249	95.25
412.472	88.25
412.695	96.25
412.919	98.25
413.142	73.25
413.365	94.25
413.589	84.25
413.812	83.25
414.035	86.25
414.258	91.25
414.482	92.25
414.705	90.25
414.928	87.25
415.151	91.25
415.374	88.25
415.597	95.25
415.821	100.25
416.044	85.25
416.267	90.25
416.49	76.25
416.713	83.25
416.936	81.25
417.159	88.25
417.382	87.25
417.605	93.25
417.828	99.25
418.051	90.25
418.274	84.25
418.497	86.25
418.72	88.25
418.943	94.25
419.166	102.25
419.389	101.25
419.611	80.25
419.834	92.25
420.057	88.25
420.28	83.25
420.503	94.25
420.726	71.25
420.948	87.25
421.171	96.25
421.394	86.25
421.617	92.25
421.839	93.25
422.062	85.25
422.285	85.25
422.507	89.25
422.73	100.25
422.953	87.25
423.175	92.25
423.398	78.25
423.621	83.25
423.843	89.25
424.066	83.25
424.288	81.25
424.511	101.25
424.733	76.25
424.956	109.25
425.178	98.25
425.401	104.25
425.623	95.25
425.846	93.25
426.068	93.25
426.291	99.25
426.513	87.25
426.735	98.25
426.958	76.25
427.18	90.25
427.402	136.25
427.625	174.25
427.847	112.25
428.069	95.25
428.292	93.25
428.514	102.25
428.736	79.25
428.958	100.25
429.181	93.25
429.403	79.25
429.625	91.25
429.847	96.25
430.069	97.25
430.292	91.25
430.514	87.25
430.736	79.25
430.958	99.25
431.18	72.25
431.402	88.25
431.624	90.25
431.846	85.25
432.068	83.25
432.29	87.25
432.512	97.25
432.734	86.25
432.956	95.25
433.178	95.25
433.4	100.25
433.622	90.25
433.844	98.25
434.066	79.25
434.287	81.25
434.509	78.25
434.731	98.25
434.953	89.25
435.175	90.25
435.397	94.25
435.618	94.25
435.84	96.25
436.062	119.25
436.284	116.25
436.505	99.25
436.727	108.25
436.949	96.25
437.17	91.25
437.392	92.25
437.614	100.25
437.835	104.25
438.057	107.25
438.278	90.25
438.5	116.25
438.721	125.25
438.943	100.25
439.165	91.25
439.386	90.25
439.608	77.25
439.829	98.25
440.05	137.25
440.272	142.25
440.493	99.25
440.715	83.25
440.936	93.25
441.158	101.25
441.379	81.25
441.6	81.25
441.822	91.25
442.043	87.25
442.264	99.25
442.486	99.25
442.707	91.25
442.928	97.25
443.149	119.25
443.371	135.25
443.592	93.25
443.813	106.25
444.034	97.25
444.255	80.25
444.476	92.25
444.698	83.25
444.919	96.25
445.14	142.25
445.361	110.25
445.582	123.25
445.803	123.25
446.024	144.25
446.245	138.25
446.466	109.25
446.687	92.25
446.908	84.25
447.129	96.25
447.35	88.25
447.571	77.25
447.792	95.25
448.013	93.25
448.234	108.25
448.455	87.25
448.675	116.25
448.896	116.25
449.117	109.25
449.338	106.25
449.559	125.25
449.779	141.25
450	89.25
450.221	95.25
450.442	84.25
450.662	94.25
450.883	104.25
451.104	96.25
451.324	87.25
451.545	101.25
451.766	80.25
451.986	79.25
452.207	84.25
452.428	85.25
452.648	101.25
452.869	92.25
453.089	103.25
453.31	121.25
453.53	91.25
453.751	100.25
453.971	104.25
454.192	106.25
454.412	98.25
454.633	102.25
454.853	87.25
455.073	82.25
455.294	90.25
455.514	104.25
455.734	85.25
455.955	96.25
456.175	82.25
456.395	87.25
456.616	93.25
456.836	87.25
457.056	85.25
457.276	90.25
457.497	85.25
457.717	88.25
457.937	81.25
458.157	85.25
458.377	88.25
458.598	125.25
458.818	146.25
459.038	149.25
459.258	108.25
459.478	98.25
459.698	79.25
459.918	89.25
460.138	77.25
460.358	82.25
460.578	89.25
460.798	75.25
461.018	77.25
461.238	91.25
461.458	97.25
461.678	84.25
461.898	81.25
462.118	87.25
462.338	81.25
462.558	96.25
462.777	79.25
462.997	87.25
463.217	90.25
463.437	94.25
463.657	92.25
463.876	79.25
464.096	96.25
464.316	95.25
464.536	89.25
464.755	95.25
464.975	119.25
465.195	153.25
465.414	144.25
465.634	99.25
465.854	75.25
466.073	90.25
466.293	84.25
466.512	109.25
466.732	85.25
466.951	81.25
467.171	95.25
467.391	100.25
467.61	92.25
467.829	85.25
468.049	88.25
468.268	81.25
468.488	75.25
468.707	74.25
468.927	78.25
469.146	76.25
469.365	72.25
469.585	97.25
469.804	95.25
470.023	94.25
470.243	81.25
470.462	103.25
470.681	97.25
470.901	94.25
471.12	85.25
471.339	86.25
471.558	83.25
471.777	82.25
471.997	87.25
472.216	99.25
472.435	79.25
472.654	89.25
472.873	95.25
473.092	90.25
473.311	85.25
473.53	77.25
473.749	88.25
473.968	88.25
474.187	99.25
474.406	91.25
474.625	70.25
474.844	87.25
475.063	78.25
475.282	90.25
475.501	92.25
475.72	81.25
475.939	87.25
476.158	89.25
476.377	86.25
476.596	76.25
476.814	85.25
477.033	91.25
477.252	88.25
477.471	86.25
477.69	85.25
477.908	78.25
478.127	88.25
478.346	74.25
478.564	80.25
478.783	91.25
479.002	97.25
479.22	94.25
479.439	96.25
479.658	97.25
479.876	104.25
480.095	94.25
480.313	90.25
480.532	97.25
480.751	101.25
480.969	93.25
481.188	80.25
481.406	93.25
481.624	89.25
481.843	95.25
482.061	92.25
482.28	92.25
482.498	87.25
482.717	89.25
482.935	84.25
483.153	91.25
483.372	89.25
483.59	99.25
483.808	81.25
484.027	87.25
484.245	94.25
484.463	93.25
484.681	104.25
484.9	97.25
485.118	86.25
485.336	95.25
485.554	88.25
485.772	98.25
485.99	102.25
486.209	104.25
486.427	95.25
486.645	104.25
486.863	109.25
487.081	108.25
487.299	90.25
487.517	91.25
487.735	89.25
487.953	87.25
488.171	102.25
488.389	100.25
488.607	89.25
488.825	98.25
489.043	88.25
489.261	99.25
489.479	88.25
489.696	82.25
489.914	89.25
490.132	82.25
490.35	88.25
490.568	82.25
490.786	91.25
491.003	91.25
491.221	104.25
491.439	94.25
491.657	102.25
491.874	76.25
492.092	81.25
492.31	100.25
492.527	85.25
492.745	90.25
492.963	98.25
493.18	104.25
493.398	97.25
493.615	87.25
493.833	82.25
494.05	76.25
494.268	73.25
494.485	91.25
494.703	99.25
494.92	96.25
495.138	75.25
495.355	84.25
495.573	91.25
495.79	90.25
496.008	90.25
496.225	80.25
496.442	96.25
496.66	94.25
496.877	94.25
497.094	87.25
497.312	89.25
497.529	86.25
497.746	90.25
497.963	85.25
498.181	104.25
498.398	91.25
498.615	117.25
498.832	96.25
499.049	84.25
499.267	88.25
499.484	83.25
499.701	109.25
499.918	97.25
500.135	90.25
500.352	91.25
500.569	90.25
500.786	94.25
501.003	100.25
501.22	98.25
501.437	87.25
501.654	86.25
501.871	105.25
502.088	94.25
502.305	95.25
502.522	97.25
502.739	87.25
502.956	82.25
503.172	99.25
503.389	96.25
503.606	93.25
503.823	85.25
504.04	94.25
504.256	85.25
504.473	82.25
504.69	86.25
504.907	98.25
505.123	92.25
505.34	92.25
505.557	83.25
505.773	82.25
505.99	95.25
506.207	82.25
506.423	89.25
506.64	89.25
506.856	88.25
507.073	96.25
507.289	93.25
507.506	99.25
507.722	106.25
507.939	106.25
508.155	79.25
508.372	84.25
508.588	88.25
508.805	98.25
509.021	91.25
509.238	101.25
509.454	101.25
509.67	91.25
509.887	108.25
510.103	138.25
510.319	227.25
510.536	785.25
510.752	2403.25
510.968	652.25
511.184	150.25
511.401	113.25
511.617	100.25
511.833	112.25
512.049	90.25
512.265	90.25
512.481	82.25
512.698	87.25
512.914	91.25
513.13	83.25
513.346	99.25
513.562	96.25
513.778	99.25
513.994	107.25
514.21	109.25
514.426	115.25
514.642	111.25
514.858	127.25
515.074	165.25
515.29	467.25
515.506	1471.25
515.721	527.25
515.937	155.25
516.153	116.25
