Data from Uncirc_1994_H10_HRD10591_00025.txt Node
Date: Wed Jan 03 11:39:25 EST 2024
User: Yrep
Spectrometer: HR+D1059
Trigger mode: 1
Integration Time (sec): 1.000000E-1
Scans to average: 1
Electric dark correction enabled: true
Nonlinearity correction enabled: false
Boxcar width: 0
XAxis mode: Wavelengths
Number of Pixels in Spectrum: 2048
>>>>>Begin Spectral Data<<<<<
223.165	-22.88
223.4	-22.88
223.635	-22.88
223.869	-10.88
224.104	-19.88
224.338	-16.88
224.573	-22.88
224.808	-30.88
225.042	-13.88
225.277	-9.88
225.511	10.12
225.746	-2.88
225.98	0.12
226.215	17.12
226.449	26.12
226.683	34.12
226.918	20.12
227.152	43.12
227.387	25.12
227.621	32.12
227.856	38.12
228.09	50.12
228.324	52.12
228.559	42.12
228.793	48.12
229.027	72.12
229.262	72.12
229.496	80.12
229.73	90.12
229.964	83.12
230.199	79.12
230.433	85.12
230.667	86.12
230.901	76.12
231.136	84.12
231.37	83.12
231.604	79.12
231.838	71.12
232.072	74.12
232.306	80.12
232.541	104.12
232.775	69.12
233.009	66.12
233.243	91.12
233.477	89.12
233.711	75.12
233.945	88.12
234.179	82.12
234.413	74.12
234.647	78.12
234.881	86.12
235.115	89.12
235.349	87.12
235.583	83.12
235.817	78.12
236.051	86.12
236.285	78.12
236.519	76.12
236.753	90.12
236.987	78.12
237.221	86.12
237.455	88.12
237.689	72.12
237.922	80.12
238.156	84.12
238.39	75.12
238.624	71.12
238.858	78.12
239.091	92.12
239.325	92.12
239.559	84.12
239.793	101.12
240.027	89.12
240.26	78.12
240.494	80.12
240.728	80.12
240.961	88.12
241.195	81.12
241.429	94.12
241.662	82.12
241.896	71.12
242.13	98.12
242.363	81.12
242.597	70.12
242.83	95.12
243.064	82.12
243.298	96.12
243.531	85.12
243.765	81.12
243.998	83.12
244.232	76.12
244.465	71.12
244.699	83.12
244.932	83.12
245.166	85.12
245.399	93.12
245.633	82.12
245.866	76.12
246.099	80.12
246.333	90.12
246.566	88.12
246.8	80.12
247.033	92.12
247.266	93.12
247.5	87.12
247.733	96.12
247.966	95.12
248.2	80.12
248.433	93.12
248.666	71.12
248.899	90.12
249.133	94.12
249.366	95.12
249.599	89.12
249.832	94.12
250.066	96.12
250.299	83.12
250.532	94.12
250.765	83.12
250.998	94.12
251.231	94.12
251.465	82.12
251.698	87.12
251.931	80.12
252.164	72.12
252.397	81.12
252.63	96.12
252.863	80.12
253.096	95.12
253.329	94.12
253.562	82.12
253.795	81.12
254.028	80.12
254.261	89.12
254.494	90.12
254.727	87.12
254.96	82.12
255.193	84.12
255.426	95.12
255.659	95.12
255.892	104.12
256.124	85.12
256.357	83.12
256.59	85.12
256.823	85.12
257.056	103.12
257.289	83.12
257.521	95.12
257.754	87.12
257.987	83.12
258.22	82.12
258.452	90.12
258.685	87.12
258.918	85.12
259.151	76.12
259.383	98.12
259.616	78.12
259.849	96.12
260.081	94.12
260.314	94.12
260.547	79.12
260.779	82.12
261.012	87.12
261.244	83.12
261.477	92.12
261.71	96.12
261.942	116.12
262.175	124.12
262.407	87.12
262.64	82.12
262.872	86.12
263.105	97.12
263.337	97.12
263.57	86.12
263.802	97.12
264.035	99.12
264.267	92.12
264.499	87.12
264.732	92.12
264.964	70.12
265.197	87.12
265.429	90.12
265.661	110.12
265.894	97.12
266.126	94.12
266.358	90.12
266.591	79.12
266.823	80.12
267.055	100.12
267.287	96.12
267.52	75.12
267.752	80.12
267.984	94.12
268.216	77.12
268.448	98.12
268.681	94.12
268.913	100.12
269.145	88.12
269.377	87.12
269.609	102.12
269.841	97.12
270.073	86.12
270.306	84.12
270.538	103.12
270.77	83.12
271.002	91.12
271.234	77.12
271.466	88.12
271.698	92.12
271.93	88.12
272.162	90.12
272.394	79.12
272.626	83.12
272.858	69.12
273.09	83.12
273.322	90.12
273.553	92.12
273.785	96.12
274.017	91.12
274.249	88.12
274.481	73.12
274.713	99.12
274.945	91.12
275.176	89.12
275.408	97.12
275.64	90.12
275.872	103.12
276.104	91.12
276.335	105.12
276.567	104.12
276.799	91.12
277.031	111.12
277.262	95.12
277.494	99.12
277.726	96.12
277.957	96.12
278.189	96.12
278.421	89.12
278.652	108.12
278.884	99.12
279.115	90.12
279.347	95.12
279.579	94.12
279.81	92.12
280.042	101.12
280.273	91.12
280.505	91.12
280.736	96.12
280.968	96.12
281.199	89.12
281.431	70.12
281.662	88.12
281.894	95.12
282.125	91.12
282.356	127.12
282.588	146.12
282.819	115.12
283.051	96.12
283.282	84.12
283.513	102.12
283.745	98.12
283.976	82.12
284.207	87.12
284.439	97.12
284.67	75.12
284.901	89.12
285.132	82.12
285.364	101.12
285.595	86.12
285.826	88.12
286.057	101.12
286.288	91.12
286.52	86.12
286.751	100.12
286.982	94.12
287.213	94.12
287.444	91.12
287.675	84.12
287.906	85.12
288.138	99.12
288.369	92.12
288.6	98.12
288.831	90.12
289.062	95.12
289.293	103.12
289.524	86.12
289.755	97.12
289.986	99.12
290.217	100.12
290.448	93.12
290.679	103.12
290.91	100.12
291.141	80.12
291.371	85.12
291.602	93.12
291.833	89.12
292.064	105.12
292.295	114.12
292.526	90.12
292.757	106.12
292.987	90.12
293.218	95.12
293.449	83.12
293.68	99.12
293.91	97.12
294.141	105.12
294.372	94.12
294.603	92.12
294.833	91.12
295.064	79.12
295.295	92.12
295.525	90.12
295.756	109.12
295.987	122.12
296.217	122.12
296.448	123.12
296.679	95.12
296.909	107.12
297.14	90.12
297.37	83.12
297.601	94.12
297.831	96.12
298.062	111.12
298.292	84.12
298.523	85.12
298.753	83.12
298.984	98.12
299.214	98.12
299.445	92.12
299.675	104.12
299.905	97.12
300.136	94.12
300.366	97.12
300.597	91.12
300.827	105.12
301.057	95.12
301.288	106.12
301.518	100.12
301.748	96.12
301.979	104.12
302.209	102.12
302.439	88.12
302.669	97.12
302.9	99.12
303.13	103.12
303.36	92.12
303.59	106.12
303.82	112.12
304.051	98.12
304.281	107.12
304.511	101.12
304.741	104.12
304.971	90.12
305.201	88.12
305.431	88.12
305.661	97.12
305.891	103.12
306.121	103.12
306.352	112.12
306.582	111.12
306.812	92.12
307.042	94.12
307.272	83.12
307.502	102.12
307.731	105.12
307.961	99.12
308.191	117.12
308.421	80.12
308.651	95.12
308.881	111.12
309.111	92.12
309.341	107.12
309.571	111.12
309.8	84.12
310.03	102.12
310.26	91.12
310.49	101.12
310.72	104.12
310.949	106.12
311.179	102.12
311.409	102.12
311.639	114.12
311.868	102.12
312.098	112.12
312.328	103.12
312.557	116.12
312.787	115.12
313.017	111.12
313.246	99.12
313.476	106.12
313.706	104.12
313.935	101.12
314.165	96.12
314.394	108.12
314.624	92.12
314.853	98.12
315.083	95.12
315.312	102.12
315.542	89.12
315.771	96.12
316.001	102.12
316.23	96.12
316.46	90.12
316.689	97.12
316.919	98.12
317.148	106.12
317.377	101.12
317.607	98.12
317.836	97.12
318.065	103.12
318.295	91.12
318.524	108.12
318.753	96.12
318.983	94.12
319.212	98.12
319.441	102.12
319.67	122.12
319.9	110.12
320.129	107.12
320.358	96.12
320.587	107.12
320.816	106.12
321.046	103.12
321.275	106.12
321.504	89.12
321.733	97.12
321.962	105.12
322.191	110.12
322.42	100.12
322.649	112.12
322.878	106.12
323.108	106.12
323.337	126.12
323.566	126.12
323.795	136.12
324.024	210.12
324.253	381.12
324.482	754.12
324.71	1568.12
324.939	2062.12
325.168	772.12
325.397	240.12
325.626	158.12
325.855	138.12
326.084	121.12
326.313	140.12
326.542	163.12
326.77	213.12
326.999	424.12
327.228	853.12
327.457	1588.12
327.686	1223.12
327.914	356.12
328.143	188.12
328.372	141.12
328.6	119.12
328.829	124.12
329.058	135.12
329.287	131.12
329.515	99.12
329.744	121.12
329.972	109.12
330.201	106.12
330.43	109.12
330.658	120.12
330.887	140.12
331.115	127.12
331.344	103.12
331.572	107.12
331.801	104.12
332.03	116.12
332.258	106.12
332.486	88.12
332.715	108.12
332.943	99.12
333.172	108.12
333.4	108.12
333.629	109.12
333.857	110.12
334.085	106.12
334.314	110.12
334.542	104.12
334.771	99.12
334.999	102.12
335.227	104.12
335.455	111.12
335.684	98.12
335.912	103.12
336.14	107.12
336.369	108.12
336.597	108.12
336.825	118.12
337.053	96.12
337.281	96.12
337.51	98.12
337.738	108.12
337.966	87.12
338.194	98.12
338.422	90.12
338.65	111.12
338.878	103.12
339.106	90.12
339.334	100.12
339.562	94.12
339.79	102.12
340.018	99.12
340.246	109.12
340.474	108.12
340.702	95.12
340.93	99.12
341.158	90.12
341.386	94.12
341.614	106.12
341.842	115.12
342.07	109.12
342.298	116.12
342.526	103.12
342.754	96.12
342.981	95.12
343.209	105.12
343.437	114.12
343.665	89.12
343.893	99.12
344.12	100.12
344.348	96.12
344.576	98.12
344.804	97.12
345.031	93.12
345.259	114.12
345.487	115.12
345.714	120.12
345.942	95.12
346.17	100.12
346.397	104.12
346.625	102.12
346.853	106.12
347.08	95.12
347.308	95.12
347.535	106.12
347.763	87.12
347.99	104.12
348.218	115.12
348.445	112.12
348.673	108.12
348.9	108.12
349.128	98.12
349.355	99.12
349.583	104.12
349.81	103.12
350.037	104.12
350.265	104.12
350.492	103.12
350.72	116.12
350.947	99.12
351.174	112.12
351.402	108.12
351.629	108.12
351.856	91.12
352.083	114.12
352.311	117.12
352.538	107.12
352.765	111.12
352.992	125.12
353.22	110.12
353.447	105.12
353.674	108.12
353.901	96.12
354.128	106.12
354.355	98.12
354.583	101.12
354.81	105.12
355.037	100.12
355.264	95.12
355.491	103.12
355.718	102.12
355.945	108.12
356.172	114.12
356.399	117.12
356.626	98.12
356.853	95.12
357.08	101.12
357.307	92.12
357.534	109.12
357.761	97.12
357.988	94.12
358.215	111.12
358.441	94.12
358.668	118.12
358.895	97.12
359.122	101.12
359.349	82.12
359.576	96.12
359.802	103.12
360.029	108.12
360.256	118.12
360.483	100.12
360.709	90.12
360.936	104.12
361.163	106.12
361.39	98.12
361.616	97.12
361.843	99.12
362.07	111.12
362.296	102.12
362.523	107.12
362.749	106.12
362.976	105.12
363.203	100.12
363.429	102.12
363.656	97.12
363.882	96.12
364.109	94.12
364.335	97.12
364.562	104.12
364.788	83.12
365.015	95.12
365.241	115.12
365.468	112.12
365.694	104.12
365.92	92.12
366.147	89.12
366.373	100.12
366.599	95.12
366.826	102.12
367.052	102.12
367.278	97.12
367.505	91.12
367.731	97.12
367.957	86.12
368.184	98.12
368.41	106.12
368.636	120.12
368.862	107.12
369.089	102.12
369.315	100.12
369.541	86.12
369.767	109.12
369.993	118.12
370.219	95.12
370.445	95.12
370.672	107.12
370.898	89.12
371.124	95.12
371.35	90.12
371.576	85.12
371.802	96.12
372.028	101.12
372.254	92.12
372.48	84.12
372.706	87.12
372.932	94.12
373.158	73.12
373.384	95.12
373.61	101.12
373.835	106.12
374.061	98.12
374.287	96.12
374.513	98.12
374.739	112.12
374.965	107.12
375.191	82.12
375.416	98.12
375.642	99.12
375.868	90.12
376.094	92.12
376.319	102.12
376.545	108.12
376.771	101.12
376.997	105.12
377.222	88.12
377.448	99.12
377.674	86.12
377.899	92.12
378.125	89.12
378.35	94.12
378.576	106.12
378.802	86.12
379.027	102.12
379.253	94.12
379.478	120.12
379.704	93.12
379.929	91.12
380.155	108.12
380.38	117.12
380.606	102.12
380.831	86.12
381.057	103.12
381.282	96.12
381.507	98.12
381.733	103.12
381.958	86.12
382.184	115.12
382.409	108.12
382.634	106.12
382.86	98.12
383.085	107.12
383.31	106.12
383.535	111.12
383.761	114.12
383.986	112.12
384.211	105.12
384.436	109.12
384.662	95.12
384.887	106.12
385.112	117.12
385.337	111.12
385.562	122.12
385.787	112.12
386.013	115.12
386.238	122.12
386.463	102.12
386.688	118.12
386.913	117.12
387.138	113.12
387.363	118.12
387.588	116.12
387.813	110.12
388.038	119.12
388.263	113.12
388.488	107.12
388.713	107.12
388.938	106.12
389.163	99.12
389.387	102.12
389.612	84.12
389.837	94.12
390.062	114.12
390.287	89.12
390.512	108.12
390.736	100.12
390.961	91.12
391.186	92.12
391.411	93.12
391.636	97.12
391.86	99.12
392.085	89.12
392.31	98.12
392.534	85.12
392.759	98.12
392.984	94.12
393.208	104.12
393.433	118.12
393.658	100.12
393.882	97.12
394.107	86.12
394.331	99.12
394.556	91.12
394.78	92.12
395.005	90.12
395.229	90.12
395.454	95.12
395.678	104.12
395.903	113.12
396.127	98.12
396.352	105.12
396.576	97.12
396.801	105.12
397.025	107.12
397.249	92.12
397.474	86.12
397.698	99.12
397.922	84.12
398.147	98.12
398.371	101.12
398.595	94.12
398.82	89.12
399.044	95.12
399.268	84.12
399.492	90.12
399.717	103.12
399.941	99.12
400.165	101.12
400.389	97.12
400.613	100.12
400.837	91.12
401.062	95.12
401.286	90.12
401.51	96.12
401.734	88.12
401.958	95.12
402.182	127.12
402.406	164.12
402.63	114.12
402.854	103.12
403.078	108.12
403.302	103.12
403.526	106.12
403.75	90.12
403.974	96.12
404.198	97.12
404.422	91.12
404.645	91.12
404.869	84.12
405.093	98.12
405.317	97.12
405.541	102.12
405.765	111.12
405.988	126.12
406.212	173.12
406.436	208.12
406.66	135.12
406.883	97.12
407.107	100.12
407.331	92.12
407.555	107.12
407.778	96.12
408.002	103.12
408.226	77.12
408.449	101.12
408.673	90.12
408.896	82.12
409.12	111.12
409.344	107.12
409.567	108.12
409.791	106.12
410.014	103.12
410.238	111.12
410.461	93.12
410.685	104.12
410.908	100.12
411.132	102.12
411.355	116.12
411.578	93.12
411.802	93.12
412.025	98.12
412.249	104.12
412.472	107.12
412.695	94.12
412.919	107.12
413.142	98.12
413.365	91.12
413.589	101.12
413.812	107.12
414.035	82.12
414.258	102.12
414.482	105.12
414.705	100.12
414.928	97.12
415.151	95.12
415.374	95.12
415.597	94.12
415.821	103.12
416.044	95.12
416.267	97.12
416.49	92.12
416.713	101.12
416.936	84.12
417.159	95.12
417.382	92.12
417.605	91.12
417.828	112.12
418.051	95.12
418.274	100.12
418.497	94.12
418.72	76.12
418.943	114.12
419.166	82.12
419.389	99.12
419.611	88.12
419.834	96.12
420.057	98.12
420.28	90.12
420.503	92.12
420.726	97.12
420.948	73.12
421.171	103.12
421.394	93.12
421.617	91.12
421.839	105.12
422.062	108.12
422.285	76.12
422.507	100.12
422.73	101.12
422.953	97.12
423.175	118.12
423.398	107.12
423.621	89.12
423.843	102.12
424.066	98.12
424.288	101.12
424.511	112.12
424.733	105.12
424.956	105.12
425.178	109.12
425.401	108.12
425.623	96.12
425.846	104.12
426.068	111.12
426.291	98.12
426.513	94.12
426.735	97.12
426.958	107.12
427.18	95.12
427.402	135.12
427.625	139.12
427.847	136.12
428.069	105.12
428.292	101.12
428.514	100.12
428.736	95.12
428.958	104.12
429.181	84.12
429.403	91.12
429.625	97.12
429.847	97.12
430.069	102.12
430.292	91.12
430.514	87.12
430.736	91.12
430.958	107.12
431.18	95.12
431.402	93.12
431.624	105.12
431.846	89.12
432.068	91.12
432.29	92.12
432.512	91.12
432.734	89.12
432.956	96.12
433.178	108.12
433.4	104.12
433.622	88.12
433.844	95.12
434.066	94.12
434.287	88.12
434.509	93.12
434.731	108.12
434.953	105.12
435.175	91.12
435.397	106.12
435.618	98.12
435.84	114.12
436.062	107.12
436.284	124.12
436.505	116.12
436.727	105.12
436.949	95.12
437.17	95.12
437.392	92.12
437.614	88.12
437.835	99.12
438.057	125.12
438.278	114.12
438.5	111.12
438.721	123.12
438.943	108.12
439.165	94.12
439.386	91.12
439.608	97.12
439.829	116.12
440.05	123.12
440.272	146.12
440.493	116.12
440.715	97.12
440.936	86.12
441.158	99.12
441.379	90.12
441.6	97.12
441.822	89.12
442.043	103.12
442.264	111.12
442.486	97.12
442.707	111.12
442.928	123.12
443.149	126.12
443.371	119.12
443.592	114.12
443.813	107.12
444.034	112.12
444.255	90.12
444.476	91.12
444.698	87.12
444.919	99.12
445.14	135.12
445.361	127.12
445.582	119.12
445.803	132.12
446.024	144.12
446.245	142.12
446.466	112.12
446.687	90.12
446.908	95.12
447.129	89.12
447.35	90.12
447.571	104.12
447.792	111.12
448.013	94.12
448.234	127.12
448.455	115.12
448.675	113.12
448.896	119.12
449.117	120.12
449.338	99.12
449.559	132.12
449.779	130.12
450	106.12
450.221	98.12
450.442	98.12
450.662	91.12
450.883	114.12
451.104	107.12
451.324	103.12
451.545	91.12
451.766	98.12
451.986	87.12
452.207	94.12
452.428	102.12
452.648	116.12
452.869	117.12
453.089	109.12
453.31	95.12
453.53	109.12
453.751	100.12
453.971	104.12
454.192	127.12
454.412	98.12
454.633	105.12
454.853	87.12
455.073	99.12
455.294	91.12
455.514	98.12
455.734	103.12
455.955	101.12
456.175	88.12
456.395	91.12
456.616	107.12
456.836	100.12
457.056	88.12
457.276	92.12
457.497	88.12
457.717	92.12
457.937	104.12
458.157	89.12
458.377	90.12
458.598	101.12
458.818	145.12
459.038	148.12
459.258	110.12
459.478	82.12
459.698	91.12
459.918	90.12
460.138	106.12
460.358	103.12
460.578	92.12
460.798	100.12
461.018	108.12
461.238	86.12
461.458	84.12
461.678	92.12
461.898	91.12
462.118	100.12
462.338	88.12
462.558	82.12
462.777	91.12
462.997	101.12
463.217	102.12
463.437	92.12
463.657	99.12
463.876	97.12
464.096	99.12
464.316	88.12
464.536	103.12
464.755	120.12
464.975	115.12
465.195	164.12
465.414	139.12
465.634	105.12
465.854	108.12
466.073	94.12
466.293	96.12
466.512	88.12
466.732	96.12
466.951	98.12
467.171	100.12
467.391	109.12
467.61	104.12
467.829	102.12
468.049	89.12
468.268	96.12
468.488	98.12
468.707	81.12
468.927	91.12
469.146	102.12
469.365	105.12
469.585	89.12
469.804	105.12
470.023	118.12
470.243	110.12
470.462	105.12
470.681	97.12
470.901	104.12
471.12	88.12
471.339	85.12
471.558	97.12
471.777	97.12
471.997	91.12
472.216	83.12
472.435	92.12
472.654	91.12
472.873	106.12
473.092	93.12
473.311	87.12
473.53	88.12
473.749	92.12
473.968	99.12
474.187	98.12
474.406	108.12
474.625	97.12
474.844	94.12
475.063	96.12
475.282	97.12
475.501	87.12
475.72	89.12
475.939	99.12
476.158	81.12
476.377	98.12
476.596	91.12
476.814	104.12
477.033	98.12
477.252	95.12
477.471	86.12
477.69	91.12
477.908	88.12
478.127	94.12
478.346	75.12
478.564	107.12
478.783	89.12
479.002	104.12
479.22	106.12
479.439	107.12
479.658	94.12
479.876	84.12
480.095	92.12
480.313	100.12
480.532	86.12
480.751	104.12
480.969	102.12
481.188	102.12
481.406	103.12
481.624	108.12
481.843	103.12
482.061	103.12
482.28	97.12
482.498	104.12
482.717	95.12
482.935	98.12
483.153	102.12
483.372	91.12
483.59	86.12
483.808	84.12
484.027	91.12
484.245	99.12
484.463	94.12
484.681	104.12
484.9	98.12
485.118	98.12
485.336	104.12
485.554	106.12
485.772	112.12
485.99	108.12
486.209	110.12
486.427	101.12
486.645	120.12
486.863	114.12
487.081	113.12
487.299	110.12
487.517	91.12
487.735	96.12
487.953	95.12
488.171	99.12
488.389	106.12
488.607	119.12
488.825	98.12
489.043	80.12
489.261	115.12
489.479	93.12
489.696	92.12
489.914	88.12
490.132	105.12
490.35	109.12
490.568	91.12
490.786	91.12
491.003	94.12
491.221	91.12
491.439	105.12
491.657	97.12
491.874	82.12
492.092	99.12
492.31	94.12
492.527	97.12
492.745	97.12
492.963	92.12
493.18	104.12
493.398	90.12
493.615	108.12
493.833	103.12
494.05	84.12
494.268	95.12
494.485	92.12
494.703	96.12
494.92	105.12
495.138	100.12
495.355	87.12
495.573	91.12
495.79	91.12
496.008	100.12
496.225	98.12
496.442	102.12
496.66	97.12
496.877	101.12
497.094	89.12
497.312	103.12
497.529	82.12
497.746	94.12
497.963	86.12
498.181	105.12
498.398	105.12
498.615	101.12
498.832	105.12
499.049	106.12
499.267	111.12
499.484	89.12
499.701	97.12
499.918	100.12
500.135	94.12
500.352	107.12
500.569	90.12
500.786	100.12
501.003	94.12
501.22	96.12
501.437	98.12
501.654	102.12
501.871	102.12
502.088	96.12
502.305	121.12
502.522	100.12
502.739	101.12
502.956	93.12
503.172	104.12
503.389	111.12
503.606	103.12
503.823	107.12
504.04	97.12
504.256	97.12
504.473	102.12
504.69	92.12
504.907	81.12
505.123	89.12
505.34	89.12
505.557	106.12
505.773	102.12
505.99	85.12
506.207	96.12
506.423	93.12
506.64	100.12
506.856	92.12
507.073	107.12
507.289	106.12
507.506	115.12
507.722	109.12
507.939	114.12
508.155	100.12
508.372	100.12
508.588	97.12
508.805	102.12
509.021	94.12
509.238	110.12
509.454	90.12
509.67	106.12
509.887	102.12
510.103	148.12
510.319	199.12
510.536	739.12
510.752	2227.12
510.968	620.12
511.184	162.12
511.401	119.12
511.617	107.12
511.833	92.12
512.049	104.12
512.265	102.12
