Data from Uncirc_1994_H10_HRD10591_00016.txt Node
Date: Wed Jan 03 11:39:24 EST 2024
User: Yrep
Spectrometer: HR+D1059
Trigger mode: 1
Integration Time (sec): 1.000000E-1
Scans to average: 1
Electric dark correction enabled: true
Nonlinearity correction enabled: false
Boxcar width: 0
XAxis mode: Wavelengths
Number of Pixels in Spectrum: 2048
>>>>>Begin Spectral Data<<<<<
223.165	-24.5
223.4	-24.5
223.635	-24.5
223.869	-12.5
224.104	-18.5
224.338	-3.5
224.573	-3.5
224.808	-3.5
225.042	-4.5
225.277	-17.5
225.511	1.5
225.746	0.5
225.98	4.5
226.215	14.5
226.449	11.5
226.683	15.5
226.918	13.5
227.152	26.5
227.387	23.5
227.621	35.5
227.856	49.5
228.09	27.5
228.324	29.5
228.559	52.5
228.793	67.5
229.027	69.5
229.262	65.5
229.496	74.5
229.73	91.5
229.964	84.5
230.199	71.5
230.433	86.5
230.667	84.5
230.901	70.5
231.136	70.5
231.37	84.5
231.604	82.5
231.838	91.5
232.072	79.5
232.306	90.5
232.541	77.5
232.775	85.5
233.009	82.5
233.243	91.5
233.477	81.5
233.711	82.5
233.945	70.5
234.179	71.5
234.413	68.5
234.647	77.5
234.881	105.5
235.115	79.5
235.349	68.5
235.583	91.5
235.817	83.5
236.051	70.5
236.285	85.5
236.519	81.5
236.753	79.5
236.987	73.5
237.221	73.5
237.455	86.5
237.689	73.5
237.922	83.5
238.156	82.5
238.39	73.5
238.624	70.5
238.858	79.5
239.091	90.5
239.325	81.5
239.559	76.5
239.793	86.5
240.027	74.5
240.26	79.5
240.494	85.5
240.728	73.5
240.961	100.5
241.195	69.5
241.429	81.5
241.662	54.5
241.896	76.5
242.13	73.5
242.363	87.5
242.597	68.5
242.83	71.5
243.064	74.5
243.298	77.5
243.531	71.5
243.765	75.5
243.998	60.5
244.232	80.5
244.465	86.5
244.699	86.5
244.932	81.5
245.166	72.5
245.399	72.5
245.633	80.5
245.866	87.5
246.099	81.5
246.333	77.5
246.566	81.5
246.8	68.5
247.033	74.5
247.266	67.5
247.5	78.5
247.733	95.5
247.966	79.5
248.2	74.5
248.433	82.5
248.666	83.5
248.899	82.5
249.133	81.5
249.366	114.5
249.599	86.5
249.832	86.5
250.066	83.5
250.299	67.5
250.532	85.5
250.765	89.5
250.998	77.5
251.231	72.5
251.465	90.5
251.698	81.5
251.931	85.5
252.164	85.5
252.397	59.5
252.63	88.5
252.863	80.5
253.096	89.5
253.329	70.5
253.562	88.5
253.795	89.5
254.028	87.5
254.261	78.5
254.494	83.5
254.727	91.5
254.96	81.5
255.193	82.5
255.426	61.5
255.659	73.5
255.892	84.5
256.124	82.5
256.357	83.5
256.59	84.5
256.823	82.5
257.056	89.5
257.289	100.5
257.521	91.5
257.754	88.5
257.987	85.5
258.22	91.5
258.452	80.5
258.685	62.5
258.918	77.5
259.151	77.5
259.383	75.5
259.616	73.5
259.849	85.5
260.081	76.5
260.314	79.5
260.547	99.5
260.779	82.5
261.012	86.5
261.244	85.5
261.477	79.5
261.71	89.5
261.942	106.5
262.175	125.5
262.407	97.5
262.64	75.5
262.872	90.5
263.105	83.5
263.337	82.5
263.57	79.5
263.802	73.5
264.035	77.5
264.267	93.5
264.499	83.5
264.732	89.5
264.964	77.5
265.197	89.5
265.429	86.5
265.661	94.5
265.894	87.5
266.126	73.5
266.358	92.5
266.591	77.5
266.823	79.5
267.055	99.5
267.287	69.5
267.52	67.5
267.752	87.5
267.984	83.5
268.216	84.5
268.448	79.5
268.681	79.5
268.913	87.5
269.145	70.5
269.377	96.5
269.609	85.5
269.841	82.5
270.073	67.5
270.306	81.5
270.538	79.5
270.77	86.5
271.002	96.5
271.234	84.5
271.466	84.5
271.698	94.5
271.93	87.5
272.162	91.5
272.394	79.5
272.626	85.5
272.858	81.5
273.09	90.5
273.322	89.5
273.553	77.5
273.785	78.5
274.017	79.5
274.249	93.5
274.481	76.5
274.713	88.5
274.945	92.5
275.176	75.5
275.408	85.5
275.64	83.5
275.872	94.5
276.104	85.5
276.335	104.5
276.567	85.5
276.799	119.5
277.031	89.5
277.262	86.5
277.494	94.5
277.726	99.5
277.957	100.5
278.189	94.5
278.421	77.5
278.652	89.5
278.884	98.5
279.115	90.5
279.347	94.5
279.579	93.5
279.81	91.5
280.042	109.5
280.273	91.5
280.505	77.5
280.736	93.5
280.968	92.5
281.199	76.5
281.431	85.5
281.662	104.5
281.894	75.5
282.125	95.5
282.356	113.5
282.588	123.5
282.819	103.5
283.051	110.5
283.282	99.5
283.513	109.5
283.745	91.5
283.976	82.5
284.207	76.5
284.439	80.5
284.67	73.5
284.901	75.5
285.132	84.5
285.364	91.5
285.595	86.5
285.826	96.5
286.057	93.5
286.288	90.5
286.52	84.5
286.751	73.5
286.982	71.5
287.213	91.5
287.444	94.5
287.675	94.5
287.906	85.5
288.138	96.5
288.369	110.5
288.6	91.5
288.831	87.5
289.062	92.5
289.293	88.5
289.524	91.5
289.755	106.5
289.986	83.5
290.217	88.5
290.448	93.5
290.679	77.5
290.91	92.5
291.141	87.5
291.371	87.5
291.602	99.5
291.833	85.5
292.064	79.5
292.295	89.5
292.526	78.5
292.757	92.5
292.987	97.5
293.218	81.5
293.449	90.5
293.68	100.5
293.91	94.5
294.141	95.5
294.372	92.5
294.603	99.5
294.833	106.5
295.064	97.5
295.295	80.5
295.525	105.5
295.756	115.5
295.987	114.5
296.217	144.5
296.448	112.5
296.679	94.5
296.909	77.5
297.14	79.5
297.37	99.5
297.601	83.5
297.831	91.5
298.062	101.5
298.292	84.5
298.523	94.5
298.753	90.5
298.984	102.5
299.214	89.5
299.445	85.5
299.675	95.5
299.905	95.5
300.136	89.5
300.366	84.5
300.597	79.5
300.827	88.5
301.057	86.5
301.288	113.5
301.518	87.5
301.748	94.5
301.979	94.5
302.209	76.5
302.439	90.5
302.669	100.5
302.9	95.5
303.13	79.5
303.36	100.5
303.59	92.5
303.82	101.5
304.051	105.5
304.281	91.5
304.511	68.5
304.741	85.5
304.971	82.5
305.201	98.5
305.431	85.5
305.661	81.5
305.891	90.5
306.121	85.5
306.352	98.5
306.582	97.5
306.812	89.5
307.042	97.5
307.272	79.5
307.502	82.5
307.731	93.5
307.961	77.5
308.191	89.5
308.421	95.5
308.651	86.5
308.881	95.5
309.111	90.5
309.341	107.5
309.571	98.5
309.8	85.5
310.03	87.5
310.26	90.5
310.49	93.5
310.72	102.5
310.949	111.5
311.179	94.5
311.409	91.5
311.639	103.5
311.868	91.5
312.098	94.5
312.328	86.5
312.557	112.5
312.787	95.5
313.017	86.5
313.246	100.5
313.476	90.5
313.706	101.5
313.935	93.5
314.165	81.5
314.394	88.5
314.624	105.5
314.853	90.5
315.083	94.5
315.312	112.5
315.542	116.5
315.771	90.5
316.001	97.5
316.23	106.5
316.46	89.5
316.689	102.5
316.919	97.5
317.148	106.5
317.377	76.5
317.607	79.5
317.836	106.5
318.065	84.5
318.295	91.5
318.524	81.5
318.753	106.5
318.983	92.5
319.212	114.5
319.441	125.5
319.67	106.5
319.9	92.5
320.129	79.5
320.358	85.5
320.587	93.5
320.816	80.5
321.046	98.5
321.275	110.5
321.504	102.5
321.733	102.5
321.962	96.5
322.191	103.5
322.42	102.5
322.649	86.5
322.878	109.5
323.108	109.5
323.337	108.5
323.566	122.5
323.795	140.5
324.024	185.5
324.253	361.5
324.482	733.5
324.71	1512.5
324.939	1968.5
325.168	722.5
325.397	217.5
325.626	125.5
325.855	130.5
326.084	119.5
326.313	131.5
326.542	150.5
326.77	199.5
326.999	430.5
327.228	865.5
327.457	1512.5
327.686	1196.5
327.914	316.5
328.143	178.5
328.372	134.5
328.6	137.5
328.829	123.5
329.058	93.5
329.287	123.5
329.515	107.5
329.744	97.5
329.972	87.5
330.201	106.5
330.43	110.5
330.658	111.5
330.887	108.5
331.115	113.5
331.344	101.5
331.572	112.5
331.801	90.5
332.03	102.5
332.258	94.5
332.486	82.5
332.715	107.5
332.943	85.5
333.172	106.5
333.4	101.5
333.629	98.5
333.857	107.5
334.085	107.5
334.314	101.5
334.542	103.5
334.771	81.5
334.999	100.5
335.227	105.5
335.455	90.5
335.684	99.5
335.912	80.5
336.14	91.5
336.369	97.5
336.597	98.5
336.825	108.5
337.053	93.5
337.281	90.5
337.51	93.5
337.738	106.5
337.966	85.5
338.194	98.5
338.422	96.5
338.65	101.5
338.878	88.5
339.106	87.5
339.334	84.5
339.562	100.5
339.79	80.5
340.018	91.5
340.246	97.5
340.474	95.5
340.702	102.5
340.93	76.5
341.158	86.5
341.386	96.5
341.614	98.5
341.842	108.5
342.07	99.5
342.298	90.5
342.526	95.5
342.754	83.5
342.981	93.5
343.209	101.5
343.437	109.5
343.665	85.5
343.893	90.5
344.12	104.5
344.348	88.5
344.576	92.5
344.804	88.5
345.031	93.5
345.259	109.5
345.487	96.5
345.714	92.5
345.942	90.5
346.17	95.5
346.397	79.5
346.625	113.5
346.853	106.5
347.08	74.5
347.308	98.5
347.535	103.5
347.763	89.5
347.99	89.5
348.218	91.5
348.445	98.5
348.673	98.5
348.9	96.5
349.128	86.5
349.355	83.5
349.583	83.5
349.81	82.5
350.037	90.5
350.265	107.5
350.492	97.5
350.72	99.5
350.947	99.5
351.174	118.5
351.402	98.5
351.629	103.5
351.856	110.5
352.083	104.5
352.311	96.5
352.538	114.5
352.765	116.5
352.992	109.5
353.22	101.5
353.447	111.5
353.674	94.5
353.901	94.5
354.128	100.5
354.355	98.5
354.583	93.5
354.81	100.5
355.037	86.5
355.264	95.5
355.491	93.5
355.718	96.5
355.945	98.5
356.172	89.5
356.399	100.5
356.626	99.5
356.853	92.5
357.08	84.5
357.307	90.5
357.534	84.5
357.761	92.5
357.988	110.5
358.215	95.5
358.441	97.5
358.668	99.5
358.895	85.5
359.122	96.5
359.349	102.5
359.576	87.5
359.802	102.5
360.029	113.5
360.256	110.5
360.483	105.5
360.709	101.5
360.936	85.5
361.163	100.5
361.39	86.5
361.616	98.5
361.843	98.5
362.07	95.5
362.296	92.5
362.523	103.5
362.749	104.5
362.976	79.5
363.203	93.5
363.429	77.5
363.656	96.5
363.882	89.5
364.109	92.5
364.335	86.5
364.562	95.5
364.788	101.5
365.015	86.5
365.241	101.5
365.468	112.5
365.694	104.5
365.92	102.5
366.147	94.5
366.373	77.5
366.599	91.5
366.826	80.5
367.052	77.5
367.278	97.5
367.505	94.5
367.731	90.5
367.957	98.5
368.184	112.5
368.41	102.5
368.636	104.5
368.862	100.5
369.089	109.5
369.315	101.5
369.541	97.5
369.767	88.5
369.993	79.5
370.219	83.5
370.445	89.5
370.672	70.5
370.898	86.5
371.124	88.5
371.35	96.5
371.576	86.5
371.802	92.5
372.028	78.5
372.254	92.5
372.48	96.5
372.706	95.5
372.932	98.5
373.158	92.5
373.384	87.5
373.61	95.5
373.835	98.5
374.061	87.5
374.287	96.5
374.513	91.5
374.739	96.5
374.965	89.5
375.191	94.5
375.416	102.5
375.642	87.5
375.868	97.5
376.094	97.5
376.319	95.5
376.545	101.5
376.771	93.5
376.997	79.5
377.222	99.5
377.448	103.5
377.674	88.5
377.899	90.5
378.125	99.5
378.35	103.5
378.576	101.5
378.802	101.5
379.027	102.5
379.253	85.5
379.478	92.5
379.704	90.5
379.929	93.5
380.155	103.5
380.38	109.5
380.606	108.5
380.831	96.5
381.057	117.5
381.282	102.5
381.507	97.5
381.733	116.5
381.958	101.5
382.184	81.5
382.409	101.5
382.634	102.5
382.86	112.5
383.085	101.5
383.31	92.5
383.535	102.5
383.761	101.5
383.986	90.5
384.211	89.5
384.436	102.5
384.662	99.5
384.887	103.5
385.112	102.5
385.337	109.5
385.562	107.5
385.787	101.5
386.013	107.5
386.238	123.5
386.463	113.5
386.688	111.5
386.913	113.5
387.138	109.5
387.363	109.5
387.588	109.5
387.813	98.5
388.038	101.5
388.263	108.5
388.488	116.5
388.713	94.5
388.938	90.5
389.163	102.5
389.387	84.5
389.612	113.5
389.837	106.5
390.062	115.5
390.287	95.5
390.512	111.5
390.736	95.5
390.961	98.5
391.186	105.5
391.411	100.5
391.636	98.5
391.86	94.5
392.085	77.5
392.31	83.5
392.534	90.5
392.759	94.5
392.984	87.5
393.208	92.5
393.433	94.5
393.658	88.5
393.882	82.5
394.107	94.5
394.331	81.5
394.556	91.5
394.78	97.5
395.005	82.5
395.229	96.5
395.454	91.5
395.678	71.5
395.903	98.5
396.127	103.5
396.352	99.5
396.576	98.5
396.801	99.5
397.025	99.5
397.249	85.5
397.474	92.5
397.698	98.5
397.922	98.5
398.147	101.5
398.371	90.5
398.595	91.5
398.82	91.5
399.044	88.5
399.268	87.5
399.492	79.5
399.717	97.5
399.941	102.5
400.165	78.5
400.389	92.5
400.613	101.5
400.837	90.5
401.062	97.5
401.286	105.5
401.51	83.5
401.734	95.5
401.958	99.5
402.182	120.5
402.406	166.5
402.63	104.5
402.854	97.5
403.078	89.5
403.302	95.5
403.526	92.5
403.75	93.5
403.974	86.5
404.198	96.5
404.422	92.5
404.645	90.5
404.869	97.5
405.093	88.5
405.317	93.5
405.541	103.5
405.765	97.5
405.988	105.5
406.212	153.5
406.436	206.5
406.66	135.5
406.883	96.5
407.107	90.5
407.331	103.5
407.555	94.5
407.778	99.5
408.002	103.5
408.226	93.5
408.449	93.5
408.673	91.5
408.896	90.5
409.12	98.5
409.344	95.5
409.567	96.5
409.791	89.5
410.014	89.5
410.238	82.5
410.461	98.5
410.685	100.5
410.908	107.5
411.132	94.5
411.355	109.5
411.578	99.5
411.802	84.5
412.025	91.5
412.249	88.5
412.472	93.5
412.695	94.5
412.919	82.5
413.142	85.5
413.365	81.5
413.589	90.5
413.812	97.5
414.035	107.5
414.258	94.5
414.482	88.5
414.705	97.5
414.928	95.5
415.151	103.5
415.374	101.5
415.597	97.5
415.821	101.5
416.044	92.5
416.267	73.5
416.49	93.5
416.713	101.5
416.936	78.5
417.159	91.5
417.382	85.5
417.605	89.5
417.828	88.5
418.051	95.5
418.274	85.5
418.497	92.5
418.72	84.5
418.943	95.5
419.166	94.5
419.389	85.5
419.611	91.5
419.834	98.5
420.057	99.5
420.28	90.5
420.503	92.5
420.726	91.5
420.948	89.5
421.171	87.5
421.394	94.5
421.617	99.5
421.839	78.5
422.062	92.5
422.285	93.5
422.507	101.5
422.73	110.5
422.953	100.5
423.175	90.5
423.398	78.5
423.621	98.5
423.843	87.5
424.066	78.5
424.288	95.5
424.511	77.5
424.733	92.5
424.956	97.5
425.178	100.5
425.401	97.5
425.623	110.5
425.846	69.5
426.068	94.5
426.291	109.5
426.513	103.5
426.735	83.5
426.958	104.5
427.18	89.5
427.402	137.5
427.625	156.5
427.847	123.5
428.069	88.5
428.292	97.5
428.514	79.5
428.736	93.5
428.958	84.5
429.181	96.5
429.403	84.5
429.625	78.5
429.847	96.5
430.069	91.5
430.292	79.5
430.514	86.5
430.736	93.5
430.958	91.5
431.18	87.5
431.402	90.5
431.624	99.5
431.846	96.5
432.068	97.5
432.29	82.5
432.512	85.5
432.734	93.5
432.956	84.5
433.178	104.5
433.4	92.5
433.622	96.5
433.844	82.5
434.066	93.5
434.287	96.5
434.509	86.5
434.731	93.5
434.953	82.5
435.175	102.5
435.397	87.5
435.618	116.5
435.84	111.5
436.062	113.5
436.284	113.5
436.505	97.5
436.727	89.5
436.949	96.5
437.17	81.5
437.392	92.5
437.614	95.5
437.835	101.5
438.057	107.5
438.278	97.5
438.5	105.5
438.721	107.5
438.943	108.5
439.165	86.5
439.386	93.5
439.608	92.5
439.829	91.5
440.05	118.5
440.272	141.5
440.493	95.5
440.715	79.5
440.936	103.5
441.158	83.5
441.379	91.5
441.6	99.5
441.822	95.5
442.043	84.5
442.264	104.5
442.486	107.5
442.707	101.5
442.928	116.5
443.149	118.5
443.371	114.5
443.592	98.5
443.813	114.5
444.034	98.5
444.255	110.5
444.476	108.5
444.698	97.5
444.919	96.5
445.14	145.5
445.361	112.5
445.582	123.5
445.803	126.5
446.024	137.5
446.245	141.5
446.466	114.5
446.687	94.5
446.908	93.5
447.129	91.5
447.35	85.5
447.571	100.5
447.792	85.5
448.013	101.5
448.234	108.5
448.455	106.5
448.675	102.5
448.896	105.5
449.117	96.5
449.338	107.5
449.559	134.5
449.779	126.5
450	102.5
450.221	83.5
450.442	95.5
450.662	98.5
450.883	109.5
451.104	108.5
451.324	89.5
451.545	81.5
451.766	74.5
451.986	92.5
452.207	83.5
452.428	94.5
452.648	92.5
452.869	101.5
453.089	92.5
453.31	118.5
453.53	91.5
453.751	93.5
453.971	108.5
454.192	105.5
454.412	81.5
454.633	97.5
454.853	95.5
455.073	102.5
455.294	89.5
455.514	101.5
455.734	86.5
455.955	78.5
456.175	87.5
456.395	91.5
456.616	76.5
456.836	99.5
457.056	94.5
457.276	83.5
457.497	74.5
457.717	75.5
457.937	92.5
458.157	88.5
458.377	95.5
458.598	103.5
458.818	128.5
459.038	130.5
459.258	115.5
459.478	74.5
459.698	90.5
459.918	94.5
460.138	98.5
460.358	88.5
460.578	88.5
460.798	82.5
461.018	93.5
461.238	87.5
461.458	85.5
461.678	85.5
461.898	98.5
462.118	98.5
462.338	87.5
462.558	84.5
462.777	86.5
462.997	80.5
463.217	100.5
463.437	85.5
463.657	96.5
463.876	91.5
464.096	95.5
464.316	101.5
464.536	99.5
464.755	74.5
464.975	100.5
465.195	150.5
465.414	135.5
465.634	101.5
465.854	96.5
466.073	83.5
466.293	92.5
466.512	76.5
466.732	102.5
466.951	88.5
467.171	91.5
467.391	109.5
467.61	109.5
467.829	89.5
468.049	91.5
468.268	93.5
468.488	89.5
468.707	91.5
468.927	87.5
469.146	91.5
469.365	100.5
469.585	89.5
469.804	90.5
470.023	99.5
470.243	111.5
470.462	105.5
470.681	102.5
470.901	88.5
471.12	87.5
471.339	76.5
471.558	72.5
471.777	93.5
471.997	96.5
472.216	81.5
472.435	83.5
472.654	94.5
472.873	77.5
473.092	86.5
473.311	92.5
473.53	77.5
473.749	81.5
473.968	97.5
474.187	102.5
474.406	87.5
474.625	94.5
474.844	85.5
475.063	82.5
475.282	94.5
475.501	84.5
475.72	91.5
475.939	94.5
476.158	81.5
476.377	97.5
476.596	95.5
476.814	107.5
477.033	98.5
477.252	92.5
477.471	93.5
477.69	86.5
477.908	84.5
478.127	80.5
478.346	95.5
478.564	100.5
478.783	95.5
479.002	81.5
479.22	93.5
479.439	90.5
479.658	98.5
479.876	94.5
480.095	95.5
480.313	82.5
480.532	83.5
480.751	95.5
480.969	96.5
481.188	102.5
481.406	87.5
481.624	94.5
481.843	86.5
482.061	83.5
482.28	95.5
482.498	92.5
482.717	101.5
482.935	95.5
483.153	89.5
483.372	84.5
483.59	97.5
483.808	89.5
484.027	90.5
484.245	93.5
484.463	98.5
484.681	83.5
484.9	82.5
485.118	103.5
485.336	86.5
485.554	92.5
485.772	98.5
485.99	91.5
486.209	108.5
486.427	103.5
486.645	115.5
486.863	111.5
487.081	111.5
487.299	86.5
487.517	93.5
487.735	93.5
487.953	96.5
488.171	98.5
488.389	96.5
488.607	82.5
488.825	82.5
489.043	84.5
489.261	85.5
489.479	83.5
489.696	89.5
489.914	83.5
490.132	90.5
490.35	91.5
490.568	99.5
490.786	94.5
491.003	99.5
491.221	89.5
491.439	96.5
491.657	87.5
491.874	98.5
492.092	95.5
492.31	96.5
492.527	110.5
492.745	91.5
492.963	102.5
493.18	97.5
493.398	101.5
493.615	85.5
493.833	107.5
494.05	97.5
494.268	100.5
494.485	96.5
494.703	98.5
494.92	103.5
495.138	104.5
495.355	75.5
495.573	88.5
495.79	99.5
496.008	103.5
496.225	99.5
496.442	100.5
496.66	103.5
496.877	93.5
497.094	92.5
497.312	84.5
497.529	108.5
497.746	92.5
497.963	97.5
498.181	86.5
498.398	83.5
498.615	114.5
498.832	94.5
499.049	85.5
499.267	96.5
499.484	86.5
499.701	85.5
499.918	89.5
500.135	97.5
500.352	95.5
500.569	92.5
500.786	103.5
501.003	94.5
501.22	93.5
501.437	86.5
501.654	91.5
501.871	106.5
502.088	81.5
502.305	90.5
502.522	89.5
502.739	85.5
502.956	100.5
503.172	106.5
503.389	102.5
503.606	103.5
503.823	106.5
504.04	96.5
504.256	86.5
504.473	90.5
504.69	92.5
504.907	98.5
505.123	86.5
505.34	94.5
505.557	95.5
505.773	94.5
505.99	95.5
506.207	86.5
506.423	92.5
506.64	74.5
506.856	91.5
507.073	105.5
507.289	109.5
507.506	110.5
507.722	111.5
507.939	100.5
508.155	94.5
508.372	80.5
508.588	104.5
508.805	89.5
509.021	100.5
509.238	96.5
509.454	95.5
509.67	108.5
509.887	115.5
510.103	122.5
510.319	202.5
510.536	687.5
510.752	2143.5
510.968	595.5
511.184	141.5
511.401	105.5
511.617	80.5
511.833	94.5
512.049	87.5
512.265	93.5
512.481	73.5
512.698	77.5
512.914	99.5
513.13	93.5
513.346	71.5
513.562	107.5
513.778	88.5
513.994	98.5
514.21	118.5
514.426	124.5
514.642	124.5
514.858	121.5
515.074	148.5
515.29	418.5
515.506	1243.5
515.721	452.5
515.937	146.5
516.153	122.5
516.369	98.5
516.585	107.5
516.801	97.5
517.016	95.5
517.232	107.5
517.448	94.5
517.664	94.5
517.879	86.5
518.095	101.5
518.311	103.5
518.527	107.5
518.742	99.5
518.958	113.5
519.173	90.5
519.389	100.5
519.605	102.5
519.82	85.5
520.036	104.5
520.251	115.5
520.467	95.5
520.682	104.5
520.898	105.5
521.113	102.5
521.329	128.5
521.544	181.5
521.76	494.5
521.975	2073.5
522.19	1203.5
522.406	271.5
522.621	123.5
522.836	93.5
523.052	96.5
523.267	95.5
523.482	102.5
523.698	95.5
523.913	111.5
524.128	102.5
524.343	75.5
524.559	97.5
524.774	109.5
524.989	94.5
525.204	97.5
525.419	96.5
525.634	94.5
525.849	82.5
526.064	79.5
526.28	80.5
526.495	89.5
526.71	99.5
526.925	97.5
527.14	92.5
527.355	90.5
527.57	87.5
527.785	87.5
527.999	88.5
528.214	108.5
528.429	91.5
528.644	93.5
528.859	81.5
529.074	75.5
529.289	116.5
529.503	163.5
529.718	111.5
529.933	88.5
530.148	83.5
530.363	93.5
530.577	96.5
530.792	95.5
531.007	95.5
531.221	86.5
531.436	85.5
531.651	90.5
531.865	87.5
532.08	104.5
532.295	97.5
532.509	81.5
532.724	104.5
532.938	84.5
533.153	81.5
533.367	97.5
533.582	98.5
533.796	97.5
534.011	89.5
534.225	109.5
534.44	81.5
534.654	98.5
