Data from Uncirc_1994_H10_HRD10591_00080.txt Node
Date: Wed Jan 03 11:39:36 EST 2024
User: Yrep
Spectrometer: HR+D1059
Trigger mode: 1
Integration Time (sec): 1.000000E-1
Scans to average: 1
Electric dark correction enabled: true
Nonlinearity correction enabled: false
Boxcar width: 0
XAxis mode: Wavelengths
Number of Pixels in Spectrum: 2048
>>>>>Begin Spectral Data<<<<<
223.165	-23.25
223.4	-23.25
223.635	-23.25
223.869	-26.25
224.104	-33.25
224.338	-19.25
224.573	-12.25
224.808	-12.25
225.042	-3.25
225.277	-8.25
225.511	7.75
225.746	-4.25
225.98	13.75
226.215	9.75
226.449	13.75
226.683	27.75
226.918	37.75
227.152	31.75
227.387	27.75
227.621	33.75
227.856	24.75
228.09	38.75
228.324	43.75
228.559	37.75
228.793	57.75
229.027	60.75
229.262	62.75
229.496	61.75
229.73	61.75
229.964	63.75
230.199	63.75
230.433	68.75
230.667	70.75
230.901	74.75
231.136	84.75
231.37	69.75
231.604	78.75
231.838	82.75
232.072	86.75
232.306	78.75
232.541	81.75
232.775	77.75
233.009	78.75
233.243	78.75
233.477	58.75
233.711	79.75
233.945	62.75
234.179	60.75
234.413	57.75
234.647	71.75
234.881	82.75
235.115	67.75
235.349	64.75
235.583	78.75
235.817	80.75
236.051	85.75
236.285	83.75
236.519	69.75
236.753	67.75
236.987	83.75
237.221	87.75
237.455	90.75
237.689	69.75
237.922	78.75
238.156	74.75
238.39	64.75
238.624	69.75
238.858	80.75
239.091	67.75
239.325	84.75
239.559	70.75
239.793	83.75
240.027	69.75
240.26	70.75
240.494	71.75
240.728	71.75
240.961	65.75
241.195	77.75
241.429	63.75
241.662	71.75
241.896	75.75
242.13	79.75
242.363	56.75
242.597	81.75
242.83	71.75
243.064	71.75
243.298	82.75
243.531	77.75
243.765	60.75
243.998	75.75
244.232	81.75
244.465	77.75
244.699	74.75
244.932	55.75
245.166	72.75
245.399	70.75
245.633	69.75
245.866	77.75
246.099	67.75
246.333	59.75
246.566	62.75
246.8	69.75
247.033	75.75
247.266	72.75
247.5	79.75
247.733	81.75
247.966	58.75
248.2	73.75
248.433	83.75
248.666	77.75
248.899	76.75
249.133	100.75
249.366	95.75
249.599	95.75
249.832	83.75
250.066	74.75
250.299	78.75
250.532	61.75
250.765	75.75
250.998	85.75
251.231	88.75
251.465	80.75
251.698	71.75
251.931	84.75
252.164	71.75
252.397	75.75
252.63	69.75
252.863	75.75
253.096	77.75
253.329	82.75
253.562	71.75
253.795	61.75
254.028	73.75
254.261	85.75
254.494	79.75
254.727	95.75
254.96	56.75
255.193	68.75
255.426	86.75
255.659	81.75
255.892	85.75
256.124	91.75
256.357	79.75
256.59	72.75
256.823	91.75
257.056	76.75
257.289	59.75
257.521	55.75
257.754	87.75
257.987	77.75
258.22	88.75
258.452	74.75
258.685	73.75
258.918	86.75
259.151	77.75
259.383	75.75
259.616	77.75
259.849	84.75
260.081	80.75
260.314	76.75
260.547	78.75
260.779	87.75
261.012	89.75
261.244	67.75
261.477	91.75
261.71	84.75
261.942	92.75
262.175	103.75
262.407	96.75
262.64	79.75
262.872	87.75
263.105	91.75
263.337	86.75
263.57	86.75
263.802	89.75
264.035	73.75
264.267	81.75
264.499	89.75
264.732	76.75
264.964	71.75
265.197	76.75
265.429	70.75
265.661	87.75
265.894	84.75
266.126	72.75
266.358	80.75
266.591	80.75
266.823	71.75
267.055	71.75
267.287	79.75
267.52	88.75
267.752	69.75
267.984	72.75
268.216	72.75
268.448	78.75
268.681	85.75
268.913	85.75
269.145	65.75
269.377	84.75
269.609	91.75
269.841	75.75
270.073	80.75
270.306	80.75
270.538	70.75
270.77	86.75
271.002	75.75
271.234	75.75
271.466	90.75
271.698	83.75
271.93	86.75
272.162	85.75
272.394	77.75
272.626	75.75
272.858	72.75
273.09	89.75
273.322	78.75
273.553	92.75
273.785	74.75
274.017	70.75
274.249	90.75
274.481	93.75
274.713	77.75
274.945	81.75
275.176	69.75
275.408	73.75
275.64	74.75
275.872	78.75
276.104	82.75
276.335	85.75
276.567	86.75
276.799	88.75
277.031	83.75
277.262	84.75
277.494	77.75
277.726	68.75
277.957	84.75
278.189	76.75
278.421	77.75
278.652	72.75
278.884	79.75
279.115	84.75
279.347	90.75
279.579	92.75
279.81	90.75
280.042	87.75
280.273	77.75
280.505	82.75
280.736	89.75
280.968	86.75
281.199	91.75
281.431	65.75
281.662	82.75
281.894	84.75
282.125	97.75
282.356	101.75
282.588	131.75
282.819	104.75
283.051	89.75
283.282	81.75
283.513	95.75
283.745	89.75
283.976	83.75
284.207	82.75
284.439	89.75
284.67	83.75
284.901	67.75
285.132	78.75
285.364	81.75
285.595	86.75
285.826	84.75
286.057	75.75
286.288	67.75
286.52	83.75
286.751	89.75
286.982	77.75
287.213	90.75
287.444	72.75
287.675	66.75
287.906	68.75
288.138	100.75
288.369	103.75
288.6	79.75
288.831	74.75
289.062	89.75
289.293	93.75
289.524	91.75
289.755	92.75
289.986	104.75
290.217	86.75
290.448	73.75
290.679	78.75
290.91	81.75
291.141	75.75
291.371	87.75
291.602	77.75
291.833	93.75
292.064	91.75
292.295	84.75
292.526	89.75
292.757	85.75
292.987	81.75
293.218	74.75
293.449	83.75
293.68	85.75
293.91	85.75
294.141	92.75
294.372	89.75
294.603	90.75
294.833	91.75
295.064	71.75
295.295	80.75
295.525	93.75
295.756	93.75
295.987	107.75
296.217	140.75
296.448	122.75
296.679	99.75
296.909	92.75
297.14	82.75
297.37	83.75
297.601	81.75
297.831	81.75
298.062	91.75
298.292	83.75
298.523	85.75
298.753	73.75
298.984	85.75
299.214	82.75
299.445	67.75
299.675	95.75
299.905	97.75
300.136	81.75
300.366	94.75
300.597	87.75
300.827	81.75
301.057	105.75
301.288	91.75
301.518	83.75
301.748	87.75
301.979	101.75
302.209	89.75
302.439	95.75
302.669	86.75
302.9	90.75
303.13	93.75
303.36	86.75
303.59	96.75
303.82	100.75
304.051	98.75
304.281	94.75
304.511	90.75
304.741	91.75
304.971	95.75
305.201	75.75
305.431	85.75
305.661	91.75
305.891	75.75
306.121	92.75
306.352	100.75
306.582	91.75
306.812	86.75
307.042	88.75
307.272	94.75
307.502	92.75
307.731	91.75
307.961	88.75
308.191	91.75
308.421	80.75
308.651	83.75
308.881	73.75
309.111	93.75
309.341	77.75
309.571	98.75
309.8	83.75
310.03	100.75
310.26	98.75
310.49	105.75
310.72	97.75
310.949	104.75
311.179	108.75
311.409	89.75
311.639	85.75
311.868	81.75
312.098	95.75
312.328	95.75
312.557	101.75
312.787	103.75
313.017	92.75
313.246	92.75
313.476	92.75
313.706	97.75
313.935	94.75
314.165	101.75
314.394	96.75
314.624	83.75
314.853	98.75
315.083	95.75
315.312	82.75
315.542	80.75
315.771	89.75
316.001	87.75
316.23	83.75
316.46	96.75
316.689	80.75
316.919	95.75
317.148	73.75
317.377	98.75
317.607	86.75
317.836	104.75
318.065	96.75
318.295	88.75
318.524	84.75
318.753	84.75
318.983	100.75
319.212	92.75
319.441	112.75
319.67	96.75
319.9	83.75
320.129	82.75
320.358	90.75
320.587	104.75
320.816	96.75
321.046	93.75
321.275	108.75
321.504	89.75
321.733	95.75
321.962	89.75
322.191	92.75
322.42	106.75
322.649	96.75
322.878	116.75
323.108	110.75
323.337	104.75
323.566	126.75
323.795	143.75
324.024	199.75
324.253	353.75
324.482	806.75
324.71	1662.75
324.939	2172.75
325.168	824.75
325.397	240.75
325.626	138.75
325.855	126.75
326.084	121.75
326.313	121.75
326.542	139.75
326.77	215.75
326.999	453.75
327.228	949.75
327.457	1698.75
327.686	1317.75
327.914	357.75
328.143	179.75
328.372	124.75
328.6	123.75
328.829	99.75
329.058	118.75
329.287	112.75
329.515	114.75
329.744	109.75
329.972	97.75
330.201	97.75
330.43	115.75
330.658	116.75
330.887	128.75
331.115	112.75
331.344	103.75
331.572	78.75
331.801	100.75
332.03	101.75
332.258	82.75
332.486	96.75
332.715	93.75
332.943	71.75
333.172	93.75
333.4	89.75
333.629	87.75
333.857	106.75
334.085	95.75
334.314	94.75
334.542	87.75
334.771	87.75
334.999	86.75
335.227	80.75
335.455	87.75
335.684	88.75
335.912	107.75
336.14	91.75
336.369	93.75
336.597	92.75
336.825	98.75
337.053	93.75
337.281	82.75
337.51	87.75
337.738	94.75
337.966	92.75
338.194	104.75
338.422	88.75
338.65	92.75
338.878	102.75
339.106	90.75
339.334	80.75
339.562	85.75
339.79	79.75
340.018	72.75
340.246	92.75
340.474	90.75
340.702	92.75
340.93	92.75
341.158	86.75
341.386	89.75
341.614	93.75
341.842	90.75
342.07	81.75
342.298	91.75
342.526	87.75
342.754	94.75
342.981	88.75
343.209	100.75
343.437	87.75
343.665	92.75
343.893	87.75
344.12	93.75
344.348	94.75
344.576	84.75
344.804	93.75
345.031	97.75
345.259	89.75
345.487	88.75
345.714	92.75
345.942	90.75
346.17	94.75
346.397	92.75
346.625	87.75
346.853	93.75
347.08	90.75
347.308	95.75
347.535	89.75
347.763	84.75
347.99	82.75
348.218	89.75
348.445	104.75
348.673	96.75
348.9	97.75
349.128	107.75
349.355	83.75
349.583	97.75
349.81	101.75
350.037	94.75
350.265	90.75
350.492	89.75
350.72	90.75
350.947	96.75
351.174	94.75
351.402	76.75
351.629	92.75
351.856	95.75
352.083	105.75
352.311	99.75
352.538	108.75
352.765	98.75
352.992	109.75
353.22	115.75
353.447	100.75
353.674	98.75
353.901	89.75
354.128	78.75
354.355	81.75
354.583	85.75
354.81	98.75
355.037	99.75
355.264	91.75
355.491	95.75
355.718	79.75
355.945	94.75
356.172	91.75
356.399	96.75
356.626	94.75
356.853	91.75
357.08	74.75
357.307	90.75
357.534	89.75
357.761	93.75
357.988	89.75
358.215	93.75
358.441	84.75
358.668	92.75
358.895	93.75
359.122	84.75
359.349	88.75
359.576	94.75
359.802	86.75
360.029	92.75
360.256	110.75
360.483	84.75
360.709	87.75
360.936	83.75
361.163	87.75
361.39	91.75
361.616	84.75
361.843	95.75
362.07	95.75
362.296	92.75
362.523	92.75
362.749	93.75
362.976	83.75
363.203	89.75
363.429	100.75
363.656	94.75
363.882	89.75
364.109	78.75
364.335	89.75
364.562	84.75
364.788	70.75
365.015	88.75
365.241	103.75
365.468	85.75
365.694	87.75
365.92	95.75
366.147	87.75
366.373	95.75
366.599	85.75
366.826	85.75
367.052	84.75
367.278	93.75
367.505	84.75
367.731	85.75
367.957	74.75
368.184	84.75
368.41	83.75
368.636	95.75
368.862	107.75
369.089	93.75
369.315	102.75
369.541	94.75
369.767	85.75
369.993	87.75
370.219	88.75
370.445	86.75
370.672	84.75
370.898	81.75
371.124	84.75
371.35	88.75
371.576	89.75
371.802	88.75
372.028	80.75
372.254	84.75
372.48	83.75
372.706	92.75
372.932	85.75
373.158	79.75
373.384	93.75
373.61	85.75
373.835	76.75
374.061	77.75
374.287	80.75
374.513	75.75
374.739	107.75
374.965	92.75
375.191	84.75
375.416	95.75
375.642	89.75
375.868	92.75
376.094	89.75
376.319	92.75
376.545	90.75
376.771	90.75
376.997	91.75
377.222	96.75
377.448	100.75
377.674	91.75
377.899	85.75
378.125	92.75
378.35	94.75
378.576	87.75
378.802	103.75
379.027	83.75
379.253	75.75
379.478	95.75
379.704	93.75
379.929	99.75
380.155	80.75
380.38	98.75
380.606	87.75
380.831	85.75
381.057	92.75
381.282	90.75
381.507	88.75
381.733	78.75
381.958	93.75
382.184	91.75
382.409	92.75
382.634	90.75
382.86	86.75
383.085	107.75
383.31	80.75
383.535	93.75
383.761	100.75
383.986	91.75
384.211	89.75
384.436	89.75
384.662	95.75
384.887	110.75
385.112	85.75
385.337	85.75
385.562	84.75
385.787	103.75
386.013	83.75
386.238	107.75
386.463	93.75
386.688	108.75
386.913	104.75
387.138	96.75
387.363	80.75
387.588	94.75
387.813	98.75
388.038	93.75
388.263	95.75
388.488	103.75
388.713	89.75
388.938	100.75
389.163	93.75
389.387	84.75
389.612	95.75
389.837	81.75
390.062	86.75
390.287	75.75
390.512	97.75
390.736	86.75
390.961	84.75
391.186	105.75
391.411	96.75
391.636	101.75
391.86	79.75
392.085	93.75
392.31	66.75
392.534	94.75
392.759	85.75
392.984	87.75
393.208	83.75
393.433	88.75
393.658	81.75
393.882	94.75
394.107	87.75
394.331	81.75
394.556	77.75
394.78	95.75
395.005	78.75
395.229	93.75
395.454	93.75
395.678	90.75
395.903	90.75
396.127	90.75
396.352	91.75
396.576	78.75
396.801	87.75
397.025	80.75
397.249	86.75
397.474	64.75
397.698	83.75
397.922	69.75
398.147	90.75
398.371	57.75
398.595	91.75
398.82	84.75
399.044	73.75
399.268	89.75
399.492	93.75
399.717	75.75
399.941	82.75
400.165	96.75
400.389	98.75
400.613	92.75
400.837	83.75
401.062	85.75
401.286	85.75
401.51	112.75
401.734	87.75
401.958	100.75
402.182	113.75
402.406	146.75
402.63	125.75
402.854	95.75
403.078	88.75
403.302	88.75
403.526	82.75
403.75	76.75
403.974	78.75
404.198	87.75
404.422	104.75
404.645	72.75
404.869	90.75
405.093	87.75
405.317	83.75
405.541	87.75
405.765	92.75
405.988	119.75
406.212	159.75
406.436	202.75
406.66	126.75
406.883	76.75
407.107	86.75
407.331	93.75
407.555	93.75
407.778	90.75
408.002	80.75
408.226	83.75
408.449	78.75
408.673	75.75
408.896	87.75
409.12	91.75
409.344	79.75
409.567	100.75
409.791	81.75
410.014	101.75
410.238	93.75
410.461	76.75
410.685	79.75
410.908	93.75
411.132	99.75
411.355	91.75
411.578	104.75
411.802	96.75
412.025	70.75
412.249	77.75
412.472	80.75
412.695	85.75
412.919	73.75
413.142	78.75
413.365	88.75
413.589	84.75
413.812	88.75
414.035	85.75
414.258	65.75
414.482	89.75
414.705	79.75
414.928	88.75
415.151	75.75
415.374	84.75
415.597	86.75
415.821	91.75
416.044	88.75
416.267	90.75
416.49	99.75
416.713	92.75
416.936	71.75
417.159	90.75
417.382	81.75
417.605	84.75
417.828	99.75
418.051	89.75
418.274	83.75
418.497	79.75
418.72	86.75
418.943	75.75
419.166	86.75
419.389	79.75
419.611	95.75
419.834	84.75
420.057	85.75
420.28	90.75
420.503	91.75
420.726	78.75
420.948	81.75
421.171	84.75
421.394	101.75
421.617	97.75
421.839	97.75
422.062	78.75
422.285	80.75
422.507	96.75
422.73	97.75
422.953	92.75
423.175	84.75
423.398	84.75
423.621	95.75
423.843	73.75
424.066	85.75
424.288	90.75
424.511	93.75
424.733	96.75
424.956	109.75
425.178	87.75
425.401	91.75
425.623	84.75
425.846	84.75
426.068	97.75
426.291	85.75
426.513	81.75
426.735	85.75
426.958	89.75
427.18	107.75
427.402	124.75
427.625	160.75
427.847	100.75
428.069	94.75
428.292	74.75
428.514	80.75
428.736	80.75
428.958	90.75
429.181	71.75
429.403	70.75
429.625	80.75
429.847	89.75
430.069	91.75
430.292	94.75
430.514	81.75
430.736	79.75
430.958	94.75
431.18	65.75
431.402	86.75
431.624	89.75
431.846	88.75
432.068	89.75
432.29	72.75
432.512	79.75
432.734	84.75
432.956	89.75
433.178	113.75
433.4	87.75
433.622	75.75
433.844	81.75
434.066	94.75
434.287	91.75
434.509	89.75
434.731	95.75
434.953	77.75
435.175	72.75
435.397	92.75
435.618	90.75
435.84	95.75
436.062	112.75
436.284	116.75
436.505	96.75
436.727	93.75
436.949	101.75
437.17	87.75
437.392	82.75
437.614	92.75
437.835	107.75
438.057	102.75
438.278	100.75
438.5	103.75
438.721	127.75
438.943	99.75
439.165	85.75
439.386	93.75
439.608	82.75
439.829	84.75
440.05	111.75
440.272	112.75
440.493	76.75
440.715	94.75
440.936	87.75
441.158	87.75
441.379	89.75
441.6	93.75
441.822	103.75
442.043	103.75
442.264	105.75
442.486	94.75
442.707	80.75
442.928	88.75
443.149	113.75
443.371	120.75
443.592	107.75
443.813	95.75
444.034	109.75
444.255	82.75
444.476	76.75
444.698	94.75
444.919	92.75
445.14	133.75
445.361	105.75
445.582	108.75
445.803	131.75
446.024	119.75
446.245	131.75
446.466	99.75
446.687	104.75
446.908	84.75
447.129	78.75
447.35	80.75
447.571	81.75
447.792	72.75
448.013	95.75
448.234	102.75
448.455	92.75
448.675	96.75
448.896	110.75
449.117	90.75
449.338	104.75
449.559	143.75
449.779	117.75
450	96.75
450.221	83.75
450.442	90.75
450.662	110.75
450.883	103.75
451.104	104.75
451.324	86.75
451.545	79.75
451.766	81.75
451.986	79.75
452.207	94.75
452.428	96.75
452.648	100.75
452.869	96.75
453.089	96.75
453.31	116.75
453.53	68.75
453.751	87.75
453.971	86.75
454.192	109.75
454.412	96.75
454.633	77.75
454.853	72.75
455.073	69.75
455.294	87.75
455.514	89.75
455.734	81.75
455.955	77.75
456.175	84.75
456.395	90.75
456.616	75.75
456.836	70.75
457.056	74.75
457.276	93.75
457.497	86.75
457.717	99.75
457.937	80.75
458.157	90.75
458.377	100.75
458.598	101.75
458.818	149.75
459.038	141.75
459.258	114.75
459.478	80.75
459.698	84.75
459.918	80.75
460.138	75.75
460.358	76.75
460.578	70.75
460.798	82.75
461.018	94.75
461.238	88.75
461.458	83.75
461.678	79.75
461.898	93.75
462.118	84.75
462.338	88.75
462.558	84.75
462.777	73.75
462.997	71.75
463.217	77.75
463.437	85.75
463.657	89.75
463.876	91.75
464.096	93.75
464.316	97.75
464.536	86.75
464.755	83.75
464.975	105.75
465.195	164.75
465.414	152.75
465.634	92.75
465.854	79.75
466.073	89.75
466.293	81.75
466.512	91.75
466.732	75.75
466.951	69.75
467.171	85.75
467.391	92.75
467.61	100.75
467.829	97.75
468.049	94.75
468.268	92.75
468.488	83.75
468.707	74.75
468.927	71.75
469.146	77.75
469.365	87.75
469.585	76.75
469.804	86.75
470.023	85.75
470.243	84.75
470.462	91.75
470.681	94.75
470.901	90.75
471.12	80.75
471.339	78.75
471.558	88.75
471.777	69.75
471.997	86.75
472.216	86.75
472.435	88.75
472.654	88.75
472.873	83.75
473.092	78.75
473.311	71.75
473.53	75.75
473.749	90.75
473.968	108.75
474.187	94.75
474.406	90.75
474.625	86.75
474.844	75.75
475.063	70.75
475.282	73.75
475.501	84.75
475.72	84.75
475.939	68.75
476.158	68.75
476.377	73.75
476.596	92.75
476.814	75.75
477.033	91.75
477.252	90.75
477.471	87.75
477.69	85.75
477.908	79.75
478.127	104.75
478.346	83.75
478.564	94.75
478.783	83.75
479.002	93.75
479.22	100.75
479.439	91.75
479.658	93.75
479.876	80.75
480.095	83.75
480.313	83.75
480.532	78.75
480.751	88.75
480.969	87.75
481.188	84.75
481.406	105.75
481.624	95.75
481.843	93.75
482.061	85.75
482.28	83.75
482.498	93.75
482.717	93.75
482.935	84.75
483.153	83.75
483.372	72.75
483.59	83.75
483.808	84.75
484.027	85.75
484.245	71.75
484.463	103.75
484.681	103.75
484.9	97.75
485.118	88.75
485.336	86.75
485.554	99.75
485.772	87.75
485.99	86.75
486.209	99.75
486.427	96.75
486.645	111.75
486.863	113.75
487.081	109.75
487.299	93.75
487.517	94.75
487.735	95.75
487.953	87.75
488.171	87.75
488.389	79.75
488.607	85.75
488.825	81.75
489.043	87.75
489.261	92.75
489.479	96.75
489.696	93.75
489.914	75.75
490.132	88.75
490.35	74.75
490.568	97.75
490.786	88.75
491.003	88.75
491.221	84.75
491.439	81.75
491.657	89.75
491.874	80.75
492.092	84.75
492.31	86.75
492.527	92.75
492.745	90.75
492.963	94.75
493.18	88.75
493.398	92.75
493.615	92.75
493.833	83.75
494.05	89.75
494.268	94.75
494.485	83.75
494.703	84.75
494.92	93.75
495.138	92.75
495.355	87.75
495.573	86.75
495.79	91.75
496.008	102.75
496.225	79.75
496.442	84.75
496.66	90.75
496.877	87.75
497.094	94.75
497.312	83.75
497.529	85.75
497.746	79.75
497.963	87.75
498.181	87.75
498.398	93.75
498.615	118.75
498.832	96.75
499.049	93.75
499.267	89.75
499.484	91.75
499.701	80.75
499.918	80.75
500.135	73.75
500.352	78.75
500.569	77.75
500.786	72.75
501.003	77.75
501.22	75.75
501.437	92.75
501.654	99.75
501.871	99.75
502.088	102.75
502.305	91.75
502.522	90.75
502.739	101.75
502.956	103.75
503.172	72.75
503.389	92.75
503.606	97.75
503.823	91.75
504.04	83.75
504.256	93.75
504.473	86.75
504.69	81.75
504.907	85.75
505.123	90.75
505.34	87.75
505.557	89.75
505.773	98.75
505.99	77.75
506.207	79.75
506.423	84.75
506.64	82.75
506.856	86.75
507.073	87.75
507.289	98.75
507.506	90.75
507.722	99.75
507.939	107.75
508.155	98.75
508.372	83.75
508.588	95.75
508.805	91.75
509.021	89.75
509.238	96.75
509.454	81.75
509.67	104.75
509.887	104.75
510.103	130.75
510.319	210.75
510.536	714.75
510.752	2185.75
510.968	602.75
511.184	142.75
511.401	111.75
511.617	101.75
511.833	89.75
512.049	76.75
512.265	82.75
512.481	92.75
512.698	96.75
512.914	91.75
513.13	75.75
513.346	105.75
513.562	89.75
513.778	78.75
513.994	89.75
514.21	97.75
514.426	111.75
514.642	130.75
514.858	116.75
515.074	158.75
515.29	410.75
515.506	1369.75
515.721	495.75
515.937	151.75
516.153	111.75
516.369	93.75
516.585	88.75
516.801	98.75
517.016	85.75
517.232	97.75
