Data from Uncirc_1994_H10_HRD10591_00010.txt Node
Date: Wed Jan 03 11:39:22 EST 2024
User: Yrep
Spectrometer: HR+D1059
Trigger mode: 1
Integration Time (sec): 1.000000E-1
Scans to average: 1
Electric dark correction enabled: true
Nonlinearity correction enabled: false
Boxcar width: 0
XAxis mode: Wavelengths
Number of Pixels in Spectrum: 2048
>>>>>Begin Spectral Data<<<<<
223.165	-25.38
223.4	-25.38
223.635	-25.38
223.869	-4.38
224.104	-14.38
224.338	1.62
224.573	-20.38
224.808	-7.38
225.042	-21.38
225.277	-19.38
225.511	3.62
225.746	6.62
225.98	-5.38
226.215	6.62
226.449	13.62
226.683	17.62
226.918	28.62
227.152	39.62
227.387	27.62
227.621	31.62
227.856	30.62
228.09	51.62
228.324	59.62
228.559	51.62
228.793	59.62
229.027	49.62
229.262	62.62
229.496	53.62
229.73	90.62
229.964	81.62
230.199	73.62
230.433	66.62
230.667	73.62
230.901	80.62
231.136	83.62
231.37	73.62
231.604	86.62
231.838	68.62
232.072	59.62
232.306	80.62
232.541	92.62
232.775	75.62
233.009	72.62
233.243	89.62
233.477	74.62
233.711	75.62
233.945	63.62
234.179	91.62
234.413	79.62
234.647	86.62
234.881	77.62
235.115	82.62
235.349	74.62
235.583	79.62
235.817	73.62
236.051	65.62
236.285	79.62
236.519	85.62
236.753	84.62
236.987	68.62
237.221	82.62
237.455	89.62
237.689	72.62
237.922	90.62
238.156	73.62
238.39	85.62
238.624	67.62
238.858	86.62
239.091	75.62
239.325	82.62
239.559	77.62
239.793	69.62
240.027	70.62
240.26	69.62
240.494	66.62
240.728	63.62
240.961	73.62
241.195	65.62
241.429	77.62
241.662	73.62
241.896	76.62
242.13	79.62
242.363	71.62
242.597	67.62
242.83	76.62
243.064	63.62
243.298	67.62
243.531	67.62
243.765	87.62
243.998	86.62
244.232	64.62
244.465	82.62
244.699	80.62
244.932	70.62
245.166	70.62
245.399	78.62
245.633	76.62
245.866	64.62
246.099	83.62
246.333	72.62
246.566	59.62
246.8	65.62
247.033	66.62
247.266	74.62
247.5	84.62
247.733	80.62
247.966	62.62
248.2	85.62
248.433	75.62
248.666	63.62
248.899	81.62
249.133	73.62
249.366	91.62
249.599	101.62
249.832	75.62
250.066	93.62
250.299	69.62
250.532	84.62
250.765	85.62
250.998	69.62
251.231	85.62
251.465	68.62
251.698	71.62
251.931	85.62
252.164	78.62
252.397	78.62
252.63	76.62
252.863	68.62
253.096	82.62
253.329	93.62
253.562	77.62
253.795	86.62
254.028	93.62
254.261	81.62
254.494	90.62
254.727	91.62
254.96	59.62
255.193	80.62
255.426	77.62
255.659	74.62
255.892	74.62
256.124	75.62
256.357	77.62
256.59	77.62
256.823	84.62
257.056	88.62
257.289	85.62
257.521	79.62
257.754	66.62
257.987	72.62
258.22	81.62
258.452	85.62
258.685	78.62
258.918	71.62
259.151	86.62
259.383	82.62
259.616	85.62
259.849	75.62
260.081	66.62
260.314	79.62
260.547	90.62
260.779	76.62
261.012	93.62
261.244	89.62
261.477	72.62
261.71	74.62
261.942	109.62
262.175	116.62
262.407	83.62
262.64	74.62
262.872	82.62
263.105	82.62
263.337	86.62
263.57	76.62
263.802	81.62
264.035	90.62
264.267	83.62
264.499	79.62
264.732	85.62
264.964	77.62
265.197	63.62
265.429	83.62
265.661	87.62
265.894	79.62
266.126	96.62
266.358	81.62
266.591	81.62
266.823	82.62
267.055	80.62
267.287	80.62
267.52	85.62
267.752	64.62
267.984	86.62
268.216	73.62
268.448	83.62
268.681	80.62
268.913	92.62
269.145	74.62
269.377	90.62
269.609	85.62
269.841	96.62
270.073	74.62
270.306	75.62
270.538	93.62
270.77	85.62
271.002	74.62
271.234	80.62
271.466	77.62
271.698	79.62
271.93	81.62
272.162	81.62
272.394	92.62
272.626	74.62
272.858	78.62
273.09	92.62
273.322	83.62
273.553	79.62
273.785	87.62
274.017	89.62
274.249	77.62
274.481	82.62
274.713	85.62
274.945	77.62
275.176	90.62
275.408	81.62
275.64	77.62
275.872	75.62
276.104	73.62
276.335	91.62
276.567	88.62
276.799	91.62
277.031	82.62
277.262	91.62
277.494	76.62
277.726	88.62
277.957	82.62
278.189	96.62
278.421	93.62
278.652	86.62
278.884	87.62
279.115	71.62
279.347	75.62
279.579	86.62
279.81	85.62
280.042	85.62
280.273	92.62
280.505	94.62
280.736	89.62
280.968	88.62
281.199	89.62
281.431	75.62
281.662	81.62
281.894	82.62
282.125	96.62
282.356	123.62
282.588	129.62
282.819	109.62
283.051	85.62
283.282	77.62
283.513	87.62
283.745	91.62
283.976	90.62
284.207	91.62
284.439	76.62
284.67	72.62
284.901	76.62
285.132	87.62
285.364	75.62
285.595	86.62
285.826	82.62
286.057	90.62
286.288	85.62
286.52	83.62
286.751	99.62
286.982	74.62
287.213	85.62
287.444	57.62
287.675	81.62
287.906	84.62
288.138	78.62
288.369	86.62
288.6	96.62
288.831	86.62
289.062	80.62
289.293	94.62
289.524	91.62
289.755	95.62
289.986	81.62
290.217	87.62
290.448	89.62
290.679	83.62
290.91	85.62
291.141	84.62
291.371	86.62
291.602	82.62
291.833	88.62
292.064	86.62
292.295	87.62
292.526	93.62
292.757	95.62
292.987	87.62
293.218	89.62
293.449	89.62
293.68	87.62
293.91	101.62
294.141	78.62
294.372	86.62
294.603	85.62
294.833	83.62
295.064	89.62
295.295	83.62
295.525	83.62
295.756	76.62
295.987	118.62
296.217	130.62
296.448	117.62
296.679	103.62
296.909	83.62
297.14	80.62
297.37	76.62
297.601	87.62
297.831	74.62
298.062	80.62
298.292	84.62
298.523	98.62
298.753	89.62
298.984	86.62
299.214	84.62
299.445	70.62
299.675	94.62
299.905	91.62
300.136	88.62
300.366	92.62
300.597	88.62
300.827	96.62
301.057	102.62
301.288	89.62
301.518	83.62
301.748	101.62
301.979	90.62
302.209	91.62
302.439	80.62
302.669	86.62
302.9	87.62
303.13	84.62
303.36	88.62
303.59	96.62
303.82	108.62
304.051	84.62
304.281	86.62
304.511	70.62
304.741	88.62
304.971	87.62
305.201	97.62
305.431	81.62
305.661	86.62
305.891	91.62
306.121	95.62
306.352	111.62
306.582	104.62
306.812	96.62
307.042	86.62
307.272	86.62
307.502	94.62
307.731	75.62
307.961	89.62
308.191	94.62
308.421	96.62
308.651	94.62
308.881	89.62
309.111	91.62
309.341	86.62
309.571	96.62
309.8	95.62
310.03	91.62
310.26	90.62
310.49	89.62
310.72	86.62
310.949	91.62
311.179	89.62
311.409	91.62
311.639	90.62
311.868	93.62
312.098	100.62
312.328	90.62
312.557	98.62
312.787	81.62
313.017	85.62
313.246	98.62
313.476	95.62
313.706	82.62
313.935	85.62
314.165	100.62
314.394	88.62
314.624	87.62
314.853	83.62
315.083	104.62
315.312	91.62
315.542	96.62
315.771	89.62
316.001	90.62
316.23	94.62
316.46	87.62
316.689	83.62
316.919	92.62
317.148	93.62
317.377	80.62
317.607	102.62
317.836	90.62
318.065	69.62
318.295	69.62
318.524	89.62
318.753	86.62
318.983	96.62
319.212	99.62
319.441	104.62
319.67	105.62
319.9	85.62
320.129	81.62
320.358	82.62
320.587	102.62
320.816	100.62
321.046	113.62
321.275	95.62
321.504	82.62
321.733	99.62
321.962	88.62
322.191	107.62
322.42	95.62
322.649	97.62
322.878	111.62
323.108	105.62
323.337	114.62
323.566	120.62
323.795	117.62
324.024	186.62
324.253	357.62
324.482	735.62
324.71	1471.62
324.939	1935.62
325.168	716.62
325.397	237.62
325.626	142.62
325.855	118.62
326.084	111.62
326.313	125.62
326.542	134.62
326.77	215.62
326.999	428.62
327.228	837.62
327.457	1505.62
327.686	1228.62
327.914	344.62
328.143	175.62
328.372	135.62
328.6	119.62
328.829	96.62
329.058	115.62
329.287	119.62
329.515	86.62
329.744	91.62
329.972	92.62
330.201	102.62
330.43	98.62
330.658	113.62
330.887	121.62
331.115	114.62
331.344	85.62
331.572	85.62
331.801	109.62
332.03	85.62
332.258	95.62
332.486	88.62
332.715	99.62
332.943	93.62
333.172	94.62
333.4	89.62
333.629	82.62
333.857	91.62
334.085	88.62
334.314	96.62
334.542	94.62
334.771	94.62
334.999	90.62
335.227	104.62
335.455	86.62
335.684	98.62
335.912	110.62
336.14	101.62
336.369	89.62
336.597	83.62
336.825	80.62
337.053	85.62
337.281	87.62
337.51	97.62
337.738	84.62
337.966	81.62
338.194	96.62
338.422	85.62
338.65	91.62
338.878	105.62
339.106	94.62
339.334	91.62
339.562	85.62
339.79	82.62
340.018	77.62
340.246	88.62
340.474	105.62
340.702	89.62
340.93	93.62
341.158	93.62
341.386	106.62
341.614	83.62
341.842	82.62
342.07	90.62
342.298	89.62
342.526	79.62
342.754	93.62
342.981	82.62
343.209	78.62
343.437	90.62
343.665	81.62
343.893	79.62
344.12	89.62
344.348	85.62
344.576	87.62
344.804	78.62
345.031	104.62
345.259	115.62
345.487	82.62
345.714	86.62
345.942	88.62
346.17	94.62
346.397	86.62
346.625	79.62
346.853	94.62
347.08	86.62
347.308	82.62
347.535	78.62
347.763	98.62
347.99	87.62
348.218	94.62
348.445	98.62
348.673	94.62
348.9	96.62
349.128	83.62
349.355	91.62
349.583	84.62
349.81	92.62
350.037	85.62
350.265	95.62
350.492	99.62
350.72	93.62
350.947	95.62
351.174	112.62
351.402	111.62
351.629	92.62
351.856	101.62
352.083	102.62
352.311	97.62
352.538	98.62
352.765	106.62
352.992	107.62
353.22	102.62
353.447	92.62
353.674	92.62
353.901	91.62
354.128	107.62
354.355	92.62
354.583	103.62
354.81	100.62
355.037	87.62
355.264	91.62
355.491	103.62
355.718	87.62
355.945	95.62
356.172	85.62
356.399	87.62
356.626	99.62
356.853	89.62
357.08	82.62
357.307	82.62
357.534	108.62
357.761	69.62
357.988	95.62
358.215	81.62
358.441	95.62
358.668	80.62
358.895	83.62
359.122	95.62
359.349	88.62
359.576	98.62
359.802	85.62
360.029	101.62
360.256	102.62
360.483	102.62
360.709	89.62
360.936	95.62
361.163	90.62
361.39	90.62
361.616	97.62
361.843	91.62
362.07	90.62
362.296	104.62
362.523	79.62
362.749	79.62
362.976	79.62
363.203	91.62
363.429	75.62
363.656	96.62
363.882	88.62
364.109	90.62
364.335	81.62
364.562	86.62
364.788	90.62
365.015	86.62
365.241	88.62
365.468	102.62
365.694	111.62
365.92	94.62
366.147	100.62
366.373	83.62
366.599	88.62
366.826	75.62
367.052	78.62
367.278	71.62
367.505	79.62
367.731	98.62
367.957	97.62
368.184	85.62
368.41	88.62
368.636	101.62
368.862	106.62
369.089	75.62
369.315	88.62
369.541	91.62
369.767	78.62
369.993	96.62
370.219	77.62
370.445	99.62
370.672	89.62
370.898	75.62
371.124	87.62
371.35	86.62
371.576	83.62
371.802	95.62
372.028	91.62
372.254	91.62
372.48	81.62
372.706	106.62
372.932	90.62
373.158	85.62
373.384	104.62
373.61	85.62
373.835	99.62
374.061	94.62
374.287	87.62
374.513	96.62
374.739	93.62
374.965	80.62
375.191	91.62
375.416	82.62
375.642	91.62
375.868	106.62
376.094	69.62
376.319	95.62
376.545	95.62
376.771	92.62
376.997	82.62
377.222	95.62
377.448	79.62
377.674	106.62
377.899	85.62
378.125	94.62
378.35	91.62
378.576	87.62
378.802	86.62
379.027	89.62
379.253	98.62
379.478	97.62
379.704	99.62
379.929	91.62
380.155	103.62
380.38	78.62
380.606	92.62
380.831	87.62
381.057	98.62
381.282	89.62
381.507	102.62
381.733	88.62
381.958	72.62
382.184	82.62
382.409	91.62
382.634	88.62
382.86	86.62
383.085	91.62
383.31	89.62
383.535	102.62
383.761	107.62
383.986	110.62
384.211	106.62
384.436	99.62
384.662	103.62
384.887	90.62
385.112	110.62
385.337	101.62
385.562	97.62
385.787	108.62
386.013	103.62
386.238	121.62
386.463	102.62
386.688	97.62
386.913	98.62
387.138	97.62
387.363	87.62
387.588	97.62
387.813	106.62
388.038	108.62
388.263	117.62
388.488	105.62
388.713	100.62
388.938	94.62
389.163	89.62
389.387	100.62
389.612	91.62
389.837	98.62
390.062	91.62
390.287	85.62
390.512	78.62
390.736	94.62
390.961	76.62
391.186	94.62
391.411	90.62
391.636	86.62
391.86	84.62
392.085	90.62
392.31	99.62
392.534	97.62
392.759	81.62
392.984	82.62
393.208	108.62
393.433	110.62
393.658	94.62
393.882	90.62
394.107	79.62
394.331	77.62
394.556	73.62
394.78	91.62
395.005	90.62
395.229	79.62
395.454	78.62
395.678	69.62
395.903	73.62
396.127	87.62
396.352	98.62
396.576	76.62
396.801	98.62
397.025	93.62
397.249	86.62
397.474	79.62
397.698	66.62
397.922	95.62
398.147	93.62
398.371	85.62
398.595	94.62
398.82	92.62
399.044	81.62
399.268	79.62
399.492	78.62
399.717	78.62
399.941	71.62
400.165	103.62
400.389	102.62
400.613	77.62
400.837	77.62
401.062	96.62
401.286	78.62
401.51	77.62
401.734	84.62
401.958	86.62
402.182	123.62
402.406	152.62
402.63	106.62
402.854	92.62
403.078	98.62
403.302	88.62
403.526	89.62
403.75	77.62
403.974	73.62
404.198	80.62
404.422	90.62
404.645	85.62
404.869	93.62
405.093	94.62
405.317	89.62
405.541	101.62
405.765	88.62
405.988	112.62
406.212	143.62
406.436	195.62
406.66	123.62
406.883	95.62
407.107	97.62
407.331	80.62
407.555	100.62
407.778	105.62
408.002	85.62
408.226	91.62
408.449	82.62
408.673	86.62
408.896	99.62
409.12	106.62
409.344	88.62
409.567	87.62
409.791	87.62
410.014	95.62
410.238	77.62
410.461	92.62
410.685	81.62
410.908	97.62
411.132	98.62
411.355	90.62
411.578	85.62
411.802	75.62
412.025	91.62
412.249	86.62
412.472	95.62
412.695	85.62
412.919	87.62
413.142	87.62
413.365	79.62
413.589	76.62
413.812	86.62
414.035	90.62
414.258	82.62
414.482	96.62
414.705	81.62
414.928	94.62
415.151	85.62
415.374	91.62
415.597	92.62
415.821	90.62
416.044	84.62
416.267	69.62
416.49	88.62
416.713	79.62
416.936	93.62
417.159	90.62
417.382	74.62
417.605	73.62
417.828	103.62
418.051	101.62
418.274	87.62
418.497	79.62
418.72	86.62
418.943	73.62
419.166	76.62
419.389	92.62
419.611	79.62
419.834	92.62
420.057	72.62
420.28	84.62
420.503	73.62
420.726	75.62
420.948	78.62
421.171	89.62
421.394	85.62
421.617	86.62
421.839	91.62
422.062	92.62
422.285	84.62
422.507	103.62
422.73	107.62
422.953	93.62
423.175	84.62
423.398	93.62
423.621	81.62
423.843	87.62
424.066	86.62
424.288	86.62
424.511	88.62
424.733	93.62
424.956	93.62
425.178	83.62
425.401	94.62
425.623	89.62
425.846	94.62
426.068	92.62
426.291	70.62
426.513	92.62
426.735	95.62
426.958	78.62
427.18	99.62
427.402	129.62
427.625	142.62
427.847	109.62
428.069	82.62
428.292	73.62
428.514	89.62
428.736	95.62
428.958	79.62
429.181	88.62
429.403	79.62
429.625	82.62
429.847	99.62
430.069	85.62
430.292	89.62
430.514	88.62
430.736	83.62
430.958	85.62
431.18	75.62
431.402	79.62
431.624	89.62
431.846	81.62
432.068	89.62
432.29	94.62
432.512	94.62
432.734	91.62
432.956	81.62
433.178	85.62
433.4	105.62
433.622	93.62
433.844	78.62
434.066	88.62
434.287	88.62
434.509	91.62
434.731	91.62
434.953	78.62
435.175	94.62
435.397	87.62
435.618	93.62
435.84	98.62
436.062	104.62
436.284	95.62
436.505	89.62
436.727	83.62
436.949	88.62
437.17	92.62
437.392	69.62
437.614	85.62
437.835	96.62
438.057	112.62
438.278	78.62
438.5	93.62
438.721	104.62
438.943	97.62
439.165	85.62
439.386	102.62
439.608	94.62
439.829	91.62
440.05	103.62
440.272	118.62
440.493	88.62
440.715	81.62
440.936	86.62
441.158	89.62
441.379	92.62
441.6	82.62
441.822	77.62
442.043	81.62
442.264	80.62
442.486	98.62
442.707	96.62
442.928	107.62
443.149	107.62
443.371	108.62
443.592	105.62
443.813	99.62
444.034	90.62
444.255	91.62
444.476	97.62
444.698	82.62
444.919	95.62
445.14	117.62
445.361	109.62
445.582	115.62
445.803	114.62
446.024	114.62
446.245	125.62
446.466	106.62
446.687	82.62
446.908	92.62
447.129	84.62
447.35	85.62
447.571	88.62
447.792	93.62
448.013	107.62
448.234	113.62
448.455	110.62
448.675	107.62
448.896	124.62
449.117	95.62
449.338	101.62
449.559	112.62
449.779	118.62
450	86.62
450.221	87.62
450.442	83.62
450.662	98.62
450.883	111.62
451.104	109.62
451.324	87.62
451.545	77.62
451.766	86.62
451.986	91.62
452.207	91.62
452.428	75.62
452.648	86.62
452.869	104.62
453.089	101.62
453.31	112.62
453.53	79.62
453.751	92.62
453.971	88.62
454.192	110.62
454.412	93.62
454.633	87.62
454.853	77.62
455.073	82.62
455.294	87.62
455.514	86.62
455.734	91.62
455.955	79.62
456.175	85.62
456.395	90.62
456.616	84.62
456.836	81.62
457.056	76.62
457.276	75.62
457.497	82.62
457.717	77.62
457.937	82.62
458.157	93.62
458.377	84.62
458.598	98.62
458.818	130.62
459.038	156.62
459.258	88.62
459.478	78.62
459.698	89.62
459.918	73.62
460.138	85.62
460.358	75.62
460.578	89.62
460.798	72.62
461.018	99.62
461.238	79.62
461.458	89.62
461.678	99.62
461.898	89.62
462.118	82.62
462.338	87.62
462.558	95.62
462.777	91.62
462.997	84.62
463.217	87.62
463.437	80.62
463.657	100.62
463.876	85.62
464.096	103.62
464.316	83.62
464.536	79.62
464.755	90.62
464.975	96.62
465.195	127.62
465.414	137.62
465.634	101.62
465.854	77.62
466.073	91.62
466.293	90.62
466.512	97.62
466.732	76.62
466.951	90.62
467.171	100.62
467.391	103.62
467.61	91.62
467.829	80.62
468.049	95.62
468.268	93.62
468.488	72.62
468.707	95.62
468.927	81.62
469.146	82.62
469.365	80.62
469.585	90.62
469.804	93.62
470.023	81.62
470.243	78.62
470.462	92.62
470.681	108.62
470.901	90.62
471.12	74.62
471.339	71.62
471.558	97.62
471.777	82.62
471.997	89.62
472.216	90.62
472.435	80.62
472.654	84.62
472.873	84.62
473.092	89.62
473.311	80.62
473.53	82.62
473.749	90.62
473.968	81.62
474.187	99.62
474.406	95.62
474.625	91.62
474.844	86.62
475.063	76.62
475.282	88.62
475.501	83.62
475.72	74.62
475.939	88.62
476.158	83.62
476.377	69.62
476.596	79.62
476.814	94.62
477.033	95.62
477.252	92.62
477.471	89.62
477.69	92.62
477.908	87.62
478.127	98.62
478.346	94.62
478.564	93.62
478.783	83.62
479.002	76.62
479.22	85.62
479.439	95.62
479.658	97.62
479.876	90.62
480.095	96.62
480.313	85.62
480.532	105.62
480.751	84.62
480.969	87.62
481.188	89.62
481.406	81.62
481.624	74.62
481.843	86.62
482.061	78.62
482.28	81.62
482.498	83.62
482.717	87.62
482.935	89.62
483.153	90.62
483.372	95.62
483.59	93.62
483.808	104.62
484.027	86.62
484.245	85.62
484.463	96.62
484.681	99.62
484.9	93.62
485.118	101.62
485.336	91.62
485.554	99.62
485.772	103.62
485.99	90.62
486.209	94.62
486.427	103.62
486.645	97.62
486.863	107.62
487.081	86.62
487.299	91.62
487.517	84.62
487.735	84.62
487.953	79.62
488.171	84.62
488.389	84.62
488.607	100.62
488.825	84.62
489.043	102.62
489.261	102.62
489.479	96.62
489.696	90.62
489.914	74.62
490.132	93.62
490.35	98.62
490.568	97.62
490.786	92.62
491.003	91.62
491.221	87.62
491.439	92.62
491.657	89.62
491.874	80.62
492.092	86.62
492.31	85.62
492.527	73.62
492.745	79.62
492.963	82.62
493.18	79.62
493.398	92.62
493.615	87.62
493.833	87.62
494.05	98.62
494.268	87.62
494.485	97.62
494.703	78.62
494.92	77.62
495.138	78.62
495.355	86.62
495.573	96.62
495.79	86.62
496.008	91.62
496.225	93.62
496.442	75.62
496.66	91.62
496.877	81.62
497.094	84.62
497.312	73.62
497.529	75.62
497.746	81.62
497.963	89.62
498.181	77.62
498.398	96.62
498.615	95.62
498.832	103.62
499.049	94.62
499.267	84.62
499.484	81.62
499.701	90.62
499.918	91.62
500.135	95.62
500.352	75.62
500.569	82.62
500.786	94.62
501.003	94.62
501.22	86.62
501.437	101.62
501.654	87.62
501.871	95.62
502.088	98.62
502.305	92.62
502.522	87.62
502.739	86.62
502.956	89.62
503.172	79.62
503.389	93.62
503.606	92.62
503.823	110.62
504.04	99.62
504.256	89.62
504.473	95.62
504.69	87.62
504.907	89.62
505.123	84.62
505.34	97.62
505.557	88.62
505.773	91.62
505.99	76.62
506.207	97.62
506.423	83.62
506.64	88.62
506.856	92.62
507.073	80.62
507.289	95.62
507.506	89.62
507.722	100.62
507.939	112.62
508.155	97.62
508.372	86.62
508.588	87.62
508.805	93.62
509.021	82.62
509.238	101.62
509.454	95.62
509.67	107.62
509.887	117.62
510.103	126.62
510.319	210.62
510.536	682.62
510.752	2129.62
510.968	602.62
511.184	144.62
511.401	101.62
511.617	87.62
511.833	98.62
512.049	87.62
512.265	100.62
512.481	88.62
512.698	79.62
512.914	93.62
513.13	89.62
513.346	92.62
513.562	85.62
513.778	95.62
513.994	104.62
514.21	98.62
514.426	106.62
514.642	122.62
514.858	122.62
515.074	167.62
515.29	402.62
515.506	1264.62
515.721	475.62
515.937	142.62
516.153	104.62
516.369	91.62
516.585	99.62
516.801	87.62
517.016	87.62
