Data from Uncirc_1994_H10_HRD10591_00055.txt Node
Date: Wed Jan 03 11:39:31 EST 2024
User: Yrep
Spectrometer: HR+D1059
Trigger mode: 1
Integration Time (sec): 1.000000E-1
Scans to average: 1
Electric dark correction enabled: true
Nonlinearity correction enabled: false
Boxcar width: 0
XAxis mode: Wavelengths
Number of Pixels in Spectrum: 2048
>>>>>Begin Spectral Data<<<<<
223.165	-26.94
223.4	-26.94
223.635	-26.94
223.869	-20.94
224.104	-18.94
224.338	-17.94
224.573	-18.94
224.808	-5.94
225.042	-2.94
225.277	-10.94
225.511	8.06
225.746	3.06
225.98	4.06
226.215	20.06
226.449	14.06
226.683	17.06
226.918	29.06
227.152	28.06
227.387	44.06
227.621	41.06
227.856	34.06
228.09	41.06
228.324	60.06
228.559	56.06
228.793	53.06
229.027	72.06
229.262	65.06
229.496	73.06
229.73	77.06
229.964	78.06
230.199	57.06
230.433	94.06
230.667	90.06
230.901	66.06
231.136	75.06
231.37	79.06
231.604	83.06
231.838	74.06
232.072	88.06
232.306	76.06
232.541	82.06
232.775	78.06
233.009	74.06
233.243	77.06
233.477	82.06
233.711	83.06
233.945	75.06
234.179	85.06
234.413	88.06
234.647	81.06
234.881	83.06
235.115	82.06
235.349	83.06
235.583	96.06
235.817	79.06
236.051	73.06
236.285	70.06
236.519	64.06
236.753	84.06
236.987	76.06
237.221	69.06
237.455	85.06
237.689	77.06
237.922	72.06
238.156	79.06
238.39	76.06
238.624	77.06
238.858	76.06
239.091	84.06
239.325	75.06
239.559	77.06
239.793	93.06
240.027	77.06
240.26	87.06
240.494	73.06
240.728	80.06
240.961	73.06
241.195	84.06
241.429	79.06
241.662	71.06
241.896	67.06
242.13	60.06
242.363	71.06
242.597	74.06
242.83	73.06
243.064	80.06
243.298	71.06
243.531	77.06
243.765	85.06
243.998	83.06
244.232	81.06
244.465	73.06
244.699	91.06
244.932	79.06
245.166	66.06
245.399	79.06
245.633	78.06
245.866	67.06
246.099	81.06
246.333	68.06
246.566	73.06
246.8	74.06
247.033	86.06
247.266	68.06
247.5	72.06
247.733	72.06
247.966	61.06
248.2	66.06
248.433	83.06
248.666	73.06
248.899	88.06
249.133	77.06
249.366	97.06
249.599	98.06
249.832	90.06
250.066	71.06
250.299	92.06
250.532	71.06
250.765	81.06
250.998	79.06
251.231	66.06
251.465	67.06
251.698	65.06
251.931	84.06
252.164	79.06
252.397	87.06
252.63	71.06
252.863	78.06
253.096	97.06
253.329	74.06
253.562	75.06
253.795	97.06
254.028	72.06
254.261	81.06
254.494	79.06
254.727	88.06
254.96	82.06
255.193	87.06
255.426	83.06
255.659	80.06
255.892	85.06
256.124	93.06
256.357	82.06
256.59	89.06
256.823	71.06
257.056	93.06
257.289	80.06
257.521	83.06
257.754	93.06
257.987	81.06
258.22	84.06
258.452	76.06
258.685	75.06
258.918	95.06
259.151	72.06
259.383	80.06
259.616	75.06
259.849	81.06
260.081	84.06
260.314	83.06
260.547	91.06
260.779	84.06
261.012	84.06
261.244	74.06
261.477	82.06
261.71	110.06
261.942	101.06
262.175	116.06
262.407	81.06
262.64	88.06
262.872	74.06
263.105	89.06
263.337	94.06
263.57	77.06
263.802	79.06
264.035	66.06
264.267	67.06
264.499	90.06
264.732	83.06
264.964	84.06
265.197	88.06
265.429	90.06
265.661	80.06
265.894	83.06
266.126	85.06
266.358	87.06
266.591	83.06
266.823	75.06
267.055	75.06
267.287	73.06
267.52	79.06
267.752	79.06
267.984	96.06
268.216	92.06
268.448	92.06
268.681	83.06
268.913	87.06
269.145	79.06
269.377	78.06
269.609	77.06
269.841	77.06
270.073	93.06
270.306	78.06
270.538	81.06
270.77	76.06
271.002	71.06
271.234	83.06
271.466	69.06
271.698	97.06
271.93	87.06
272.162	102.06
272.394	100.06
272.626	85.06
272.858	77.06
273.09	82.06
273.322	83.06
273.553	87.06
273.785	90.06
274.017	81.06
274.249	82.06
274.481	93.06
274.713	81.06
274.945	79.06
275.176	79.06
275.408	84.06
275.64	76.06
275.872	81.06
276.104	83.06
276.335	72.06
276.567	91.06
276.799	110.06
277.031	84.06
277.262	95.06
277.494	75.06
277.726	88.06
277.957	93.06
278.189	87.06
278.421	88.06
278.652	73.06
278.884	85.06
279.115	88.06
279.347	86.06
279.579	96.06
279.81	91.06
280.042	75.06
280.273	89.06
280.505	74.06
280.736	91.06
280.968	88.06
281.199	95.06
281.431	77.06
281.662	80.06
281.894	101.06
282.125	110.06
282.356	118.06
282.588	124.06
282.819	123.06
283.051	91.06
283.282	83.06
283.513	83.06
283.745	81.06
283.976	84.06
284.207	81.06
284.439	80.06
284.67	88.06
284.901	90.06
285.132	94.06
285.364	83.06
285.595	87.06
285.826	86.06
286.057	95.06
286.288	97.06
286.52	100.06
286.751	81.06
286.982	96.06
287.213	75.06
287.444	89.06
287.675	96.06
287.906	84.06
288.138	82.06
288.369	81.06
288.6	91.06
288.831	93.06
289.062	84.06
289.293	93.06
289.524	85.06
289.755	106.06
289.986	85.06
290.217	91.06
290.448	80.06
290.679	80.06
290.91	89.06
291.141	77.06
291.371	99.06
291.602	95.06
291.833	86.06
292.064	76.06
292.295	89.06
292.526	103.06
292.757	87.06
292.987	85.06
293.218	88.06
293.449	81.06
293.68	100.06
293.91	77.06
294.141	91.06
294.372	91.06
294.603	95.06
294.833	100.06
295.064	103.06
295.295	87.06
295.525	85.06
295.756	100.06
295.987	118.06
296.217	135.06
296.448	112.06
296.679	83.06
296.909	85.06
297.14	68.06
297.37	97.06
297.601	88.06
297.831	85.06
298.062	92.06
298.292	91.06
298.523	84.06
298.753	84.06
298.984	83.06
299.214	85.06
299.445	90.06
299.675	84.06
299.905	91.06
300.136	69.06
300.366	84.06
300.597	102.06
300.827	92.06
301.057	105.06
301.288	101.06
301.518	103.06
301.748	75.06
301.979	82.06
302.209	82.06
302.439	79.06
302.669	97.06
302.9	92.06
303.13	87.06
303.36	88.06
303.59	98.06
303.82	94.06
304.051	88.06
304.281	84.06
304.511	92.06
304.741	84.06
304.971	95.06
305.201	92.06
305.431	88.06
305.661	85.06
305.891	78.06
306.121	92.06
306.352	109.06
306.582	98.06
306.812	88.06
307.042	94.06
307.272	72.06
307.502	95.06
307.731	93.06
307.961	85.06
308.191	78.06
308.421	99.06
308.651	106.06
308.881	91.06
309.111	88.06
309.341	99.06
309.571	92.06
309.8	102.06
310.03	93.06
310.26	96.06
310.49	98.06
310.72	81.06
310.949	89.06
311.179	100.06
311.409	90.06
311.639	95.06
311.868	86.06
312.098	85.06
312.328	86.06
312.557	99.06
312.787	103.06
313.017	83.06
313.246	81.06
313.476	93.06
313.706	105.06
313.935	89.06
314.165	92.06
314.394	104.06
314.624	89.06
314.853	93.06
315.083	90.06
315.312	94.06
315.542	83.06
315.771	91.06
316.001	79.06
316.23	86.06
316.46	97.06
316.689	91.06
316.919	100.06
317.148	98.06
317.377	92.06
317.607	93.06
317.836	85.06
318.065	95.06
318.295	86.06
318.524	82.06
318.753	89.06
318.983	94.06
319.212	76.06
319.441	108.06
319.67	98.06
319.9	83.06
320.129	92.06
320.358	92.06
320.587	105.06
320.816	102.06
321.046	88.06
321.275	116.06
321.504	100.06
321.733	87.06
321.962	102.06
322.191	85.06
322.42	111.06
322.649	111.06
322.878	113.06
323.108	127.06
323.337	125.06
323.566	114.06
323.795	138.06
324.024	196.06
324.253	364.06
324.482	797.06
324.71	1551.06
324.939	2040.06
325.168	762.06
325.397	232.06
325.626	135.06
325.855	115.06
326.084	108.06
326.313	135.06
326.542	160.06
326.77	207.06
326.999	424.06
327.228	859.06
327.457	1576.06
327.686	1207.06
327.914	340.06
328.143	170.06
328.372	145.06
328.6	97.06
328.829	91.06
329.058	115.06
329.287	124.06
329.515	95.06
329.744	105.06
329.972	98.06
330.201	101.06
330.43	108.06
330.658	129.06
330.887	129.06
331.115	120.06
331.344	98.06
331.572	90.06
331.801	113.06
332.03	100.06
332.258	99.06
332.486	88.06
332.715	89.06
332.943	78.06
333.172	89.06
333.4	108.06
333.629	93.06
333.857	101.06
334.085	115.06
334.314	90.06
334.542	89.06
334.771	92.06
334.999	95.06
335.227	105.06
335.455	97.06
335.684	90.06
335.912	101.06
336.14	90.06
336.369	88.06
336.597	102.06
336.825	98.06
337.053	94.06
337.281	79.06
337.51	92.06
337.738	100.06
337.966	97.06
338.194	108.06
338.422	90.06
338.65	96.06
338.878	90.06
339.106	96.06
339.334	78.06
339.562	97.06
339.79	88.06
340.018	103.06
340.246	106.06
340.474	97.06
340.702	89.06
340.93	102.06
341.158	86.06
341.386	90.06
341.614	98.06
341.842	85.06
342.07	82.06
342.298	88.06
342.526	89.06
342.754	83.06
342.981	96.06
343.209	94.06
343.437	86.06
343.665	92.06
343.893	104.06
344.12	89.06
344.348	89.06
344.576	90.06
344.804	105.06
345.031	103.06
345.259	105.06
345.487	91.06
345.714	89.06
345.942	91.06
346.17	89.06
346.397	93.06
346.625	88.06
346.853	76.06
347.08	92.06
347.308	97.06
347.535	100.06
347.763	95.06
347.99	96.06
348.218	83.06
348.445	86.06
348.673	97.06
348.9	104.06
349.128	85.06
349.355	94.06
349.583	85.06
349.81	107.06
350.037	100.06
350.265	96.06
350.492	93.06
350.72	94.06
350.947	90.06
351.174	118.06
351.402	104.06
351.629	95.06
351.856	105.06
352.083	106.06
352.311	101.06
352.538	100.06
352.765	115.06
352.992	114.06
353.22	108.06
353.447	101.06
353.674	87.06
353.901	101.06
354.128	100.06
354.355	99.06
354.583	95.06
354.81	92.06
355.037	99.06
355.264	95.06
355.491	98.06
355.718	86.06
355.945	93.06
356.172	99.06
356.399	91.06
356.626	93.06
356.853	99.06
357.08	97.06
357.307	91.06
357.534	89.06
357.761	88.06
357.988	83.06
358.215	93.06
358.441	91.06
358.668	72.06
358.895	80.06
359.122	89.06
359.349	72.06
359.576	72.06
359.802	95.06
360.029	91.06
360.256	110.06
360.483	97.06
360.709	85.06
360.936	91.06
361.163	105.06
361.39	91.06
361.616	97.06
361.843	101.06
362.07	102.06
362.296	89.06
362.523	96.06
362.749	89.06
362.976	83.06
363.203	83.06
363.429	82.06
363.656	92.06
363.882	82.06
364.109	94.06
364.335	89.06
364.562	90.06
364.788	86.06
365.015	99.06
365.241	105.06
365.468	94.06
365.694	89.06
365.92	94.06
366.147	85.06
366.373	86.06
366.599	98.06
366.826	92.06
367.052	81.06
367.278	89.06
367.505	98.06
367.731	97.06
367.957	88.06
368.184	82.06
368.41	108.06
368.636	120.06
368.862	121.06
369.089	93.06
369.315	85.06
369.541	91.06
369.767	86.06
369.993	97.06
370.219	85.06
370.445	71.06
370.672	93.06
370.898	85.06
371.124	107.06
371.35	96.06
371.576	75.06
371.802	91.06
372.028	87.06
372.254	84.06
372.48	79.06
372.706	88.06
372.932	89.06
373.158	84.06
373.384	87.06
373.61	106.06
373.835	75.06
374.061	84.06
374.287	103.06
374.513	93.06
374.739	91.06
374.965	95.06
375.191	75.06
375.416	82.06
375.642	94.06
375.868	112.06
376.094	78.06
376.319	79.06
376.545	100.06
376.771	88.06
376.997	85.06
377.222	80.06
377.448	89.06
377.674	86.06
377.899	95.06
378.125	83.06
378.35	97.06
378.576	89.06
378.802	79.06
379.027	89.06
379.253	97.06
379.478	93.06
379.704	79.06
379.929	88.06
380.155	84.06
380.38	86.06
380.606	91.06
380.831	91.06
381.057	95.06
381.282	92.06
381.507	93.06
381.733	84.06
381.958	82.06
382.184	103.06
382.409	109.06
382.634	93.06
382.86	92.06
383.085	94.06
383.31	90.06
383.535	110.06
383.761	79.06
383.986	90.06
384.211	89.06
384.436	109.06
384.662	108.06
384.887	106.06
385.112	104.06
385.337	93.06
385.562	87.06
385.787	92.06
386.013	104.06
386.238	105.06
386.463	101.06
386.688	112.06
386.913	82.06
387.138	95.06
387.363	103.06
387.588	103.06
387.813	101.06
388.038	100.06
388.263	101.06
388.488	103.06
388.713	85.06
388.938	100.06
389.163	106.06
389.387	95.06
389.612	86.06
389.837	84.06
390.062	96.06
390.287	105.06
390.512	103.06
390.736	92.06
390.961	91.06
391.186	95.06
391.411	92.06
391.636	98.06
391.86	90.06
392.085	85.06
392.31	84.06
392.534	98.06
392.759	76.06
392.984	88.06
393.208	79.06
393.433	95.06
393.658	84.06
393.882	85.06
394.107	95.06
394.331	85.06
394.556	76.06
394.78	89.06
395.005	95.06
395.229	84.06
395.454	94.06
395.678	79.06
395.903	81.06
396.127	83.06
396.352	90.06
396.576	79.06
396.801	92.06
397.025	87.06
397.249	84.06
397.474	96.06
397.698	83.06
397.922	84.06
398.147	83.06
398.371	83.06
398.595	63.06
398.82	94.06
399.044	90.06
399.268	94.06
399.492	100.06
399.717	79.06
399.941	91.06
400.165	95.06
400.389	92.06
400.613	65.06
400.837	81.06
401.062	81.06
401.286	81.06
401.51	93.06
401.734	110.06
401.958	108.06
402.182	119.06
402.406	141.06
402.63	101.06
402.854	82.06
403.078	95.06
403.302	74.06
403.526	83.06
403.75	85.06
403.974	79.06
404.198	81.06
404.422	85.06
404.645	80.06
404.869	82.06
405.093	91.06
405.317	101.06
405.541	94.06
405.765	89.06
405.988	104.06
406.212	150.06
406.436	215.06
406.66	136.06
406.883	92.06
407.107	91.06
407.331	93.06
407.555	94.06
407.778	97.06
408.002	105.06
408.226	82.06
408.449	87.06
408.673	79.06
408.896	99.06
409.12	83.06
409.344	89.06
409.567	90.06
409.791	82.06
410.014	84.06
410.238	83.06
410.461	90.06
410.685	82.06
410.908	99.06
411.132	118.06
411.355	97.06
411.578	75.06
411.802	79.06
412.025	85.06
412.249	85.06
412.472	85.06
412.695	84.06
412.919	85.06
413.142	95.06
413.365	103.06
413.589	93.06
413.812	108.06
414.035	83.06
414.258	96.06
414.482	72.06
414.705	85.06
414.928	86.06
415.151	89.06
415.374	81.06
415.597	95.06
415.821	80.06
416.044	84.06
416.267	81.06
416.49	100.06
416.713	98.06
416.936	79.06
417.159	84.06
417.382	87.06
417.605	84.06
417.828	100.06
418.051	80.06
418.274	81.06
418.497	87.06
418.72	83.06
418.943	81.06
419.166	96.06
419.389	80.06
419.611	90.06
419.834	102.06
420.057	86.06
420.28	76.06
420.503	90.06
420.726	93.06
420.948	87.06
421.171	96.06
421.394	79.06
421.617	97.06
421.839	99.06
422.062	91.06
422.285	91.06
422.507	86.06
422.73	106.06
422.953	102.06
423.175	94.06
423.398	80.06
423.621	85.06
423.843	87.06
424.066	89.06
424.288	79.06
424.511	94.06
424.733	87.06
424.956	106.06
425.178	90.06
425.401	111.06
425.623	100.06
425.846	86.06
426.068	92.06
426.291	91.06
426.513	77.06
426.735	80.06
426.958	89.06
427.18	89.06
427.402	127.06
427.625	146.06
427.847	110.06
428.069	81.06
428.292	98.06
428.514	84.06
428.736	95.06
428.958	93.06
429.181	80.06
429.403	77.06
429.625	81.06
429.847	97.06
430.069	105.06
430.292	96.06
430.514	85.06
430.736	67.06
430.958	95.06
431.18	82.06
431.402	94.06
431.624	88.06
431.846	81.06
432.068	87.06
432.29	72.06
432.512	87.06
432.734	87.06
432.956	79.06
433.178	91.06
433.4	93.06
433.622	95.06
433.844	87.06
434.066	73.06
434.287	83.06
434.509	88.06
434.731	83.06
434.953	88.06
435.175	90.06
435.397	98.06
435.618	87.06
435.84	94.06
436.062	110.06
436.284	109.06
436.505	92.06
436.727	96.06
436.949	95.06
437.17	68.06
437.392	73.06
437.614	102.06
437.835	108.06
438.057	120.06
438.278	102.06
438.5	95.06
438.721	123.06
438.943	103.06
439.165	93.06
439.386	86.06
439.608	88.06
439.829	92.06
440.05	115.06
440.272	127.06
440.493	100.06
440.715	82.06
440.936	88.06
441.158	86.06
441.379	90.06
441.6	99.06
441.822	73.06
442.043	96.06
442.264	91.06
442.486	120.06
442.707	93.06
442.928	121.06
443.149	108.06
443.371	117.06
443.592	112.06
443.813	119.06
444.034	106.06
444.255	99.06
444.476	90.06
444.698	91.06
444.919	83.06
445.14	130.06
445.361	119.06
445.582	101.06
445.803	115.06
446.024	130.06
446.245	127.06
446.466	122.06
446.687	84.06
446.908	91.06
447.129	85.06
447.35	78.06
447.571	99.06
447.792	84.06
448.013	90.06
448.234	99.06
448.455	90.06
448.675	107.06
448.896	92.06
449.117	85.06
449.338	95.06
449.559	142.06
449.779	128.06
450	83.06
450.221	88.06
450.442	92.06
450.662	80.06
450.883	94.06
451.104	97.06
451.324	85.06
451.545	86.06
451.766	71.06
451.986	86.06
452.207	87.06
452.428	90.06
452.648	86.06
452.869	93.06
453.089	111.06
453.31	105.06
453.53	101.06
453.751	87.06
453.971	105.06
454.192	96.06
454.412	85.06
454.633	89.06
454.853	73.06
455.073	60.06
455.294	85.06
455.514	93.06
455.734	97.06
455.955	87.06
456.175	83.06
456.395	90.06
456.616	83.06
456.836	82.06
457.056	88.06
457.276	86.06
457.497	73.06
457.717	83.06
457.937	86.06
458.157	90.06
458.377	97.06
458.598	108.06
458.818	139.06
459.038	142.06
459.258	116.06
459.478	80.06
459.698	83.06
459.918	77.06
460.138	80.06
460.358	94.06
460.578	75.06
460.798	94.06
461.018	90.06
461.238	94.06
461.458	79.06
461.678	68.06
461.898	79.06
462.118	85.06
462.338	80.06
462.558	69.06
462.777	71.06
462.997	76.06
463.217	91.06
463.437	77.06
463.657	101.06
463.876	91.06
464.096	86.06
464.316	94.06
464.536	95.06
464.755	98.06
464.975	107.06
465.195	136.06
465.414	133.06
465.634	92.06
465.854	106.06
466.073	83.06
466.293	90.06
466.512	93.06
466.732	74.06
466.951	83.06
467.171	88.06
467.391	86.06
467.61	98.06
467.829	97.06
468.049	93.06
468.268	95.06
468.488	79.06
468.707	72.06
468.927	81.06
469.146	87.06
469.365	71.06
469.585	61.06
469.804	92.06
470.023	101.06
470.243	96.06
470.462	95.06
470.681	101.06
470.901	98.06
471.12	82.06
471.339	82.06
471.558	84.06
471.777	77.06
471.997	88.06
472.216	79.06
472.435	89.06
472.654	87.06
472.873	91.06
473.092	74.06
473.311	88.06
473.53	88.06
473.749	84.06
473.968	89.06
474.187	120.06
474.406	104.06
474.625	92.06
474.844	88.06
475.063	82.06
475.282	90.06
475.501	80.06
475.72	99.06
475.939	88.06
476.158	76.06
476.377	82.06
476.596	87.06
476.814	84.06
477.033	95.06
477.252	95.06
477.471	83.06
477.69	67.06
477.908	75.06
478.127	98.06
478.346	89.06
478.564	71.06
478.783	84.06
479.002	106.06
479.22	88.06
479.439	89.06
479.658	93.06
479.876	83.06
480.095	93.06
480.313	67.06
480.532	83.06
480.751	81.06
480.969	83.06
481.188	93.06
481.406	80.06
481.624	93.06
481.843	85.06
482.061	87.06
482.28	82.06
482.498	91.06
482.717	100.06
482.935	78.06
483.153	91.06
483.372	88.06
483.59	85.06
483.808	92.06
484.027	87.06
484.245	96.06
484.463	98.06
484.681	91.06
484.9	87.06
485.118	104.06
485.336	99.06
485.554	87.06
485.772	88.06
485.99	98.06
486.209	104.06
486.427	98.06
486.645	104.06
486.863	108.06
487.081	100.06
487.299	108.06
487.517	88.06
487.735	89.06
487.953	83.06
488.171	93.06
488.389	101.06
488.607	103.06
488.825	79.06
489.043	84.06
489.261	101.06
489.479	86.06
489.696	81.06
489.914	82.06
490.132	98.06
490.35	89.06
490.568	94.06
490.786	75.06
491.003	78.06
491.221	86.06
491.439	86.06
491.657	89.06
491.874	96.06
492.092	93.06
492.31	88.06
492.527	90.06
492.745	78.06
492.963	94.06
493.18	82.06
493.398	79.06
493.615	92.06
493.833	91.06
494.05	104.06
494.268	90.06
494.485	93.06
494.703	80.06
494.92	96.06
495.138	96.06
495.355	111.06
495.573	98.06
495.79	86.06
496.008	83.06
496.225	88.06
496.442	87.06
496.66	85.06
496.877	85.06
497.094	107.06
497.312	90.06
497.529	77.06
497.746	94.06
497.963	103.06
498.181	93.06
498.398	94.06
498.615	108.06
498.832	99.06
499.049	100.06
499.267	92.06
499.484	97.06
499.701	110.06
499.918	90.06
500.135	88.06
500.352	90.06
500.569	96.06
500.786	96.06
501.003	91.06
501.22	99.06
501.437	93.06
501.654	90.06
501.871	108.06
502.088	95.06
502.305	99.06
502.522	106.06
502.739	89.06
502.956	84.06
503.172	93.06
503.389	101.06
503.606	109.06
503.823	96.06
504.04	82.06
504.256	100.06
504.473	108.06
504.69	78.06
504.907	95.06
505.123	83.06
505.34	80.06
505.557	82.06
505.773	82.06
505.99	84.06
506.207	90.06
506.423	97.06
506.64	87.06
506.856	81.06
507.073	84.06
507.289	98.06
507.506	105.06
507.722	110.06
507.939	103.06
508.155	94.06
508.372	99.06
508.588	84.06
508.805	101.06
509.021	96.06
509.238	81.06
509.454	96.06
509.67	112.06
509.887	120.06
510.103	126.06
510.319	180.06
510.536	709.06
510.752	2228.06
510.968	618.06
511.184	142.06
511.401	104.06
511.617	92.06
511.833	86.06
512.049	88.06
512.265	75.06
512.481	91.06
512.698	102.06
512.914	89.06
513.13	81.06
513.346	102.06
513.562	103.06
513.778	90.06
513.994	103.06
514.21	106.06
514.426	121.06
514.642	127.06
514.858	124.06
515.074	160.06
515.29	423.06
515.506	1379.06
515.721	506.06
515.937	143.06
516.153	108.06
516.369	109.06
