Data from Uncirc_1994_H10_HRD10591_00097.txt Node
Date: Wed Jan 03 11:39:40 EST 2024
User: Yrep
Spectrometer: HR+D1059
Trigger mode: 1
Integration Time (sec): 1.000000E-1
Scans to average: 1
Electric dark correction enabled: true
Nonlinearity correction enabled: false
Boxcar width: 0
XAxis mode: Wavelengths
Number of Pixels in Spectrum: 2048
>>>>>Begin Spectral Data<<<<<
223.165	-10.94
223.4	-10.94
223.635	-10.94
223.869	-16.94
224.104	-5.94
224.338	-23.94
224.573	-26.94
224.808	-6.94
225.042	-4.94
225.277	-2.94
225.511	15.06
225.746	-5.94
225.98	5.06
226.215	-0.94
226.449	14.06
226.683	13.06
226.918	28.06
227.152	31.06
227.387	51.06
227.621	53.06
227.856	53.06
228.09	41.06
228.324	60.06
228.559	66.06
228.793	67.06
229.027	61.06
229.262	69.06
229.496	73.06
229.73	69.06
229.964	77.06
230.199	73.06
230.433	66.06
230.667	96.06
230.901	82.06
231.136	73.06
231.37	88.06
231.604	83.06
231.838	86.06
232.072	69.06
232.306	77.06
232.541	75.06
232.775	76.06
233.009	79.06
233.243	80.06
233.477	80.06
233.711	91.06
233.945	78.06
234.179	83.06
234.413	77.06
234.647	98.06
234.881	97.06
235.115	88.06
235.349	78.06
235.583	85.06
235.817	75.06
236.051	84.06
236.285	78.06
236.519	98.06
236.753	77.06
236.987	88.06
237.221	85.06
237.455	76.06
237.689	60.06
237.922	68.06
238.156	69.06
238.39	87.06
238.624	94.06
238.858	80.06
239.091	78.06
239.325	81.06
239.559	74.06
239.793	81.06
240.027	79.06
240.26	69.06
240.494	95.06
240.728	76.06
240.961	77.06
241.195	83.06
241.429	61.06
241.662	72.06
241.896	62.06
242.13	69.06
242.363	84.06
242.597	69.06
242.83	87.06
243.064	68.06
243.298	76.06
243.531	67.06
243.765	62.06
243.998	76.06
244.232	84.06
244.465	89.06
244.699	75.06
244.932	68.06
245.166	84.06
245.399	69.06
245.633	83.06
245.866	77.06
246.099	85.06
246.333	86.06
246.566	77.06
246.8	93.06
247.033	78.06
247.266	72.06
247.5	82.06
247.733	61.06
247.966	84.06
248.2	83.06
248.433	80.06
248.666	81.06
248.899	70.06
249.133	79.06
249.366	96.06
249.599	89.06
249.832	92.06
250.066	86.06
250.299	84.06
250.532	93.06
250.765	91.06
250.998	84.06
251.231	93.06
251.465	73.06
251.698	76.06
251.931	80.06
252.164	72.06
252.397	77.06
252.63	85.06
252.863	80.06
253.096	77.06
253.329	82.06
253.562	80.06
253.795	68.06
254.028	72.06
254.261	87.06
254.494	97.06
254.727	85.06
254.96	65.06
255.193	76.06
255.426	78.06
255.659	82.06
255.892	69.06
256.124	78.06
256.357	75.06
256.59	85.06
256.823	78.06
257.056	85.06
257.289	76.06
257.521	76.06
257.754	74.06
257.987	72.06
258.22	74.06
258.452	82.06
258.685	64.06
258.918	85.06
259.151	80.06
259.383	88.06
259.616	78.06
259.849	92.06
260.081	82.06
260.314	72.06
260.547	85.06
260.779	81.06
261.012	81.06
261.244	94.06
261.477	101.06
261.71	80.06
261.942	99.06
262.175	117.06
262.407	98.06
262.64	78.06
262.872	81.06
263.105	83.06
263.337	86.06
263.57	93.06
263.802	91.06
264.035	95.06
264.267	87.06
264.499	85.06
264.732	83.06
264.964	82.06
265.197	81.06
265.429	95.06
265.661	68.06
265.894	90.06
266.126	75.06
266.358	95.06
266.591	76.06
266.823	90.06
267.055	92.06
267.287	85.06
267.52	70.06
267.752	94.06
267.984	79.06
268.216	99.06
268.448	76.06
268.681	93.06
268.913	92.06
269.145	93.06
269.377	91.06
269.609	78.06
269.841	77.06
270.073	78.06
270.306	90.06
270.538	91.06
270.77	84.06
271.002	95.06
271.234	83.06
271.466	77.06
271.698	67.06
271.93	96.06
272.162	78.06
272.394	88.06
272.626	89.06
272.858	99.06
273.09	93.06
273.322	93.06
273.553	84.06
273.785	82.06
274.017	92.06
274.249	82.06
274.481	87.06
274.713	90.06
274.945	99.06
275.176	97.06
275.408	83.06
275.64	86.06
275.872	78.06
276.104	94.06
276.335	79.06
276.567	104.06
276.799	80.06
277.031	87.06
277.262	94.06
277.494	92.06
277.726	79.06
277.957	96.06
278.189	87.06
278.421	95.06
278.652	101.06
278.884	83.06
279.115	84.06
279.347	80.06
279.579	85.06
279.81	86.06
280.042	82.06
280.273	83.06
280.505	105.06
280.736	94.06
280.968	91.06
281.199	84.06
281.431	84.06
281.662	99.06
281.894	89.06
282.125	96.06
282.356	110.06
282.588	128.06
282.819	108.06
283.051	89.06
283.282	105.06
283.513	96.06
283.745	95.06
283.976	76.06
284.207	85.06
284.439	88.06
284.67	100.06
284.901	93.06
285.132	88.06
285.364	85.06
285.595	92.06
285.826	86.06
286.057	94.06
286.288	88.06
286.52	81.06
286.751	87.06
286.982	78.06
287.213	85.06
287.444	89.06
287.675	95.06
287.906	84.06
288.138	73.06
288.369	91.06
288.6	98.06
288.831	88.06
289.062	109.06
289.293	93.06
289.524	92.06
289.755	94.06
289.986	92.06
290.217	93.06
290.448	88.06
290.679	68.06
290.91	100.06
291.141	91.06
291.371	102.06
291.602	98.06
291.833	83.06
292.064	88.06
292.295	69.06
292.526	99.06
292.757	96.06
292.987	100.06
293.218	85.06
293.449	94.06
293.68	84.06
293.91	86.06
294.141	88.06
294.372	82.06
294.603	84.06
294.833	76.06
295.064	100.06
295.295	97.06
295.525	97.06
295.756	89.06
295.987	117.06
296.217	124.06
296.448	124.06
296.679	94.06
296.909	91.06
297.14	97.06
297.37	90.06
297.601	90.06
297.831	90.06
298.062	90.06
298.292	81.06
298.523	88.06
298.753	92.06
298.984	102.06
299.214	99.06
299.445	98.06
299.675	76.06
299.905	82.06
300.136	90.06
300.366	94.06
300.597	99.06
300.827	91.06
301.057	87.06
301.288	103.06
301.518	93.06
301.748	92.06
301.979	95.06
302.209	88.06
302.439	79.06
302.669	82.06
302.9	89.06
303.13	94.06
303.36	96.06
303.59	94.06
303.82	106.06
304.051	93.06
304.281	91.06
304.511	82.06
304.741	93.06
304.971	91.06
305.201	105.06
305.431	89.06
305.661	93.06
305.891	79.06
306.121	108.06
306.352	97.06
306.582	92.06
306.812	101.06
307.042	90.06
307.272	89.06
307.502	98.06
307.731	98.06
307.961	85.06
308.191	91.06
308.421	83.06
308.651	81.06
308.881	108.06
309.111	99.06
309.341	101.06
309.571	101.06
309.8	92.06
310.03	95.06
310.26	107.06
310.49	98.06
310.72	84.06
310.949	107.06
311.179	89.06
311.409	94.06
311.639	103.06
311.868	86.06
312.098	98.06
312.328	111.06
312.557	92.06
312.787	105.06
313.017	102.06
313.246	96.06
313.476	97.06
313.706	94.06
313.935	85.06
314.165	94.06
314.394	101.06
314.624	93.06
314.853	91.06
315.083	94.06
315.312	90.06
315.542	90.06
315.771	82.06
316.001	88.06
316.23	98.06
316.46	76.06
316.689	81.06
316.919	85.06
317.148	80.06
317.377	87.06
317.607	90.06
317.836	89.06
318.065	81.06
318.295	94.06
318.524	89.06
318.753	93.06
318.983	73.06
319.212	87.06
319.441	96.06
319.67	109.06
319.9	101.06
320.129	96.06
320.358	89.06
320.587	95.06
320.816	105.06
321.046	99.06
321.275	99.06
321.504	96.06
321.733	99.06
321.962	97.06
322.191	101.06
322.42	104.06
322.649	106.06
322.878	107.06
323.108	111.06
323.337	116.06
323.566	113.06
323.795	133.06
324.024	187.06
324.253	347.06
324.482	722.06
324.71	1450.06
324.939	1912.06
325.168	716.06
325.397	237.06
325.626	142.06
325.855	121.06
326.084	117.06
326.313	120.06
326.542	145.06
326.77	211.06
326.999	414.06
327.228	838.06
327.457	1529.06
327.686	1162.06
327.914	349.06
328.143	181.06
328.372	130.06
328.6	118.06
328.829	109.06
329.058	122.06
329.287	129.06
329.515	120.06
329.744	104.06
329.972	84.06
330.201	112.06
330.43	113.06
330.658	130.06
330.887	129.06
331.115	118.06
331.344	101.06
331.572	91.06
331.801	107.06
332.03	104.06
332.258	92.06
332.486	97.06
332.715	105.06
332.943	95.06
333.172	94.06
333.4	112.06
333.629	98.06
333.857	112.06
334.085	101.06
334.314	80.06
334.542	90.06
334.771	97.06
334.999	99.06
335.227	108.06
335.455	110.06
335.684	92.06
335.912	98.06
336.14	76.06
336.369	91.06
336.597	95.06
336.825	102.06
337.053	92.06
337.281	88.06
337.51	98.06
337.738	102.06
337.966	92.06
338.194	106.06
338.422	100.06
338.65	84.06
338.878	83.06
339.106	84.06
339.334	98.06
339.562	89.06
339.79	81.06
340.018	95.06
340.246	96.06
340.474	82.06
340.702	88.06
340.93	83.06
341.158	86.06
341.386	101.06
341.614	107.06
341.842	106.06
342.07	80.06
342.298	72.06
342.526	89.06
342.754	88.06
342.981	92.06
343.209	81.06
343.437	105.06
343.665	101.06
343.893	78.06
344.12	86.06
344.348	85.06
344.576	102.06
344.804	93.06
345.031	89.06
345.259	94.06
345.487	85.06
345.714	101.06
345.942	100.06
346.17	86.06
346.397	83.06
346.625	101.06
346.853	93.06
347.08	97.06
347.308	96.06
347.535	97.06
347.763	91.06
347.99	102.06
348.218	97.06
348.445	96.06
348.673	98.06
348.9	109.06
349.128	98.06
349.355	99.06
349.583	97.06
349.81	98.06
350.037	95.06
350.265	85.06
350.492	104.06
350.72	102.06
350.947	100.06
351.174	98.06
351.402	129.06
351.629	101.06
351.856	92.06
352.083	96.06
352.311	89.06
352.538	107.06
352.765	128.06
352.992	109.06
353.22	118.06
353.447	100.06
353.674	122.06
353.901	83.06
354.128	94.06
354.355	85.06
354.583	100.06
354.81	103.06
355.037	96.06
355.264	74.06
355.491	96.06
355.718	105.06
355.945	86.06
356.172	83.06
356.399	90.06
356.626	84.06
356.853	96.06
357.08	93.06
357.307	87.06
357.534	94.06
357.761	79.06
357.988	94.06
358.215	103.06
358.441	101.06
358.668	99.06
358.895	90.06
359.122	79.06
359.349	100.06
359.576	104.06
359.802	97.06
360.029	110.06
360.256	96.06
360.483	92.06
360.709	90.06
360.936	95.06
361.163	88.06
361.39	90.06
361.616	88.06
361.843	85.06
362.07	79.06
362.296	92.06
362.523	88.06
362.749	102.06
362.976	96.06
363.203	89.06
363.429	75.06
363.656	75.06
363.882	78.06
364.109	92.06
364.335	100.06
364.562	91.06
364.788	92.06
365.015	90.06
365.241	114.06
365.468	102.06
365.694	107.06
365.92	93.06
366.147	83.06
366.373	93.06
366.599	80.06
366.826	95.06
367.052	98.06
367.278	92.06
367.505	85.06
367.731	86.06
367.957	91.06
368.184	94.06
368.41	108.06
368.636	114.06
368.862	112.06
369.089	96.06
369.315	101.06
369.541	88.06
369.767	88.06
369.993	108.06
370.219	101.06
370.445	83.06
370.672	81.06
370.898	84.06
371.124	90.06
371.35	92.06
371.576	76.06
371.802	70.06
372.028	92.06
372.254	88.06
372.48	91.06
372.706	104.06
372.932	98.06
373.158	88.06
373.384	100.06
373.61	80.06
373.835	100.06
374.061	91.06
374.287	99.06
374.513	91.06
374.739	80.06
374.965	94.06
375.191	80.06
375.416	92.06
375.642	91.06
375.868	95.06
376.094	86.06
376.319	81.06
376.545	95.06
376.771	89.06
376.997	77.06
377.222	88.06
377.448	82.06
377.674	94.06
377.899	94.06
378.125	89.06
378.35	97.06
378.576	88.06
378.802	67.06
379.027	99.06
379.253	79.06
379.478	75.06
379.704	97.06
379.929	90.06
380.155	86.06
380.38	84.06
380.606	87.06
380.831	107.06
381.057	107.06
381.282	88.06
381.507	93.06
381.733	83.06
381.958	89.06
382.184	101.06
382.409	98.06
382.634	99.06
382.86	89.06
383.085	100.06
383.31	98.06
383.535	89.06
383.761	105.06
383.986	98.06
384.211	94.06
384.436	92.06
384.662	103.06
384.887	89.06
385.112	109.06
385.337	104.06
385.562	103.06
385.787	116.06
386.013	116.06
386.238	108.06
386.463	95.06
386.688	100.06
386.913	95.06
387.138	114.06
387.363	92.06
387.588	107.06
387.813	91.06
388.038	102.06
388.263	106.06
388.488	109.06
388.713	92.06
388.938	106.06
389.163	92.06
389.387	82.06
389.612	104.06
389.837	94.06
390.062	97.06
390.287	82.06
390.512	82.06
390.736	75.06
390.961	100.06
391.186	100.06
391.411	85.06
391.636	96.06
391.86	94.06
392.085	96.06
392.31	82.06
392.534	82.06
392.759	86.06
392.984	94.06
393.208	82.06
393.433	84.06
393.658	76.06
393.882	98.06
394.107	78.06
394.331	95.06
394.556	72.06
394.78	94.06
395.005	105.06
395.229	80.06
395.454	88.06
395.678	77.06
395.903	93.06
396.127	92.06
396.352	69.06
396.576	77.06
396.801	85.06
397.025	90.06
397.249	80.06
397.474	83.06
397.698	84.06
397.922	101.06
398.147	92.06
398.371	83.06
398.595	96.06
398.82	76.06
399.044	85.06
399.268	85.06
399.492	92.06
399.717	83.06
399.941	105.06
400.165	106.06
400.389	92.06
400.613	78.06
400.837	98.06
401.062	100.06
401.286	102.06
401.51	93.06
401.734	96.06
401.958	98.06
402.182	122.06
402.406	137.06
402.63	112.06
402.854	96.06
403.078	95.06
403.302	73.06
403.526	84.06
403.75	88.06
403.974	85.06
404.198	83.06
404.422	81.06
404.645	93.06
404.869	75.06
405.093	99.06
405.317	102.06
405.541	109.06
405.765	100.06
405.988	110.06
406.212	172.06
406.436	197.06
406.66	146.06
406.883	103.06
407.107	84.06
407.331	89.06
407.555	89.06
407.778	91.06
408.002	90.06
408.226	86.06
408.449	87.06
408.673	96.06
408.896	94.06
409.12	86.06
409.344	84.06
409.567	99.06
409.791	104.06
410.014	91.06
410.238	91.06
410.461	102.06
410.685	85.06
410.908	94.06
411.132	102.06
411.355	82.06
411.578	91.06
411.802	72.06
412.025	101.06
412.249	104.06
412.472	101.06
412.695	88.06
412.919	86.06
413.142	104.06
413.365	88.06
413.589	99.06
413.812	102.06
414.035	92.06
414.258	86.06
414.482	119.06
414.705	84.06
414.928	90.06
415.151	102.06
415.374	103.06
415.597	101.06
415.821	92.06
416.044	82.06
416.267	76.06
416.49	98.06
416.713	93.06
416.936	80.06
417.159	90.06
417.382	92.06
417.605	89.06
417.828	83.06
418.051	97.06
418.274	76.06
418.497	98.06
418.72	92.06
418.943	87.06
419.166	89.06
419.389	91.06
419.611	85.06
419.834	95.06
420.057	79.06
420.28	92.06
420.503	80.06
420.726	82.06
420.948	80.06
421.171	84.06
421.394	90.06
421.617	92.06
421.839	98.06
422.062	104.06
422.285	91.06
422.507	106.06
422.73	98.06
422.953	108.06
423.175	96.06
423.398	82.06
423.621	96.06
423.843	83.06
424.066	95.06
424.288	88.06
424.511	90.06
424.733	93.06
424.956	107.06
425.178	91.06
425.401	108.06
425.623	106.06
425.846	83.06
426.068	95.06
426.291	96.06
426.513	101.06
426.735	94.06
426.958	82.06
427.18	112.06
427.402	129.06
427.625	154.06
427.847	114.06
428.069	101.06
428.292	92.06
428.514	99.06
428.736	92.06
428.958	88.06
429.181	84.06
429.403	88.06
429.625	86.06
429.847	91.06
430.069	80.06
430.292	88.06
430.514	96.06
430.736	78.06
430.958	92.06
431.18	97.06
431.402	88.06
431.624	91.06
431.846	79.06
432.068	83.06
432.29	88.06
432.512	85.06
432.734	102.06
432.956	95.06
433.178	97.06
433.4	90.06
433.622	97.06
433.844	83.06
434.066	80.06
434.287	92.06
434.509	97.06
434.731	84.06
434.953	81.06
435.175	83.06
435.397	94.06
435.618	103.06
435.84	88.06
436.062	116.06
436.284	107.06
436.505	98.06
436.727	96.06
436.949	92.06
437.17	84.06
437.392	98.06
437.614	98.06
437.835	125.06
438.057	105.06
438.278	99.06
438.5	95.06
438.721	120.06
438.943	100.06
439.165	88.06
439.386	84.06
439.608	94.06
439.829	80.06
440.05	116.06
440.272	128.06
440.493	106.06
440.715	89.06
440.936	99.06
441.158	93.06
441.379	94.06
441.6	102.06
441.822	102.06
442.043	91.06
442.264	85.06
442.486	84.06
442.707	82.06
442.928	94.06
443.149	120.06
443.371	123.06
443.592	111.06
443.813	95.06
444.034	98.06
444.255	101.06
444.476	94.06
444.698	95.06
444.919	71.06
445.14	133.06
445.361	110.06
445.582	112.06
445.803	124.06
446.024	118.06
446.245	130.06
446.466	98.06
446.687	84.06
446.908	88.06
447.129	90.06
447.35	91.06
447.571	93.06
447.792	91.06
448.013	99.06
448.234	106.06
448.455	104.06
448.675	106.06
448.896	114.06
449.117	93.06
449.338	108.06
449.559	114.06
449.779	119.06
450	89.06
450.221	76.06
450.442	69.06
450.662	95.06
450.883	98.06
451.104	108.06
451.324	91.06
451.545	97.06
451.766	77.06
451.986	89.06
452.207	71.06
452.428	86.06
452.648	92.06
452.869	98.06
453.089	102.06
453.31	114.06
453.53	104.06
453.751	85.06
453.971	90.06
454.192	101.06
454.412	82.06
454.633	85.06
454.853	80.06
455.073	102.06
455.294	96.06
455.514	96.06
455.734	97.06
455.955	69.06
456.175	92.06
456.395	88.06
456.616	90.06
456.836	88.06
457.056	80.06
457.276	76.06
457.497	89.06
457.717	90.06
457.937	78.06
458.157	100.06
458.377	87.06
458.598	97.06
458.818	130.06
459.038	152.06
459.258	106.06
459.478	85.06
459.698	80.06
459.918	72.06
460.138	85.06
460.358	94.06
460.578	84.06
460.798	84.06
461.018	87.06
461.238	85.06
461.458	89.06
461.678	81.06
461.898	85.06
462.118	101.06
462.338	88.06
462.558	80.06
462.777	79.06
462.997	80.06
463.217	95.06
463.437	86.06
463.657	82.06
463.876	86.06
464.096	92.06
464.316	100.06
464.536	93.06
464.755	92.06
464.975	99.06
465.195	132.06
465.414	142.06
465.634	97.06
465.854	92.06
466.073	84.06
466.293	87.06
466.512	89.06
466.732	86.06
466.951	92.06
467.171	102.06
467.391	95.06
467.61	101.06
467.829	89.06
468.049	86.06
468.268	99.06
468.488	93.06
468.707	73.06
468.927	93.06
469.146	81.06
469.365	93.06
469.585	94.06
469.804	97.06
470.023	88.06
470.243	95.06
470.462	97.06
470.681	109.06
470.901	88.06
471.12	95.06
471.339	82.06
471.558	94.06
471.777	77.06
471.997	80.06
472.216	94.06
472.435	101.06
472.654	97.06
472.873	79.06
473.092	87.06
473.311	78.06
473.53	88.06
473.749	84.06
473.968	100.06
474.187	82.06
474.406	90.06
474.625	94.06
474.844	94.06
475.063	95.06
475.282	103.06
475.501	97.06
475.72	107.06
475.939	94.06
476.158	80.06
476.377	100.06
476.596	86.06
476.814	90.06
477.033	94.06
477.252	99.06
477.471	90.06
477.69	97.06
477.908	91.06
478.127	92.06
478.346	93.06
478.564	82.06
478.783	93.06
479.002	102.06
479.22	96.06
479.439	88.06
479.658	100.06
479.876	90.06
480.095	80.06
480.313	99.06
480.532	96.06
480.751	97.06
480.969	94.06
481.188	94.06
481.406	102.06
481.624	88.06
481.843	87.06
482.061	93.06
482.28	92.06
482.498	81.06
482.717	72.06
482.935	83.06
483.153	79.06
483.372	93.06
483.59	95.06
483.808	88.06
484.027	86.06
484.245	90.06
484.463	92.06
484.681	110.06
484.9	81.06
485.118	100.06
485.336	99.06
485.554	99.06
485.772	111.06
485.99	111.06
486.209	102.06
486.427	109.06
486.645	94.06
486.863	114.06
487.081	93.06
487.299	96.06
487.517	110.06
487.735	116.06
487.953	93.06
488.171	90.06
488.389	90.06
488.607	102.06
488.825	106.06
489.043	92.06
489.261	101.06
489.479	80.06
489.696	88.06
489.914	81.06
490.132	82.06
490.35	93.06
490.568	84.06
490.786	93.06
491.003	81.06
491.221	99.06
491.439	91.06
491.657	101.06
491.874	84.06
492.092	81.06
492.31	98.06
492.527	92.06
492.745	89.06
492.963	90.06
493.18	105.06
493.398	84.06
493.615	111.06
493.833	82.06
494.05	84.06
494.268	99.06
494.485	81.06
494.703	96.06
494.92	86.06
495.138	89.06
495.355	94.06
495.573	83.06
495.79	83.06
496.008	97.06
496.225	88.06
496.442	76.06
496.66	94.06
496.877	96.06
497.094	89.06
497.312	88.06
497.529	94.06
497.746	82.06
497.963	99.06
498.181	90.06
498.398	116.06
498.615	107.06
498.832	111.06
499.049	108.06
499.267	90.06
499.484	94.06
499.701	89.06
499.918	90.06
500.135	80.06
500.352	80.06
500.569	88.06
500.786	84.06
501.003	85.06
501.22	89.06
501.437	110.06
501.654	90.06
501.871	117.06
502.088	91.06
502.305	84.06
502.522	79.06
502.739	85.06
502.956	96.06
503.172	90.06
503.389	109.06
503.606	112.06
503.823	79.06
504.04	96.06
504.256	101.06
504.473	92.06
504.69	101.06
504.907	94.06
505.123	89.06
505.34	95.06
505.557	88.06
505.773	82.06
505.99	87.06
506.207	90.06
506.423	82.06
506.64	100.06
506.856	87.06
507.073	102.06
507.289	95.06
507.506	100.06
507.722	96.06
507.939	95.06
508.155	93.06
508.372	101.06
508.588	89.06
508.805	97.06
509.021	95.06
509.238	99.06
509.454	113.06
509.67	89.06
509.887	125.06
510.103	146.06
510.319	202.06
510.536	728.06
510.752	2245.06
510.968	620.06
511.184	149.06
511.401	111.06
511.617	99.06
511.833	85.06
512.049	90.06
512.265	94.06
512.481	92.06
512.698	98.06
512.914	91.06
513.13	88.06
513.346	93.06
513.562	93.06
513.778	87.06
513.994	96.06
514.21	108.06
514.426	119.06
514.642	136.06
514.858	133.06
515.074	168.06
515.29	397.06
515.506	1323.06
515.721	485.06
