Data from Uncirc_1994_H10_HRD10591_00012.txt Node
Date: Wed Jan 03 11:39:23 EST 2024
User: Yrep
Spectrometer: HR+D1059
Trigger mode: 1
Integration Time (sec): 1.000000E-1
Scans to average: 1
Electric dark correction enabled: true
Nonlinearity correction enabled: false
Boxcar width: 0
XAxis mode: Wavelengths
Number of Pixels in Spectrum: 2048
>>>>>Begin Spectral Data<<<<<
223.165	-26.06
223.4	-26.06
223.635	-26.06
223.869	-29.06
224.104	-32.06
224.338	-24.06
224.573	-6.06
224.808	-10.06
225.042	-6.06
225.277	0.94
225.511	-4.06
225.746	14.94
225.98	9.94
226.215	9.94
226.449	28.94
226.683	30.94
226.918	21.94
227.152	19.94
227.387	24.94
227.621	38.94
227.856	35.94
228.09	41.94
228.324	56.94
228.559	63.94
228.793	50.94
229.027	51.94
229.262	73.94
229.496	87.94
229.73	67.94
229.964	90.94
230.199	75.94
230.433	88.94
230.667	68.94
230.901	80.94
231.136	87.94
231.37	82.94
231.604	73.94
231.838	81.94
232.072	81.94
232.306	80.94
232.541	81.94
232.775	83.94
233.009	92.94
233.243	87.94
233.477	84.94
233.711	90.94
233.945	63.94
234.179	80.94
234.413	79.94
234.647	80.94
234.881	77.94
235.115	73.94
235.349	92.94
235.583	86.94
235.817	79.94
236.051	87.94
236.285	73.94
236.519	75.94
236.753	69.94
236.987	86.94
237.221	84.94
237.455	90.94
237.689	68.94
237.922	81.94
238.156	75.94
238.39	83.94
238.624	65.94
238.858	74.94
239.091	81.94
239.325	78.94
239.559	85.94
239.793	87.94
240.027	74.94
240.26	75.94
240.494	83.94
240.728	76.94
240.961	80.94
241.195	81.94
241.429	71.94
241.662	65.94
241.896	81.94
242.13	71.94
242.363	89.94
242.597	91.94
242.83	83.94
243.064	65.94
243.298	77.94
243.531	75.94
243.765	84.94
243.998	83.94
244.232	86.94
244.465	66.94
244.699	84.94
244.932	71.94
245.166	77.94
245.399	74.94
245.633	81.94
245.866	92.94
246.099	67.94
246.333	82.94
246.566	57.94
246.8	77.94
247.033	82.94
247.266	90.94
247.5	85.94
247.733	86.94
247.966	85.94
248.2	83.94
248.433	74.94
248.666	65.94
248.899	93.94
249.133	91.94
249.366	88.94
249.599	85.94
249.832	88.94
250.066	79.94
250.299	81.94
250.532	81.94
250.765	90.94
250.998	80.94
251.231	83.94
251.465	84.94
251.698	71.94
251.931	75.94
252.164	83.94
252.397	83.94
252.63	66.94
252.863	65.94
253.096	81.94
253.329	84.94
253.562	79.94
253.795	81.94
254.028	83.94
254.261	88.94
254.494	59.94
254.727	102.94
254.96	79.94
255.193	65.94
255.426	93.94
255.659	80.94
255.892	95.94
256.124	82.94
256.357	99.94
256.59	79.94
256.823	81.94
257.056	75.94
257.289	82.94
257.521	75.94
257.754	79.94
257.987	83.94
258.22	91.94
258.452	66.94
258.685	87.94
258.918	78.94
259.151	87.94
259.383	92.94
259.616	93.94
259.849	101.94
260.081	97.94
260.314	71.94
260.547	79.94
260.779	85.94
261.012	79.94
261.244	80.94
261.477	85.94
261.71	87.94
261.942	88.94
262.175	111.94
262.407	85.94
262.64	88.94
262.872	75.94
263.105	89.94
263.337	86.94
263.57	88.94
263.802	88.94
264.035	86.94
264.267	90.94
264.499	104.94
264.732	87.94
264.964	84.94
265.197	90.94
265.429	100.94
265.661	82.94
265.894	91.94
266.126	98.94
266.358	76.94
266.591	79.94
266.823	94.94
267.055	87.94
267.287	95.94
267.52	89.94
267.752	92.94
267.984	75.94
268.216	95.94
268.448	82.94
268.681	76.94
268.913	83.94
269.145	84.94
269.377	82.94
269.609	78.94
269.841	85.94
270.073	82.94
270.306	83.94
270.538	88.94
270.77	76.94
271.002	88.94
271.234	98.94
271.466	85.94
271.698	93.94
271.93	83.94
272.162	95.94
272.394	80.94
272.626	89.94
272.858	80.94
273.09	79.94
273.322	91.94
273.553	80.94
273.785	85.94
274.017	75.94
274.249	91.94
274.481	76.94
274.713	80.94
274.945	83.94
275.176	83.94
275.408	97.94
275.64	90.94
275.872	87.94
276.104	90.94
276.335	108.94
276.567	99.94
276.799	104.94
277.031	83.94
277.262	102.94
277.494	91.94
277.726	81.94
277.957	90.94
278.189	87.94
278.421	99.94
278.652	97.94
278.884	75.94
279.115	85.94
279.347	87.94
279.579	73.94
279.81	98.94
280.042	98.94
280.273	83.94
280.505	87.94
280.736	81.94
280.968	83.94
281.199	78.94
281.431	105.94
281.662	88.94
281.894	86.94
282.125	96.94
282.356	107.94
282.588	128.94
282.819	108.94
283.051	81.94
283.282	83.94
283.513	87.94
283.745	93.94
283.976	84.94
284.207	81.94
284.439	96.94
284.67	81.94
284.901	86.94
285.132	100.94
285.364	95.94
285.595	76.94
285.826	83.94
286.057	95.94
286.288	98.94
286.52	97.94
286.751	88.94
286.982	92.94
287.213	79.94
287.444	81.94
287.675	88.94
287.906	96.94
288.138	96.94
288.369	99.94
288.6	88.94
288.831	93.94
289.062	92.94
289.293	82.94
289.524	74.94
289.755	89.94
289.986	83.94
290.217	98.94
290.448	81.94
290.679	81.94
290.91	94.94
291.141	90.94
291.371	92.94
291.602	73.94
291.833	91.94
292.064	80.94
292.295	75.94
292.526	95.94
292.757	80.94
292.987	90.94
293.218	89.94
293.449	84.94
293.68	82.94
293.91	84.94
294.141	89.94
294.372	79.94
294.603	96.94
294.833	95.94
295.064	88.94
295.295	93.94
295.525	82.94
295.756	91.94
295.987	117.94
296.217	128.94
296.448	125.94
296.679	94.94
296.909	75.94
297.14	91.94
297.37	105.94
297.601	104.94
297.831	75.94
298.062	85.94
298.292	120.94
298.523	90.94
298.753	84.94
298.984	94.94
299.214	91.94
299.445	88.94
299.675	102.94
299.905	92.94
300.136	101.94
300.366	92.94
300.597	93.94
300.827	91.94
301.057	107.94
301.288	90.94
301.518	93.94
301.748	88.94
301.979	85.94
302.209	91.94
302.439	104.94
302.669	88.94
302.9	83.94
303.13	99.94
303.36	87.94
303.59	94.94
303.82	102.94
304.051	99.94
304.281	92.94
304.511	93.94
304.741	82.94
304.971	82.94
305.201	82.94
305.431	91.94
305.661	88.94
305.891	91.94
306.121	84.94
306.352	110.94
306.582	102.94
306.812	85.94
307.042	108.94
307.272	96.94
307.502	86.94
307.731	100.94
307.961	91.94
308.191	86.94
308.421	90.94
308.651	91.94
308.881	77.94
309.111	88.94
309.341	87.94
309.571	93.94
309.8	98.94
310.03	85.94
310.26	89.94
310.49	97.94
310.72	96.94
310.949	82.94
311.179	97.94
311.409	97.94
311.639	106.94
311.868	107.94
312.098	98.94
312.328	103.94
312.557	101.94
312.787	111.94
313.017	95.94
313.246	95.94
313.476	99.94
313.706	94.94
313.935	97.94
314.165	98.94
314.394	97.94
314.624	100.94
314.853	84.94
315.083	90.94
315.312	82.94
315.542	74.94
315.771	85.94
316.001	89.94
316.23	94.94
316.46	75.94
316.689	82.94
316.919	89.94
317.148	89.94
317.377	88.94
317.607	97.94
317.836	95.94
318.065	106.94
318.295	93.94
318.524	87.94
318.753	100.94
318.983	80.94
319.212	81.94
319.441	105.94
319.67	102.94
319.9	108.94
320.129	76.94
320.358	98.94
320.587	98.94
320.816	95.94
321.046	106.94
321.275	105.94
321.504	93.94
321.733	102.94
321.962	93.94
322.191	95.94
322.42	96.94
322.649	105.94
322.878	111.94
323.108	100.94
323.337	102.94
323.566	119.94
323.795	127.94
324.024	184.94
324.253	348.94
324.482	707.94
324.71	1452.94
324.939	1869.94
325.168	682.94
325.397	221.94
325.626	135.94
325.855	116.94
326.084	136.94
326.313	124.94
326.542	133.94
326.77	204.94
326.999	409.94
327.228	793.94
327.457	1442.94
327.686	1139.94
327.914	313.94
328.143	175.94
328.372	117.94
328.6	115.94
328.829	116.94
329.058	124.94
329.287	111.94
329.515	119.94
329.744	102.94
329.972	88.94
330.201	100.94
330.43	100.94
330.658	102.94
330.887	115.94
331.115	117.94
331.344	107.94
331.572	90.94
331.801	98.94
332.03	95.94
332.258	104.94
332.486	102.94
332.715	94.94
332.943	95.94
333.172	88.94
333.4	98.94
333.629	97.94
333.857	107.94
334.085	98.94
334.314	80.94
334.542	77.94
334.771	92.94
334.999	102.94
335.227	104.94
335.455	92.94
335.684	96.94
335.912	98.94
336.14	120.94
336.369	92.94
336.597	88.94
336.825	108.94
337.053	85.94
337.281	91.94
337.51	93.94
337.738	82.94
337.966	96.94
338.194	102.94
338.422	100.94
338.65	98.94
338.878	93.94
339.106	95.94
339.334	102.94
339.562	92.94
339.79	94.94
340.018	98.94
340.246	106.94
340.474	89.94
340.702	88.94
340.93	83.94
341.158	100.94
341.386	79.94
341.614	88.94
341.842	105.94
342.07	88.94
342.298	98.94
342.526	94.94
342.754	78.94
342.981	93.94
343.209	85.94
343.437	95.94
343.665	95.94
343.893	106.94
344.12	92.94
344.348	87.94
344.576	96.94
344.804	88.94
345.031	86.94
345.259	93.94
345.487	71.94
345.714	101.94
345.942	89.94
346.17	97.94
346.397	92.94
346.625	92.94
346.853	88.94
347.08	97.94
347.308	104.94
347.535	91.94
347.763	99.94
347.99	97.94
348.218	99.94
348.445	99.94
348.673	99.94
348.9	99.94
349.128	89.94
349.355	93.94
349.583	84.94
349.81	104.94
350.037	93.94
350.265	87.94
350.492	94.94
350.72	108.94
350.947	101.94
351.174	92.94
351.402	104.94
351.629	91.94
351.856	98.94
352.083	100.94
352.311	97.94
352.538	99.94
352.765	110.94
352.992	115.94
353.22	98.94
353.447	107.94
353.674	101.94
353.901	116.94
354.128	99.94
354.355	104.94
354.583	96.94
354.81	102.94
355.037	90.94
355.264	105.94
355.491	106.94
355.718	93.94
355.945	106.94
356.172	91.94
356.399	97.94
356.626	89.94
356.853	101.94
357.08	89.94
357.307	103.94
357.534	84.94
357.761	108.94
357.988	93.94
358.215	92.94
358.441	114.94
358.668	99.94
358.895	78.94
359.122	73.94
359.349	80.94
359.576	95.94
359.802	94.94
360.029	117.94
360.256	105.94
360.483	93.94
360.709	87.94
360.936	91.94
361.163	102.94
361.39	83.94
361.616	82.94
361.843	88.94
362.07	91.94
362.296	91.94
362.523	100.94
362.749	92.94
362.976	84.94
363.203	82.94
363.429	96.94
363.656	74.94
363.882	93.94
364.109	101.94
364.335	96.94
364.562	80.94
364.788	83.94
365.015	88.94
365.241	109.94
365.468	104.94
365.694	105.94
365.92	96.94
366.147	82.94
366.373	86.94
366.599	91.94
366.826	76.94
367.052	82.94
367.278	99.94
367.505	80.94
367.731	92.94
367.957	84.94
368.184	91.94
368.41	107.94
368.636	113.94
368.862	113.94
369.089	95.94
369.315	90.94
369.541	94.94
369.767	80.94
369.993	99.94
370.219	91.94
370.445	95.94
370.672	93.94
370.898	91.94
371.124	84.94
371.35	75.94
371.576	82.94
371.802	86.94
372.028	84.94
372.254	87.94
372.48	84.94
372.706	78.94
372.932	56.94
373.158	77.94
373.384	91.94
373.61	91.94
373.835	87.94
374.061	95.94
374.287	84.94
374.513	87.94
374.739	82.94
374.965	100.94
375.191	88.94
375.416	78.94
375.642	95.94
375.868	85.94
376.094	78.94
376.319	86.94
376.545	86.94
376.771	67.94
376.997	75.94
377.222	79.94
377.448	90.94
377.674	95.94
377.899	80.94
378.125	88.94
378.35	101.94
378.576	91.94
378.802	87.94
379.027	90.94
379.253	92.94
379.478	93.94
379.704	81.94
379.929	90.94
380.155	95.94
380.38	94.94
380.606	95.94
380.831	99.94
381.057	107.94
381.282	104.94
381.507	87.94
381.733	102.94
381.958	98.94
382.184	108.94
382.409	109.94
382.634	98.94
382.86	101.94
383.085	95.94
383.31	106.94
383.535	100.94
383.761	91.94
383.986	114.94
384.211	106.94
384.436	103.94
384.662	101.94
384.887	95.94
385.112	91.94
385.337	115.94
385.562	121.94
385.787	100.94
386.013	118.94
386.238	115.94
386.463	102.94
386.688	112.94
386.913	111.94
387.138	102.94
387.363	107.94
387.588	98.94
387.813	77.94
388.038	89.94
388.263	114.94
388.488	109.94
388.713	108.94
388.938	89.94
389.163	96.94
389.387	104.94
389.612	92.94
389.837	91.94
390.062	95.94
390.287	92.94
390.512	87.94
390.736	98.94
390.961	75.94
391.186	89.94
391.411	96.94
391.636	99.94
391.86	101.94
392.085	80.94
392.31	81.94
392.534	83.94
392.759	87.94
392.984	97.94
393.208	95.94
393.433	100.94
393.658	92.94
393.882	77.94
394.107	82.94
394.331	88.94
394.556	92.94
394.78	88.94
395.005	66.94
395.229	81.94
395.454	88.94
395.678	92.94
395.903	85.94
396.127	90.94
396.352	87.94
396.576	92.94
396.801	92.94
397.025	106.94
397.249	80.94
397.474	90.94
397.698	89.94
397.922	79.94
398.147	85.94
398.371	82.94
398.595	95.94
398.82	77.94
399.044	79.94
399.268	79.94
399.492	90.94
399.717	93.94
399.941	90.94
400.165	85.94
400.389	92.94
400.613	92.94
400.837	104.94
401.062	88.94
401.286	92.94
401.51	82.94
401.734	87.94
401.958	93.94
402.182	126.94
402.406	146.94
402.63	121.94
402.854	96.94
403.078	66.94
403.302	86.94
403.526	71.94
403.75	85.94
403.974	73.94
404.198	100.94
404.422	87.94
404.645	83.94
404.869	85.94
405.093	95.94
405.317	102.94
405.541	94.94
405.765	97.94
405.988	108.94
406.212	156.94
406.436	201.94
406.66	131.94
406.883	99.94
407.107	86.94
407.331	105.94
407.555	90.94
407.778	105.94
408.002	73.94
408.226	84.94
408.449	82.94
408.673	80.94
408.896	91.94
409.12	99.94
409.344	117.94
409.567	85.94
409.791	82.94
410.014	95.94
410.238	98.94
410.461	96.94
410.685	108.94
410.908	112.94
411.132	97.94
411.355	92.94
411.578	95.94
411.802	94.94
412.025	94.94
412.249	100.94
412.472	92.94
412.695	84.94
412.919	80.94
413.142	109.94
413.365	83.94
413.589	90.94
413.812	86.94
414.035	92.94
414.258	93.94
414.482	84.94
414.705	84.94
414.928	91.94
415.151	94.94
415.374	96.94
415.597	86.94
415.821	89.94
416.044	93.94
416.267	86.94
416.49	87.94
416.713	100.94
416.936	83.94
417.159	79.94
417.382	97.94
417.605	99.94
417.828	100.94
418.051	100.94
418.274	91.94
418.497	88.94
418.72	79.94
418.943	90.94
419.166	98.94
419.389	83.94
419.611	86.94
419.834	91.94
420.057	83.94
420.28	93.94
420.503	105.94
420.726	82.94
420.948	108.94
421.171	95.94
421.394	111.94
421.617	79.94
421.839	87.94
422.062	82.94
422.285	94.94
422.507	104.94
422.73	107.94
422.953	90.94
423.175	100.94
423.398	91.94
423.621	98.94
423.843	72.94
424.066	92.94
424.288	96.94
424.511	81.94
424.733	77.94
424.956	84.94
425.178	78.94
425.401	101.94
425.623	106.94
425.846	99.94
426.068	88.94
426.291	83.94
426.513	82.94
426.735	105.94
426.958	98.94
427.18	103.94
427.402	115.94
427.625	144.94
427.847	116.94
428.069	93.94
428.292	82.94
428.514	89.94
428.736	103.94
428.958	85.94
429.181	101.94
429.403	96.94
429.625	85.94
429.847	85.94
430.069	101.94
430.292	93.94
430.514	100.94
430.736	83.94
430.958	89.94
431.18	78.94
431.402	92.94
431.624	104.94
431.846	84.94
432.068	72.94
432.29	78.94
432.512	100.94
432.734	88.94
432.956	89.94
433.178	90.94
433.4	107.94
433.622	100.94
433.844	78.94
434.066	101.94
434.287	93.94
434.509	81.94
434.731	88.94
434.953	88.94
435.175	79.94
435.397	89.94
435.618	86.94
435.84	76.94
436.062	137.94
436.284	108.94
436.505	101.94
436.727	93.94
436.949	94.94
437.17	89.94
437.392	88.94
437.614	95.94
437.835	88.94
438.057	107.94
438.278	108.94
438.5	104.94
438.721	121.94
438.943	107.94
439.165	96.94
439.386	93.94
439.608	90.94
439.829	93.94
440.05	118.94
440.272	138.94
440.493	97.94
440.715	82.94
440.936	94.94
441.158	81.94
441.379	79.94
441.6	93.94
441.822	87.94
442.043	95.94
442.264	108.94
442.486	103.94
442.707	101.94
442.928	98.94
443.149	108.94
443.371	126.94
443.592	100.94
443.813	117.94
444.034	102.94
444.255	96.94
444.476	80.94
444.698	80.94
444.919	98.94
445.14	115.94
445.361	114.94
445.582	107.94
445.803	114.94
446.024	118.94
446.245	140.94
446.466	107.94
446.687	80.94
446.908	91.94
447.129	97.94
447.35	84.94
447.571	94.94
447.792	89.94
448.013	107.94
448.234	95.94
448.455	103.94
448.675	103.94
448.896	111.94
449.117	105.94
449.338	81.94
449.559	127.94
449.779	123.94
450	100.94
450.221	101.94
450.442	84.94
450.662	89.94
450.883	99.94
451.104	107.94
451.324	95.94
451.545	90.94
451.766	87.94
451.986	78.94
452.207	76.94
452.428	89.94
452.648	107.94
452.869	102.94
453.089	113.94
453.31	99.94
453.53	97.94
453.751	103.94
453.971	94.94
454.192	105.94
454.412	86.94
454.633	73.94
454.853	88.94
455.073	77.94
455.294	81.94
455.514	85.94
455.734	93.94
455.955	89.94
456.175	69.94
456.395	84.94
456.616	91.94
456.836	79.94
457.056	75.94
457.276	90.94
457.497	87.94
457.717	65.94
457.937	102.94
458.157	104.94
458.377	90.94
458.598	88.94
458.818	112.94
459.038	141.94
459.258	101.94
459.478	93.94
459.698	88.94
459.918	90.94
460.138	91.94
460.358	93.94
460.578	89.94
460.798	74.94
461.018	97.94
461.238	83.94
461.458	91.94
461.678	85.94
461.898	91.94
462.118	76.94
462.338	91.94
462.558	101.94
462.777	78.94
462.997	84.94
463.217	77.94
463.437	89.94
463.657	100.94
463.876	88.94
464.096	92.94
464.316	90.94
464.536	105.94
464.755	81.94
464.975	100.94
465.195	147.94
465.414	147.94
465.634	99.94
465.854	92.94
466.073	90.94
466.293	101.94
466.512	91.94
466.732	67.94
466.951	92.94
467.171	99.94
467.391	102.94
467.61	115.94
467.829	91.94
468.049	79.94
468.268	91.94
468.488	88.94
468.707	77.94
468.927	89.94
469.146	83.94
469.365	78.94
469.585	85.94
469.804	84.94
470.023	100.94
470.243	74.94
470.462	90.94
470.681	96.94
470.901	88.94
471.12	82.94
471.339	87.94
471.558	95.94
471.777	85.94
471.997	91.94
472.216	78.94
472.435	89.94
472.654	91.94
472.873	87.94
473.092	90.94
473.311	92.94
473.53	83.94
473.749	79.94
473.968	103.94
474.187	109.94
474.406	90.94
474.625	82.94
474.844	69.94
475.063	84.94
475.282	79.94
475.501	89.94
475.72	90.94
475.939	83.94
476.158	81.94
476.377	80.94
476.596	72.94
476.814	97.94
477.033	97.94
477.252	84.94
477.471	85.94
477.69	101.94
477.908	86.94
478.127	88.94
478.346	90.94
478.564	91.94
478.783	93.94
479.002	100.94
479.22	100.94
479.439	84.94
479.658	95.94
479.876	90.94
480.095	76.94
480.313	84.94
480.532	74.94
480.751	99.94
480.969	84.94
481.188	97.94
481.406	97.94
481.624	90.94
481.843	71.94
482.061	89.94
482.28	84.94
482.498	91.94
482.717	89.94
482.935	92.94
483.153	96.94
483.372	104.94
483.59	83.94
483.808	79.94
484.027	89.94
484.245	90.94
484.463	82.94
484.681	95.94
484.9	92.94
485.118	98.94
485.336	90.94
485.554	101.94
485.772	101.94
485.99	106.94
486.209	111.94
486.427	120.94
486.645	109.94
486.863	110.94
487.081	98.94
487.299	95.94
487.517	87.94
487.735	81.94
487.953	96.94
488.171	92.94
488.389	93.94
488.607	96.94
488.825	98.94
489.043	82.94
489.261	87.94
489.479	100.94
489.696	97.94
489.914	100.94
490.132	76.94
490.35	84.94
490.568	86.94
490.786	93.94
491.003	80.94
491.221	91.94
491.439	88.94
491.657	96.94
491.874	107.94
492.092	87.94
492.31	92.94
492.527	92.94
492.745	89.94
492.963	91.94
493.18	90.94
493.398	95.94
493.615	100.94
493.833	97.94
494.05	98.94
494.268	100.94
494.485	101.94
494.703	99.94
494.92	93.94
495.138	92.94
495.355	103.94
495.573	110.94
495.79	102.94
496.008	91.94
496.225	81.94
496.442	86.94
496.66	100.94
496.877	93.94
497.094	96.94
497.312	79.94
497.529	97.94
497.746	87.94
497.963	96.94
498.181	99.94
498.398	82.94
498.615	98.94
498.832	97.94
499.049	95.94
499.267	99.94
499.484	83.94
499.701	109.94
499.918	104.94
500.135	94.94
500.352	91.94
500.569	100.94
500.786	104.94
501.003	98.94
501.22	97.94
501.437	81.94
501.654	88.94
501.871	98.94
502.088	95.94
502.305	100.94
502.522	95.94
502.739	96.94
502.956	82.94
503.172	89.94
503.389	97.94
503.606	100.94
503.823	99.94
504.04	99.94
504.256	101.94
504.473	96.94
504.69	87.94
504.907	94.94
505.123	92.94
505.34	91.94
505.557	82.94
505.773	99.94
505.99	82.94
506.207	96.94
506.423	97.94
506.64	78.94
506.856	91.94
507.073	83.94
507.289	93.94
507.506	87.94
507.722	113.94
507.939	111.94
508.155	99.94
508.372	107.94
508.588	99.94
508.805	92.94
509.021	92.94
509.238	106.94
509.454	105.94
509.67	105.94
509.887	105.94
510.103	119.94
510.319	204.94
510.536	703.94
510.752	2086.94
510.968	587.94
511.184	136.94
511.401	101.94
511.617	105.94
511.833	74.94
512.049	102.94
512.265	99.94
512.481	87.94
512.698	94.94
512.914	104.94
513.13	85.94
513.346	85.94
513.562	79.94
513.778	90.94
513.994	105.94
514.21	112.94
514.426	114.94
514.642	136.94
514.858	112.94
515.074	141.94
515.29	410.94
515.506	1237.94
515.721	477.94
