Data from Uncirc_1994_H10_HRD10591_00095.txt Node
Date: Wed Jan 03 11:39:39 EST 2024
User: Yrep
Spectrometer: HR+D1059
Trigger mode: 1
Integration Time (sec): 1.000000E-1
Scans to average: 1
Electric dark correction enabled: true
Nonlinearity correction enabled: false
Boxcar width: 0
XAxis mode: Wavelengths
Number of Pixels in Spectrum: 2048
>>>>>Begin Spectral Data<<<<<
223.165	-22.31
223.4	-22.31
223.635	-22.31
223.869	-18.31
224.104	-12.31
224.338	-22.31
224.573	-17.31
224.808	-15.31
225.042	-17.31
225.277	8.69
225.511	-5.31
225.746	6.69
225.98	11.69
226.215	22.69
226.449	9.69
226.683	24.69
226.918	10.69
227.152	35.69
227.387	34.69
227.621	42.69
227.856	37.69
228.09	36.69
228.324	60.69
228.559	63.69
228.793	63.69
229.027	56.69
229.262	50.69
229.496	66.69
229.73	75.69
229.964	83.69
230.199	66.69
230.433	81.69
230.667	87.69
230.901	83.69
231.136	77.69
231.37	81.69
231.604	87.69
231.838	92.69
232.072	79.69
232.306	82.69
232.541	88.69
232.775	94.69
233.009	75.69
233.243	69.69
233.477	70.69
233.711	84.69
233.945	83.69
234.179	71.69
234.413	76.69
234.647	73.69
234.881	66.69
235.115	81.69
235.349	80.69
235.583	78.69
235.817	88.69
236.051	77.69
236.285	82.69
236.519	83.69
236.753	81.69
236.987	92.69
237.221	74.69
237.455	82.69
237.689	76.69
237.922	81.69
238.156	69.69
238.39	73.69
238.624	71.69
238.858	72.69
239.091	77.69
239.325	70.69
239.559	99.69
239.793	77.69
240.027	76.69
240.26	78.69
240.494	79.69
240.728	76.69
240.961	82.69
241.195	78.69
241.429	62.69
241.662	83.69
241.896	60.69
242.13	82.69
242.363	71.69
242.597	74.69
242.83	65.69
243.064	76.69
243.298	71.69
243.531	72.69
243.765	78.69
243.998	77.69
244.232	88.69
244.465	76.69
244.699	76.69
244.932	84.69
245.166	81.69
245.399	80.69
245.633	64.69
245.866	78.69
246.099	67.69
246.333	61.69
246.566	74.69
246.8	66.69
247.033	81.69
247.266	80.69
247.5	75.69
247.733	62.69
247.966	73.69
248.2	77.69
248.433	79.69
248.666	88.69
248.899	81.69
249.133	69.69
249.366	95.69
249.599	95.69
249.832	75.69
250.066	68.69
250.299	92.69
250.532	72.69
250.765	91.69
250.998	86.69
251.231	79.69
251.465	87.69
251.698	79.69
251.931	81.69
252.164	79.69
252.397	73.69
252.63	81.69
252.863	72.69
253.096	92.69
253.329	67.69
253.562	85.69
253.795	78.69
254.028	85.69
254.261	65.69
254.494	83.69
254.727	67.69
254.96	64.69
255.193	92.69
255.426	73.69
255.659	77.69
255.892	82.69
256.124	75.69
256.357	70.69
256.59	85.69
256.823	83.69
257.056	74.69
257.289	74.69
257.521	90.69
257.754	75.69
257.987	97.69
258.22	93.69
258.452	75.69
258.685	75.69
258.918	67.69
259.151	65.69
259.383	79.69
259.616	90.69
259.849	80.69
260.081	81.69
260.314	88.69
260.547	92.69
260.779	74.69
261.012	88.69
261.244	80.69
261.477	69.69
261.71	97.69
261.942	104.69
262.175	103.69
262.407	80.69
262.64	87.69
262.872	70.69
263.105	67.69
263.337	84.69
263.57	91.69
263.802	87.69
264.035	82.69
264.267	78.69
264.499	85.69
264.732	80.69
264.964	77.69
265.197	93.69
265.429	77.69
265.661	65.69
265.894	83.69
266.126	86.69
266.358	90.69
266.591	84.69
266.823	71.69
267.055	66.69
267.287	66.69
267.52	79.69
267.752	82.69
267.984	87.69
268.216	76.69
268.448	95.69
268.681	76.69
268.913	83.69
269.145	86.69
269.377	87.69
269.609	85.69
269.841	87.69
270.073	79.69
270.306	88.69
270.538	76.69
270.77	85.69
271.002	81.69
271.234	92.69
271.466	80.69
271.698	83.69
271.93	81.69
272.162	91.69
272.394	84.69
272.626	86.69
272.858	90.69
273.09	74.69
273.322	74.69
273.553	87.69
273.785	78.69
274.017	76.69
274.249	88.69
274.481	80.69
274.713	78.69
274.945	88.69
275.176	90.69
275.408	74.69
275.64	79.69
275.872	83.69
276.104	74.69
276.335	85.69
276.567	95.69
276.799	94.69
277.031	91.69
277.262	97.69
277.494	87.69
277.726	92.69
277.957	64.69
278.189	76.69
278.421	82.69
278.652	92.69
278.884	85.69
279.115	90.69
279.347	94.69
279.579	93.69
279.81	75.69
280.042	87.69
280.273	85.69
280.505	83.69
280.736	93.69
280.968	91.69
281.199	82.69
281.431	92.69
281.662	82.69
281.894	87.69
282.125	100.69
282.356	107.69
282.588	127.69
282.819	106.69
283.051	83.69
283.282	75.69
283.513	93.69
283.745	71.69
283.976	85.69
284.207	98.69
284.439	83.69
284.67	85.69
284.901	84.69
285.132	96.69
285.364	89.69
285.595	96.69
285.826	93.69
286.057	97.69
286.288	98.69
286.52	87.69
286.751	93.69
286.982	82.69
287.213	79.69
287.444	93.69
287.675	92.69
287.906	84.69
288.138	99.69
288.369	96.69
288.6	94.69
288.831	75.69
289.062	96.69
289.293	85.69
289.524	88.69
289.755	89.69
289.986	87.69
290.217	79.69
290.448	83.69
290.679	85.69
290.91	80.69
291.141	87.69
291.371	100.69
291.602	79.69
291.833	92.69
292.064	87.69
292.295	87.69
292.526	87.69
292.757	88.69
292.987	83.69
293.218	101.69
293.449	92.69
293.68	87.69
293.91	91.69
294.141	89.69
294.372	85.69
294.603	80.69
294.833	88.69
295.064	84.69
295.295	93.69
295.525	89.69
295.756	97.69
295.987	97.69
296.217	128.69
296.448	120.69
296.679	88.69
296.909	85.69
297.14	86.69
297.37	88.69
297.601	97.69
297.831	82.69
298.062	99.69
298.292	87.69
298.523	85.69
298.753	100.69
298.984	90.69
299.214	77.69
299.445	91.69
299.675	107.69
299.905	93.69
300.136	82.69
300.366	89.69
300.597	95.69
300.827	86.69
301.057	98.69
301.288	104.69
301.518	78.69
301.748	90.69
301.979	86.69
302.209	88.69
302.439	78.69
302.669	64.69
302.9	87.69
303.13	87.69
303.36	93.69
303.59	97.69
303.82	104.69
304.051	100.69
304.281	100.69
304.511	91.69
304.741	107.69
304.971	88.69
305.201	83.69
305.431	89.69
305.661	81.69
305.891	98.69
306.121	85.69
306.352	112.69
306.582	103.69
306.812	88.69
307.042	104.69
307.272	91.69
307.502	101.69
307.731	78.69
307.961	88.69
308.191	92.69
308.421	76.69
308.651	77.69
308.881	90.69
309.111	90.69
309.341	94.69
309.571	89.69
309.8	102.69
310.03	81.69
310.26	109.69
310.49	86.69
310.72	97.69
310.949	101.69
311.179	97.69
311.409	88.69
311.639	80.69
311.868	93.69
312.098	94.69
312.328	102.69
312.557	101.69
312.787	112.69
313.017	89.69
313.246	90.69
313.476	96.69
313.706	93.69
313.935	96.69
314.165	91.69
314.394	104.69
314.624	93.69
314.853	99.69
315.083	95.69
315.312	96.69
315.542	84.69
315.771	91.69
316.001	94.69
316.23	88.69
316.46	78.69
316.689	105.69
316.919	93.69
317.148	82.69
317.377	92.69
317.607	86.69
317.836	84.69
318.065	81.69
318.295	92.69
318.524	86.69
318.753	96.69
318.983	93.69
319.212	97.69
319.441	98.69
319.67	100.69
319.9	95.69
320.129	97.69
320.358	83.69
320.587	87.69
320.816	99.69
321.046	94.69
321.275	93.69
321.504	96.69
321.733	83.69
321.962	101.69
322.191	90.69
322.42	83.69
322.649	95.69
322.878	106.69
323.108	115.69
323.337	118.69
323.566	122.69
323.795	156.69
324.024	216.69
324.253	371.69
324.482	825.69
324.71	1691.69
324.939	2167.69
325.168	812.69
325.397	249.69
325.626	151.69
325.855	128.69
326.084	136.69
326.313	139.69
326.542	141.69
326.77	219.69
326.999	449.69
327.228	933.69
327.457	1645.69
327.686	1293.69
327.914	337.69
328.143	193.69
328.372	135.69
328.6	116.69
328.829	113.69
329.058	112.69
329.287	121.69
329.515	117.69
329.744	94.69
329.972	100.69
330.201	98.69
330.43	112.69
330.658	126.69
330.887	130.69
331.115	124.69
331.344	98.69
331.572	100.69
331.801	101.69
332.03	98.69
332.258	87.69
332.486	105.69
332.715	86.69
332.943	79.69
333.172	105.69
333.4	90.69
333.629	97.69
333.857	107.69
334.085	103.69
334.314	86.69
334.542	95.69
334.771	96.69
334.999	94.69
335.227	105.69
335.455	93.69
335.684	93.69
335.912	85.69
336.14	114.69
336.369	83.69
336.597	76.69
336.825	91.69
337.053	83.69
337.281	92.69
337.51	93.69
337.738	92.69
337.966	92.69
338.194	92.69
338.422	87.69
338.65	86.69
338.878	85.69
339.106	85.69
339.334	101.69
339.562	92.69
339.79	77.69
340.018	99.69
340.246	95.69
340.474	93.69
340.702	96.69
340.93	80.69
341.158	77.69
341.386	79.69
341.614	93.69
341.842	94.69
342.07	93.69
342.298	96.69
342.526	89.69
342.754	88.69
342.981	88.69
343.209	80.69
343.437	93.69
343.665	88.69
343.893	89.69
344.12	88.69
344.348	98.69
344.576	91.69
344.804	100.69
345.031	83.69
345.259	110.69
345.487	97.69
345.714	95.69
345.942	84.69
346.17	91.69
346.397	87.69
346.625	88.69
346.853	88.69
347.08	88.69
347.308	90.69
347.535	90.69
347.763	87.69
347.99	95.69
348.218	93.69
348.445	100.69
348.673	97.69
348.9	94.69
349.128	105.69
349.355	79.69
349.583	89.69
349.81	92.69
350.037	87.69
350.265	85.69
350.492	102.69
350.72	82.69
350.947	87.69
351.174	112.69
351.402	102.69
351.629	100.69
351.856	87.69
352.083	97.69
352.311	81.69
352.538	95.69
352.765	107.69
352.992	122.69
353.22	116.69
353.447	100.69
353.674	100.69
353.901	105.69
354.128	101.69
354.355	115.69
354.583	94.69
354.81	91.69
355.037	93.69
355.264	92.69
355.491	98.69
355.718	93.69
355.945	83.69
356.172	93.69
356.399	95.69
356.626	99.69
356.853	98.69
357.08	79.69
357.307	89.69
357.534	84.69
357.761	92.69
357.988	91.69
358.215	84.69
358.441	84.69
358.668	100.69
358.895	96.69
359.122	79.69
359.349	83.69
359.576	91.69
359.802	103.69
360.029	112.69
360.256	106.69
360.483	95.69
360.709	85.69
360.936	94.69
361.163	74.69
361.39	99.69
361.616	87.69
361.843	100.69
362.07	89.69
362.296	91.69
362.523	83.69
362.749	96.69
362.976	96.69
363.203	96.69
363.429	96.69
363.656	99.69
363.882	86.69
364.109	81.69
364.335	91.69
364.562	93.69
364.788	84.69
365.015	87.69
365.241	71.69
365.468	99.69
365.694	105.69
365.92	86.69
366.147	84.69
366.373	102.69
366.599	85.69
366.826	75.69
367.052	88.69
367.278	95.69
367.505	98.69
367.731	94.69
367.957	91.69
368.184	87.69
368.41	113.69
368.636	102.69
368.862	113.69
369.089	103.69
369.315	97.69
369.541	92.69
369.767	101.69
369.993	81.69
370.219	80.69
370.445	93.69
370.672	97.69
370.898	74.69
371.124	85.69
371.35	100.69
371.576	84.69
371.802	87.69
372.028	93.69
372.254	80.69
372.48	87.69
372.706	84.69
372.932	99.69
373.158	94.69
373.384	87.69
373.61	86.69
373.835	96.69
374.061	93.69
374.287	92.69
374.513	80.69
374.739	72.69
374.965	97.69
375.191	74.69
375.416	92.69
375.642	101.69
375.868	87.69
376.094	94.69
376.319	99.69
376.545	85.69
376.771	88.69
376.997	89.69
377.222	87.69
377.448	95.69
377.674	72.69
377.899	87.69
378.125	81.69
378.35	80.69
378.576	97.69
378.802	84.69
379.027	89.69
379.253	88.69
379.478	98.69
379.704	103.69
379.929	91.69
380.155	102.69
380.38	86.69
380.606	101.69
380.831	89.69
381.057	92.69
381.282	98.69
381.507	100.69
381.733	100.69
381.958	77.69
382.184	98.69
382.409	89.69
382.634	99.69
382.86	95.69
383.085	96.69
383.31	96.69
383.535	107.69
383.761	95.69
383.986	88.69
384.211	103.69
384.436	89.69
384.662	104.69
384.887	106.69
385.112	103.69
385.337	97.69
385.562	94.69
385.787	106.69
386.013	104.69
386.238	100.69
386.463	113.69
386.688	104.69
386.913	112.69
387.138	113.69
387.363	108.69
387.588	93.69
387.813	95.69
388.038	97.69
388.263	99.69
388.488	109.69
388.713	97.69
388.938	98.69
389.163	80.69
389.387	85.69
389.612	92.69
389.837	91.69
390.062	95.69
390.287	91.69
390.512	75.69
390.736	93.69
390.961	107.69
391.186	88.69
391.411	94.69
391.636	91.69
391.86	83.69
392.085	76.69
392.31	85.69
392.534	98.69
392.759	85.69
392.984	78.69
393.208	83.69
393.433	74.69
393.658	96.69
393.882	98.69
394.107	80.69
394.331	87.69
394.556	89.69
394.78	91.69
395.005	92.69
395.229	100.69
395.454	88.69
395.678	80.69
395.903	98.69
396.127	102.69
396.352	88.69
396.576	82.69
396.801	67.69
397.025	77.69
397.249	96.69
397.474	94.69
397.698	77.69
397.922	91.69
398.147	84.69
398.371	84.69
398.595	85.69
398.82	88.69
399.044	97.69
399.268	92.69
399.492	84.69
399.717	76.69
399.941	89.69
400.165	95.69
400.389	98.69
400.613	91.69
400.837	74.69
401.062	95.69
401.286	87.69
401.51	95.69
401.734	84.69
401.958	90.69
402.182	130.69
402.406	150.69
402.63	108.69
402.854	101.69
403.078	89.69
403.302	105.69
403.526	96.69
403.75	81.69
403.974	88.69
404.198	79.69
404.422	89.69
404.645	83.69
404.869	100.69
405.093	97.69
405.317	88.69
405.541	99.69
405.765	100.69
405.988	132.69
406.212	175.69
406.436	214.69
406.66	148.69
406.883	103.69
407.107	102.69
407.331	97.69
407.555	107.69
407.778	98.69
408.002	92.69
408.226	85.69
408.449	70.69
408.673	96.69
408.896	97.69
409.12	95.69
409.344	90.69
409.567	92.69
409.791	101.69
410.014	106.69
410.238	99.69
410.461	95.69
410.685	96.69
410.908	94.69
411.132	101.69
411.355	104.69
411.578	91.69
411.802	78.69
412.025	80.69
412.249	88.69
412.472	88.69
412.695	88.69
412.919	89.69
413.142	89.69
413.365	68.69
413.589	72.69
413.812	89.69
414.035	92.69
414.258	67.69
414.482	86.69
414.705	77.69
414.928	98.69
415.151	97.69
415.374	88.69
415.597	98.69
415.821	86.69
416.044	71.69
416.267	72.69
416.49	87.69
416.713	92.69
416.936	97.69
417.159	84.69
417.382	75.69
417.605	78.69
417.828	110.69
418.051	98.69
418.274	87.69
418.497	101.69
418.72	81.69
418.943	90.69
419.166	99.69
419.389	86.69
419.611	88.69
419.834	104.69
420.057	75.69
420.28	79.69
420.503	99.69
420.726	92.69
420.948	98.69
421.171	84.69
421.394	93.69
421.617	84.69
421.839	95.69
422.062	84.69
422.285	102.69
422.507	93.69
422.73	101.69
422.953	83.69
423.175	104.69
423.398	96.69
423.621	96.69
423.843	88.69
424.066	90.69
424.288	93.69
424.511	105.69
424.733	98.69
424.956	100.69
425.178	104.69
425.401	101.69
425.623	105.69
425.846	83.69
426.068	86.69
426.291	89.69
426.513	93.69
426.735	95.69
426.958	90.69
427.18	107.69
427.402	125.69
427.625	168.69
427.847	114.69
428.069	96.69
428.292	80.69
428.514	93.69
428.736	79.69
428.958	77.69
429.181	83.69
429.403	84.69
429.625	93.69
429.847	106.69
430.069	107.69
430.292	99.69
430.514	93.69
430.736	89.69
430.958	80.69
431.18	91.69
431.402	83.69
431.624	95.69
431.846	84.69
432.068	73.69
432.29	83.69
432.512	103.69
432.734	100.69
432.956	73.69
433.178	99.69
433.4	105.69
433.622	100.69
433.844	84.69
434.066	97.69
434.287	90.69
434.509	102.69
434.731	86.69
434.953	98.69
435.175	84.69
435.397	85.69
435.618	91.69
435.84	96.69
436.062	103.69
436.284	115.69
436.505	95.69
436.727	98.69
436.949	94.69
437.17	90.69
437.392	91.69
437.614	89.69
437.835	102.69
438.057	131.69
438.278	105.69
438.5	106.69
438.721	113.69
438.943	105.69
439.165	89.69
439.386	95.69
439.608	84.69
439.829	98.69
440.05	119.69
440.272	130.69
440.493	97.69
440.715	95.69
440.936	92.69
441.158	87.69
441.379	85.69
441.6	83.69
441.822	98.69
442.043	93.69
442.264	95.69
442.486	88.69
442.707	100.69
442.928	102.69
443.149	125.69
443.371	127.69
443.592	113.69
443.813	106.69
444.034	109.69
444.255	87.69
444.476	91.69
444.698	80.69
444.919	92.69
445.14	117.69
445.361	120.69
445.582	109.69
445.803	131.69
446.024	125.69
446.245	121.69
446.466	107.69
446.687	103.69
446.908	74.69
447.129	92.69
447.35	95.69
447.571	90.69
447.792	97.69
448.013	100.69
448.234	94.69
448.455	108.69
448.675	107.69
448.896	111.69
449.117	95.69
449.338	96.69
449.559	117.69
449.779	125.69
450	98.69
450.221	86.69
450.442	79.69
450.662	101.69
450.883	98.69
451.104	116.69
451.324	98.69
451.545	93.69
451.766	91.69
451.986	94.69
452.207	74.69
452.428	92.69
452.648	92.69
452.869	87.69
453.089	119.69
453.31	121.69
453.53	103.69
453.751	96.69
453.971	105.69
454.192	112.69
454.412	99.69
454.633	92.69
454.853	89.69
455.073	84.69
455.294	85.69
455.514	93.69
455.734	90.69
455.955	84.69
456.175	89.69
456.395	85.69
456.616	76.69
456.836	84.69
457.056	86.69
457.276	82.69
457.497	92.69
457.717	85.69
457.937	81.69
458.157	81.69
458.377	91.69
458.598	101.69
458.818	138.69
459.038	159.69
459.258	125.69
459.478	92.69
459.698	82.69
459.918	77.69
460.138	93.69
460.358	89.69
460.578	91.69
460.798	98.69
461.018	101.69
461.238	79.69
461.458	77.69
461.678	73.69
461.898	89.69
462.118	85.69
462.338	87.69
462.558	82.69
462.777	77.69
462.997	87.69
463.217	85.69
463.437	79.69
463.657	89.69
463.876	85.69
464.096	91.69
464.316	101.69
464.536	92.69
464.755	99.69
464.975	99.69
465.195	154.69
465.414	153.69
465.634	105.69
465.854	85.69
466.073	76.69
466.293	85.69
466.512	84.69
466.732	83.69
466.951	77.69
467.171	91.69
467.391	75.69
467.61	110.69
467.829	79.69
468.049	91.69
468.268	77.69
468.488	86.69
468.707	85.69
468.927	84.69
469.146	91.69
469.365	96.69
469.585	80.69
469.804	95.69
470.023	91.69
470.243	98.69
470.462	87.69
470.681	99.69
470.901	84.69
471.12	76.69
471.339	91.69
471.558	89.69
471.777	92.69
471.997	91.69
472.216	89.69
472.435	85.69
472.654	91.69
472.873	87.69
473.092	88.69
473.311	104.69
473.53	75.69
473.749	93.69
473.968	89.69
474.187	103.69
474.406	107.69
474.625	86.69
474.844	73.69
475.063	83.69
475.282	81.69
475.501	87.69
475.72	94.69
475.939	82.69
476.158	71.69
476.377	83.69
476.596	83.69
476.814	84.69
477.033	104.69
477.252	95.69
477.471	66.69
477.69	91.69
477.908	92.69
478.127	91.69
478.346	84.69
478.564	84.69
478.783	91.69
479.002	81.69
479.22	89.69
479.439	100.69
479.658	91.69
479.876	96.69
480.095	103.69
480.313	96.69
480.532	90.69
480.751	82.69
480.969	82.69
481.188	96.69
481.406	97.69
481.624	84.69
481.843	97.69
482.061	83.69
482.28	87.69
482.498	83.69
482.717	80.69
482.935	84.69
483.153	88.69
483.372	92.69
483.59	76.69
483.808	88.69
484.027	91.69
484.245	104.69
484.463	81.69
484.681	87.69
484.9	87.69
485.118	66.69
485.336	96.69
485.554	89.69
485.772	95.69
485.99	103.69
486.209	105.69
486.427	117.69
486.645	109.69
486.863	117.69
487.081	99.69
487.299	100.69
487.517	96.69
487.735	99.69
487.953	88.69
488.171	119.69
488.389	93.69
488.607	110.69
488.825	84.69
489.043	86.69
489.261	84.69
489.479	91.69
489.696	86.69
489.914	81.69
490.132	93.69
490.35	93.69
490.568	80.69
490.786	84.69
491.003	86.69
491.221	83.69
491.439	89.69
491.657	96.69
491.874	105.69
492.092	96.69
492.31	78.69
492.527	71.69
492.745	100.69
492.963	88.69
493.18	84.69
493.398	80.69
493.615	92.69
493.833	88.69
494.05	82.69
494.268	93.69
494.485	82.69
494.703	82.69
494.92	93.69
495.138	79.69
495.355	77.69
495.573	84.69
495.79	85.69
496.008	89.69
496.225	89.69
496.442	76.69
496.66	88.69
496.877	82.69
497.094	88.69
497.312	99.69
497.529	107.69
497.746	89.69
497.963	84.69
498.181	88.69
498.398	85.69
498.615	103.69
498.832	95.69
499.049	106.69
499.267	84.69
499.484	93.69
499.701	89.69
499.918	87.69
500.135	96.69
500.352	92.69
500.569	96.69
500.786	96.69
501.003	94.69
501.22	69.69
501.437	81.69
501.654	90.69
501.871	98.69
502.088	92.69
502.305	89.69
502.522	91.69
502.739	73.69
502.956	95.69
503.172	92.69
503.389	95.69
503.606	113.69
503.823	105.69
504.04	91.69
504.256	87.69
504.473	84.69
504.69	89.69
504.907	100.69
505.123	77.69
505.34	92.69
505.557	97.69
505.773	94.69
505.99	89.69
506.207	79.69
506.423	87.69
506.64	94.69
506.856	84.69
507.073	87.69
507.289	90.69
507.506	94.69
507.722	98.69
507.939	97.69
508.155	94.69
508.372	79.69
508.588	89.69
508.805	97.69
509.021	82.69
509.238	107.69
509.454	104.69
509.67	90.69
509.887	98.69
510.103	136.69
510.319	208.69
510.536	787.69
510.752	2453.69
510.968	679.69
511.184	153.69
511.401	100.69
511.617	99.69
511.833	90.69
512.049	100.69
512.265	83.69
512.481	93.69
512.698	99.69
512.914	100.69
513.13	89.69
513.346	71.69
513.562	75.69
513.778	87.69
513.994	88.69
514.21	119.69
514.426	117.69
514.642	129.69
514.858	117.69
515.074	156.69
515.29	468.69
515.506	1469.69
515.721	529.69
515.937	140.69
516.153	103.69
516.369	90.69
