Data from Uncirc_1994_H10_HRD10591_00019.txt Node
Date: Wed Jan 03 11:39:24 EST 2024
User: Yrep
Spectrometer: HR+D1059
Trigger mode: 1
Integration Time (sec): 1.000000E-1
Scans to average: 1
Electric dark correction enabled: true
Nonlinearity correction enabled: false
Boxcar width: 0
XAxis mode: Wavelengths
Number of Pixels in Spectrum: 2048
>>>>>Begin Spectral Data<<<<<
223.165	-17.81
223.4	-17.81
223.635	-17.81
223.869	-22.81
224.104	-23.81
224.338	-10.81
224.573	-18.81
224.808	10.19
225.042	-10.81
225.277	-2.81
225.511	7.19
225.746	-3.81
225.98	10.19
226.215	7.19
226.449	0.19
226.683	17.19
226.918	21.19
227.152	38.19
227.387	28.19
227.621	35.19
227.856	16.19
228.09	52.19
228.324	53.19
228.559	46.19
228.793	55.19
229.027	54.19
229.262	83.19
229.496	71.19
229.73	84.19
229.964	82.19
230.199	71.19
230.433	83.19
230.667	75.19
230.901	80.19
231.136	83.19
231.37	77.19
231.604	76.19
231.838	79.19
232.072	68.19
232.306	67.19
232.541	74.19
232.775	80.19
233.009	78.19
233.243	84.19
233.477	93.19
233.711	69.19
233.945	86.19
234.179	80.19
234.413	67.19
234.647	78.19
234.881	83.19
235.115	78.19
235.349	73.19
235.583	56.19
235.817	79.19
236.051	83.19
236.285	79.19
236.519	64.19
236.753	68.19
236.987	80.19
237.221	68.19
237.455	62.19
237.689	72.19
237.922	73.19
238.156	65.19
238.39	66.19
238.624	77.19
238.858	70.19
239.091	68.19
239.325	72.19
239.559	69.19
239.793	65.19
240.027	76.19
240.26	86.19
240.494	73.19
240.728	76.19
240.961	72.19
241.195	68.19
241.429	79.19
241.662	70.19
241.896	85.19
242.13	68.19
242.363	68.19
242.597	81.19
242.83	86.19
243.064	58.19
243.298	79.19
243.531	74.19
243.765	69.19
243.998	80.19
244.232	72.19
244.465	89.19
244.699	72.19
244.932	59.19
245.166	62.19
245.399	71.19
245.633	78.19
245.866	72.19
246.099	74.19
246.333	77.19
246.566	56.19
246.8	70.19
247.033	73.19
247.266	60.19
247.5	63.19
247.733	74.19
247.966	83.19
248.2	87.19
248.433	79.19
248.666	59.19
248.899	75.19
249.133	86.19
249.366	88.19
249.599	93.19
249.832	65.19
250.066	70.19
250.299	69.19
250.532	73.19
250.765	81.19
250.998	78.19
251.231	80.19
251.465	74.19
251.698	87.19
251.931	74.19
252.164	75.19
252.397	78.19
252.63	78.19
252.863	84.19
253.096	69.19
253.329	94.19
253.562	76.19
253.795	79.19
254.028	91.19
254.261	79.19
254.494	73.19
254.727	71.19
254.96	76.19
255.193	68.19
255.426	93.19
255.659	84.19
255.892	58.19
256.124	83.19
256.357	80.19
256.59	76.19
256.823	93.19
257.056	86.19
257.289	79.19
257.521	81.19
257.754	84.19
257.987	81.19
258.22	83.19
258.452	72.19
258.685	66.19
258.918	94.19
259.151	55.19
259.383	82.19
259.616	76.19
259.849	67.19
260.081	65.19
260.314	64.19
260.547	78.19
260.779	79.19
261.012	76.19
261.244	79.19
261.477	94.19
261.71	104.19
261.942	96.19
262.175	109.19
262.407	80.19
262.64	78.19
262.872	92.19
263.105	81.19
263.337	89.19
263.57	80.19
263.802	86.19
264.035	87.19
264.267	84.19
264.499	86.19
264.732	79.19
264.964	82.19
265.197	69.19
265.429	87.19
265.661	79.19
265.894	78.19
266.126	76.19
266.358	82.19
266.591	85.19
266.823	87.19
267.055	64.19
267.287	87.19
267.52	86.19
267.752	70.19
267.984	71.19
268.216	94.19
268.448	87.19
268.681	80.19
268.913	86.19
269.145	89.19
269.377	84.19
269.609	63.19
269.841	87.19
270.073	82.19
270.306	69.19
270.538	73.19
270.77	74.19
271.002	83.19
271.234	90.19
271.466	73.19
271.698	96.19
271.93	81.19
272.162	76.19
272.394	86.19
272.626	77.19
272.858	75.19
273.09	84.19
273.322	82.19
273.553	90.19
273.785	73.19
274.017	76.19
274.249	80.19
274.481	76.19
274.713	74.19
274.945	79.19
275.176	75.19
275.408	75.19
275.64	88.19
275.872	79.19
276.104	83.19
276.335	95.19
276.567	89.19
276.799	99.19
277.031	83.19
277.262	70.19
277.494	79.19
277.726	78.19
277.957	81.19
278.189	92.19
278.421	73.19
278.652	77.19
278.884	80.19
279.115	91.19
279.347	81.19
279.579	88.19
279.81	84.19
280.042	97.19
280.273	81.19
280.505	76.19
280.736	92.19
280.968	85.19
281.199	85.19
281.431	93.19
281.662	86.19
281.894	96.19
282.125	87.19
282.356	106.19
282.588	115.19
282.819	94.19
283.051	86.19
283.282	86.19
283.513	79.19
283.745	72.19
283.976	84.19
284.207	78.19
284.439	87.19
284.67	76.19
284.901	81.19
285.132	90.19
285.364	91.19
285.595	80.19
285.826	71.19
286.057	75.19
286.288	75.19
286.52	78.19
286.751	74.19
286.982	83.19
287.213	87.19
287.444	98.19
287.675	71.19
287.906	77.19
288.138	87.19
288.369	84.19
288.6	79.19
288.831	94.19
289.062	80.19
289.293	83.19
289.524	80.19
289.755	95.19
289.986	82.19
290.217	94.19
290.448	71.19
290.679	83.19
290.91	95.19
291.141	88.19
291.371	79.19
291.602	90.19
291.833	94.19
292.064	89.19
292.295	78.19
292.526	73.19
292.757	81.19
292.987	89.19
293.218	85.19
293.449	94.19
293.68	88.19
293.91	73.19
294.141	83.19
294.372	77.19
294.603	75.19
294.833	90.19
295.064	80.19
295.295	99.19
295.525	92.19
295.756	102.19
295.987	111.19
296.217	120.19
296.448	110.19
296.679	92.19
296.909	96.19
297.14	69.19
297.37	83.19
297.601	86.19
297.831	92.19
298.062	79.19
298.292	84.19
298.523	77.19
298.753	84.19
298.984	95.19
299.214	79.19
299.445	83.19
299.675	73.19
299.905	84.19
300.136	78.19
300.366	99.19
300.597	95.19
300.827	82.19
301.057	93.19
301.288	100.19
301.518	97.19
301.748	82.19
301.979	101.19
302.209	81.19
302.439	75.19
302.669	79.19
302.9	75.19
303.13	88.19
303.36	86.19
303.59	92.19
303.82	90.19
304.051	78.19
304.281	75.19
304.511	84.19
304.741	85.19
304.971	84.19
305.201	92.19
305.431	88.19
305.661	96.19
305.891	91.19
306.121	77.19
306.352	92.19
306.582	89.19
306.812	97.19
307.042	84.19
307.272	86.19
307.502	83.19
307.731	77.19
307.961	79.19
308.191	83.19
308.421	79.19
308.651	74.19
308.881	96.19
309.111	90.19
309.341	97.19
309.571	93.19
309.8	99.19
310.03	94.19
310.26	91.19
310.49	80.19
310.72	80.19
310.949	91.19
311.179	87.19
311.409	103.19
311.639	90.19
311.868	92.19
312.098	91.19
312.328	90.19
312.557	99.19
312.787	91.19
313.017	87.19
313.246	88.19
313.476	93.19
313.706	85.19
313.935	98.19
314.165	90.19
314.394	104.19
314.624	95.19
314.853	87.19
315.083	80.19
315.312	85.19
315.542	91.19
315.771	101.19
316.001	90.19
316.23	91.19
316.46	77.19
316.689	96.19
316.919	87.19
317.148	94.19
317.377	83.19
317.607	96.19
317.836	85.19
318.065	83.19
318.295	87.19
318.524	88.19
318.753	104.19
318.983	89.19
319.212	85.19
319.441	116.19
319.67	95.19
319.9	83.19
320.129	99.19
320.358	93.19
320.587	97.19
320.816	94.19
321.046	83.19
321.275	83.19
321.504	90.19
321.733	85.19
321.962	91.19
322.191	103.19
322.42	109.19
322.649	116.19
322.878	111.19
323.108	100.19
323.337	105.19
323.566	103.19
323.795	144.19
324.024	201.19
324.253	347.19
324.482	781.19
324.71	1588.19
324.939	2066.19
325.168	766.19
325.397	223.19
325.626	125.19
325.855	105.19
326.084	113.19
326.313	137.19
326.542	143.19
326.77	226.19
326.999	439.19
327.228	891.19
327.457	1648.19
327.686	1275.19
327.914	345.19
328.143	184.19
328.372	143.19
328.6	135.19
328.829	116.19
329.058	115.19
329.287	104.19
329.515	92.19
329.744	96.19
329.972	92.19
330.201	86.19
330.43	100.19
330.658	110.19
330.887	112.19
331.115	112.19
331.344	102.19
331.572	92.19
331.801	99.19
332.03	93.19
332.258	99.19
332.486	88.19
332.715	94.19
332.943	80.19
333.172	84.19
333.4	91.19
333.629	97.19
333.857	103.19
334.085	101.19
334.314	94.19
334.542	83.19
334.771	107.19
334.999	91.19
335.227	93.19
335.455	85.19
335.684	96.19
335.912	91.19
336.14	94.19
336.369	96.19
336.597	90.19
336.825	90.19
337.053	93.19
337.281	87.19
337.51	91.19
337.738	92.19
337.966	85.19
338.194	84.19
338.422	89.19
338.65	88.19
338.878	101.19
339.106	82.19
339.334	78.19
339.562	108.19
339.79	103.19
340.018	83.19
340.246	88.19
340.474	88.19
340.702	83.19
340.93	83.19
341.158	92.19
341.386	98.19
341.614	89.19
341.842	84.19
342.07	83.19
342.298	82.19
342.526	80.19
342.754	87.19
342.981	86.19
343.209	77.19
343.437	99.19
343.665	97.19
343.893	81.19
344.12	80.19
344.348	76.19
344.576	73.19
344.804	78.19
345.031	92.19
345.259	98.19
345.487	90.19
345.714	97.19
345.942	95.19
346.17	79.19
346.397	81.19
346.625	74.19
346.853	87.19
347.08	85.19
347.308	81.19
347.535	110.19
347.763	94.19
347.99	93.19
348.218	83.19
348.445	88.19
348.673	90.19
348.9	93.19
349.128	93.19
349.355	86.19
349.583	86.19
349.81	94.19
350.037	86.19
350.265	86.19
350.492	88.19
350.72	88.19
350.947	97.19
351.174	97.19
351.402	112.19
351.629	101.19
351.856	85.19
352.083	101.19
352.311	92.19
352.538	73.19
352.765	92.19
352.992	103.19
353.22	105.19
353.447	94.19
353.674	101.19
353.901	83.19
354.128	98.19
354.355	83.19
354.583	87.19
354.81	81.19
355.037	84.19
355.264	89.19
355.491	90.19
355.718	75.19
355.945	78.19
356.172	83.19
356.399	87.19
356.626	81.19
356.853	83.19
357.08	87.19
357.307	89.19
357.534	97.19
357.761	92.19
357.988	92.19
358.215	83.19
358.441	89.19
358.668	84.19
358.895	80.19
359.122	85.19
359.349	94.19
359.576	77.19
359.802	94.19
360.029	96.19
360.256	103.19
360.483	86.19
360.709	84.19
360.936	89.19
361.163	93.19
361.39	87.19
361.616	87.19
361.843	86.19
362.07	89.19
362.296	71.19
362.523	76.19
362.749	88.19
362.976	83.19
363.203	92.19
363.429	90.19
363.656	89.19
363.882	85.19
364.109	84.19
364.335	86.19
364.562	60.19
364.788	83.19
365.015	86.19
365.241	109.19
365.468	118.19
365.694	101.19
365.92	97.19
366.147	88.19
366.373	74.19
366.599	88.19
366.826	84.19
367.052	91.19
367.278	85.19
367.505	87.19
367.731	73.19
367.957	84.19
368.184	92.19
368.41	96.19
368.636	113.19
368.862	108.19
369.089	91.19
369.315	86.19
369.541	79.19
369.767	77.19
369.993	95.19
370.219	85.19
370.445	75.19
370.672	69.19
370.898	87.19
371.124	82.19
371.35	87.19
371.576	81.19
371.802	83.19
372.028	89.19
372.254	80.19
372.48	87.19
372.706	95.19
372.932	78.19
373.158	72.19
373.384	87.19
373.61	93.19
373.835	88.19
374.061	75.19
374.287	79.19
374.513	87.19
374.739	80.19
374.965	94.19
375.191	77.19
375.416	92.19
375.642	92.19
375.868	65.19
376.094	91.19
376.319	95.19
376.545	108.19
376.771	85.19
376.997	94.19
377.222	84.19
377.448	87.19
377.674	87.19
377.899	88.19
378.125	86.19
378.35	79.19
378.576	70.19
378.802	101.19
379.027	83.19
379.253	84.19
379.478	76.19
379.704	84.19
379.929	77.19
380.155	87.19
380.38	86.19
380.606	88.19
380.831	101.19
381.057	92.19
381.282	87.19
381.507	89.19
381.733	91.19
381.958	93.19
382.184	111.19
382.409	95.19
382.634	87.19
382.86	95.19
383.085	94.19
383.31	93.19
383.535	93.19
383.761	97.19
383.986	93.19
384.211	85.19
384.436	101.19
384.662	84.19
384.887	92.19
385.112	103.19
385.337	98.19
385.562	91.19
385.787	96.19
386.013	92.19
386.238	105.19
386.463	83.19
386.688	93.19
386.913	90.19
387.138	101.19
387.363	95.19
387.588	86.19
387.813	89.19
388.038	89.19
388.263	94.19
388.488	96.19
388.713	76.19
388.938	85.19
389.163	92.19
389.387	113.19
389.612	98.19
389.837	94.19
390.062	77.19
390.287	99.19
390.512	89.19
390.736	75.19
390.961	87.19
391.186	76.19
391.411	107.19
391.636	95.19
391.86	84.19
392.085	87.19
392.31	76.19
392.534	69.19
392.759	85.19
392.984	77.19
393.208	87.19
393.433	97.19
393.658	88.19
393.882	68.19
394.107	65.19
394.331	85.19
394.556	76.19
394.78	93.19
395.005	86.19
395.229	79.19
395.454	82.19
395.678	81.19
395.903	78.19
396.127	92.19
396.352	76.19
396.576	75.19
396.801	92.19
397.025	96.19
397.249	72.19
397.474	79.19
397.698	79.19
397.922	78.19
398.147	82.19
398.371	67.19
398.595	97.19
398.82	91.19
399.044	78.19
399.268	72.19
399.492	75.19
399.717	79.19
399.941	82.19
400.165	98.19
400.389	92.19
400.613	74.19
400.837	71.19
401.062	79.19
401.286	91.19
401.51	88.19
401.734	84.19
401.958	90.19
402.182	116.19
402.406	155.19
402.63	117.19
402.854	94.19
403.078	77.19
403.302	71.19
403.526	94.19
403.75	86.19
403.974	73.19
404.198	107.19
404.422	97.19
404.645	86.19
404.869	80.19
405.093	85.19
405.317	89.19
405.541	92.19
405.765	93.19
405.988	97.19
406.212	168.19
406.436	206.19
406.66	139.19
406.883	97.19
407.107	76.19
407.331	90.19
407.555	92.19
407.778	86.19
408.002	84.19
408.226	82.19
408.449	84.19
408.673	89.19
408.896	91.19
409.12	91.19
409.344	79.19
409.567	88.19
409.791	85.19
410.014	81.19
410.238	84.19
410.461	81.19
410.685	87.19
410.908	92.19
411.132	95.19
411.355	99.19
411.578	93.19
411.802	81.19
412.025	80.19
412.249	96.19
412.472	91.19
412.695	82.19
412.919	89.19
413.142	87.19
413.365	89.19
413.589	91.19
413.812	86.19
414.035	96.19
414.258	88.19
414.482	108.19
414.705	101.19
414.928	83.19
415.151	90.19
415.374	81.19
415.597	79.19
415.821	89.19
416.044	91.19
416.267	87.19
416.49	81.19
416.713	93.19
416.936	81.19
417.159	91.19
417.382	79.19
417.605	87.19
417.828	82.19
418.051	80.19
418.274	81.19
418.497	74.19
418.72	79.19
418.943	92.19
419.166	91.19
419.389	104.19
419.611	80.19
419.834	72.19
420.057	72.19
420.28	84.19
420.503	84.19
420.726	75.19
420.948	72.19
421.171	79.19
421.394	73.19
421.617	92.19
421.839	86.19
422.062	92.19
422.285	98.19
422.507	92.19
422.73	94.19
422.953	87.19
423.175	77.19
423.398	78.19
423.621	64.19
423.843	85.19
424.066	86.19
424.288	94.19
424.511	95.19
424.733	92.19
424.956	89.19
425.178	97.19
425.401	96.19
425.623	94.19
425.846	85.19
426.068	93.19
426.291	83.19
426.513	99.19
426.735	96.19
426.958	83.19
427.18	94.19
427.402	137.19
427.625	153.19
427.847	111.19
428.069	89.19
428.292	89.19
428.514	94.19
428.736	79.19
428.958	95.19
429.181	83.19
429.403	90.19
429.625	72.19
429.847	91.19
430.069	89.19
430.292	89.19
430.514	87.19
430.736	95.19
430.958	83.19
431.18	74.19
431.402	75.19
431.624	90.19
431.846	69.19
432.068	96.19
432.29	97.19
432.512	83.19
432.734	76.19
432.956	79.19
433.178	81.19
433.4	89.19
433.622	96.19
433.844	80.19
434.066	73.19
434.287	89.19
434.509	86.19
434.731	94.19
434.953	79.19
435.175	86.19
435.397	83.19
435.618	88.19
435.84	88.19
436.062	125.19
436.284	112.19
436.505	101.19
436.727	91.19
436.949	86.19
437.17	81.19
437.392	71.19
437.614	93.19
437.835	96.19
438.057	113.19
438.278	96.19
438.5	97.19
438.721	108.19
438.943	100.19
439.165	76.19
439.386	76.19
439.608	77.19
439.829	92.19
440.05	108.19
440.272	116.19
440.493	98.19
440.715	101.19
440.936	107.19
441.158	63.19
441.379	78.19
441.6	92.19
441.822	89.19
442.043	97.19
442.264	101.19
442.486	103.19
442.707	85.19
442.928	96.19
443.149	117.19
443.371	127.19
443.592	93.19
443.813	108.19
444.034	82.19
444.255	80.19
444.476	90.19
444.698	78.19
444.919	75.19
445.14	124.19
445.361	109.19
445.582	117.19
445.803	110.19
446.024	122.19
446.245	121.19
446.466	100.19
446.687	74.19
446.908	75.19
447.129	80.19
447.35	80.19
447.571	83.19
447.792	83.19
448.013	95.19
448.234	93.19
448.455	91.19
448.675	97.19
448.896	102.19
449.117	102.19
449.338	101.19
449.559	126.19
449.779	128.19
450	90.19
450.221	74.19
450.442	85.19
450.662	91.19
450.883	101.19
451.104	98.19
451.324	91.19
451.545	70.19
451.766	88.19
451.986	78.19
452.207	85.19
452.428	95.19
452.648	101.19
452.869	92.19
453.089	109.19
453.31	110.19
453.53	85.19
453.751	91.19
453.971	98.19
454.192	105.19
454.412	83.19
454.633	73.19
454.853	76.19
455.073	86.19
455.294	92.19
455.514	97.19
455.734	89.19
455.955	81.19
456.175	75.19
456.395	85.19
456.616	83.19
456.836	89.19
457.056	81.19
457.276	70.19
457.497	73.19
457.717	92.19
457.937	96.19
458.157	83.19
458.377	94.19
458.598	102.19
458.818	145.19
459.038	133.19
459.258	116.19
459.478	95.19
459.698	85.19
459.918	74.19
460.138	78.19
460.358	80.19
460.578	85.19
460.798	79.19
461.018	85.19
461.238	75.19
461.458	88.19
461.678	79.19
461.898	74.19
462.118	72.19
462.338	90.19
462.558	86.19
462.777	85.19
462.997	81.19
463.217	86.19
463.437	68.19
463.657	84.19
463.876	82.19
464.096	88.19
464.316	73.19
464.536	88.19
464.755	101.19
464.975	103.19
465.195	150.19
465.414	156.19
465.634	100.19
465.854	80.19
466.073	87.19
466.293	91.19
466.512	77.19
466.732	75.19
466.951	80.19
467.171	97.19
467.391	94.19
467.61	74.19
467.829	80.19
468.049	85.19
468.268	75.19
468.488	68.19
468.707	94.19
468.927	98.19
469.146	79.19
469.365	78.19
469.585	79.19
469.804	86.19
470.023	90.19
470.243	91.19
470.462	87.19
470.681	105.19
470.901	89.19
471.12	67.19
471.339	85.19
471.558	78.19
471.777	79.19
471.997	78.19
472.216	92.19
472.435	73.19
472.654	74.19
472.873	81.19
473.092	69.19
473.311	89.19
473.53	72.19
473.749	85.19
473.968	78.19
474.187	100.19
474.406	88.19
474.625	92.19
474.844	84.19
475.063	87.19
475.282	81.19
475.501	83.19
475.72	95.19
475.939	87.19
476.158	77.19
476.377	104.19
476.596	90.19
476.814	94.19
477.033	89.19
477.252	80.19
477.471	73.19
477.69	86.19
477.908	80.19
478.127	81.19
478.346	83.19
478.564	99.19
478.783	82.19
479.002	80.19
479.22	80.19
479.439	91.19
479.658	88.19
479.876	79.19
480.095	69.19
480.313	98.19
480.532	100.19
480.751	85.19
480.969	93.19
481.188	98.19
481.406	79.19
481.624	81.19
481.843	86.19
482.061	80.19
482.28	81.19
482.498	80.19
482.717	87.19
482.935	83.19
483.153	86.19
483.372	81.19
483.59	81.19
483.808	65.19
484.027	92.19
484.245	81.19
484.463	76.19
484.681	91.19
484.9	97.19
485.118	96.19
485.336	86.19
485.554	91.19
485.772	100.19
485.99	89.19
486.209	107.19
486.427	89.19
486.645	86.19
486.863	111.19
487.081	91.19
487.299	82.19
487.517	89.19
487.735	87.19
487.953	84.19
488.171	70.19
488.389	105.19
488.607	105.19
488.825	86.19
489.043	95.19
489.261	90.19
489.479	76.19
489.696	95.19
489.914	102.19
490.132	87.19
490.35	89.19
490.568	82.19
490.786	86.19
491.003	87.19
491.221	91.19
491.439	91.19
491.657	94.19
491.874	101.19
492.092	90.19
492.31	96.19
492.527	79.19
492.745	90.19
492.963	78.19
493.18	100.19
493.398	79.19
493.615	103.19
493.833	89.19
494.05	94.19
494.268	92.19
494.485	74.19
494.703	72.19
494.92	93.19
495.138	79.19
495.355	100.19
495.573	79.19
495.79	88.19
496.008	101.19
496.225	90.19
496.442	87.19
496.66	85.19
496.877	89.19
497.094	103.19
497.312	96.19
497.529	97.19
497.746	95.19
497.963	97.19
498.181	83.19
498.398	83.19
498.615	100.19
498.832	99.19
499.049	78.19
499.267	93.19
499.484	83.19
499.701	81.19
499.918	87.19
500.135	68.19
500.352	83.19
500.569	97.19
500.786	97.19
501.003	93.19
501.22	78.19
501.437	79.19
501.654	77.19
501.871	86.19
502.088	97.19
502.305	90.19
502.522	90.19
502.739	83.19
502.956	90.19
503.172	84.19
503.389	99.19
503.606	95.19
503.823	94.19
504.04	88.19
504.256	87.19
504.473	69.19
504.69	83.19
504.907	95.19
505.123	94.19
505.34	87.19
505.557	89.19
505.773	95.19
505.99	97.19
506.207	81.19
506.423	81.19
506.64	99.19
506.856	72.19
507.073	88.19
507.289	74.19
507.506	84.19
507.722	95.19
507.939	104.19
508.155	77.19
508.372	80.19
508.588	83.19
508.805	90.19
509.021	89.19
509.238	79.19
509.454	92.19
509.67	79.19
509.887	112.19
510.103	104.19
510.319	220.19
510.536	740.19
510.752	2310.19
510.968	629.19
511.184	153.19
511.401	97.19
511.617	99.19
511.833	67.19
512.049	71.19
512.265	93.19
512.481	92.19
512.698	84.19
512.914	94.19
513.13	93.19
513.346	96.19
513.562	87.19
513.778	86.19
513.994	97.19
514.21	89.19
514.426	119.19
514.642	116.19
514.858	118.19
515.074	151.19
515.29	414.19
515.506	1345.19
515.721	496.19
515.937	157.19
516.153	102.19
516.369	90.19
516.585	93.19
516.801	101.19
517.016	94.19
517.232	79.19
517.448	90.19
517.664	91.19
