Data from Uncirc_1994_H10_HRD10591_00091.txt Node
Date: Wed Jan 03 11:39:39 EST 2024
User: Yrep
Spectrometer: HR+D1059
Trigger mode: 1
Integration Time (sec): 1.000000E-1
Scans to average: 1
Electric dark correction enabled: true
Nonlinearity correction enabled: false
Boxcar width: 0
XAxis mode: Wavelengths
Number of Pixels in Spectrum: 2048
>>>>>Begin Spectral Data<<<<<
223.165	-21.44
223.4	-21.44
223.635	-21.44
223.869	-22.44
224.104	-15.44
224.338	-19.44
224.573	-24.44
224.808	6.56
225.042	1.56
225.277	-5.44
225.511	-5.44
225.746	-6.44
225.98	9.56
226.215	8.56
226.449	10.56
226.683	24.56
226.918	31.56
227.152	27.56
227.387	37.56
227.621	30.56
227.856	44.56
228.09	50.56
228.324	62.56
228.559	48.56
228.793	48.56
229.027	60.56
229.262	72.56
229.496	65.56
229.73	70.56
229.964	72.56
230.199	64.56
230.433	68.56
230.667	65.56
230.901	87.56
231.136	94.56
231.37	67.56
231.604	92.56
231.838	78.56
232.072	90.56
232.306	89.56
232.541	88.56
232.775	81.56
233.009	80.56
233.243	96.56
233.477	84.56
233.711	85.56
233.945	75.56
234.179	82.56
234.413	68.56
234.647	72.56
234.881	89.56
235.115	79.56
235.349	90.56
235.583	67.56
235.817	82.56
236.051	77.56
236.285	75.56
236.519	79.56
236.753	96.56
236.987	82.56
237.221	92.56
237.455	84.56
237.689	67.56
237.922	83.56
238.156	74.56
238.39	74.56
238.624	74.56
238.858	73.56
239.091	76.56
239.325	79.56
239.559	80.56
239.793	77.56
240.027	69.56
240.26	77.56
240.494	66.56
240.728	65.56
240.961	76.56
241.195	66.56
241.429	80.56
241.662	76.56
241.896	73.56
242.13	73.56
242.363	68.56
242.597	74.56
242.83	80.56
243.064	75.56
243.298	67.56
243.531	79.56
243.765	78.56
243.998	81.56
244.232	64.56
244.465	93.56
244.699	86.56
244.932	77.56
245.166	82.56
245.399	81.56
245.633	65.56
245.866	77.56
246.099	76.56
246.333	69.56
246.566	76.56
246.8	77.56
247.033	65.56
247.266	73.56
247.5	80.56
247.733	80.56
247.966	79.56
248.2	67.56
248.433	81.56
248.666	81.56
248.899	80.56
249.133	93.56
249.366	91.56
249.599	95.56
249.832	81.56
250.066	82.56
250.299	86.56
250.532	78.56
250.765	84.56
250.998	90.56
251.231	85.56
251.465	80.56
251.698	80.56
251.931	73.56
252.164	73.56
252.397	75.56
252.63	74.56
252.863	92.56
253.096	81.56
253.329	76.56
253.562	90.56
253.795	68.56
254.028	68.56
254.261	81.56
254.494	85.56
254.727	65.56
254.96	81.56
255.193	81.56
255.426	89.56
255.659	72.56
255.892	82.56
256.124	77.56
256.357	84.56
256.59	81.56
256.823	74.56
257.056	83.56
257.289	89.56
257.521	79.56
257.754	79.56
257.987	77.56
258.22	86.56
258.452	80.56
258.685	85.56
258.918	83.56
259.151	77.56
259.383	74.56
259.616	90.56
259.849	73.56
260.081	81.56
260.314	79.56
260.547	70.56
260.779	82.56
261.012	93.56
261.244	85.56
261.477	105.56
261.71	85.56
261.942	116.56
262.175	115.56
262.407	76.56
262.64	69.56
262.872	82.56
263.105	79.56
263.337	91.56
263.57	77.56
263.802	68.56
264.035	74.56
264.267	100.56
264.499	91.56
264.732	84.56
264.964	87.56
265.197	99.56
265.429	82.56
265.661	86.56
265.894	78.56
266.126	83.56
266.358	81.56
266.591	78.56
266.823	85.56
267.055	76.56
267.287	67.56
267.52	83.56
267.752	77.56
267.984	92.56
268.216	89.56
268.448	88.56
268.681	85.56
268.913	81.56
269.145	77.56
269.377	87.56
269.609	88.56
269.841	94.56
270.073	93.56
270.306	64.56
270.538	91.56
270.77	82.56
271.002	94.56
271.234	90.56
271.466	92.56
271.698	90.56
271.93	62.56
272.162	75.56
272.394	97.56
272.626	96.56
272.858	84.56
273.09	74.56
273.322	94.56
273.553	90.56
273.785	83.56
274.017	74.56
274.249	82.56
274.481	86.56
274.713	83.56
274.945	87.56
275.176	79.56
275.408	89.56
275.64	78.56
275.872	80.56
276.104	95.56
276.335	93.56
276.567	100.56
276.799	84.56
277.031	95.56
277.262	91.56
277.494	97.56
277.726	90.56
277.957	89.56
278.189	79.56
278.421	84.56
278.652	76.56
278.884	86.56
279.115	94.56
279.347	87.56
279.579	100.56
279.81	84.56
280.042	64.56
280.273	80.56
280.505	85.56
280.736	72.56
280.968	86.56
281.199	86.56
281.431	84.56
281.662	84.56
281.894	96.56
282.125	86.56
282.356	132.56
282.588	134.56
282.819	117.56
283.051	84.56
283.282	89.56
283.513	85.56
283.745	80.56
283.976	78.56
284.207	85.56
284.439	94.56
284.67	94.56
284.901	70.56
285.132	90.56
285.364	81.56
285.595	98.56
285.826	88.56
286.057	79.56
286.288	78.56
286.52	85.56
286.751	61.56
286.982	84.56
287.213	78.56
287.444	84.56
287.675	88.56
287.906	84.56
288.138	95.56
288.369	98.56
288.6	95.56
288.831	92.56
289.062	90.56
289.293	94.56
289.524	96.56
289.755	89.56
289.986	103.56
290.217	83.56
290.448	68.56
290.679	80.56
290.91	84.56
291.141	88.56
291.371	94.56
291.602	89.56
291.833	83.56
292.064	89.56
292.295	90.56
292.526	86.56
292.757	94.56
292.987	84.56
293.218	82.56
293.449	80.56
293.68	83.56
293.91	87.56
294.141	88.56
294.372	91.56
294.603	79.56
294.833	90.56
295.064	75.56
295.295	91.56
295.525	94.56
295.756	107.56
295.987	99.56
296.217	116.56
296.448	115.56
296.679	94.56
296.909	86.56
297.14	90.56
297.37	68.56
297.601	91.56
297.831	96.56
298.062	93.56
298.292	94.56
298.523	102.56
298.753	83.56
298.984	75.56
299.214	76.56
299.445	99.56
299.675	88.56
299.905	88.56
300.136	81.56
300.366	94.56
300.597	88.56
300.827	78.56
301.057	91.56
301.288	96.56
301.518	104.56
301.748	84.56
301.979	102.56
302.209	104.56
302.439	95.56
302.669	97.56
302.9	94.56
303.13	90.56
303.36	80.56
303.59	109.56
303.82	98.56
304.051	99.56
304.281	96.56
304.511	83.56
304.741	81.56
304.971	96.56
305.201	84.56
305.431	79.56
305.661	85.56
305.891	104.56
306.121	100.56
306.352	122.56
306.582	113.56
306.812	90.56
307.042	80.56
307.272	84.56
307.502	91.56
307.731	99.56
307.961	98.56
308.191	89.56
308.421	90.56
308.651	87.56
308.881	90.56
309.111	81.56
309.341	99.56
309.571	92.56
309.8	93.56
310.03	100.56
310.26	106.56
310.49	103.56
310.72	99.56
310.949	104.56
311.179	95.56
311.409	83.56
311.639	94.56
311.868	98.56
312.098	98.56
312.328	101.56
312.557	100.56
312.787	90.56
313.017	93.56
313.246	97.56
313.476	95.56
313.706	98.56
313.935	88.56
314.165	98.56
314.394	111.56
314.624	96.56
314.853	94.56
315.083	91.56
315.312	81.56
315.542	85.56
315.771	96.56
316.001	92.56
316.23	81.56
316.46	84.56
316.689	90.56
316.919	91.56
317.148	101.56
317.377	91.56
317.607	90.56
317.836	88.56
318.065	89.56
318.295	89.56
318.524	95.56
318.753	93.56
318.983	94.56
319.212	81.56
319.441	96.56
319.67	101.56
319.9	108.56
320.129	94.56
320.358	88.56
320.587	86.56
320.816	93.56
321.046	107.56
321.275	102.56
321.504	90.56
321.733	93.56
321.962	113.56
322.191	99.56
322.42	116.56
322.649	129.56
322.878	105.56
323.108	120.56
323.337	107.56
323.566	123.56
323.795	160.56
324.024	200.56
324.253	365.56
324.482	772.56
324.71	1509.56
324.939	1976.56
325.168	727.56
325.397	229.56
325.626	141.56
325.855	121.56
326.084	120.56
326.313	139.56
326.542	152.56
326.77	207.56
326.999	404.56
327.228	891.56
327.457	1533.56
327.686	1251.56
327.914	358.56
328.143	172.56
328.372	148.56
328.6	109.56
328.829	112.56
329.058	125.56
329.287	110.56
329.515	102.56
329.744	85.56
329.972	105.56
330.201	102.56
330.43	110.56
330.658	116.56
330.887	125.56
331.115	119.56
331.344	98.56
331.572	92.56
331.801	97.56
332.03	111.56
332.258	85.56
332.486	102.56
332.715	103.56
332.943	85.56
333.172	102.56
333.4	96.56
333.629	100.56
333.857	120.56
334.085	108.56
334.314	85.56
334.542	92.56
334.771	115.56
334.999	90.56
335.227	109.56
335.455	101.56
335.684	111.56
335.912	97.56
336.14	89.56
336.369	101.56
336.597	97.56
336.825	81.56
337.053	97.56
337.281	90.56
337.51	104.56
337.738	86.56
337.966	98.56
338.194	107.56
338.422	97.56
338.65	94.56
338.878	95.56
339.106	101.56
339.334	96.56
339.562	89.56
339.79	97.56
340.018	89.56
340.246	78.56
340.474	100.56
340.702	98.56
340.93	93.56
341.158	74.56
341.386	90.56
341.614	93.56
341.842	84.56
342.07	88.56
342.298	87.56
342.526	86.56
342.754	89.56
342.981	80.56
343.209	98.56
343.437	115.56
343.665	90.56
343.893	102.56
344.12	86.56
344.348	85.56
344.576	95.56
344.804	87.56
345.031	89.56
345.259	103.56
345.487	107.56
345.714	94.56
345.942	89.56
346.17	94.56
346.397	112.56
346.625	107.56
346.853	96.56
347.08	100.56
347.308	83.56
347.535	83.56
347.763	92.56
347.99	96.56
348.218	108.56
348.445	105.56
348.673	98.56
348.9	93.56
349.128	105.56
349.355	96.56
349.583	93.56
349.81	84.56
350.037	93.56
350.265	97.56
350.492	90.56
350.72	88.56
350.947	108.56
351.174	95.56
351.402	99.56
351.629	93.56
351.856	103.56
352.083	115.56
352.311	97.56
352.538	96.56
352.765	112.56
352.992	112.56
353.22	106.56
353.447	104.56
353.674	101.56
353.901	104.56
354.128	79.56
354.355	96.56
354.583	83.56
354.81	97.56
355.037	101.56
355.264	101.56
355.491	93.56
355.718	96.56
355.945	76.56
356.172	101.56
356.399	92.56
356.626	100.56
356.853	101.56
357.08	103.56
357.307	92.56
357.534	98.56
357.761	109.56
357.988	101.56
358.215	101.56
358.441	82.56
358.668	85.56
358.895	94.56
359.122	95.56
359.349	95.56
359.576	83.56
359.802	112.56
360.029	122.56
360.256	99.56
360.483	88.56
360.709	87.56
360.936	98.56
361.163	92.56
361.39	103.56
361.616	93.56
361.843	92.56
362.07	94.56
362.296	90.56
362.523	93.56
362.749	83.56
362.976	89.56
363.203	93.56
363.429	92.56
363.656	83.56
363.882	94.56
364.109	96.56
364.335	95.56
364.562	88.56
364.788	99.56
365.015	94.56
365.241	100.56
365.468	111.56
365.694	99.56
365.92	90.56
366.147	88.56
366.373	88.56
366.599	89.56
366.826	107.56
367.052	85.56
367.278	105.56
367.505	85.56
367.731	96.56
367.957	100.56
368.184	101.56
368.41	107.56
368.636	105.56
368.862	123.56
369.089	111.56
369.315	101.56
369.541	88.56
369.767	105.56
369.993	90.56
370.219	84.56
370.445	83.56
370.672	93.56
370.898	85.56
371.124	99.56
371.35	95.56
371.576	85.56
371.802	98.56
372.028	105.56
372.254	91.56
372.48	93.56
372.706	94.56
372.932	89.56
373.158	88.56
373.384	88.56
373.61	95.56
373.835	86.56
374.061	101.56
374.287	75.56
374.513	89.56
374.739	83.56
374.965	85.56
375.191	91.56
375.416	101.56
375.642	86.56
375.868	86.56
376.094	92.56
376.319	81.56
376.545	85.56
376.771	78.56
376.997	100.56
377.222	83.56
377.448	80.56
377.674	100.56
377.899	97.56
378.125	98.56
378.35	102.56
378.576	89.56
378.802	98.56
379.027	72.56
379.253	98.56
379.478	100.56
379.704	89.56
379.929	86.56
380.155	101.56
380.38	93.56
380.606	94.56
380.831	87.56
381.057	88.56
381.282	104.56
381.507	84.56
381.733	107.56
381.958	94.56
382.184	98.56
382.409	99.56
382.634	100.56
382.86	104.56
383.085	101.56
383.31	101.56
383.535	105.56
383.761	95.56
383.986	104.56
384.211	88.56
384.436	84.56
384.662	108.56
384.887	104.56
385.112	100.56
385.337	86.56
385.562	106.56
385.787	105.56
386.013	107.56
386.238	97.56
386.463	101.56
386.688	99.56
386.913	99.56
387.138	100.56
387.363	98.56
387.588	90.56
387.813	99.56
388.038	101.56
388.263	111.56
388.488	104.56
388.713	96.56
388.938	96.56
389.163	106.56
389.387	93.56
389.612	78.56
389.837	91.56
390.062	84.56
390.287	89.56
390.512	96.56
390.736	81.56
390.961	98.56
391.186	92.56
391.411	92.56
391.636	93.56
391.86	92.56
392.085	86.56
392.31	86.56
392.534	97.56
392.759	92.56
392.984	100.56
393.208	89.56
393.433	84.56
393.658	91.56
393.882	89.56
394.107	91.56
394.331	90.56
394.556	92.56
394.78	102.56
395.005	101.56
395.229	92.56
395.454	78.56
395.678	93.56
395.903	98.56
396.127	97.56
396.352	88.56
396.576	85.56
396.801	80.56
397.025	87.56
397.249	91.56
397.474	90.56
397.698	90.56
397.922	107.56
398.147	80.56
398.371	96.56
398.595	90.56
398.82	90.56
399.044	90.56
399.268	99.56
399.492	103.56
399.717	97.56
399.941	87.56
400.165	83.56
400.389	94.56
400.613	96.56
400.837	81.56
401.062	90.56
401.286	95.56
401.51	89.56
401.734	86.56
401.958	100.56
402.182	120.56
402.406	152.56
402.63	113.56
402.854	97.56
403.078	88.56
403.302	88.56
403.526	91.56
403.75	94.56
403.974	77.56
404.198	78.56
404.422	62.56
404.645	96.56
404.869	90.56
405.093	98.56
405.317	90.56
405.541	106.56
405.765	90.56
405.988	106.56
406.212	164.56
406.436	202.56
406.66	124.56
406.883	93.56
407.107	104.56
407.331	93.56
407.555	91.56
407.778	109.56
408.002	76.56
408.226	95.56
408.449	99.56
408.673	93.56
408.896	87.56
409.12	111.56
409.344	98.56
409.567	96.56
409.791	90.56
410.014	99.56
410.238	92.56
410.461	93.56
410.685	99.56
410.908	91.56
411.132	104.56
411.355	104.56
411.578	93.56
411.802	99.56
412.025	79.56
412.249	93.56
412.472	83.56
412.695	85.56
412.919	82.56
413.142	86.56
413.365	85.56
413.589	85.56
413.812	79.56
414.035	91.56
414.258	99.56
414.482	92.56
414.705	90.56
414.928	103.56
415.151	72.56
415.374	93.56
415.597	85.56
415.821	97.56
416.044	86.56
416.267	97.56
416.49	84.56
416.713	93.56
416.936	109.56
417.159	101.56
417.382	92.56
417.605	104.56
417.828	109.56
418.051	108.56
418.274	87.56
418.497	82.56
418.72	91.56
418.943	75.56
419.166	82.56
419.389	79.56
419.611	102.56
419.834	81.56
420.057	88.56
420.28	97.56
420.503	83.56
420.726	85.56
420.948	89.56
421.171	96.56
421.394	87.56
421.617	87.56
421.839	98.56
422.062	81.56
422.285	93.56
422.507	94.56
422.73	88.56
422.953	101.56
423.175	88.56
423.398	89.56
423.621	101.56
423.843	96.56
424.066	86.56
424.288	86.56
424.511	89.56
424.733	90.56
424.956	108.56
425.178	97.56
425.401	98.56
425.623	116.56
425.846	92.56
426.068	78.56
426.291	89.56
426.513	84.56
426.735	100.56
426.958	98.56
427.18	103.56
427.402	117.56
427.625	142.56
427.847	123.56
428.069	114.56
428.292	95.56
428.514	76.56
428.736	101.56
428.958	82.56
429.181	92.56
429.403	97.56
429.625	75.56
429.847	74.56
430.069	97.56
430.292	90.56
430.514	80.56
430.736	83.56
430.958	98.56
431.18	82.56
431.402	80.56
431.624	84.56
431.846	83.56
432.068	85.56
432.29	68.56
432.512	74.56
432.734	88.56
432.956	93.56
433.178	110.56
433.4	102.56
433.622	92.56
433.844	96.56
434.066	82.56
434.287	104.56
434.509	88.56
434.731	80.56
434.953	90.56
435.175	95.56
435.397	92.56
435.618	85.56
435.84	94.56
436.062	119.56
436.284	103.56
436.505	106.56
436.727	106.56
436.949	76.56
437.17	93.56
437.392	86.56
437.614	95.56
437.835	100.56
438.057	110.56
438.278	110.56
438.5	111.56
438.721	116.56
438.943	100.56
439.165	88.56
439.386	87.56
439.608	82.56
439.829	109.56
440.05	129.56
440.272	133.56
440.493	99.56
440.715	86.56
440.936	76.56
441.158	78.56
441.379	78.56
441.6	78.56
441.822	98.56
442.043	101.56
442.264	101.56
442.486	92.56
442.707	101.56
442.928	113.56
443.149	114.56
443.371	113.56
443.592	101.56
443.813	102.56
444.034	105.56
444.255	93.56
444.476	68.56
444.698	85.56
444.919	83.56
445.14	141.56
445.361	124.56
445.582	115.56
445.803	141.56
446.024	129.56
446.245	112.56
446.466	111.56
446.687	99.56
446.908	89.56
447.129	86.56
447.35	103.56
447.571	93.56
447.792	85.56
448.013	101.56
448.234	93.56
448.455	97.56
448.675	115.56
448.896	109.56
449.117	108.56
449.338	83.56
449.559	115.56
449.779	119.56
450	97.56
450.221	93.56
450.442	76.56
450.662	96.56
450.883	101.56
451.104	108.56
451.324	94.56
451.545	105.56
451.766	90.56
451.986	85.56
452.207	96.56
452.428	94.56
452.648	107.56
452.869	108.56
453.089	85.56
453.31	112.56
453.53	90.56
453.751	88.56
453.971	102.56
454.192	114.56
454.412	80.56
454.633	75.56
454.853	82.56
455.073	81.56
455.294	94.56
455.514	102.56
455.734	92.56
455.955	84.56
456.175	82.56
456.395	79.56
456.616	99.56
456.836	70.56
457.056	81.56
457.276	101.56
457.497	96.56
457.717	90.56
457.937	87.56
458.157	91.56
458.377	85.56
458.598	92.56
458.818	142.56
459.038	155.56
459.258	107.56
459.478	99.56
459.698	92.56
459.918	89.56
460.138	83.56
460.358	90.56
460.578	84.56
460.798	94.56
461.018	85.56
461.238	85.56
461.458	86.56
461.678	84.56
461.898	84.56
462.118	90.56
462.338	91.56
462.558	99.56
462.777	83.56
462.997	87.56
463.217	101.56
463.437	96.56
463.657	77.56
463.876	89.56
464.096	98.56
464.316	101.56
464.536	90.56
464.755	94.56
464.975	106.56
465.195	164.56
465.414	136.56
465.634	94.56
465.854	83.56
466.073	86.56
466.293	79.56
466.512	96.56
466.732	78.56
466.951	80.56
467.171	95.56
467.391	84.56
467.61	105.56
467.829	82.56
468.049	101.56
468.268	89.56
468.488	86.56
468.707	94.56
468.927	77.56
469.146	81.56
469.365	68.56
469.585	88.56
469.804	94.56
470.023	94.56
470.243	82.56
470.462	93.56
470.681	96.56
470.901	92.56
471.12	86.56
471.339	90.56
471.558	74.56
471.777	91.56
471.997	97.56
472.216	79.56
472.435	81.56
472.654	90.56
472.873	88.56
473.092	78.56
473.311	90.56
473.53	82.56
473.749	87.56
473.968	92.56
474.187	117.56
474.406	92.56
474.625	89.56
474.844	91.56
475.063	99.56
475.282	94.56
475.501	95.56
475.72	80.56
475.939	84.56
476.158	68.56
476.377	87.56
476.596	76.56
476.814	88.56
477.033	86.56
477.252	99.56
477.471	83.56
477.69	80.56
477.908	92.56
478.127	94.56
478.346	85.56
478.564	83.56
478.783	89.56
479.002	87.56
479.22	100.56
479.439	91.56
479.658	97.56
479.876	83.56
480.095	85.56
480.313	88.56
480.532	88.56
480.751	89.56
480.969	93.56
481.188	92.56
481.406	91.56
481.624	85.56
481.843	89.56
482.061	85.56
482.28	84.56
482.498	88.56
482.717	85.56
482.935	88.56
483.153	82.56
483.372	96.56
483.59	78.56
483.808	76.56
484.027	100.56
484.245	91.56
484.463	87.56
484.681	114.56
484.9	96.56
485.118	92.56
485.336	90.56
485.554	97.56
485.772	113.56
485.99	107.56
486.209	105.56
486.427	114.56
486.645	105.56
486.863	109.56
487.081	105.56
487.299	97.56
487.517	83.56
487.735	88.56
487.953	90.56
488.171	96.56
488.389	94.56
488.607	104.56
488.825	114.56
489.043	102.56
489.261	92.56
489.479	93.56
489.696	84.56
489.914	78.56
490.132	98.56
490.35	99.56
490.568	95.56
490.786	86.56
491.003	96.56
491.221	82.56
491.439	86.56
491.657	102.56
491.874	108.56
492.092	87.56
492.31	89.56
492.527	99.56
492.745	91.56
492.963	99.56
493.18	89.56
493.398	85.56
493.615	92.56
493.833	95.56
494.05	82.56
494.268	77.56
494.485	78.56
494.703	85.56
494.92	93.56
495.138	92.56
495.355	78.56
495.573	81.56
495.79	96.56
496.008	104.56
496.225	98.56
496.442	89.56
496.66	85.56
496.877	96.56
497.094	73.56
497.312	86.56
497.529	84.56
497.746	93.56
497.963	102.56
498.181	90.56
498.398	93.56
498.615	105.56
498.832	109.56
499.049	89.56
499.267	88.56
499.484	93.56
499.701	100.56
499.918	92.56
500.135	93.56
500.352	98.56
500.569	97.56
500.786	96.56
501.003	87.56
501.22	91.56
501.437	73.56
501.654	94.56
501.871	94.56
502.088	115.56
502.305	77.56
502.522	87.56
502.739	89.56
502.956	75.56
503.172	81.56
503.389	92.56
503.606	116.56
503.823	100.56
504.04	104.56
504.256	100.56
504.473	90.56
504.69	91.56
504.907	94.56
505.123	93.56
505.34	84.56
505.557	98.56
505.773	78.56
505.99	91.56
506.207	90.56
506.423	86.56
506.64	98.56
506.856	97.56
507.073	89.56
507.289	80.56
507.506	94.56
507.722	123.56
507.939	97.56
508.155	84.56
508.372	91.56
508.588	97.56
508.805	101.56
509.021	109.56
509.238	94.56
509.454	92.56
509.67	98.56
509.887	102.56
510.103	130.56
510.319	202.56
510.536	740.56
510.752	2262.56
510.968	631.56
511.184	152.56
511.401	109.56
511.617	95.56
511.833	86.56
512.049	96.56
512.265	100.56
512.481	88.56
512.698	84.56
512.914	96.56
513.13	89.56
513.346	82.56
513.562	95.56
513.778	94.56
513.994	97.56
514.21	80.56
514.426	111.56
514.642	130.56
514.858	118.56
515.074	148.56
515.29	435.56
515.506	1372.56
515.721	493.56
