Data from Uncirc_1994_H10_HRD10591_00017.txt Node
Date: Wed Jan 03 11:39:24 EST 2024
User: Yrep
Spectrometer: HR+D1059
Trigger mode: 1
Integration Time (sec): 1.000000E-1
Scans to average: 1
Electric dark correction enabled: true
Nonlinearity correction enabled: false
Boxcar width: 0
XAxis mode: Wavelengths
Number of Pixels in Spectrum: 2048
>>>>>Begin Spectral Data<<<<<
223.165	-19.5
223.4	-19.5
223.635	-19.5
223.869	-22.5
224.104	-17.5
224.338	-2.5
224.573	1.5
224.808	-12.5
225.042	-0.5
225.277	-13.5
225.511	-4.5
225.746	0.5
225.98	21.5
226.215	8.5
226.449	1.5
226.683	12.5
226.918	24.5
227.152	22.5
227.387	44.5
227.621	35.5
227.856	41.5
228.09	52.5
228.324	45.5
228.559	42.5
228.793	42.5
229.027	59.5
229.262	54.5
229.496	60.5
229.73	92.5
229.964	81.5
230.199	77.5
230.433	74.5
230.667	73.5
230.901	74.5
231.136	79.5
231.37	67.5
231.604	86.5
231.838	88.5
232.072	88.5
232.306	70.5
232.541	69.5
232.775	76.5
233.009	78.5
233.243	82.5
233.477	83.5
233.711	66.5
233.945	85.5
234.179	77.5
234.413	66.5
234.647	72.5
234.881	84.5
235.115	71.5
235.349	77.5
235.583	81.5
235.817	84.5
236.051	72.5
236.285	69.5
236.519	81.5
236.753	70.5
236.987	83.5
237.221	79.5
237.455	71.5
237.689	66.5
237.922	63.5
238.156	62.5
238.39	66.5
238.624	69.5
238.858	77.5
239.091	80.5
239.325	78.5
239.559	84.5
239.793	80.5
240.027	65.5
240.26	82.5
240.494	72.5
240.728	84.5
240.961	67.5
241.195	74.5
241.429	70.5
241.662	60.5
241.896	75.5
242.13	85.5
242.363	72.5
242.597	76.5
242.83	73.5
243.064	72.5
243.298	79.5
243.531	65.5
243.765	78.5
243.998	86.5
244.232	87.5
244.465	86.5
244.699	85.5
244.932	85.5
245.166	69.5
245.399	69.5
245.633	64.5
245.866	63.5
246.099	78.5
246.333	87.5
246.566	78.5
246.8	70.5
247.033	77.5
247.266	79.5
247.5	76.5
247.733	68.5
247.966	72.5
248.2	56.5
248.433	74.5
248.666	76.5
248.899	71.5
249.133	79.5
249.366	83.5
249.599	80.5
249.832	76.5
250.066	72.5
250.299	78.5
250.532	76.5
250.765	84.5
250.998	74.5
251.231	84.5
251.465	89.5
251.698	68.5
251.931	76.5
252.164	82.5
252.397	79.5
252.63	60.5
252.863	74.5
253.096	100.5
253.329	67.5
253.562	72.5
253.795	81.5
254.028	86.5
254.261	72.5
254.494	78.5
254.727	80.5
254.96	91.5
255.193	77.5
255.426	71.5
255.659	70.5
255.892	71.5
256.124	77.5
256.357	82.5
256.59	90.5
256.823	71.5
257.056	73.5
257.289	84.5
257.521	73.5
257.754	71.5
257.987	78.5
258.22	72.5
258.452	88.5
258.685	89.5
258.918	83.5
259.151	69.5
259.383	84.5
259.616	70.5
259.849	72.5
260.081	86.5
260.314	89.5
260.547	90.5
260.779	68.5
261.012	77.5
261.244	81.5
261.477	88.5
261.71	81.5
261.942	96.5
262.175	110.5
262.407	81.5
262.64	74.5
262.872	74.5
263.105	88.5
263.337	93.5
263.57	82.5
263.802	85.5
264.035	78.5
264.267	80.5
264.499	76.5
264.732	86.5
264.964	69.5
265.197	85.5
265.429	85.5
265.661	83.5
265.894	80.5
266.126	82.5
266.358	69.5
266.591	75.5
266.823	86.5
267.055	91.5
267.287	71.5
267.52	78.5
267.752	85.5
267.984	86.5
268.216	74.5
268.448	71.5
268.681	84.5
268.913	80.5
269.145	73.5
269.377	81.5
269.609	68.5
269.841	78.5
270.073	74.5
270.306	103.5
270.538	80.5
270.77	81.5
271.002	85.5
271.234	74.5
271.466	74.5
271.698	72.5
271.93	82.5
272.162	91.5
272.394	90.5
272.626	86.5
272.858	86.5
273.09	85.5
273.322	80.5
273.553	85.5
273.785	74.5
274.017	75.5
274.249	65.5
274.481	70.5
274.713	84.5
274.945	80.5
275.176	81.5
275.408	81.5
275.64	80.5
275.872	84.5
276.104	86.5
276.335	87.5
276.567	94.5
276.799	100.5
277.031	96.5
277.262	85.5
277.494	84.5
277.726	77.5
277.957	88.5
278.189	82.5
278.421	80.5
278.652	79.5
278.884	89.5
279.115	80.5
279.347	74.5
279.579	65.5
279.81	84.5
280.042	86.5
280.273	84.5
280.505	82.5
280.736	100.5
280.968	94.5
281.199	75.5
281.431	83.5
281.662	76.5
281.894	91.5
282.125	108.5
282.356	97.5
282.588	131.5
282.819	110.5
283.051	97.5
283.282	86.5
283.513	95.5
283.745	79.5
283.976	92.5
284.207	84.5
284.439	74.5
284.67	92.5
284.901	94.5
285.132	85.5
285.364	71.5
285.595	90.5
285.826	87.5
286.057	83.5
286.288	90.5
286.52	80.5
286.751	80.5
286.982	90.5
287.213	91.5
287.444	87.5
287.675	85.5
287.906	82.5
288.138	88.5
288.369	95.5
288.6	87.5
288.831	81.5
289.062	80.5
289.293	75.5
289.524	84.5
289.755	85.5
289.986	95.5
290.217	81.5
290.448	87.5
290.679	78.5
290.91	86.5
291.141	84.5
291.371	92.5
291.602	88.5
291.833	87.5
292.064	93.5
292.295	82.5
292.526	89.5
292.757	100.5
292.987	97.5
293.218	87.5
293.449	78.5
293.68	113.5
293.91	82.5
294.141	82.5
294.372	86.5
294.603	77.5
294.833	90.5
295.064	97.5
295.295	78.5
295.525	93.5
295.756	90.5
295.987	112.5
296.217	113.5
296.448	118.5
296.679	85.5
296.909	81.5
297.14	81.5
297.37	105.5
297.601	96.5
297.831	78.5
298.062	91.5
298.292	90.5
298.523	104.5
298.753	100.5
298.984	105.5
299.214	88.5
299.445	93.5
299.675	84.5
299.905	92.5
300.136	88.5
300.366	82.5
300.597	93.5
300.827	98.5
301.057	95.5
301.288	104.5
301.518	100.5
301.748	88.5
301.979	98.5
302.209	92.5
302.439	87.5
302.669	89.5
302.9	82.5
303.13	102.5
303.36	77.5
303.59	86.5
303.82	96.5
304.051	81.5
304.281	97.5
304.511	79.5
304.741	84.5
304.971	72.5
305.201	87.5
305.431	86.5
305.661	73.5
305.891	80.5
306.121	80.5
306.352	93.5
306.582	107.5
306.812	96.5
307.042	83.5
307.272	89.5
307.502	105.5
307.731	82.5
307.961	87.5
308.191	86.5
308.421	97.5
308.651	90.5
308.881	77.5
309.111	91.5
309.341	96.5
309.571	98.5
309.8	90.5
310.03	99.5
310.26	96.5
310.49	92.5
310.72	97.5
310.949	94.5
311.179	94.5
311.409	97.5
311.639	97.5
311.868	68.5
312.098	91.5
312.328	96.5
312.557	93.5
312.787	95.5
313.017	104.5
313.246	91.5
313.476	79.5
313.706	95.5
313.935	91.5
314.165	98.5
314.394	104.5
314.624	89.5
314.853	93.5
315.083	96.5
315.312	93.5
315.542	86.5
315.771	87.5
316.001	76.5
316.23	82.5
316.46	81.5
316.689	81.5
316.919	76.5
317.148	93.5
317.377	82.5
317.607	79.5
317.836	83.5
318.065	98.5
318.295	81.5
318.524	85.5
318.753	94.5
318.983	98.5
319.212	98.5
319.441	108.5
319.67	98.5
319.9	97.5
320.129	85.5
320.358	107.5
320.587	94.5
320.816	86.5
321.046	96.5
321.275	94.5
321.504	72.5
321.733	101.5
321.962	89.5
322.191	98.5
322.42	97.5
322.649	97.5
322.878	108.5
323.108	100.5
323.337	118.5
323.566	128.5
323.795	141.5
324.024	192.5
324.253	329.5
324.482	734.5
324.71	1480.5
324.939	1913.5
325.168	721.5
325.397	238.5
325.626	150.5
325.855	120.5
326.084	125.5
326.313	120.5
326.542	144.5
326.77	213.5
326.999	408.5
327.228	807.5
327.457	1492.5
327.686	1196.5
327.914	334.5
328.143	169.5
328.372	146.5
328.6	105.5
328.829	98.5
329.058	114.5
329.287	106.5
329.515	90.5
329.744	96.5
329.972	93.5
330.201	101.5
330.43	101.5
330.658	125.5
330.887	137.5
331.115	121.5
331.344	92.5
331.572	92.5
331.801	87.5
332.03	94.5
332.258	89.5
332.486	93.5
332.715	81.5
332.943	86.5
333.172	86.5
333.4	102.5
333.629	90.5
333.857	101.5
334.085	106.5
334.314	88.5
334.542	87.5
334.771	88.5
334.999	89.5
335.227	101.5
335.455	98.5
335.684	86.5
335.912	93.5
336.14	84.5
336.369	95.5
336.597	95.5
336.825	91.5
337.053	95.5
337.281	82.5
337.51	83.5
337.738	91.5
337.966	91.5
338.194	100.5
338.422	100.5
338.65	93.5
338.878	90.5
339.106	89.5
339.334	92.5
339.562	84.5
339.79	84.5
340.018	69.5
340.246	84.5
340.474	94.5
340.702	84.5
340.93	84.5
341.158	100.5
341.386	77.5
341.614	87.5
341.842	96.5
342.07	98.5
342.298	81.5
342.526	74.5
342.754	76.5
342.981	94.5
343.209	87.5
343.437	101.5
343.665	89.5
343.893	89.5
344.12	81.5
344.348	90.5
344.576	90.5
344.804	84.5
345.031	89.5
345.259	88.5
345.487	97.5
345.714	92.5
345.942	91.5
346.17	88.5
346.397	94.5
346.625	97.5
346.853	89.5
347.08	89.5
347.308	105.5
347.535	92.5
347.763	100.5
347.99	108.5
348.218	94.5
348.445	82.5
348.673	86.5
348.9	89.5
349.128	94.5
349.355	98.5
349.583	87.5
349.81	96.5
350.037	92.5
350.265	86.5
350.492	95.5
350.72	103.5
350.947	111.5
351.174	99.5
351.402	111.5
351.629	105.5
351.856	98.5
352.083	100.5
352.311	89.5
352.538	92.5
352.765	102.5
352.992	116.5
353.22	125.5
353.447	104.5
353.674	88.5
353.901	95.5
354.128	105.5
354.355	97.5
354.583	93.5
354.81	92.5
355.037	95.5
355.264	93.5
355.491	95.5
355.718	97.5
355.945	97.5
356.172	87.5
356.399	73.5
356.626	101.5
356.853	87.5
357.08	82.5
357.307	88.5
357.534	102.5
357.761	79.5
357.988	99.5
358.215	98.5
358.441	87.5
358.668	87.5
358.895	90.5
359.122	88.5
359.349	73.5
359.576	76.5
359.802	72.5
360.029	106.5
360.256	111.5
360.483	97.5
360.709	94.5
360.936	101.5
361.163	86.5
361.39	88.5
361.616	88.5
361.843	91.5
362.07	93.5
362.296	93.5
362.523	85.5
362.749	85.5
362.976	89.5
363.203	81.5
363.429	88.5
363.656	92.5
363.882	91.5
364.109	95.5
364.335	91.5
364.562	82.5
364.788	92.5
365.015	84.5
365.241	89.5
365.468	98.5
365.694	96.5
365.92	90.5
366.147	83.5
366.373	81.5
366.599	84.5
366.826	97.5
367.052	77.5
367.278	79.5
367.505	81.5
367.731	90.5
367.957	78.5
368.184	87.5
368.41	101.5
368.636	104.5
368.862	113.5
369.089	108.5
369.315	89.5
369.541	88.5
369.767	74.5
369.993	81.5
370.219	86.5
370.445	80.5
370.672	81.5
370.898	95.5
371.124	88.5
371.35	91.5
371.576	80.5
371.802	81.5
372.028	77.5
372.254	89.5
372.48	76.5
372.706	80.5
372.932	84.5
373.158	86.5
373.384	80.5
373.61	85.5
373.835	90.5
374.061	94.5
374.287	79.5
374.513	97.5
374.739	93.5
374.965	89.5
375.191	97.5
375.416	99.5
375.642	87.5
375.868	85.5
376.094	86.5
376.319	94.5
376.545	94.5
376.771	99.5
376.997	100.5
377.222	98.5
377.448	80.5
377.674	86.5
377.899	98.5
378.125	100.5
378.35	93.5
378.576	73.5
378.802	84.5
379.027	86.5
379.253	86.5
379.478	101.5
379.704	86.5
379.929	100.5
380.155	107.5
380.38	85.5
380.606	95.5
380.831	96.5
381.057	100.5
381.282	97.5
381.507	106.5
381.733	90.5
381.958	86.5
382.184	90.5
382.409	104.5
382.634	107.5
382.86	86.5
383.085	85.5
383.31	92.5
383.535	103.5
383.761	99.5
383.986	92.5
384.211	97.5
384.436	94.5
384.662	103.5
384.887	114.5
385.112	101.5
385.337	91.5
385.562	93.5
385.787	89.5
386.013	120.5
386.238	110.5
386.463	100.5
386.688	104.5
386.913	93.5
387.138	108.5
387.363	92.5
387.588	84.5
387.813	96.5
388.038	103.5
388.263	112.5
388.488	110.5
388.713	110.5
388.938	89.5
389.163	94.5
389.387	113.5
389.612	98.5
389.837	96.5
390.062	97.5
390.287	81.5
390.512	78.5
390.736	80.5
390.961	79.5
391.186	94.5
391.411	83.5
391.636	82.5
391.86	79.5
392.085	72.5
392.31	90.5
392.534	95.5
392.759	71.5
392.984	93.5
393.208	114.5
393.433	85.5
393.658	84.5
393.882	107.5
394.107	92.5
394.331	84.5
394.556	83.5
394.78	85.5
395.005	82.5
395.229	84.5
395.454	93.5
395.678	88.5
395.903	83.5
396.127	84.5
396.352	88.5
396.576	87.5
396.801	81.5
397.025	98.5
397.249	79.5
397.474	80.5
397.698	87.5
397.922	88.5
398.147	86.5
398.371	90.5
398.595	81.5
398.82	82.5
399.044	89.5
399.268	81.5
399.492	76.5
399.717	82.5
399.941	79.5
400.165	78.5
400.389	88.5
400.613	91.5
400.837	87.5
401.062	89.5
401.286	77.5
401.51	82.5
401.734	87.5
401.958	98.5
402.182	112.5
402.406	153.5
402.63	118.5
402.854	90.5
403.078	85.5
403.302	88.5
403.526	81.5
403.75	93.5
403.974	91.5
404.198	92.5
404.422	82.5
404.645	96.5
404.869	65.5
405.093	87.5
405.317	88.5
405.541	106.5
405.765	79.5
405.988	100.5
406.212	148.5
406.436	209.5
406.66	125.5
406.883	104.5
407.107	86.5
407.331	96.5
407.555	94.5
407.778	90.5
408.002	84.5
408.226	96.5
408.449	81.5
408.673	88.5
408.896	79.5
409.12	90.5
409.344	91.5
409.567	90.5
409.791	74.5
410.014	89.5
410.238	82.5
410.461	80.5
410.685	87.5
410.908	93.5
411.132	109.5
411.355	108.5
411.578	76.5
411.802	92.5
412.025	82.5
412.249	74.5
412.472	85.5
412.695	78.5
412.919	92.5
413.142	92.5
413.365	86.5
413.589	95.5
413.812	99.5
414.035	89.5
414.258	88.5
414.482	80.5
414.705	84.5
414.928	70.5
415.151	86.5
415.374	90.5
415.597	81.5
415.821	93.5
416.044	86.5
416.267	92.5
416.49	91.5
416.713	85.5
416.936	79.5
417.159	86.5
417.382	84.5
417.605	82.5
417.828	89.5
418.051	100.5
418.274	78.5
418.497	75.5
418.72	75.5
418.943	88.5
419.166	83.5
419.389	90.5
419.611	79.5
419.834	84.5
420.057	88.5
420.28	88.5
420.503	98.5
420.726	81.5
420.948	82.5
421.171	86.5
421.394	94.5
421.617	92.5
421.839	84.5
422.062	81.5
422.285	99.5
422.507	108.5
422.73	98.5
422.953	105.5
423.175	85.5
423.398	87.5
423.621	86.5
423.843	88.5
424.066	89.5
424.288	70.5
424.511	82.5
424.733	82.5
424.956	96.5
425.178	78.5
425.401	108.5
425.623	89.5
425.846	93.5
426.068	86.5
426.291	81.5
426.513	95.5
426.735	100.5
426.958	89.5
427.18	98.5
427.402	120.5
427.625	140.5
427.847	102.5
428.069	97.5
428.292	83.5
428.514	87.5
428.736	89.5
428.958	78.5
429.181	79.5
429.403	74.5
429.625	76.5
429.847	86.5
430.069	90.5
430.292	98.5
430.514	93.5
430.736	83.5
430.958	86.5
431.18	84.5
431.402	85.5
431.624	77.5
431.846	78.5
432.068	80.5
432.29	89.5
432.512	82.5
432.734	89.5
432.956	87.5
433.178	109.5
433.4	96.5
433.622	101.5
433.844	86.5
434.066	86.5
434.287	76.5
434.509	76.5
434.731	94.5
434.953	86.5
435.175	89.5
435.397	90.5
435.618	94.5
435.84	105.5
436.062	112.5
436.284	85.5
436.505	100.5
436.727	79.5
436.949	92.5
437.17	82.5
437.392	85.5
437.614	97.5
437.835	98.5
438.057	99.5
438.278	100.5
438.5	101.5
438.721	109.5
438.943	86.5
439.165	89.5
439.386	76.5
439.608	88.5
439.829	91.5
440.05	120.5
440.272	126.5
440.493	85.5
440.715	90.5
440.936	72.5
441.158	81.5
441.379	90.5
441.6	91.5
441.822	101.5
442.043	98.5
442.264	83.5
442.486	93.5
442.707	86.5
442.928	93.5
443.149	101.5
443.371	116.5
443.592	107.5
443.813	106.5
444.034	106.5
444.255	88.5
444.476	86.5
444.698	88.5
444.919	91.5
445.14	135.5
445.361	134.5
445.582	109.5
445.803	108.5
446.024	132.5
446.245	129.5
446.466	114.5
446.687	96.5
446.908	89.5
447.129	85.5
447.35	93.5
447.571	88.5
447.792	95.5
448.013	110.5
448.234	104.5
448.455	103.5
448.675	109.5
448.896	103.5
449.117	96.5
449.338	90.5
449.559	116.5
449.779	106.5
450	83.5
450.221	90.5
450.442	91.5
450.662	95.5
450.883	97.5
451.104	93.5
451.324	86.5
451.545	93.5
451.766	82.5
451.986	87.5
452.207	75.5
452.428	76.5
452.648	96.5
452.869	108.5
453.089	93.5
453.31	93.5
453.53	91.5
453.751	91.5
453.971	94.5
454.192	110.5
454.412	84.5
454.633	92.5
454.853	74.5
455.073	89.5
455.294	67.5
455.514	83.5
455.734	68.5
455.955	63.5
456.175	81.5
456.395	70.5
456.616	77.5
456.836	85.5
457.056	97.5
457.276	70.5
457.497	78.5
457.717	92.5
457.937	89.5
458.157	75.5
458.377	74.5
458.598	106.5
458.818	123.5
459.038	154.5
459.258	122.5
459.478	96.5
459.698	77.5
459.918	91.5
460.138	79.5
460.358	83.5
460.578	86.5
460.798	93.5
461.018	90.5
461.238	80.5
461.458	73.5
461.678	81.5
461.898	99.5
462.118	75.5
462.338	89.5
462.558	74.5
462.777	76.5
462.997	76.5
463.217	86.5
463.437	92.5
463.657	98.5
463.876	90.5
464.096	81.5
464.316	107.5
464.536	84.5
464.755	112.5
464.975	96.5
465.195	129.5
465.414	148.5
465.634	76.5
465.854	86.5
466.073	90.5
466.293	87.5
466.512	81.5
466.732	91.5
466.951	88.5
467.171	82.5
467.391	97.5
467.61	97.5
467.829	87.5
468.049	74.5
468.268	85.5
468.488	87.5
468.707	88.5
468.927	82.5
469.146	71.5
469.365	88.5
469.585	92.5
469.804	82.5
470.023	86.5
470.243	94.5
470.462	90.5
470.681	100.5
470.901	94.5
471.12	85.5
471.339	86.5
471.558	78.5
471.777	88.5
471.997	84.5
472.216	85.5
472.435	84.5
472.654	82.5
472.873	85.5
473.092	77.5
473.311	78.5
473.53	86.5
473.749	79.5
473.968	89.5
474.187	106.5
474.406	89.5
474.625	88.5
474.844	85.5
475.063	75.5
475.282	101.5
475.501	88.5
475.72	95.5
475.939	74.5
476.158	74.5
476.377	92.5
476.596	88.5
476.814	91.5
477.033	97.5
477.252	71.5
477.471	96.5
477.69	68.5
477.908	100.5
478.127	92.5
478.346	90.5
478.564	89.5
478.783	85.5
479.002	80.5
479.22	94.5
479.439	93.5
479.658	92.5
479.876	94.5
480.095	98.5
480.313	106.5
480.532	101.5
480.751	94.5
480.969	97.5
481.188	100.5
481.406	95.5
481.624	79.5
481.843	82.5
482.061	85.5
482.28	85.5
482.498	74.5
482.717	85.5
482.935	94.5
483.153	97.5
483.372	90.5
483.59	80.5
483.808	95.5
484.027	93.5
484.245	97.5
484.463	96.5
484.681	96.5
484.9	94.5
485.118	78.5
485.336	86.5
485.554	94.5
485.772	105.5
485.99	112.5
486.209	91.5
486.427	98.5
486.645	95.5
486.863	116.5
487.081	78.5
487.299	94.5
487.517	112.5
487.735	106.5
487.953	72.5
488.171	84.5
488.389	74.5
488.607	96.5
488.825	98.5
489.043	86.5
489.261	82.5
489.479	88.5
489.696	92.5
489.914	69.5
490.132	85.5
490.35	79.5
490.568	91.5
490.786	87.5
491.003	82.5
491.221	92.5
491.439	96.5
491.657	81.5
491.874	102.5
492.092	89.5
492.31	90.5
492.527	62.5
492.745	94.5
492.963	89.5
493.18	95.5
493.398	85.5
493.615	85.5
493.833	97.5
494.05	86.5
494.268	89.5
494.485	85.5
494.703	77.5
494.92	92.5
495.138	90.5
495.355	89.5
495.573	77.5
495.79	97.5
496.008	94.5
496.225	97.5
496.442	98.5
496.66	88.5
496.877	85.5
497.094	93.5
497.312	98.5
497.529	85.5
497.746	100.5
497.963	94.5
498.181	83.5
498.398	95.5
498.615	104.5
498.832	98.5
499.049	106.5
499.267	91.5
499.484	78.5
499.701	89.5
499.918	86.5
500.135	80.5
500.352	82.5
500.569	71.5
500.786	95.5
501.003	98.5
501.22	87.5
501.437	85.5
501.654	89.5
501.871	83.5
502.088	102.5
502.305	94.5
502.522	104.5
502.739	97.5
502.956	70.5
503.172	86.5
503.389	82.5
503.606	98.5
503.823	87.5
504.04	93.5
504.256	77.5
504.473	78.5
504.69	87.5
504.907	82.5
505.123	86.5
505.34	88.5
505.557	93.5
505.773	96.5
505.99	93.5
506.207	77.5
506.423	83.5
506.64	90.5
506.856	92.5
507.073	87.5
507.289	89.5
507.506	95.5
507.722	97.5
507.939	103.5
508.155	95.5
508.372	93.5
508.588	88.5
508.805	98.5
509.021	93.5
509.238	91.5
509.454	82.5
509.67	100.5
509.887	102.5
510.103	124.5
510.319	198.5
510.536	708.5
510.752	2101.5
510.968	584.5
511.184	150.5
511.401	109.5
511.617	89.5
511.833	91.5
512.049	77.5
512.265	92.5
512.481	89.5
512.698	90.5
512.914	79.5
513.13	86.5
513.346	96.5
513.562	104.5
513.778	100.5
513.994	106.5
514.21	108.5
514.426	107.5
514.642	125.5
514.858	133.5
515.074	159.5
515.29	390.5
515.506	1268.5
515.721	457.5
515.937	121.5
516.153	104.5
516.369	95.5
516.585	77.5
516.801	82.5
517.016	82.5
517.232	80.5
517.448	89.5
517.664	86.5
517.879	113.5
518.095	96.5
518.311	89.5
518.527	98.5
518.742	82.5
518.958	90.5
519.173	83.5
519.389	88.5
519.605	86.5
519.82	96.5
520.036	106.5
520.251	93.5
520.467	97.5
520.682	88.5
520.898	95.5
521.113	104.5
521.329	125.5
521.544	200.5
521.76	516.5
521.975	2037.5
522.19	1226.5
522.406	263.5
522.621	108.5
522.836	85.5
523.052	102.5
523.267	91.5
523.482	103.5
523.698	91.5
523.913	102.5
524.128	112.5
524.343	85.5
524.559	90.5
524.774	70.5
524.989	104.5
525.204	106.5
525.419	105.5
525.634	113.5
525.849	87.5
526.064	88.5
526.28	82.5
526.495	84.5
526.71	85.5
526.925	87.5
527.14	101.5
527.355	94.5
527.57	85.5
527.785	90.5
527.999	90.5
528.214	93.5
528.429	89.5
528.644	93.5
528.859	78.5
529.074	96.5
529.289	120.5
529.503	159.5
529.718	94.5
529.933	78.5
530.148	81.5
530.363	90.5
530.577	88.5
530.792	86.5
531.007	102.5
531.221	90.5
531.436	78.5
531.651	96.5
531.865	94.5
532.08	87.5
532.295	78.5
532.509	94.5
532.724	89.5
532.938	96.5
533.153	78.5
533.367	85.5
533.582	98.5
533.796	68.5
534.011	94.5
534.225	88.5
534.44	85.5
534.654	87.5
534.868	99.5
535.083	91.5
535.297	92.5
535.511	98.5
535.726	85.5
535.94	101.5
536.154	88.5
536.369	90.5
536.583	79.5
536.797	88.5
