Data from Uncirc_1994_H10_HRD10591_00005.txt Node
Date: Wed Jan 03 11:39:21 EST 2024
User: Yrep
Spectrometer: HR+D1059
Trigger mode: 1
Integration Time (sec): 1.000000E-1
Scans to average: 1
Electric dark correction enabled: true
Nonlinearity correction enabled: false
Boxcar width: 0
XAxis mode: Wavelengths
Number of Pixels in Spectrum: 2048
>>>>>Begin Spectral Data<<<<<
223.165	-22.25
223.4	-22.25
223.635	-22.25
223.869	-13.25
224.104	-32.25
224.338	-12.25
224.573	-8.25
224.808	-18.25
225.042	2.75
225.277	-8.25
225.511	3.75
225.746	18.75
225.98	11.75
226.215	10.75
226.449	9.75
226.683	28.75
226.918	10.75
227.152	17.75
227.387	19.75
227.621	34.75
227.856	35.75
228.09	40.75
228.324	53.75
228.559	59.75
228.793	46.75
229.027	64.75
229.262	71.75
229.496	75.75
229.73	66.75
229.964	67.75
230.199	67.75
230.433	64.75
230.667	82.75
230.901	99.75
231.136	76.75
231.37	73.75
231.604	89.75
231.838	78.75
232.072	81.75
232.306	72.75
232.541	52.75
232.775	80.75
233.009	63.75
233.243	80.75
233.477	87.75
233.711	83.75
233.945	75.75
234.179	77.75
234.413	76.75
234.647	90.75
234.881	68.75
235.115	66.75
235.349	64.75
235.583	75.75
235.817	75.75
236.051	95.75
236.285	66.75
236.519	69.75
236.753	74.75
236.987	75.75
237.221	83.75
237.455	90.75
237.689	76.75
237.922	64.75
238.156	69.75
238.39	77.75
238.624	75.75
238.858	63.75
239.091	72.75
239.325	69.75
239.559	75.75
239.793	80.75
240.027	87.75
240.26	83.75
240.494	75.75
240.728	64.75
240.961	71.75
241.195	66.75
241.429	65.75
241.662	62.75
241.896	66.75
242.13	73.75
242.363	69.75
242.597	72.75
242.83	75.75
243.064	65.75
243.298	75.75
243.531	61.75
243.765	69.75
243.998	82.75
244.232	80.75
244.465	74.75
244.699	64.75
244.932	74.75
245.166	85.75
245.399	84.75
245.633	78.75
245.866	71.75
246.099	74.75
246.333	77.75
246.566	79.75
246.8	69.75
247.033	79.75
247.266	71.75
247.5	59.75
247.733	79.75
247.966	64.75
248.2	75.75
248.433	77.75
248.666	78.75
248.899	62.75
249.133	85.75
249.366	96.75
249.599	88.75
249.832	83.75
250.066	79.75
250.299	82.75
250.532	91.75
250.765	80.75
250.998	87.75
251.231	81.75
251.465	78.75
251.698	70.75
251.931	62.75
252.164	67.75
252.397	73.75
252.63	73.75
252.863	85.75
253.096	78.75
253.329	82.75
253.562	82.75
253.795	83.75
254.028	77.75
254.261	62.75
254.494	92.75
254.727	86.75
254.96	83.75
255.193	76.75
255.426	69.75
255.659	80.75
255.892	77.75
256.124	80.75
256.357	84.75
256.59	80.75
256.823	71.75
257.056	65.75
257.289	85.75
257.521	85.75
257.754	70.75
257.987	70.75
258.22	88.75
258.452	87.75
258.685	92.75
258.918	66.75
259.151	82.75
259.383	76.75
259.616	73.75
259.849	82.75
260.081	77.75
260.314	70.75
260.547	77.75
260.779	71.75
261.012	92.75
261.244	83.75
261.477	99.75
261.71	86.75
261.942	97.75
262.175	89.75
262.407	91.75
262.64	73.75
262.872	84.75
263.105	80.75
263.337	89.75
263.57	77.75
263.802	70.75
264.035	79.75
264.267	69.75
264.499	74.75
264.732	82.75
264.964	80.75
265.197	91.75
265.429	85.75
265.661	84.75
265.894	72.75
266.126	86.75
266.358	88.75
266.591	101.75
266.823	81.75
267.055	91.75
267.287	80.75
267.52	69.75
267.752	83.75
267.984	81.75
268.216	79.75
268.448	86.75
268.681	66.75
268.913	81.75
269.145	83.75
269.377	64.75
269.609	87.75
269.841	66.75
270.073	69.75
270.306	85.75
270.538	94.75
270.77	74.75
271.002	86.75
271.234	89.75
271.466	80.75
271.698	87.75
271.93	86.75
272.162	86.75
272.394	79.75
272.626	82.75
272.858	83.75
273.09	84.75
273.322	94.75
273.553	73.75
273.785	69.75
274.017	81.75
274.249	73.75
274.481	82.75
274.713	82.75
274.945	80.75
275.176	76.75
275.408	79.75
275.64	73.75
275.872	80.75
276.104	83.75
276.335	73.75
276.567	83.75
276.799	96.75
277.031	88.75
277.262	77.75
277.494	93.75
277.726	90.75
277.957	83.75
278.189	79.75
278.421	88.75
278.652	87.75
278.884	93.75
279.115	81.75
279.347	80.75
279.579	78.75
279.81	77.75
280.042	75.75
280.273	77.75
280.505	79.75
280.736	87.75
280.968	76.75
281.199	83.75
281.431	81.75
281.662	87.75
281.894	97.75
282.125	101.75
282.356	107.75
282.588	119.75
282.819	98.75
283.051	86.75
283.282	95.75
283.513	83.75
283.745	79.75
283.976	84.75
284.207	79.75
284.439	75.75
284.67	91.75
284.901	91.75
285.132	95.75
285.364	85.75
285.595	95.75
285.826	85.75
286.057	80.75
286.288	74.75
286.52	89.75
286.751	76.75
286.982	76.75
287.213	84.75
287.444	95.75
287.675	80.75
287.906	89.75
288.138	86.75
288.369	89.75
288.6	78.75
288.831	82.75
289.062	93.75
289.293	89.75
289.524	86.75
289.755	69.75
289.986	66.75
290.217	89.75
290.448	78.75
290.679	90.75
290.91	81.75
291.141	101.75
291.371	88.75
291.602	92.75
291.833	94.75
292.064	80.75
292.295	83.75
292.526	89.75
292.757	86.75
292.987	80.75
293.218	91.75
293.449	76.75
293.68	76.75
293.91	83.75
294.141	90.75
294.372	84.75
294.603	99.75
294.833	85.75
295.064	87.75
295.295	77.75
295.525	73.75
295.756	94.75
295.987	105.75
296.217	120.75
296.448	129.75
296.679	90.75
296.909	95.75
297.14	88.75
297.37	91.75
297.601	90.75
297.831	99.75
298.062	83.75
298.292	86.75
298.523	80.75
298.753	97.75
298.984	86.75
299.214	83.75
299.445	82.75
299.675	87.75
299.905	86.75
300.136	80.75
300.366	72.75
300.597	85.75
300.827	80.75
301.057	72.75
301.288	98.75
301.518	95.75
301.748	79.75
301.979	89.75
302.209	87.75
302.439	85.75
302.669	86.75
302.9	93.75
303.13	88.75
303.36	101.75
303.59	82.75
303.82	93.75
304.051	90.75
304.281	89.75
304.511	93.75
304.741	87.75
304.971	104.75
305.201	85.75
305.431	83.75
305.661	92.75
305.891	86.75
306.121	97.75
306.352	103.75
306.582	106.75
306.812	87.75
307.042	90.75
307.272	85.75
307.502	90.75
307.731	99.75
307.961	69.75
308.191	92.75
308.421	85.75
308.651	95.75
308.881	93.75
309.111	85.75
309.341	90.75
309.571	95.75
309.8	83.75
310.03	86.75
310.26	93.75
310.49	94.75
310.72	99.75
310.949	95.75
311.179	109.75
311.409	86.75
311.639	85.75
311.868	101.75
312.098	100.75
312.328	87.75
312.557	102.75
312.787	93.75
313.017	93.75
313.246	95.75
313.476	93.75
313.706	82.75
313.935	95.75
314.165	93.75
314.394	91.75
314.624	87.75
314.853	101.75
315.083	82.75
315.312	97.75
315.542	89.75
315.771	94.75
316.001	104.75
316.23	91.75
316.46	81.75
316.689	94.75
316.919	87.75
317.148	95.75
317.377	106.75
317.607	78.75
317.836	102.75
318.065	92.75
318.295	99.75
318.524	91.75
318.753	88.75
318.983	100.75
319.212	99.75
319.441	118.75
319.67	89.75
319.9	82.75
320.129	104.75
320.358	93.75
320.587	89.75
320.816	114.75
321.046	106.75
321.275	102.75
321.504	80.75
321.733	101.75
321.962	97.75
322.191	103.75
322.42	105.75
322.649	106.75
322.878	128.75
323.108	122.75
323.337	111.75
323.566	117.75
323.795	135.75
324.024	186.75
324.253	333.75
324.482	722.75
324.71	1455.75
324.939	1875.75
325.168	681.75
325.397	224.75
325.626	145.75
325.855	123.75
326.084	103.75
326.313	125.75
326.542	141.75
326.77	225.75
326.999	402.75
327.228	814.75
327.457	1466.75
327.686	1180.75
327.914	335.75
328.143	175.75
328.372	119.75
328.6	112.75
328.829	97.75
329.058	121.75
329.287	117.75
329.515	98.75
329.744	96.75
329.972	109.75
330.201	93.75
330.43	91.75
330.658	92.75
330.887	125.75
331.115	107.75
331.344	103.75
331.572	95.75
331.801	85.75
332.03	103.75
332.258	94.75
332.486	93.75
332.715	105.75
332.943	95.75
333.172	84.75
333.4	107.75
333.629	105.75
333.857	119.75
334.085	101.75
334.314	88.75
334.542	96.75
334.771	89.75
334.999	83.75
335.227	92.75
335.455	80.75
335.684	103.75
335.912	88.75
336.14	94.75
336.369	102.75
336.597	85.75
336.825	107.75
337.053	96.75
337.281	94.75
337.51	89.75
337.738	84.75
337.966	75.75
338.194	89.75
338.422	99.75
338.65	76.75
338.878	98.75
339.106	79.75
339.334	101.75
339.562	97.75
339.79	99.75
340.018	94.75
340.246	101.75
340.474	93.75
340.702	82.75
340.93	77.75
341.158	95.75
341.386	99.75
341.614	77.75
341.842	96.75
342.07	108.75
342.298	104.75
342.526	102.75
342.754	87.75
342.981	100.75
343.209	98.75
343.437	96.75
343.665	106.75
343.893	97.75
344.12	90.75
344.348	93.75
344.576	92.75
344.804	94.75
345.031	97.75
345.259	92.75
345.487	83.75
345.714	94.75
345.942	99.75
346.17	97.75
346.397	96.75
346.625	73.75
346.853	105.75
347.08	95.75
347.308	95.75
347.535	96.75
347.763	90.75
347.99	91.75
348.218	102.75
348.445	98.75
348.673	94.75
348.9	88.75
349.128	92.75
349.355	98.75
349.583	93.75
349.81	98.75
350.037	102.75
350.265	95.75
350.492	91.75
350.72	101.75
350.947	88.75
351.174	86.75
351.402	104.75
351.629	95.75
351.856	99.75
352.083	106.75
352.311	96.75
352.538	74.75
352.765	100.75
352.992	102.75
353.22	115.75
353.447	106.75
353.674	109.75
353.901	107.75
354.128	99.75
354.355	95.75
354.583	91.75
354.81	95.75
355.037	90.75
355.264	84.75
355.491	99.75
355.718	104.75
355.945	88.75
356.172	91.75
356.399	96.75
356.626	90.75
356.853	89.75
357.08	88.75
357.307	94.75
357.534	96.75
357.761	89.75
357.988	88.75
358.215	100.75
358.441	96.75
358.668	93.75
358.895	79.75
359.122	82.75
359.349	81.75
359.576	89.75
359.802	111.75
360.029	97.75
360.256	94.75
360.483	109.75
360.709	81.75
360.936	90.75
361.163	93.75
361.39	81.75
361.616	94.75
361.843	99.75
362.07	99.75
362.296	81.75
362.523	89.75
362.749	81.75
362.976	100.75
363.203	102.75
363.429	78.75
363.656	96.75
363.882	91.75
364.109	106.75
364.335	101.75
364.562	99.75
364.788	96.75
365.015	90.75
365.241	97.75
365.468	119.75
365.694	101.75
365.92	93.75
366.147	83.75
366.373	78.75
366.599	102.75
366.826	102.75
367.052	85.75
367.278	97.75
367.505	102.75
367.731	91.75
367.957	85.75
368.184	89.75
368.41	103.75
368.636	87.75
368.862	113.75
369.089	114.75
369.315	97.75
369.541	85.75
369.767	75.75
369.993	82.75
370.219	82.75
370.445	88.75
370.672	92.75
370.898	94.75
371.124	97.75
371.35	88.75
371.576	84.75
371.802	96.75
372.028	82.75
372.254	83.75
372.48	89.75
372.706	89.75
372.932	87.75
373.158	94.75
373.384	93.75
373.61	100.75
373.835	80.75
374.061	100.75
374.287	94.75
374.513	101.75
374.739	83.75
374.965	64.75
375.191	79.75
375.416	84.75
375.642	96.75
375.868	88.75
376.094	108.75
376.319	94.75
376.545	88.75
376.771	98.75
376.997	98.75
377.222	93.75
377.448	78.75
377.674	97.75
377.899	93.75
378.125	80.75
378.35	92.75
378.576	88.75
378.802	95.75
379.027	107.75
379.253	102.75
379.478	97.75
379.704	99.75
379.929	94.75
380.155	87.75
380.38	99.75
380.606	89.75
380.831	91.75
381.057	108.75
381.282	74.75
381.507	93.75
381.733	83.75
381.958	105.75
382.184	85.75
382.409	99.75
382.634	103.75
382.86	91.75
383.085	103.75
383.31	114.75
383.535	108.75
383.761	101.75
383.986	109.75
384.211	87.75
384.436	101.75
384.662	91.75
384.887	90.75
385.112	114.75
385.337	97.75
385.562	103.75
385.787	124.75
386.013	102.75
386.238	111.75
386.463	109.75
386.688	122.75
386.913	104.75
387.138	103.75
387.363	103.75
387.588	101.75
387.813	109.75
388.038	112.75
388.263	113.75
388.488	120.75
388.713	90.75
388.938	94.75
389.163	101.75
389.387	104.75
389.612	88.75
389.837	80.75
390.062	103.75
390.287	82.75
390.512	80.75
390.736	85.75
390.961	103.75
391.186	87.75
391.411	111.75
391.636	89.75
391.86	74.75
392.085	76.75
392.31	84.75
392.534	77.75
392.759	90.75
392.984	91.75
393.208	99.75
393.433	112.75
393.658	97.75
393.882	82.75
394.107	90.75
394.331	97.75
394.556	86.75
394.78	85.75
395.005	75.75
395.229	93.75
395.454	94.75
395.678	84.75
395.903	81.75
396.127	80.75
396.352	83.75
396.576	97.75
396.801	99.75
397.025	90.75
397.249	86.75
397.474	96.75
397.698	79.75
397.922	92.75
398.147	80.75
398.371	83.75
398.595	87.75
398.82	77.75
399.044	98.75
399.268	92.75
399.492	90.75
399.717	99.75
399.941	85.75
400.165	90.75
400.389	91.75
400.613	83.75
400.837	96.75
401.062	98.75
401.286	89.75
401.51	89.75
401.734	78.75
401.958	91.75
402.182	117.75
402.406	149.75
402.63	110.75
402.854	87.75
403.078	106.75
403.302	75.75
403.526	74.75
403.75	94.75
403.974	90.75
404.198	84.75
404.422	76.75
404.645	82.75
404.869	95.75
405.093	94.75
405.317	85.75
405.541	97.75
405.765	98.75
405.988	107.75
406.212	153.75
406.436	188.75
406.66	148.75
406.883	113.75
407.107	93.75
407.331	86.75
407.555	90.75
407.778	99.75
408.002	93.75
408.226	90.75
408.449	84.75
408.673	88.75
408.896	91.75
409.12	85.75
409.344	93.75
409.567	91.75
409.791	102.75
410.014	88.75
410.238	82.75
410.461	98.75
410.685	108.75
410.908	109.75
411.132	95.75
411.355	87.75
411.578	91.75
411.802	91.75
412.025	77.75
412.249	88.75
412.472	90.75
412.695	76.75
412.919	90.75
413.142	92.75
413.365	85.75
413.589	77.75
413.812	83.75
414.035	86.75
414.258	89.75
414.482	94.75
414.705	84.75
414.928	93.75
415.151	97.75
415.374	106.75
415.597	81.75
415.821	91.75
416.044	79.75
416.267	89.75
416.49	93.75
416.713	84.75
416.936	83.75
417.159	91.75
417.382	94.75
417.605	101.75
417.828	97.75
418.051	96.75
418.274	74.75
418.497	91.75
418.72	102.75
418.943	84.75
419.166	89.75
419.389	76.75
419.611	87.75
419.834	85.75
420.057	76.75
420.28	101.75
420.503	78.75
420.726	93.75
420.948	94.75
421.171	92.75
421.394	93.75
421.617	67.75
421.839	92.75
422.062	81.75
422.285	92.75
422.507	105.75
422.73	103.75
422.953	103.75
423.175	79.75
423.398	70.75
423.621	77.75
423.843	86.75
424.066	79.75
424.288	74.75
424.511	83.75
424.733	85.75
424.956	105.75
425.178	77.75
425.401	110.75
425.623	98.75
425.846	87.75
426.068	98.75
426.291	86.75
426.513	83.75
426.735	93.75
426.958	93.75
427.18	98.75
427.402	138.75
427.625	152.75
427.847	113.75
428.069	98.75
428.292	87.75
428.514	81.75
428.736	79.75
428.958	81.75
429.181	69.75
429.403	85.75
429.625	89.75
429.847	89.75
430.069	100.75
430.292	98.75
430.514	85.75
430.736	75.75
430.958	86.75
431.18	77.75
431.402	80.75
431.624	94.75
431.846	79.75
432.068	76.75
432.29	81.75
432.512	96.75
432.734	83.75
432.956	73.75
433.178	94.75
433.4	96.75
433.622	91.75
433.844	97.75
434.066	83.75
434.287	87.75
434.509	82.75
434.731	76.75
434.953	93.75
435.175	86.75
435.397	92.75
435.618	95.75
435.84	88.75
436.062	107.75
436.284	98.75
436.505	98.75
436.727	97.75
436.949	84.75
437.17	72.75
437.392	90.75
437.614	101.75
437.835	113.75
438.057	123.75
438.278	108.75
438.5	90.75
438.721	106.75
438.943	85.75
439.165	84.75
439.386	85.75
439.608	100.75
439.829	94.75
440.05	113.75
440.272	133.75
440.493	95.75
440.715	82.75
440.936	88.75
441.158	79.75
441.379	89.75
441.6	105.75
441.822	96.75
442.043	90.75
442.264	91.75
442.486	82.75
442.707	89.75
442.928	97.75
443.149	120.75
443.371	109.75
443.592	101.75
443.813	111.75
444.034	101.75
444.255	88.75
444.476	91.75
444.698	88.75
444.919	96.75
445.14	128.75
445.361	119.75
445.582	113.75
445.803	123.75
446.024	126.75
446.245	111.75
446.466	94.75
446.687	76.75
446.908	87.75
447.129	83.75
447.35	75.75
447.571	88.75
447.792	93.75
448.013	105.75
448.234	82.75
448.455	93.75
448.675	120.75
448.896	106.75
449.117	88.75
449.338	101.75
449.559	133.75
449.779	129.75
450	101.75
450.221	70.75
450.442	86.75
450.662	77.75
450.883	105.75
451.104	95.75
451.324	83.75
451.545	80.75
451.766	83.75
451.986	93.75
452.207	75.75
452.428	85.75
452.648	92.75
452.869	111.75
453.089	98.75
453.31	100.75
453.53	100.75
453.751	84.75
453.971	92.75
454.192	98.75
454.412	89.75
454.633	94.75
454.853	89.75
455.073	93.75
455.294	81.75
455.514	106.75
455.734	93.75
455.955	79.75
456.175	70.75
456.395	89.75
456.616	89.75
456.836	75.75
457.056	82.75
457.276	81.75
457.497	76.75
457.717	80.75
457.937	83.75
458.157	78.75
458.377	91.75
458.598	96.75
458.818	144.75
459.038	137.75
459.258	95.75
459.478	103.75
459.698	77.75
459.918	86.75
460.138	90.75
460.358	76.75
460.578	81.75
460.798	85.75
461.018	73.75
461.238	77.75
461.458	86.75
461.678	85.75
461.898	77.75
462.118	95.75
462.338	87.75
462.558	96.75
462.777	85.75
462.997	68.75
463.217	95.75
463.437	74.75
463.657	77.75
463.876	80.75
464.096	69.75
464.316	80.75
464.536	89.75
464.755	88.75
464.975	101.75
465.195	145.75
465.414	139.75
465.634	74.75
465.854	95.75
466.073	87.75
466.293	89.75
466.512	87.75
466.732	86.75
466.951	95.75
467.171	89.75
467.391	84.75
467.61	108.75
467.829	91.75
468.049	80.75
468.268	75.75
468.488	96.75
468.707	95.75
468.927	66.75
469.146	89.75
469.365	91.75
469.585	85.75
469.804	97.75
470.023	84.75
470.243	85.75
470.462	99.75
470.681	99.75
470.901	81.75
471.12	78.75
471.339	91.75
471.558	83.75
471.777	81.75
471.997	85.75
472.216	87.75
472.435	91.75
472.654	94.75
472.873	88.75
473.092	83.75
473.311	83.75
473.53	85.75
473.749	94.75
473.968	85.75
474.187	97.75
474.406	89.75
474.625	90.75
474.844	88.75
475.063	79.75
475.282	84.75
475.501	79.75
475.72	99.75
475.939	82.75
476.158	69.75
476.377	95.75
476.596	91.75
476.814	89.75
477.033	95.75
477.252	101.75
477.471	87.75
477.69	85.75
477.908	88.75
478.127	82.75
478.346	83.75
478.564	80.75
478.783	89.75
479.002	79.75
479.22	86.75
479.439	98.75
479.658	99.75
479.876	87.75
480.095	85.75
480.313	84.75
480.532	105.75
480.751	99.75
480.969	82.75
481.188	87.75
481.406	82.75
481.624	78.75
481.843	91.75
482.061	96.75
482.28	89.75
482.498	95.75
482.717	85.75
482.935	86.75
483.153	81.75
483.372	94.75
483.59	87.75
483.808	96.75
484.027	94.75
484.245	96.75
484.463	92.75
484.681	96.75
484.9	84.75
485.118	96.75
485.336	84.75
485.554	96.75
485.772	82.75
485.99	99.75
486.209	98.75
486.427	107.75
486.645	95.75
486.863	96.75
487.081	88.75
487.299	79.75
487.517	93.75
487.735	88.75
487.953	91.75
488.171	94.75
488.389	98.75
488.607	101.75
488.825	85.75
489.043	89.75
489.261	83.75
489.479	93.75
489.696	90.75
489.914	86.75
490.132	108.75
490.35	91.75
490.568	91.75
490.786	83.75
491.003	84.75
491.221	88.75
491.439	94.75
491.657	101.75
491.874	83.75
492.092	84.75
492.31	95.75
492.527	90.75
492.745	75.75
492.963	101.75
493.18	97.75
493.398	102.75
493.615	94.75
493.833	92.75
494.05	88.75
494.268	92.75
494.485	84.75
494.703	74.75
494.92	82.75
495.138	79.75
495.355	95.75
495.573	80.75
495.79	79.75
496.008	90.75
496.225	77.75
496.442	73.75
496.66	85.75
496.877	77.75
497.094	93.75
497.312	79.75
497.529	91.75
497.746	84.75
497.963	88.75
498.181	92.75
498.398	74.75
498.615	108.75
498.832	88.75
499.049	100.75
499.267	84.75
499.484	83.75
499.701	85.75
499.918	91.75
500.135	74.75
500.352	87.75
500.569	77.75
500.786	80.75
501.003	88.75
501.22	93.75
501.437	91.75
501.654	85.75
501.871	95.75
502.088	81.75
502.305	82.75
502.522	98.75
502.739	78.75
502.956	77.75
503.172	106.75
503.389	91.75
503.606	100.75
503.823	88.75
504.04	89.75
504.256	80.75
504.473	81.75
504.69	94.75
504.907	83.75
505.123	85.75
505.34	82.75
505.557	77.75
505.773	91.75
505.99	78.75
506.207	94.75
506.423	86.75
506.64	86.75
506.856	89.75
507.073	86.75
507.289	95.75
507.506	84.75
507.722	116.75
507.939	90.75
508.155	89.75
508.372	102.75
508.588	91.75
508.805	94.75
509.021	110.75
509.238	86.75
509.454	83.75
509.67	88.75
509.887	99.75
510.103	114.75
510.319	205.75
510.536	746.75
510.752	2177.75
510.968	585.75
511.184	156.75
511.401	97.75
511.617	86.75
511.833	83.75
512.049	77.75
512.265	78.75
512.481	88.75
512.698	96.75
512.914	90.75
513.13	87.75
513.346	94.75
513.562	80.75
513.778	78.75
513.994	91.75
514.21	99.75
514.426	106.75
514.642	125.75
514.858	109.75
515.074	146.75
515.29	407.75
515.506	1306.75
515.721	469.75
515.937	142.75
516.153	99.75
516.369	94.75
516.585	107.75
516.801	85.75
