Data from Uncirc_1994_H10_HRD10591_00067.txt Node
Date: Wed Jan 03 11:39:34 EST 2024
User: Yrep
Spectrometer: HR+D1059
Trigger mode: 1
Integration Time (sec): 1.000000E-1
Scans to average: 1
Electric dark correction enabled: true
Nonlinearity correction enabled: false
Boxcar width: 0
XAxis mode: Wavelengths
Number of Pixels in Spectrum: 2048
>>>>>Begin Spectral Data<<<<<
223.165	-24.88
223.4	-24.88
223.635	-24.88
223.869	-16.88
224.104	-28.88
224.338	-13.88
224.573	-8.88
224.808	-15.88
225.042	-5.88
225.277	-1.88
225.511	-3.88
225.746	20.12
225.98	12.12
226.215	2.12
226.449	22.12
226.683	15.12
226.918	27.12
227.152	22.12
227.387	39.12
227.621	32.12
227.856	32.12
228.09	53.12
228.324	44.12
228.559	48.12
228.793	52.12
229.027	64.12
229.262	61.12
229.496	70.12
229.73	78.12
229.964	83.12
230.199	64.12
230.433	76.12
230.667	76.12
230.901	71.12
231.136	76.12
231.37	71.12
231.604	77.12
231.838	65.12
232.072	89.12
232.306	71.12
232.541	75.12
232.775	81.12
233.009	86.12
233.243	81.12
233.477	73.12
233.711	83.12
233.945	83.12
234.179	62.12
234.413	89.12
234.647	61.12
234.881	74.12
235.115	80.12
235.349	66.12
235.583	55.12
235.817	75.12
236.051	75.12
236.285	67.12
236.519	83.12
236.753	87.12
236.987	65.12
237.221	92.12
237.455	87.12
237.689	63.12
237.922	67.12
238.156	71.12
238.39	74.12
238.624	78.12
238.858	76.12
239.091	72.12
239.325	83.12
239.559	78.12
239.793	78.12
240.027	87.12
240.26	75.12
240.494	78.12
240.728	90.12
240.961	79.12
241.195	75.12
241.429	80.12
241.662	74.12
241.896	82.12
242.13	79.12
242.363	74.12
242.597	85.12
242.83	78.12
243.064	90.12
243.298	82.12
243.531	73.12
243.765	76.12
243.998	74.12
244.232	95.12
244.465	83.12
244.699	80.12
244.932	79.12
245.166	88.12
245.399	71.12
245.633	76.12
245.866	75.12
246.099	75.12
246.333	81.12
246.566	63.12
246.8	82.12
247.033	82.12
247.266	80.12
247.5	73.12
247.733	68.12
247.966	76.12
248.2	74.12
248.433	72.12
248.666	70.12
248.899	80.12
249.133	82.12
249.366	93.12
249.599	90.12
249.832	87.12
250.066	93.12
250.299	76.12
250.532	86.12
250.765	83.12
250.998	76.12
251.231	72.12
251.465	83.12
251.698	80.12
251.931	65.12
252.164	72.12
252.397	78.12
252.63	77.12
252.863	82.12
253.096	79.12
253.329	76.12
253.562	70.12
253.795	76.12
254.028	82.12
254.261	77.12
254.494	78.12
254.727	77.12
254.96	64.12
255.193	75.12
255.426	78.12
255.659	83.12
255.892	70.12
256.124	76.12
256.357	76.12
256.59	66.12
256.823	72.12
257.056	91.12
257.289	79.12
257.521	78.12
257.754	91.12
257.987	85.12
258.22	78.12
258.452	76.12
258.685	89.12
258.918	83.12
259.151	79.12
259.383	81.12
259.616	87.12
259.849	83.12
260.081	96.12
260.314	82.12
260.547	94.12
260.779	88.12
261.012	82.12
261.244	87.12
261.477	93.12
261.71	91.12
261.942	94.12
262.175	99.12
262.407	103.12
262.64	74.12
262.872	88.12
263.105	74.12
263.337	79.12
263.57	82.12
263.802	68.12
264.035	76.12
264.267	65.12
264.499	70.12
264.732	82.12
264.964	78.12
265.197	102.12
265.429	76.12
265.661	93.12
265.894	75.12
266.126	82.12
266.358	82.12
266.591	105.12
266.823	75.12
267.055	85.12
267.287	92.12
267.52	67.12
267.752	77.12
267.984	80.12
268.216	84.12
268.448	92.12
268.681	72.12
268.913	85.12
269.145	95.12
269.377	88.12
269.609	81.12
269.841	88.12
270.073	78.12
270.306	67.12
270.538	84.12
270.77	72.12
271.002	84.12
271.234	77.12
271.466	74.12
271.698	78.12
271.93	80.12
272.162	82.12
272.394	78.12
272.626	84.12
272.858	94.12
273.09	90.12
273.322	84.12
273.553	75.12
273.785	93.12
274.017	87.12
274.249	90.12
274.481	88.12
274.713	79.12
274.945	76.12
275.176	99.12
275.408	77.12
275.64	89.12
275.872	81.12
276.104	83.12
276.335	90.12
276.567	91.12
276.799	92.12
277.031	89.12
277.262	65.12
277.494	85.12
277.726	81.12
277.957	92.12
278.189	90.12
278.421	74.12
278.652	82.12
278.884	77.12
279.115	82.12
279.347	105.12
279.579	88.12
279.81	78.12
280.042	78.12
280.273	84.12
280.505	88.12
280.736	82.12
280.968	78.12
281.199	90.12
281.431	90.12
281.662	100.12
281.894	93.12
282.125	102.12
282.356	104.12
282.588	119.12
282.819	112.12
283.051	74.12
283.282	92.12
283.513	95.12
283.745	74.12
283.976	88.12
284.207	87.12
284.439	79.12
284.67	97.12
284.901	82.12
285.132	87.12
285.364	80.12
285.595	83.12
285.826	90.12
286.057	79.12
286.288	82.12
286.52	88.12
286.751	88.12
286.982	84.12
287.213	86.12
287.444	98.12
287.675	95.12
287.906	94.12
288.138	102.12
288.369	107.12
288.6	88.12
288.831	83.12
289.062	98.12
289.293	87.12
289.524	81.12
289.755	94.12
289.986	91.12
290.217	84.12
290.448	88.12
290.679	89.12
290.91	83.12
291.141	82.12
291.371	98.12
291.602	63.12
291.833	74.12
292.064	87.12
292.295	73.12
292.526	97.12
292.757	78.12
292.987	85.12
293.218	83.12
293.449	78.12
293.68	96.12
293.91	90.12
294.141	80.12
294.372	92.12
294.603	96.12
294.833	87.12
295.064	93.12
295.295	81.12
295.525	81.12
295.756	109.12
295.987	105.12
296.217	130.12
296.448	121.12
296.679	93.12
296.909	90.12
297.14	83.12
297.37	90.12
297.601	91.12
297.831	85.12
298.062	82.12
298.292	99.12
298.523	74.12
298.753	110.12
298.984	81.12
299.214	93.12
299.445	88.12
299.675	72.12
299.905	96.12
300.136	88.12
300.366	81.12
300.597	98.12
300.827	103.12
301.057	94.12
301.288	86.12
301.518	86.12
301.748	93.12
301.979	104.12
302.209	87.12
302.439	101.12
302.669	87.12
302.9	95.12
303.13	94.12
303.36	90.12
303.59	104.12
303.82	91.12
304.051	86.12
304.281	88.12
304.511	89.12
304.741	85.12
304.971	94.12
305.201	83.12
305.431	82.12
305.661	86.12
305.891	78.12
306.121	91.12
306.352	104.12
306.582	85.12
306.812	91.12
307.042	89.12
307.272	102.12
307.502	87.12
307.731	95.12
307.961	92.12
308.191	90.12
308.421	99.12
308.651	90.12
308.881	101.12
309.111	89.12
309.341	85.12
309.571	97.12
309.8	101.12
310.03	95.12
310.26	94.12
310.49	96.12
310.72	90.12
310.949	84.12
311.179	96.12
311.409	94.12
311.639	85.12
311.868	104.12
312.098	104.12
312.328	90.12
312.557	91.12
312.787	100.12
313.017	98.12
313.246	99.12
313.476	87.12
313.706	101.12
313.935	97.12
314.165	96.12
314.394	102.12
314.624	94.12
314.853	103.12
315.083	101.12
315.312	92.12
315.542	82.12
315.771	91.12
316.001	82.12
316.23	89.12
316.46	100.12
316.689	90.12
316.919	89.12
317.148	108.12
317.377	97.12
317.607	87.12
317.836	87.12
318.065	86.12
318.295	103.12
318.524	99.12
318.753	90.12
318.983	93.12
319.212	99.12
319.441	101.12
319.67	106.12
319.9	88.12
320.129	90.12
320.358	87.12
320.587	106.12
320.816	93.12
321.046	105.12
321.275	90.12
321.504	89.12
321.733	97.12
321.962	96.12
322.191	94.12
322.42	95.12
322.649	110.12
322.878	116.12
323.108	108.12
323.337	126.12
323.566	118.12
323.795	147.12
324.024	200.12
324.253	379.12
324.482	840.12
324.71	1694.12
324.939	2202.12
325.168	825.12
325.397	240.12
325.626	158.12
325.855	134.12
326.084	114.12
326.313	128.12
326.542	159.12
326.77	245.12
326.999	444.12
327.228	934.12
327.457	1719.12
327.686	1300.12
327.914	352.12
328.143	186.12
328.372	131.12
328.6	111.12
328.829	123.12
329.058	122.12
329.287	113.12
329.515	112.12
329.744	97.12
329.972	111.12
330.201	103.12
330.43	103.12
330.658	122.12
330.887	146.12
331.115	135.12
331.344	112.12
331.572	112.12
331.801	95.12
332.03	97.12
332.258	95.12
332.486	87.12
332.715	94.12
332.943	97.12
333.172	91.12
333.4	96.12
333.629	97.12
333.857	110.12
334.085	100.12
334.314	81.12
334.542	103.12
334.771	97.12
334.999	97.12
335.227	74.12
335.455	78.12
335.684	94.12
335.912	97.12
336.14	84.12
336.369	99.12
336.597	95.12
336.825	101.12
337.053	99.12
337.281	100.12
337.51	91.12
337.738	102.12
337.966	88.12
338.194	91.12
338.422	92.12
338.65	91.12
338.878	88.12
339.106	83.12
339.334	77.12
339.562	93.12
339.79	77.12
340.018	97.12
340.246	109.12
340.474	105.12
340.702	101.12
340.93	98.12
341.158	92.12
341.386	103.12
341.614	88.12
341.842	100.12
342.07	91.12
342.298	82.12
342.526	91.12
342.754	91.12
342.981	86.12
343.209	83.12
343.437	83.12
343.665	90.12
343.893	104.12
344.12	78.12
344.348	82.12
344.576	92.12
344.804	103.12
345.031	90.12
345.259	87.12
345.487	90.12
345.714	96.12
345.942	91.12
346.17	91.12
346.397	99.12
346.625	95.12
346.853	99.12
347.08	95.12
347.308	85.12
347.535	105.12
347.763	87.12
347.99	107.12
348.218	105.12
348.445	91.12
348.673	96.12
348.9	90.12
349.128	84.12
349.355	100.12
349.583	87.12
349.81	88.12
350.037	82.12
350.265	90.12
350.492	88.12
350.72	104.12
350.947	111.12
351.174	103.12
351.402	107.12
351.629	105.12
351.856	97.12
352.083	99.12
352.311	112.12
352.538	114.12
352.765	113.12
352.992	106.12
353.22	110.12
353.447	88.12
353.674	100.12
353.901	86.12
354.128	94.12
354.355	89.12
354.583	95.12
354.81	99.12
355.037	100.12
355.264	100.12
355.491	107.12
355.718	92.12
355.945	95.12
356.172	97.12
356.399	92.12
356.626	90.12
356.853	89.12
357.08	100.12
357.307	76.12
357.534	86.12
357.761	95.12
357.988	92.12
358.215	97.12
358.441	93.12
358.668	92.12
358.895	90.12
359.122	84.12
359.349	91.12
359.576	80.12
359.802	97.12
360.029	106.12
360.256	114.12
360.483	104.12
360.709	90.12
360.936	83.12
361.163	82.12
361.39	86.12
361.616	96.12
361.843	90.12
362.07	94.12
362.296	80.12
362.523	95.12
362.749	89.12
362.976	91.12
363.203	80.12
363.429	92.12
363.656	88.12
363.882	79.12
364.109	90.12
364.335	83.12
364.562	78.12
364.788	94.12
365.015	97.12
365.241	97.12
365.468	99.12
365.694	98.12
365.92	95.12
366.147	92.12
366.373	90.12
366.599	69.12
366.826	90.12
367.052	96.12
367.278	94.12
367.505	83.12
367.731	76.12
367.957	95.12
368.184	81.12
368.41	97.12
368.636	96.12
368.862	122.12
369.089	100.12
369.315	84.12
369.541	91.12
369.767	104.12
369.993	83.12
370.219	86.12
370.445	83.12
370.672	90.12
370.898	80.12
371.124	86.12
371.35	87.12
371.576	81.12
371.802	86.12
372.028	82.12
372.254	100.12
372.48	91.12
372.706	85.12
372.932	94.12
373.158	89.12
373.384	79.12
373.61	81.12
373.835	79.12
374.061	92.12
374.287	95.12
374.513	86.12
374.739	81.12
374.965	74.12
375.191	90.12
375.416	86.12
375.642	89.12
375.868	94.12
376.094	90.12
376.319	89.12
376.545	96.12
376.771	89.12
376.997	83.12
377.222	83.12
377.448	70.12
377.674	85.12
377.899	91.12
378.125	80.12
378.35	93.12
378.576	89.12
378.802	88.12
379.027	89.12
379.253	88.12
379.478	98.12
379.704	101.12
379.929	99.12
380.155	83.12
380.38	98.12
380.606	91.12
380.831	75.12
381.057	106.12
381.282	98.12
381.507	84.12
381.733	111.12
381.958	94.12
382.184	95.12
382.409	104.12
382.634	96.12
382.86	96.12
383.085	95.12
383.31	78.12
383.535	103.12
383.761	100.12
383.986	104.12
384.211	78.12
384.436	79.12
384.662	79.12
384.887	103.12
385.112	91.12
385.337	103.12
385.562	91.12
385.787	102.12
386.013	94.12
386.238	109.12
386.463	115.12
386.688	106.12
386.913	83.12
387.138	98.12
387.363	89.12
387.588	92.12
387.813	91.12
388.038	100.12
388.263	103.12
388.488	93.12
388.713	101.12
388.938	92.12
389.163	78.12
389.387	99.12
389.612	91.12
389.837	91.12
390.062	105.12
390.287	87.12
390.512	88.12
390.736	91.12
390.961	83.12
391.186	90.12
391.411	89.12
391.636	87.12
391.86	81.12
392.085	82.12
392.31	87.12
392.534	73.12
392.759	85.12
392.984	94.12
393.208	86.12
393.433	86.12
393.658	100.12
393.882	90.12
394.107	86.12
394.331	77.12
394.556	76.12
394.78	78.12
395.005	93.12
395.229	83.12
395.454	86.12
395.678	82.12
395.903	87.12
396.127	93.12
396.352	86.12
396.576	75.12
396.801	72.12
397.025	83.12
397.249	99.12
397.474	91.12
397.698	94.12
397.922	84.12
398.147	71.12
398.371	83.12
398.595	81.12
398.82	89.12
399.044	93.12
399.268	89.12
399.492	86.12
399.717	83.12
399.941	100.12
400.165	95.12
400.389	97.12
400.613	91.12
400.837	99.12
401.062	83.12
401.286	87.12
401.51	76.12
401.734	91.12
401.958	91.12
402.182	121.12
402.406	150.12
402.63	122.12
402.854	92.12
403.078	98.12
403.302	98.12
403.526	80.12
403.75	89.12
403.974	90.12
404.198	78.12
404.422	87.12
404.645	94.12
404.869	84.12
405.093	86.12
405.317	96.12
405.541	88.12
405.765	97.12
405.988	111.12
406.212	158.12
406.436	196.12
406.66	129.12
406.883	93.12
407.107	105.12
407.331	103.12
407.555	105.12
407.778	100.12
408.002	78.12
408.226	75.12
408.449	88.12
408.673	83.12
408.896	82.12
409.12	100.12
409.344	97.12
409.567	93.12
409.791	88.12
410.014	91.12
410.238	98.12
410.461	81.12
410.685	80.12
410.908	107.12
411.132	104.12
411.355	95.12
411.578	97.12
411.802	90.12
412.025	86.12
412.249	87.12
412.472	85.12
412.695	87.12
412.919	88.12
413.142	94.12
413.365	88.12
413.589	91.12
413.812	86.12
414.035	85.12
414.258	85.12
414.482	78.12
414.705	73.12
414.928	94.12
415.151	86.12
415.374	98.12
415.597	88.12
415.821	82.12
416.044	102.12
416.267	78.12
416.49	80.12
416.713	83.12
416.936	97.12
417.159	82.12
417.382	81.12
417.605	92.12
417.828	89.12
418.051	93.12
418.274	86.12
418.497	98.12
418.72	83.12
418.943	84.12
419.166	94.12
419.389	82.12
419.611	87.12
419.834	79.12
420.057	91.12
420.28	78.12
420.503	86.12
420.726	89.12
420.948	80.12
421.171	92.12
421.394	100.12
421.617	84.12
421.839	106.12
422.062	76.12
422.285	93.12
422.507	87.12
422.73	91.12
422.953	93.12
423.175	99.12
423.398	78.12
423.621	90.12
423.843	93.12
424.066	89.12
424.288	92.12
424.511	104.12
424.733	100.12
424.956	94.12
425.178	95.12
425.401	94.12
425.623	102.12
425.846	96.12
426.068	93.12
426.291	76.12
426.513	61.12
426.735	82.12
426.958	87.12
427.18	96.12
427.402	130.12
427.625	143.12
427.847	98.12
428.069	94.12
428.292	93.12
428.514	95.12
428.736	78.12
428.958	79.12
429.181	79.12
429.403	82.12
429.625	91.12
429.847	95.12
430.069	106.12
430.292	97.12
430.514	89.12
430.736	70.12
430.958	92.12
431.18	98.12
431.402	86.12
431.624	78.12
431.846	82.12
432.068	91.12
432.29	99.12
432.512	82.12
432.734	84.12
432.956	82.12
433.178	104.12
433.4	86.12
433.622	87.12
433.844	86.12
434.066	87.12
434.287	89.12
434.509	85.12
434.731	96.12
434.953	96.12
435.175	90.12
435.397	98.12
435.618	98.12
435.84	113.12
436.062	119.12
436.284	108.12
436.505	100.12
436.727	97.12
436.949	85.12
437.17	93.12
437.392	77.12
437.614	87.12
437.835	111.12
438.057	91.12
438.278	107.12
438.5	108.12
438.721	123.12
438.943	93.12
439.165	84.12
439.386	83.12
439.608	103.12
439.829	92.12
440.05	118.12
440.272	130.12
440.493	86.12
440.715	84.12
440.936	86.12
441.158	79.12
441.379	84.12
441.6	83.12
441.822	84.12
442.043	97.12
442.264	88.12
442.486	94.12
442.707	84.12
442.928	103.12
443.149	119.12
443.371	116.12
443.592	108.12
443.813	131.12
444.034	121.12
444.255	103.12
444.476	74.12
444.698	84.12
444.919	92.12
445.14	131.12
445.361	107.12
445.582	108.12
445.803	128.12
446.024	127.12
446.245	125.12
446.466	110.12
446.687	97.12
446.908	92.12
447.129	78.12
447.35	81.12
447.571	69.12
447.792	98.12
448.013	99.12
448.234	102.12
448.455	106.12
448.675	115.12
448.896	112.12
449.117	96.12
449.338	99.12
449.559	138.12
449.779	153.12
450	93.12
450.221	73.12
450.442	94.12
450.662	90.12
450.883	96.12
451.104	102.12
451.324	100.12
451.545	98.12
451.766	76.12
451.986	89.12
452.207	76.12
452.428	90.12
452.648	95.12
452.869	103.12
453.089	123.12
453.31	109.12
453.53	84.12
453.751	95.12
453.971	105.12
454.192	110.12
454.412	93.12
454.633	87.12
454.853	85.12
455.073	88.12
455.294	94.12
455.514	95.12
455.734	80.12
455.955	86.12
456.175	82.12
456.395	78.12
456.616	75.12
456.836	100.12
457.056	84.12
457.276	82.12
457.497	80.12
457.717	79.12
457.937	82.12
458.157	78.12
458.377	94.12
458.598	111.12
458.818	138.12
459.038	143.12
459.258	114.12
459.478	83.12
459.698	81.12
459.918	89.12
460.138	98.12
460.358	80.12
460.578	72.12
460.798	95.12
461.018	87.12
461.238	83.12
461.458	100.12
461.678	83.12
461.898	78.12
462.118	89.12
462.338	83.12
462.558	83.12
462.777	66.12
462.997	64.12
463.217	77.12
463.437	95.12
463.657	83.12
463.876	100.12
464.096	93.12
464.316	92.12
464.536	94.12
464.755	106.12
464.975	110.12
465.195	161.12
465.414	164.12
465.634	99.12
465.854	84.12
466.073	94.12
466.293	80.12
466.512	97.12
466.732	82.12
466.951	94.12
467.171	80.12
467.391	106.12
467.61	95.12
467.829	108.12
468.049	91.12
468.268	81.12
468.488	82.12
468.707	80.12
468.927	82.12
469.146	73.12
469.365	80.12
469.585	81.12
469.804	88.12
470.023	96.12
470.243	111.12
470.462	82.12
470.681	94.12
470.901	83.12
471.12	91.12
471.339	77.12
471.558	75.12
471.777	87.12
471.997	102.12
472.216	80.12
472.435	79.12
472.654	75.12
472.873	92.12
473.092	86.12
473.311	91.12
473.53	76.12
473.749	88.12
473.968	87.12
474.187	110.12
474.406	100.12
474.625	99.12
474.844	97.12
475.063	90.12
475.282	82.12
475.501	73.12
475.72	100.12
475.939	95.12
476.158	100.12
476.377	65.12
476.596	90.12
476.814	72.12
477.033	95.12
477.252	89.12
477.471	99.12
477.69	79.12
477.908	90.12
478.127	89.12
478.346	94.12
478.564	88.12
478.783	91.12
479.002	99.12
479.22	90.12
479.439	89.12
479.658	105.12
479.876	100.12
480.095	92.12
480.313	100.12
480.532	98.12
480.751	94.12
480.969	92.12
481.188	100.12
481.406	81.12
481.624	95.12
481.843	96.12
482.061	90.12
482.28	90.12
482.498	98.12
482.717	77.12
482.935	82.12
483.153	92.12
483.372	91.12
483.59	89.12
483.808	80.12
484.027	88.12
484.245	82.12
484.463	86.12
484.681	97.12
484.9	103.12
485.118	94.12
485.336	97.12
485.554	81.12
485.772	102.12
485.99	105.12
486.209	97.12
486.427	95.12
486.645	95.12
486.863	103.12
487.081	97.12
487.299	109.12
487.517	100.12
487.735	96.12
487.953	95.12
488.171	94.12
488.389	96.12
488.607	91.12
488.825	94.12
489.043	89.12
489.261	96.12
489.479	97.12
489.696	94.12
489.914	86.12
490.132	84.12
490.35	95.12
490.568	83.12
490.786	95.12
491.003	95.12
491.221	94.12
491.439	100.12
491.657	94.12
491.874	91.12
492.092	92.12
492.31	90.12
492.527	75.12
492.745	91.12
492.963	76.12
493.18	72.12
493.398	89.12
493.615	102.12
493.833	82.12
494.05	82.12
494.268	104.12
494.485	99.12
494.703	90.12
494.92	97.12
495.138	83.12
495.355	99.12
495.573	82.12
495.79	82.12
496.008	80.12
496.225	93.12
496.442	93.12
496.66	88.12
496.877	108.12
497.094	97.12
497.312	78.12
497.529	79.12
497.746	90.12
497.963	88.12
498.181	104.12
498.398	104.12
498.615	104.12
498.832	106.12
499.049	101.12
499.267	86.12
499.484	82.12
499.701	100.12
499.918	94.12
500.135	87.12
500.352	98.12
500.569	104.12
500.786	88.12
501.003	81.12
501.22	95.12
501.437	76.12
501.654	88.12
501.871	93.12
502.088	93.12
502.305	98.12
502.522	87.12
502.739	98.12
502.956	100.12
503.172	83.12
503.389	96.12
503.606	97.12
503.823	90.12
504.04	82.12
504.256	84.12
504.473	81.12
504.69	92.12
504.907	93.12
505.123	89.12
505.34	86.12
505.557	76.12
505.773	84.12
505.99	89.12
506.207	94.12
506.423	98.12
506.64	89.12
506.856	100.12
507.073	87.12
507.289	85.12
507.506	84.12
507.722	114.12
507.939	100.12
508.155	98.12
508.372	102.12
508.588	80.12
508.805	93.12
509.021	95.12
509.238	96.12
509.454	105.12
509.67	88.12
509.887	92.12
510.103	143.12
510.319	226.12
510.536	759.12
510.752	2362.12
510.968	639.12
511.184	146.12
511.401	126.12
511.617	94.12
511.833	94.12
512.049	76.12
512.265	81.12
512.481	76.12
512.698	86.12
512.914	92.12
513.13	85.12
513.346	99.12
513.562	108.12
513.778	87.12
513.994	115.12
514.21	99.12
514.426	105.12
514.642	130.12
514.858	116.12
515.074	159.12
515.29	437.12
515.506	1379.12
515.721	495.12
515.937	136.12
516.153	110.12
516.369	109.12
