Data from Uncirc_1994_H10_HRD10591_00024.txt Node
Date: Wed Jan 03 11:39:25 EST 2024
User: Yrep
Spectrometer: HR+D1059
Trigger mode: 1
Integration Time (sec): 1.000000E-1
Scans to average: 1
Electric dark correction enabled: true
Nonlinearity correction enabled: false
Boxcar width: 0
XAxis mode: Wavelengths
Number of Pixels in Spectrum: 2048
>>>>>Begin Spectral Data<<<<<
223.165	-10.12
223.4	-10.12
223.635	-10.12
223.869	-4.12
224.104	-8.12
224.338	-15.12
224.573	-23.12
224.808	-10.12
225.042	-3.12
225.277	-1.12
225.511	-3.12
225.746	-0.12
225.98	-1.12
226.215	0.88
226.449	10.88
226.683	27.88
226.918	16.88
227.152	22.88
227.387	40.88
227.621	27.88
227.856	43.88
228.09	44.88
228.324	54.88
228.559	48.88
228.793	56.88
229.027	74.88
229.262	73.88
229.496	75.88
229.73	83.88
229.964	79.88
230.199	71.88
230.433	77.88
230.667	78.88
230.901	88.88
231.136	74.88
231.37	75.88
231.604	96.88
231.838	73.88
232.072	81.88
232.306	75.88
232.541	84.88
232.775	76.88
233.009	71.88
233.243	92.88
233.477	73.88
233.711	75.88
233.945	72.88
234.179	71.88
234.413	77.88
234.647	79.88
234.881	68.88
235.115	65.88
235.349	88.88
235.583	79.88
235.817	76.88
236.051	80.88
236.285	73.88
236.519	79.88
236.753	82.88
236.987	83.88
237.221	88.88
237.455	68.88
237.689	80.88
237.922	91.88
238.156	82.88
238.39	76.88
238.624	82.88
238.858	71.88
239.091	80.88
239.325	62.88
239.559	75.88
239.793	85.88
240.027	90.88
240.26	73.88
240.494	75.88
240.728	74.88
240.961	87.88
241.195	82.88
241.429	66.88
241.662	78.88
241.896	77.88
242.13	83.88
242.363	85.88
242.597	71.88
242.83	86.88
243.064	85.88
243.298	89.88
243.531	72.88
243.765	91.88
243.998	73.88
244.232	92.88
244.465	106.88
244.699	88.88
244.932	89.88
245.166	90.88
245.399	75.88
245.633	67.88
245.866	80.88
246.099	72.88
246.333	92.88
246.566	81.88
246.8	84.88
247.033	77.88
247.266	93.88
247.5	84.88
247.733	78.88
247.966	75.88
248.2	81.88
248.433	84.88
248.666	79.88
248.899	95.88
249.133	80.88
249.366	88.88
249.599	91.88
249.832	77.88
250.066	87.88
250.299	63.88
250.532	79.88
250.765	73.88
250.998	72.88
251.231	94.88
251.465	70.88
251.698	84.88
251.931	69.88
252.164	86.88
252.397	91.88
252.63	75.88
252.863	69.88
253.096	69.88
253.329	82.88
253.562	79.88
253.795	85.88
254.028	77.88
254.261	88.88
254.494	81.88
254.727	74.88
254.96	90.88
255.193	84.88
255.426	83.88
255.659	78.88
255.892	74.88
256.124	68.88
256.357	75.88
256.59	83.88
256.823	74.88
257.056	77.88
257.289	72.88
257.521	80.88
257.754	69.88
257.987	67.88
258.22	74.88
258.452	81.88
258.685	87.88
258.918	82.88
259.151	83.88
259.383	83.88
259.616	89.88
259.849	63.88
260.081	77.88
260.314	84.88
260.547	82.88
260.779	82.88
261.012	92.88
261.244	79.88
261.477	83.88
261.71	94.88
261.942	114.88
262.175	112.88
262.407	82.88
262.64	89.88
262.872	90.88
263.105	81.88
263.337	100.88
263.57	92.88
263.802	76.88
264.035	86.88
264.267	81.88
264.499	80.88
264.732	85.88
264.964	100.88
265.197	90.88
265.429	80.88
265.661	79.88
265.894	80.88
266.126	81.88
266.358	75.88
266.591	86.88
266.823	82.88
267.055	78.88
267.287	75.88
267.52	71.88
267.752	77.88
267.984	76.88
268.216	88.88
268.448	81.88
268.681	82.88
268.913	73.88
269.145	87.88
269.377	94.88
269.609	74.88
269.841	81.88
270.073	90.88
270.306	85.88
270.538	87.88
270.77	86.88
271.002	98.88
271.234	91.88
271.466	96.88
271.698	99.88
271.93	84.88
272.162	74.88
272.394	80.88
272.626	71.88
272.858	83.88
273.09	89.88
273.322	70.88
273.553	103.88
273.785	82.88
274.017	83.88
274.249	75.88
274.481	93.88
274.713	74.88
274.945	101.88
275.176	70.88
275.408	79.88
275.64	77.88
275.872	76.88
276.104	89.88
276.335	87.88
276.567	89.88
276.799	103.88
277.031	107.88
277.262	88.88
277.494	75.88
277.726	89.88
277.957	66.88
278.189	82.88
278.421	91.88
278.652	93.88
278.884	72.88
279.115	68.88
279.347	94.88
279.579	108.88
279.81	86.88
280.042	75.88
280.273	87.88
280.505	85.88
280.736	87.88
280.968	81.88
281.199	93.88
281.431	99.88
281.662	87.88
281.894	90.88
282.125	93.88
282.356	100.88
282.588	119.88
282.819	103.88
283.051	93.88
283.282	93.88
283.513	87.88
283.745	94.88
283.976	83.88
284.207	87.88
284.439	83.88
284.67	95.88
284.901	80.88
285.132	99.88
285.364	79.88
285.595	75.88
285.826	80.88
286.057	83.88
286.288	76.88
286.52	98.88
286.751	94.88
286.982	74.88
287.213	93.88
287.444	98.88
287.675	89.88
287.906	87.88
288.138	84.88
288.369	98.88
288.6	89.88
288.831	90.88
289.062	76.88
289.293	81.88
289.524	79.88
289.755	99.88
289.986	96.88
290.217	80.88
290.448	97.88
290.679	81.88
290.91	92.88
291.141	88.88
291.371	91.88
291.602	101.88
291.833	84.88
292.064	79.88
292.295	72.88
292.526	83.88
292.757	94.88
292.987	91.88
293.218	87.88
293.449	90.88
293.68	78.88
293.91	84.88
294.141	88.88
294.372	86.88
294.603	82.88
294.833	87.88
295.064	87.88
295.295	96.88
295.525	101.88
295.756	94.88
295.987	95.88
296.217	138.88
296.448	99.88
296.679	89.88
296.909	107.88
297.14	92.88
297.37	95.88
297.601	101.88
297.831	83.88
298.062	81.88
298.292	94.88
298.523	80.88
298.753	79.88
298.984	88.88
299.214	78.88
299.445	92.88
299.675	87.88
299.905	100.88
300.136	93.88
300.366	79.88
300.597	95.88
300.827	93.88
301.057	98.88
301.288	81.88
301.518	96.88
301.748	82.88
301.979	89.88
302.209	91.88
302.439	87.88
302.669	80.88
302.9	92.88
303.13	87.88
303.36	101.88
303.59	85.88
303.82	104.88
304.051	100.88
304.281	97.88
304.511	90.88
304.741	84.88
304.971	93.88
305.201	92.88
305.431	89.88
305.661	101.88
305.891	91.88
306.121	92.88
306.352	98.88
306.582	93.88
306.812	94.88
307.042	90.88
307.272	84.88
307.502	79.88
307.731	75.88
307.961	95.88
308.191	79.88
308.421	96.88
308.651	105.88
308.881	86.88
309.111	84.88
309.341	94.88
309.571	101.88
309.8	100.88
310.03	92.88
310.26	93.88
310.49	97.88
310.72	79.88
310.949	99.88
311.179	101.88
311.409	97.88
311.639	100.88
311.868	94.88
312.098	106.88
312.328	77.88
312.557	107.88
312.787	100.88
313.017	113.88
313.246	95.88
313.476	95.88
313.706	90.88
313.935	90.88
314.165	100.88
314.394	99.88
314.624	90.88
314.853	85.88
315.083	77.88
315.312	83.88
315.542	104.88
315.771	99.88
316.001	92.88
316.23	92.88
316.46	96.88
316.689	87.88
316.919	98.88
317.148	98.88
317.377	93.88
317.607	105.88
317.836	108.88
318.065	87.88
318.295	92.88
318.524	86.88
318.753	88.88
318.983	85.88
319.212	94.88
319.441	111.88
319.67	104.88
319.9	99.88
320.129	100.88
320.358	85.88
320.587	99.88
320.816	105.88
321.046	110.88
321.275	107.88
321.504	90.88
321.733	86.88
321.962	88.88
322.191	94.88
322.42	106.88
322.649	101.88
322.878	116.88
323.108	107.88
323.337	98.88
323.566	141.88
323.795	143.88
324.024	185.88
324.253	353.88
324.482	739.88
324.71	1524.88
324.939	1980.88
325.168	746.88
325.397	230.88
325.626	140.88
325.855	132.88
326.084	127.88
326.313	122.88
326.542	151.88
326.77	220.88
326.999	415.88
327.228	853.88
327.457	1579.88
327.686	1243.88
327.914	335.88
328.143	174.88
328.372	126.88
328.6	99.88
328.829	101.88
329.058	115.88
329.287	110.88
329.515	90.88
329.744	88.88
329.972	118.88
330.201	94.88
330.43	101.88
330.658	124.88
330.887	127.88
331.115	114.88
331.344	98.88
331.572	109.88
331.801	111.88
332.03	93.88
332.258	87.88
332.486	95.88
332.715	98.88
332.943	97.88
333.172	98.88
333.4	95.88
333.629	110.88
333.857	101.88
334.085	100.88
334.314	89.88
334.542	95.88
334.771	98.88
334.999	94.88
335.227	98.88
335.455	96.88
335.684	83.88
335.912	95.88
336.14	90.88
336.369	99.88
336.597	102.88
336.825	100.88
337.053	89.88
337.281	84.88
337.51	86.88
337.738	95.88
337.966	93.88
338.194	92.88
338.422	106.88
338.65	98.88
338.878	88.88
339.106	110.88
339.334	89.88
339.562	76.88
339.79	94.88
340.018	88.88
340.246	87.88
340.474	94.88
340.702	91.88
340.93	83.88
341.158	92.88
341.386	86.88
341.614	113.88
341.842	87.88
342.07	80.88
342.298	105.88
342.526	91.88
342.754	99.88
342.981	91.88
343.209	100.88
343.437	100.88
343.665	99.88
343.893	85.88
344.12	81.88
344.348	88.88
344.576	97.88
344.804	100.88
345.031	97.88
345.259	101.88
345.487	87.88
345.714	97.88
345.942	97.88
346.17	84.88
346.397	93.88
346.625	94.88
346.853	103.88
347.08	83.88
347.308	96.88
347.535	101.88
347.763	102.88
347.99	100.88
348.218	117.88
348.445	97.88
348.673	91.88
348.9	104.88
349.128	121.88
349.355	92.88
349.583	87.88
349.81	99.88
350.037	85.88
350.265	98.88
350.492	107.88
350.72	106.88
350.947	99.88
351.174	100.88
351.402	98.88
351.629	105.88
351.856	105.88
352.083	99.88
352.311	101.88
352.538	96.88
352.765	100.88
352.992	109.88
353.22	104.88
353.447	93.88
353.674	91.88
353.901	110.88
354.128	92.88
354.355	97.88
354.583	113.88
354.81	85.88
355.037	93.88
355.264	103.88
355.491	103.88
355.718	88.88
355.945	95.88
356.172	88.88
356.399	101.88
356.626	107.88
356.853	91.88
357.08	109.88
357.307	103.88
357.534	97.88
357.761	104.88
357.988	94.88
358.215	99.88
358.441	92.88
358.668	89.88
358.895	98.88
359.122	90.88
359.349	87.88
359.576	100.88
359.802	91.88
360.029	109.88
360.256	120.88
360.483	98.88
360.709	83.88
360.936	87.88
361.163	82.88
361.39	83.88
361.616	100.88
361.843	85.88
362.07	95.88
362.296	92.88
362.523	93.88
362.749	93.88
362.976	91.88
363.203	92.88
363.429	104.88
363.656	87.88
363.882	87.88
364.109	82.88
364.335	91.88
364.562	92.88
364.788	97.88
365.015	92.88
365.241	101.88
365.468	119.88
365.694	93.88
365.92	98.88
366.147	88.88
366.373	98.88
366.599	91.88
366.826	88.88
367.052	106.88
367.278	105.88
367.505	96.88
367.731	97.88
367.957	92.88
368.184	98.88
368.41	106.88
368.636	107.88
368.862	110.88
369.089	92.88
369.315	87.88
369.541	93.88
369.767	92.88
369.993	93.88
370.219	87.88
370.445	86.88
370.672	73.88
370.898	96.88
371.124	81.88
371.35	92.88
371.576	77.88
371.802	92.88
372.028	82.88
372.254	88.88
372.48	85.88
372.706	95.88
372.932	79.88
373.158	77.88
373.384	79.88
373.61	103.88
373.835	98.88
374.061	97.88
374.287	96.88
374.513	77.88
374.739	90.88
374.965	89.88
375.191	84.88
375.416	89.88
375.642	98.88
375.868	87.88
376.094	90.88
376.319	89.88
376.545	98.88
376.771	87.88
376.997	96.88
377.222	87.88
377.448	91.88
377.674	80.88
377.899	94.88
378.125	88.88
378.35	71.88
378.576	91.88
378.802	91.88
379.027	81.88
379.253	90.88
379.478	95.88
379.704	105.88
379.929	103.88
380.155	101.88
380.38	96.88
380.606	90.88
380.831	105.88
381.057	86.88
381.282	82.88
381.507	81.88
381.733	91.88
381.958	96.88
382.184	87.88
382.409	93.88
382.634	101.88
382.86	104.88
383.085	109.88
383.31	110.88
383.535	103.88
383.761	92.88
383.986	103.88
384.211	85.88
384.436	100.88
384.662	106.88
384.887	98.88
385.112	91.88
385.337	113.88
385.562	105.88
385.787	97.88
386.013	104.88
386.238	138.88
386.463	116.88
386.688	117.88
386.913	97.88
387.138	102.88
387.363	106.88
387.588	88.88
387.813	92.88
388.038	99.88
388.263	111.88
388.488	106.88
388.713	104.88
388.938	98.88
389.163	95.88
389.387	93.88
389.612	107.88
389.837	97.88
390.062	86.88
390.287	94.88
390.512	109.88
390.736	89.88
390.961	101.88
391.186	88.88
391.411	83.88
391.636	98.88
391.86	104.88
392.085	75.88
392.31	84.88
392.534	71.88
392.759	79.88
392.984	89.88
393.208	95.88
393.433	98.88
393.658	92.88
393.882	98.88
394.107	84.88
394.331	80.88
394.556	91.88
394.78	93.88
395.005	77.88
395.229	80.88
395.454	83.88
395.678	90.88
395.903	88.88
396.127	76.88
396.352	95.88
396.576	79.88
396.801	79.88
397.025	91.88
397.249	96.88
397.474	100.88
397.698	92.88
397.922	94.88
398.147	89.88
398.371	101.88
398.595	87.88
398.82	77.88
399.044	95.88
399.268	100.88
399.492	97.88
399.717	82.88
399.941	82.88
400.165	91.88
400.389	83.88
400.613	79.88
400.837	80.88
401.062	87.88
401.286	93.88
401.51	87.88
401.734	88.88
401.958	92.88
402.182	103.88
402.406	131.88
402.63	105.88
402.854	97.88
403.078	92.88
403.302	96.88
403.526	79.88
403.75	92.88
403.974	88.88
404.198	87.88
404.422	84.88
404.645	85.88
404.869	83.88
405.093	84.88
405.317	97.88
405.541	89.88
405.765	96.88
405.988	112.88
406.212	156.88
406.436	192.88
406.66	138.88
406.883	108.88
407.107	109.88
407.331	86.88
407.555	99.88
407.778	86.88
408.002	100.88
408.226	100.88
408.449	85.88
408.673	91.88
408.896	94.88
409.12	104.88
409.344	95.88
409.567	91.88
409.791	76.88
410.014	103.88
410.238	91.88
410.461	90.88
410.685	91.88
410.908	97.88
411.132	92.88
411.355	95.88
411.578	93.88
411.802	76.88
412.025	91.88
412.249	99.88
412.472	87.88
412.695	87.88
412.919	82.88
413.142	88.88
413.365	84.88
413.589	83.88
413.812	96.88
414.035	88.88
414.258	84.88
414.482	96.88
414.705	104.88
414.928	105.88
415.151	86.88
415.374	91.88
415.597	96.88
415.821	96.88
416.044	97.88
416.267	93.88
416.49	84.88
416.713	87.88
416.936	79.88
417.159	88.88
417.382	89.88
417.605	85.88
417.828	83.88
418.051	89.88
418.274	79.88
418.497	84.88
418.72	78.88
418.943	82.88
419.166	90.88
419.389	90.88
419.611	78.88
419.834	79.88
420.057	91.88
420.28	85.88
420.503	89.88
420.726	88.88
420.948	103.88
421.171	101.88
421.394	90.88
421.617	81.88
421.839	95.88
422.062	88.88
422.285	100.88
422.507	96.88
422.73	104.88
422.953	92.88
423.175	86.88
423.398	84.88
423.621	82.88
423.843	95.88
424.066	97.88
424.288	81.88
424.511	81.88
424.733	93.88
424.956	96.88
425.178	95.88
425.401	107.88
425.623	100.88
425.846	93.88
426.068	102.88
426.291	96.88
426.513	81.88
426.735	89.88
426.958	90.88
427.18	93.88
427.402	106.88
427.625	132.88
427.847	109.88
428.069	103.88
428.292	93.88
428.514	87.88
428.736	75.88
428.958	79.88
429.181	91.88
429.403	86.88
429.625	92.88
429.847	84.88
430.069	81.88
430.292	100.88
430.514	88.88
430.736	75.88
430.958	81.88
431.18	90.88
431.402	77.88
431.624	81.88
431.846	89.88
432.068	92.88
432.29	106.88
432.512	96.88
432.734	90.88
432.956	87.88
433.178	87.88
433.4	107.88
433.622	85.88
433.844	89.88
434.066	91.88
434.287	90.88
434.509	93.88
434.731	85.88
434.953	98.88
435.175	92.88
435.397	98.88
435.618	93.88
435.84	93.88
436.062	108.88
436.284	102.88
436.505	86.88
436.727	99.88
436.949	92.88
437.17	95.88
437.392	91.88
437.614	91.88
437.835	96.88
438.057	108.88
438.278	77.88
438.5	103.88
438.721	94.88
438.943	98.88
439.165	91.88
439.386	85.88
439.608	91.88
439.829	107.88
440.05	106.88
440.272	123.88
440.493	93.88
440.715	89.88
440.936	95.88
441.158	88.88
441.379	84.88
441.6	94.88
441.822	88.88
442.043	79.88
442.264	99.88
442.486	93.88
442.707	97.88
442.928	107.88
443.149	111.88
443.371	136.88
443.592	99.88
443.813	103.88
444.034	107.88
444.255	76.88
444.476	74.88
444.698	102.88
444.919	68.88
445.14	125.88
445.361	117.88
445.582	107.88
445.803	130.88
446.024	117.88
446.245	132.88
446.466	108.88
446.687	86.88
446.908	78.88
447.129	95.88
447.35	99.88
447.571	96.88
447.792	95.88
448.013	100.88
448.234	89.88
448.455	89.88
448.675	123.88
448.896	107.88
449.117	98.88
449.338	89.88
449.559	129.88
449.779	125.88
450	98.88
450.221	101.88
450.442	88.88
450.662	88.88
450.883	95.88
451.104	105.88
451.324	96.88
451.545	82.88
451.766	90.88
451.986	89.88
452.207	85.88
452.428	96.88
452.648	96.88
452.869	108.88
453.089	104.88
453.31	98.88
453.53	78.88
453.751	105.88
453.971	97.88
454.192	101.88
454.412	100.88
454.633	80.88
454.853	83.88
455.073	86.88
455.294	83.88
455.514	94.88
455.734	100.88
455.955	100.88
456.175	100.88
456.395	78.88
456.616	83.88
456.836	80.88
457.056	72.88
457.276	94.88
457.497	88.88
457.717	73.88
457.937	80.88
458.157	88.88
458.377	62.88
458.598	105.88
458.818	126.88
459.038	141.88
459.258	114.88
459.478	78.88
459.698	79.88
459.918	82.88
460.138	84.88
460.358	86.88
460.578	105.88
460.798	96.88
461.018	81.88
461.238	92.88
461.458	95.88
461.678	84.88
461.898	98.88
462.118	89.88
462.338	91.88
462.558	88.88
462.777	81.88
462.997	89.88
463.217	98.88
463.437	90.88
463.657	83.88
463.876	89.88
464.096	85.88
464.316	88.88
464.536	90.88
464.755	98.88
464.975	95.88
465.195	131.88
465.414	149.88
465.634	89.88
465.854	76.88
466.073	87.88
466.293	86.88
466.512	80.88
466.732	98.88
466.951	89.88
467.171	93.88
467.391	99.88
467.61	96.88
467.829	80.88
468.049	91.88
468.268	93.88
468.488	76.88
468.707	79.88
468.927	90.88
469.146	81.88
469.365	82.88
469.585	91.88
469.804	90.88
470.023	99.88
470.243	83.88
470.462	91.88
470.681	108.88
470.901	79.88
471.12	94.88
471.339	109.88
471.558	81.88
471.777	77.88
471.997	67.88
472.216	71.88
472.435	89.88
472.654	83.88
472.873	82.88
473.092	92.88
473.311	88.88
473.53	83.88
473.749	97.88
473.968	99.88
474.187	101.88
474.406	97.88
474.625	87.88
474.844	97.88
475.063	88.88
475.282	85.88
475.501	89.88
475.72	74.88
475.939	82.88
476.158	90.88
476.377	98.88
476.596	91.88
476.814	97.88
477.033	85.88
477.252	100.88
477.471	92.88
477.69	108.88
477.908	78.88
478.127	81.88
478.346	90.88
478.564	87.88
478.783	83.88
479.002	90.88
479.22	84.88
479.439	91.88
479.658	93.88
479.876	83.88
480.095	74.88
480.313	96.88
480.532	76.88
480.751	79.88
480.969	89.88
481.188	81.88
481.406	102.88
481.624	100.88
481.843	74.88
482.061	84.88
482.28	81.88
482.498	80.88
482.717	92.88
482.935	94.88
483.153	90.88
483.372	84.88
483.59	105.88
483.808	84.88
484.027	78.88
484.245	80.88
484.463	89.88
484.681	102.88
484.9	93.88
485.118	97.88
485.336	106.88
485.554	95.88
485.772	107.88
485.99	105.88
486.209	98.88
486.427	92.88
486.645	97.88
486.863	110.88
487.081	109.88
487.299	103.88
487.517	87.88
487.735	94.88
487.953	87.88
488.171	97.88
488.389	106.88
488.607	104.88
488.825	93.88
489.043	78.88
489.261	98.88
489.479	93.88
489.696	99.88
489.914	89.88
490.132	104.88
490.35	76.88
490.568	95.88
490.786	92.88
491.003	98.88
491.221	90.88
491.439	92.88
491.657	87.88
491.874	100.88
492.092	88.88
492.31	98.88
492.527	100.88
492.745	99.88
492.963	77.88
493.18	85.88
493.398	85.88
493.615	105.88
493.833	95.88
494.05	87.88
494.268	95.88
494.485	92.88
494.703	109.88
494.92	88.88
495.138	75.88
495.355	93.88
495.573	90.88
495.79	91.88
496.008	94.88
496.225	98.88
496.442	92.88
496.66	96.88
496.877	95.88
497.094	89.88
497.312	82.88
497.529	81.88
497.746	83.88
497.963	84.88
498.181	86.88
498.398	90.88
498.615	107.88
498.832	112.88
499.049	92.88
499.267	84.88
499.484	99.88
499.701	84.88
499.918	92.88
500.135	107.88
500.352	86.88
500.569	63.88
500.786	91.88
501.003	89.88
501.22	77.88
501.437	91.88
501.654	80.88
501.871	107.88
502.088	81.88
502.305	97.88
502.522	97.88
502.739	93.88
502.956	96.88
503.172	91.88
503.389	92.88
503.606	97.88
503.823	98.88
504.04	88.88
504.256	99.88
504.473	93.88
504.69	97.88
504.907	108.88
505.123	95.88
505.34	97.88
505.557	104.88
505.773	107.88
505.99	93.88
506.207	80.88
506.423	95.88
506.64	95.88
506.856	80.88
507.073	105.88
507.289	90.88
507.506	99.88
507.722	108.88
507.939	107.88
508.155	97.88
508.372	97.88
508.588	80.88
508.805	80.88
509.021	87.88
509.238	101.88
509.454	96.88
509.67	108.88
509.887	90.88
510.103	116.88
510.319	193.88
510.536	695.88
510.752	2083.88
510.968	581.88
511.184	150.88
511.401	106.88
511.617	79.88
511.833	90.88
512.049	84.88
512.265	83.88
512.481	99.88
512.698	84.88
512.914	82.88
513.13	101.88
513.346	87.88
513.562	91.88
513.778	92.88
513.994	95.88
514.21	96.88
514.426	110.88
514.642	121.88
514.858	127.88
515.074	164.88
515.29	404.88
515.506	1248.88
515.721	453.88
515.937	147.88
516.153	105.88
