Data from Uncirc_1994_H10_HRD10591_00068.txt Node
Date: Wed Jan 03 11:39:34 EST 2024
User: Yrep
Spectrometer: HR+D1059
Trigger mode: 1
Integration Time (sec): 1.000000E-1
Scans to average: 1
Electric dark correction enabled: true
Nonlinearity correction enabled: false
Boxcar width: 0
XAxis mode: Wavelengths
Number of Pixels in Spectrum: 2048
>>>>>Begin Spectral Data<<<<<
223.165	-7.69
223.4	-7.69
223.635	-7.69
223.869	-29.69
224.104	-12.69
224.338	-14.69
224.573	-1.69
224.808	-19.69
225.042	-14.69
225.277	-6.69
225.511	0.31
225.746	6.31
225.98	11.31
226.215	9.31
226.449	10.31
226.683	26.31
226.918	13.31
227.152	30.31
227.387	36.31
227.621	36.31
227.856	33.31
228.09	47.31
228.324	39.31
228.559	60.31
228.793	60.31
229.027	70.31
229.262	73.31
229.496	83.31
229.73	84.31
229.964	86.31
230.199	74.31
230.433	78.31
230.667	83.31
230.901	84.31
231.136	88.31
231.37	85.31
231.604	76.31
231.838	74.31
232.072	81.31
232.306	88.31
232.541	68.31
232.775	84.31
233.009	85.31
233.243	76.31
233.477	86.31
233.711	82.31
233.945	83.31
234.179	78.31
234.413	89.31
234.647	65.31
234.881	77.31
235.115	81.31
235.349	97.31
235.583	102.31
235.817	79.31
236.051	78.31
236.285	75.31
236.519	84.31
236.753	80.31
236.987	74.31
237.221	80.31
237.455	81.31
237.689	68.31
237.922	81.31
238.156	76.31
238.39	73.31
238.624	70.31
238.858	62.31
239.091	89.31
239.325	67.31
239.559	80.31
239.793	83.31
240.027	74.31
240.26	61.31
240.494	76.31
240.728	64.31
240.961	80.31
241.195	69.31
241.429	82.31
241.662	72.31
241.896	75.31
242.13	84.31
242.363	84.31
242.597	75.31
242.83	96.31
243.064	80.31
243.298	82.31
243.531	97.31
243.765	84.31
243.998	72.31
244.232	69.31
244.465	78.31
244.699	76.31
244.932	78.31
245.166	73.31
245.399	85.31
245.633	80.31
245.866	69.31
246.099	74.31
246.333	89.31
246.566	88.31
246.8	68.31
247.033	76.31
247.266	85.31
247.5	90.31
247.733	75.31
247.966	70.31
248.2	85.31
248.433	90.31
248.666	84.31
248.899	94.31
249.133	72.31
249.366	84.31
249.599	97.31
249.832	84.31
250.066	91.31
250.299	87.31
250.532	86.31
250.765	94.31
250.998	66.31
251.231	72.31
251.465	88.31
251.698	75.31
251.931	71.31
252.164	94.31
252.397	87.31
252.63	84.31
252.863	68.31
253.096	72.31
253.329	87.31
253.562	83.31
253.795	95.31
254.028	80.31
254.261	88.31
254.494	68.31
254.727	74.31
254.96	76.31
255.193	91.31
255.426	78.31
255.659	81.31
255.892	86.31
256.124	67.31
256.357	80.31
256.59	82.31
256.823	84.31
257.056	91.31
257.289	69.31
257.521	91.31
257.754	77.31
257.987	77.31
258.22	79.31
258.452	93.31
258.685	72.31
258.918	79.31
259.151	74.31
259.383	89.31
259.616	58.31
259.849	85.31
260.081	81.31
260.314	78.31
260.547	72.31
260.779	87.31
261.012	79.31
261.244	98.31
261.477	83.31
261.71	96.31
261.942	111.31
262.175	112.31
262.407	100.31
262.64	76.31
262.872	70.31
263.105	77.31
263.337	87.31
263.57	78.31
263.802	95.31
264.035	70.31
264.267	79.31
264.499	92.31
264.732	89.31
264.964	92.31
265.197	91.31
265.429	81.31
265.661	93.31
265.894	78.31
266.126	90.31
266.358	75.31
266.591	90.31
266.823	87.31
267.055	81.31
267.287	94.31
267.52	82.31
267.752	84.31
267.984	84.31
268.216	85.31
268.448	84.31
268.681	77.31
268.913	77.31
269.145	95.31
269.377	95.31
269.609	84.31
269.841	76.31
270.073	80.31
270.306	85.31
270.538	81.31
270.77	96.31
271.002	75.31
271.234	89.31
271.466	97.31
271.698	88.31
271.93	96.31
272.162	92.31
272.394	83.31
272.626	94.31
272.858	85.31
273.09	78.31
273.322	80.31
273.553	79.31
273.785	83.31
274.017	91.31
274.249	79.31
274.481	88.31
274.713	75.31
274.945	92.31
275.176	70.31
275.408	73.31
275.64	90.31
275.872	83.31
276.104	90.31
276.335	88.31
276.567	85.31
276.799	114.31
277.031	88.31
277.262	72.31
277.494	100.31
277.726	93.31
277.957	74.31
278.189	90.31
278.421	97.31
278.652	86.31
278.884	97.31
279.115	95.31
279.347	85.31
279.579	99.31
279.81	81.31
280.042	74.31
280.273	80.31
280.505	67.31
280.736	96.31
280.968	83.31
281.199	75.31
281.431	86.31
281.662	83.31
281.894	82.31
282.125	92.31
282.356	120.31
282.588	133.31
282.819	97.31
283.051	86.31
283.282	93.31
283.513	96.31
283.745	101.31
283.976	92.31
284.207	88.31
284.439	95.31
284.67	83.31
284.901	82.31
285.132	82.31
285.364	78.31
285.595	88.31
285.826	82.31
286.057	91.31
286.288	82.31
286.52	93.31
286.751	93.31
286.982	93.31
287.213	77.31
287.444	80.31
287.675	86.31
287.906	85.31
288.138	87.31
288.369	83.31
288.6	82.31
288.831	92.31
289.062	87.31
289.293	79.31
289.524	88.31
289.755	92.31
289.986	90.31
290.217	83.31
290.448	92.31
290.679	82.31
290.91	95.31
291.141	109.31
291.371	75.31
291.602	78.31
291.833	85.31
292.064	89.31
292.295	93.31
292.526	96.31
292.757	79.31
292.987	100.31
293.218	100.31
293.449	84.31
293.68	91.31
293.91	82.31
294.141	86.31
294.372	82.31
294.603	96.31
294.833	87.31
295.064	98.31
295.295	93.31
295.525	86.31
295.756	96.31
295.987	112.31
296.217	134.31
296.448	118.31
296.679	85.31
296.909	102.31
297.14	85.31
297.37	105.31
297.601	83.31
297.831	84.31
298.062	87.31
298.292	107.31
298.523	75.31
298.753	86.31
298.984	76.31
299.214	85.31
299.445	85.31
299.675	79.31
299.905	98.31
300.136	97.31
300.366	93.31
300.597	95.31
300.827	98.31
301.057	116.31
301.288	100.31
301.518	93.31
301.748	92.31
301.979	101.31
302.209	85.31
302.439	92.31
302.669	100.31
302.9	97.31
303.13	91.31
303.36	89.31
303.59	100.31
303.82	98.31
304.051	94.31
304.281	86.31
304.511	82.31
304.741	84.31
304.971	93.31
305.201	86.31
305.431	85.31
305.661	92.31
305.891	88.31
306.121	110.31
306.352	99.31
306.582	97.31
306.812	107.31
307.042	88.31
307.272	97.31
307.502	80.31
307.731	85.31
307.961	88.31
308.191	85.31
308.421	82.31
308.651	102.31
308.881	89.31
309.111	85.31
309.341	77.31
309.571	90.31
309.8	101.31
310.03	101.31
310.26	89.31
310.49	101.31
310.72	89.31
310.949	94.31
311.179	97.31
311.409	98.31
311.639	92.31
311.868	99.31
312.098	97.31
312.328	79.31
312.557	85.31
312.787	106.31
313.017	102.31
313.246	88.31
313.476	93.31
313.706	88.31
313.935	99.31
314.165	102.31
314.394	100.31
314.624	106.31
314.853	109.31
315.083	88.31
315.312	85.31
315.542	82.31
315.771	89.31
316.001	85.31
316.23	93.31
316.46	76.31
316.689	88.31
316.919	97.31
317.148	88.31
317.377	96.31
317.607	99.31
317.836	91.31
318.065	68.31
318.295	78.31
318.524	91.31
318.753	96.31
318.983	104.31
319.212	80.31
319.441	95.31
319.67	112.31
319.9	89.31
320.129	95.31
320.358	92.31
320.587	94.31
320.816	104.31
321.046	112.31
321.275	98.31
321.504	72.31
321.733	104.31
321.962	106.31
322.191	114.31
322.42	91.31
322.649	109.31
322.878	111.31
323.108	106.31
323.337	125.31
323.566	114.31
323.795	160.31
324.024	211.31
324.253	366.31
324.482	808.31
324.71	1635.31
324.939	2123.31
325.168	788.31
325.397	245.31
325.626	156.31
325.855	127.31
326.084	130.31
326.313	133.31
326.542	153.31
326.77	218.31
326.999	448.31
327.228	911.31
327.457	1675.31
327.686	1310.31
327.914	344.31
328.143	196.31
328.372	133.31
328.6	117.31
328.829	123.31
329.058	131.31
329.287	112.31
329.515	113.31
329.744	109.31
329.972	91.31
330.201	100.31
330.43	121.31
330.658	112.31
330.887	137.31
331.115	113.31
331.344	89.31
331.572	91.31
331.801	98.31
332.03	106.31
332.258	113.31
332.486	91.31
332.715	83.31
332.943	102.31
333.172	83.31
333.4	88.31
333.629	97.31
333.857	112.31
334.085	117.31
334.314	96.31
334.542	94.31
334.771	100.31
334.999	96.31
335.227	85.31
335.455	84.31
335.684	98.31
335.912	107.31
336.14	94.31
336.369	93.31
336.597	108.31
336.825	94.31
337.053	84.31
337.281	83.31
337.51	83.31
337.738	110.31
337.966	97.31
338.194	88.31
338.422	96.31
338.65	86.31
338.878	92.31
339.106	80.31
339.334	91.31
339.562	84.31
339.79	90.31
340.018	93.31
340.246	96.31
340.474	103.31
340.702	93.31
340.93	90.31
341.158	105.31
341.386	102.31
341.614	94.31
341.842	99.31
342.07	117.31
342.298	91.31
342.526	93.31
342.754	85.31
342.981	75.31
343.209	80.31
343.437	103.31
343.665	78.31
343.893	83.31
344.12	93.31
344.348	93.31
344.576	91.31
344.804	105.31
345.031	120.31
345.259	92.31
345.487	92.31
345.714	100.31
345.942	98.31
346.17	100.31
346.397	89.31
346.625	101.31
346.853	103.31
347.08	75.31
347.308	97.31
347.535	93.31
347.763	98.31
347.99	90.31
348.218	90.31
348.445	102.31
348.673	84.31
348.9	96.31
349.128	97.31
349.355	88.31
349.583	86.31
349.81	97.31
350.037	108.31
350.265	92.31
350.492	101.31
350.72	95.31
350.947	102.31
351.174	108.31
351.402	101.31
351.629	104.31
351.856	106.31
352.083	98.31
352.311	111.31
352.538	102.31
352.765	100.31
352.992	98.31
353.22	102.31
353.447	113.31
353.674	122.31
353.901	105.31
354.128	100.31
354.355	89.31
354.583	92.31
354.81	80.31
355.037	94.31
355.264	96.31
355.491	108.31
355.718	82.31
355.945	89.31
356.172	97.31
356.399	97.31
356.626	97.31
356.853	90.31
357.08	93.31
357.307	107.31
357.534	87.31
357.761	92.31
357.988	96.31
358.215	101.31
358.441	84.31
358.668	102.31
358.895	97.31
359.122	93.31
359.349	96.31
359.576	96.31
359.802	104.31
360.029	112.31
360.256	100.31
360.483	81.31
360.709	82.31
360.936	89.31
361.163	88.31
361.39	85.31
361.616	88.31
361.843	90.31
362.07	102.31
362.296	109.31
362.523	90.31
362.749	101.31
362.976	86.31
363.203	87.31
363.429	98.31
363.656	81.31
363.882	98.31
364.109	84.31
364.335	95.31
364.562	88.31
364.788	101.31
365.015	95.31
365.241	94.31
365.468	101.31
365.694	104.31
365.92	96.31
366.147	83.31
366.373	92.31
366.599	85.31
366.826	98.31
367.052	102.31
367.278	88.31
367.505	102.31
367.731	90.31
367.957	73.31
368.184	84.31
368.41	85.31
368.636	110.31
368.862	105.31
369.089	107.31
369.315	78.31
369.541	92.31
369.767	90.31
369.993	99.31
370.219	96.31
370.445	95.31
370.672	64.31
370.898	83.31
371.124	101.31
371.35	92.31
371.576	105.31
371.802	82.31
372.028	91.31
372.254	86.31
372.48	81.31
372.706	84.31
372.932	88.31
373.158	88.31
373.384	84.31
373.61	97.31
373.835	95.31
374.061	70.31
374.287	93.31
374.513	84.31
374.739	97.31
374.965	92.31
375.191	82.31
375.416	88.31
375.642	94.31
375.868	79.31
376.094	91.31
376.319	89.31
376.545	94.31
376.771	99.31
376.997	106.31
377.222	97.31
377.448	85.31
377.674	84.31
377.899	91.31
378.125	103.31
378.35	101.31
378.576	104.31
378.802	88.31
379.027	98.31
379.253	80.31
379.478	82.31
379.704	97.31
379.929	107.31
380.155	90.31
380.38	95.31
380.606	85.31
380.831	93.31
381.057	91.31
381.282	98.31
381.507	86.31
381.733	91.31
381.958	104.31
382.184	106.31
382.409	98.31
382.634	99.31
382.86	105.31
383.085	106.31
383.31	95.31
383.535	102.31
383.761	94.31
383.986	92.31
384.211	105.31
384.436	81.31
384.662	95.31
384.887	99.31
385.112	94.31
385.337	103.31
385.562	98.31
385.787	98.31
386.013	91.31
386.238	112.31
386.463	93.31
386.688	121.31
386.913	101.31
387.138	94.31
387.363	90.31
387.588	99.31
387.813	108.31
388.038	100.31
388.263	107.31
388.488	106.31
388.713	92.31
388.938	100.31
389.163	112.31
389.387	95.31
389.612	98.31
389.837	96.31
390.062	100.31
390.287	92.31
390.512	87.31
390.736	77.31
390.961	103.31
391.186	93.31
391.411	89.31
391.636	89.31
391.86	97.31
392.085	94.31
392.31	86.31
392.534	82.31
392.759	84.31
392.984	94.31
393.208	94.31
393.433	91.31
393.658	88.31
393.882	82.31
394.107	92.31
394.331	74.31
394.556	74.31
394.78	86.31
395.005	102.31
395.229	75.31
395.454	86.31
395.678	90.31
395.903	97.31
396.127	95.31
396.352	88.31
396.576	77.31
396.801	83.31
397.025	82.31
397.249	85.31
397.474	93.31
397.698	84.31
397.922	89.31
398.147	82.31
398.371	89.31
398.595	101.31
398.82	92.31
399.044	90.31
399.268	75.31
399.492	90.31
399.717	88.31
399.941	98.31
400.165	96.31
400.389	99.31
400.613	83.31
400.837	98.31
401.062	93.31
401.286	93.31
401.51	90.31
401.734	93.31
401.958	91.31
402.182	113.31
402.406	155.31
402.63	109.31
402.854	89.31
403.078	91.31
403.302	86.31
403.526	107.31
403.75	88.31
403.974	78.31
404.198	86.31
404.422	85.31
404.645	76.31
404.869	79.31
405.093	99.31
405.317	98.31
405.541	111.31
405.765	92.31
405.988	108.31
406.212	133.31
406.436	217.31
406.66	154.31
406.883	91.31
407.107	94.31
407.331	86.31
407.555	108.31
407.778	103.31
408.002	86.31
408.226	89.31
408.449	80.31
408.673	88.31
408.896	90.31
409.12	108.31
409.344	96.31
409.567	89.31
409.791	105.31
410.014	108.31
410.238	87.31
410.461	102.31
410.685	97.31
410.908	100.31
411.132	109.31
411.355	90.31
411.578	98.31
411.802	81.31
412.025	86.31
412.249	86.31
412.472	92.31
412.695	90.31
412.919	80.31
413.142	89.31
413.365	93.31
413.589	94.31
413.812	87.31
414.035	111.31
414.258	91.31
414.482	89.31
414.705	78.31
414.928	92.31
415.151	99.31
415.374	100.31
415.597	100.31
415.821	92.31
416.044	89.31
416.267	98.31
416.49	85.31
416.713	83.31
416.936	89.31
417.159	79.31
417.382	99.31
417.605	91.31
417.828	95.31
418.051	99.31
418.274	86.31
418.497	88.31
418.72	85.31
418.943	100.31
419.166	91.31
419.389	90.31
419.611	83.31
419.834	90.31
420.057	82.31
420.28	93.31
420.503	91.31
420.726	81.31
420.948	89.31
421.171	91.31
421.394	102.31
421.617	83.31
421.839	101.31
422.062	79.31
422.285	92.31
422.507	104.31
422.73	110.31
422.953	105.31
423.175	91.31
423.398	84.31
423.621	91.31
423.843	92.31
424.066	89.31
424.288	82.31
424.511	88.31
424.733	101.31
424.956	98.31
425.178	85.31
425.401	96.31
425.623	102.31
425.846	87.31
426.068	91.31
426.291	88.31
426.513	99.31
426.735	106.31
426.958	90.31
427.18	96.31
427.402	131.31
427.625	157.31
427.847	112.31
428.069	84.31
428.292	89.31
428.514	101.31
428.736	88.31
428.958	84.31
429.181	96.31
429.403	86.31
429.625	97.31
429.847	89.31
430.069	109.31
430.292	100.31
430.514	84.31
430.736	81.31
430.958	101.31
431.18	97.31
431.402	89.31
431.624	85.31
431.846	79.31
432.068	85.31
432.29	78.31
432.512	89.31
432.734	73.31
432.956	99.31
433.178	105.31
433.4	80.31
433.622	74.31
433.844	88.31
434.066	97.31
434.287	90.31
434.509	101.31
434.731	94.31
434.953	85.31
435.175	90.31
435.397	89.31
435.618	86.31
435.84	103.31
436.062	117.31
436.284	108.31
436.505	98.31
436.727	111.31
436.949	88.31
437.17	89.31
437.392	95.31
437.614	86.31
437.835	106.31
438.057	111.31
438.278	116.31
438.5	100.31
438.721	118.31
438.943	118.31
439.165	90.31
439.386	93.31
439.608	93.31
439.829	104.31
440.05	125.31
440.272	143.31
440.493	104.31
440.715	77.31
440.936	88.31
441.158	82.31
441.379	95.31
441.6	93.31
441.822	103.31
442.043	100.31
442.264	110.31
442.486	95.31
442.707	100.31
442.928	101.31
443.149	133.31
443.371	112.31
443.592	111.31
443.813	116.31
444.034	98.31
444.255	84.31
444.476	90.31
444.698	93.31
444.919	83.31
445.14	139.31
445.361	115.31
445.582	106.31
445.803	120.31
446.024	130.31
446.245	120.31
446.466	124.31
446.687	88.31
446.908	73.31
447.129	88.31
447.35	91.31
447.571	90.31
447.792	89.31
448.013	97.31
448.234	102.31
448.455	97.31
448.675	119.31
448.896	117.31
449.117	108.31
449.338	111.31
449.559	115.31
449.779	131.31
450	93.31
450.221	84.31
450.442	86.31
450.662	75.31
450.883	82.31
451.104	111.31
451.324	105.31
451.545	70.31
451.766	80.31
451.986	76.31
452.207	88.31
452.428	99.31
452.648	93.31
452.869	99.31
453.089	109.31
453.31	107.31
453.53	90.31
453.751	86.31
453.971	102.31
454.192	94.31
454.412	88.31
454.633	90.31
454.853	101.31
455.073	99.31
455.294	91.31
455.514	93.31
455.734	98.31
455.955	99.31
456.175	86.31
456.395	85.31
456.616	84.31
456.836	69.31
457.056	85.31
457.276	85.31
457.497	69.31
457.717	97.31
457.937	83.31
458.157	101.31
458.377	105.31
458.598	110.31
458.818	148.31
459.038	156.31
459.258	110.31
459.478	92.31
459.698	90.31
459.918	92.31
460.138	86.31
460.358	94.31
460.578	82.31
460.798	113.31
461.018	86.31
461.238	81.31
461.458	86.31
461.678	75.31
461.898	86.31
462.118	94.31
462.338	87.31
462.558	86.31
462.777	87.31
462.997	92.31
463.217	81.31
463.437	82.31
463.657	88.31
463.876	82.31
464.096	88.31
464.316	84.31
464.536	100.31
464.755	92.31
464.975	99.31
465.195	170.31
465.414	143.31
465.634	93.31
465.854	97.31
466.073	89.31
466.293	85.31
466.512	88.31
466.732	99.31
466.951	67.31
467.171	96.31
467.391	83.31
467.61	106.31
467.829	95.31
468.049	71.31
468.268	76.31
468.488	83.31
468.707	92.31
468.927	79.31
469.146	83.31
469.365	107.31
469.585	92.31
469.804	94.31
470.023	104.31
470.243	92.31
470.462	101.31
470.681	105.31
470.901	80.31
471.12	82.31
471.339	99.31
471.558	84.31
471.777	82.31
471.997	81.31
472.216	80.31
472.435	102.31
472.654	91.31
472.873	95.31
473.092	94.31
473.311	86.31
473.53	85.31
473.749	87.31
473.968	96.31
474.187	100.31
474.406	95.31
474.625	77.31
474.844	97.31
475.063	85.31
475.282	82.31
475.501	86.31
475.72	88.31
475.939	90.31
476.158	106.31
476.377	92.31
476.596	96.31
476.814	75.31
477.033	99.31
477.252	90.31
477.471	98.31
477.69	94.31
477.908	92.31
478.127	95.31
478.346	89.31
478.564	97.31
478.783	85.31
479.002	95.31
479.22	90.31
479.439	101.31
479.658	108.31
479.876	98.31
480.095	89.31
480.313	80.31
480.532	91.31
480.751	99.31
480.969	98.31
481.188	89.31
481.406	81.31
481.624	82.31
481.843	100.31
482.061	83.31
482.28	89.31
482.498	96.31
482.717	68.31
482.935	78.31
483.153	97.31
483.372	81.31
483.59	97.31
483.808	81.31
484.027	89.31
484.245	82.31
484.463	90.31
484.681	95.31
484.9	97.31
485.118	101.31
485.336	100.31
485.554	86.31
485.772	83.31
485.99	93.31
486.209	105.31
486.427	98.31
486.645	113.31
486.863	114.31
487.081	96.31
487.299	93.31
487.517	103.31
487.735	97.31
487.953	93.31
488.171	85.31
488.389	97.31
488.607	101.31
488.825	90.31
489.043	93.31
489.261	91.31
489.479	97.31
489.696	97.31
489.914	76.31
490.132	78.31
490.35	100.31
490.568	73.31
490.786	92.31
491.003	88.31
491.221	86.31
491.439	101.31
491.657	92.31
491.874	77.31
492.092	88.31
492.31	86.31
492.527	79.31
492.745	75.31
492.963	98.31
493.18	89.31
493.398	86.31
493.615	98.31
493.833	84.31
494.05	92.31
494.268	92.31
494.485	85.31
494.703	86.31
494.92	91.31
495.138	108.31
495.355	82.31
495.573	91.31
495.79	90.31
496.008	91.31
496.225	101.31
496.442	94.31
496.66	89.31
496.877	89.31
497.094	99.31
497.312	92.31
497.529	80.31
497.746	91.31
497.963	102.31
498.181	77.31
498.398	93.31
498.615	111.31
498.832	102.31
499.049	80.31
499.267	90.31
499.484	76.31
499.701	80.31
499.918	86.31
500.135	78.31
500.352	102.31
500.569	102.31
500.786	102.31
501.003	97.31
501.22	88.31
501.437	83.31
501.654	100.31
501.871	110.31
502.088	89.31
502.305	96.31
502.522	96.31
502.739	90.31
502.956	83.31
503.172	101.31
503.389	85.31
503.606	100.31
503.823	92.31
504.04	69.31
504.256	83.31
504.473	101.31
504.69	98.31
504.907	104.31
505.123	96.31
505.34	89.31
505.557	92.31
505.773	91.31
505.99	92.31
506.207	97.31
506.423	96.31
506.64	89.31
506.856	93.31
507.073	91.31
507.289	99.31
507.506	96.31
507.722	112.31
507.939	121.31
508.155	94.31
508.372	93.31
508.588	89.31
508.805	88.31
509.021	97.31
509.238	102.31
509.454	107.31
509.67	107.31
509.887	94.31
510.103	122.31
510.319	223.31
510.536	755.31
510.752	2353.31
510.968	634.31
511.184	148.31
511.401	106.31
511.617	94.31
511.833	90.31
512.049	88.31
512.265	96.31
512.481	80.31
512.698	95.31
512.914	96.31
513.13	92.31
513.346	92.31
513.562	97.31
513.778	92.31
513.994	93.31
514.21	99.31
514.426	117.31
514.642	127.31
514.858	116.31
515.074	150.31
515.29	425.31
515.506	1379.31
515.721	511.31
