Data from Uncirc_1994_H10_HRD10591_00076.txt Node
Date: Wed Jan 03 11:39:36 EST 2024
User: Yrep
Spectrometer: HR+D1059
Trigger mode: 1
Integration Time (sec): 1.000000E-1
Scans to average: 1
Electric dark correction enabled: true
Nonlinearity correction enabled: false
Boxcar width: 0
XAxis mode: Wavelengths
Number of Pixels in Spectrum: 2048
>>>>>Begin Spectral Data<<<<<
223.165	-11.5
223.4	-11.5
223.635	-11.5
223.869	-22.5
224.104	-25.5
224.338	-10.5
224.573	-13.5
224.808	-7.5
225.042	-10.5
225.277	-5.5
225.511	-7.5
225.746	9.5
225.98	-9.5
226.215	15.5
226.449	26.5
226.683	15.5
226.918	23.5
227.152	33.5
227.387	48.5
227.621	36.5
227.856	41.5
228.09	30.5
228.324	46.5
228.559	47.5
228.793	61.5
229.027	31.5
229.262	63.5
229.496	83.5
229.73	104.5
229.964	88.5
230.199	72.5
230.433	66.5
230.667	95.5
230.901	75.5
231.136	75.5
231.37	72.5
231.604	75.5
231.838	81.5
232.072	82.5
232.306	83.5
232.541	77.5
232.775	79.5
233.009	78.5
233.243	86.5
233.477	71.5
233.711	75.5
233.945	70.5
234.179	84.5
234.413	76.5
234.647	71.5
234.881	78.5
235.115	61.5
235.349	86.5
235.583	80.5
235.817	78.5
236.051	74.5
236.285	81.5
236.519	87.5
236.753	72.5
236.987	84.5
237.221	79.5
237.455	81.5
237.689	71.5
237.922	81.5
238.156	62.5
238.39	67.5
238.624	69.5
238.858	80.5
239.091	60.5
239.325	67.5
239.559	80.5
239.793	90.5
240.027	93.5
240.26	65.5
240.494	86.5
240.728	65.5
240.961	72.5
241.195	77.5
241.429	76.5
241.662	65.5
241.896	72.5
242.13	78.5
242.363	76.5
242.597	81.5
242.83	65.5
243.064	76.5
243.298	60.5
243.531	74.5
243.765	74.5
243.998	73.5
244.232	74.5
244.465	94.5
244.699	72.5
244.932	83.5
245.166	80.5
245.399	91.5
245.633	81.5
245.866	70.5
246.099	65.5
246.333	86.5
246.566	74.5
246.8	75.5
247.033	78.5
247.266	72.5
247.5	74.5
247.733	83.5
247.966	84.5
248.2	73.5
248.433	66.5
248.666	74.5
248.899	76.5
249.133	90.5
249.366	83.5
249.599	95.5
249.832	92.5
250.066	82.5
250.299	86.5
250.532	80.5
250.765	77.5
250.998	71.5
251.231	76.5
251.465	80.5
251.698	83.5
251.931	75.5
252.164	80.5
252.397	68.5
252.63	87.5
252.863	78.5
253.096	68.5
253.329	69.5
253.562	86.5
253.795	83.5
254.028	73.5
254.261	83.5
254.494	92.5
254.727	89.5
254.96	88.5
255.193	57.5
255.426	76.5
255.659	85.5
255.892	82.5
256.124	81.5
256.357	76.5
256.59	80.5
256.823	75.5
257.056	84.5
257.289	71.5
257.521	89.5
257.754	85.5
257.987	67.5
258.22	85.5
258.452	94.5
258.685	91.5
258.918	72.5
259.151	84.5
259.383	70.5
259.616	83.5
259.849	78.5
260.081	89.5
260.314	81.5
260.547	70.5
260.779	88.5
261.012	73.5
261.244	74.5
261.477	76.5
261.71	94.5
261.942	107.5
262.175	104.5
262.407	85.5
262.64	73.5
262.872	86.5
263.105	76.5
263.337	75.5
263.57	58.5
263.802	68.5
264.035	90.5
264.267	71.5
264.499	85.5
264.732	95.5
264.964	75.5
265.197	86.5
265.429	89.5
265.661	78.5
265.894	88.5
266.126	73.5
266.358	79.5
266.591	78.5
266.823	89.5
267.055	84.5
267.287	71.5
267.52	90.5
267.752	72.5
267.984	82.5
268.216	83.5
268.448	77.5
268.681	88.5
268.913	87.5
269.145	77.5
269.377	87.5
269.609	84.5
269.841	79.5
270.073	75.5
270.306	78.5
270.538	78.5
270.77	75.5
271.002	74.5
271.234	96.5
271.466	86.5
271.698	103.5
271.93	86.5
272.162	99.5
272.394	88.5
272.626	91.5
272.858	76.5
273.09	74.5
273.322	94.5
273.553	71.5
273.785	81.5
274.017	94.5
274.249	75.5
274.481	81.5
274.713	92.5
274.945	76.5
275.176	80.5
275.408	75.5
275.64	83.5
275.872	92.5
276.104	81.5
276.335	82.5
276.567	100.5
276.799	101.5
277.031	99.5
277.262	94.5
277.494	87.5
277.726	82.5
277.957	77.5
278.189	86.5
278.421	88.5
278.652	103.5
278.884	78.5
279.115	95.5
279.347	91.5
279.579	77.5
279.81	92.5
280.042	81.5
280.273	84.5
280.505	74.5
280.736	81.5
280.968	77.5
281.199	88.5
281.431	76.5
281.662	96.5
281.894	79.5
282.125	93.5
282.356	112.5
282.588	158.5
282.819	114.5
283.051	88.5
283.282	84.5
283.513	86.5
283.745	83.5
283.976	75.5
284.207	80.5
284.439	82.5
284.67	82.5
284.901	86.5
285.132	73.5
285.364	80.5
285.595	90.5
285.826	85.5
286.057	71.5
286.288	80.5
286.52	82.5
286.751	78.5
286.982	91.5
287.213	74.5
287.444	89.5
287.675	93.5
287.906	85.5
288.138	108.5
288.369	94.5
288.6	77.5
288.831	83.5
289.062	86.5
289.293	68.5
289.524	83.5
289.755	73.5
289.986	88.5
290.217	80.5
290.448	95.5
290.679	73.5
290.91	99.5
291.141	84.5
291.371	74.5
291.602	91.5
291.833	92.5
292.064	86.5
292.295	82.5
292.526	72.5
292.757	90.5
292.987	94.5
293.218	92.5
293.449	90.5
293.68	80.5
293.91	90.5
294.141	97.5
294.372	98.5
294.603	93.5
294.833	78.5
295.064	92.5
295.295	89.5
295.525	88.5
295.756	107.5
295.987	113.5
296.217	146.5
296.448	106.5
296.679	102.5
296.909	94.5
297.14	94.5
297.37	92.5
297.601	87.5
297.831	84.5
298.062	84.5
298.292	85.5
298.523	96.5
298.753	88.5
298.984	103.5
299.214	89.5
299.445	99.5
299.675	93.5
299.905	96.5
300.136	85.5
300.366	83.5
300.597	94.5
300.827	96.5
301.057	94.5
301.288	105.5
301.518	89.5
301.748	77.5
301.979	102.5
302.209	79.5
302.439	95.5
302.669	83.5
302.9	81.5
303.13	76.5
303.36	89.5
303.59	102.5
303.82	107.5
304.051	97.5
304.281	95.5
304.511	80.5
304.741	89.5
304.971	94.5
305.201	82.5
305.431	90.5
305.661	87.5
305.891	90.5
306.121	85.5
306.352	97.5
306.582	111.5
306.812	93.5
307.042	86.5
307.272	89.5
307.502	82.5
307.731	97.5
307.961	89.5
308.191	99.5
308.421	106.5
308.651	105.5
308.881	89.5
309.111	103.5
309.341	96.5
309.571	97.5
309.8	103.5
310.03	106.5
310.26	87.5
310.49	99.5
310.72	93.5
310.949	108.5
311.179	98.5
311.409	99.5
311.639	81.5
311.868	97.5
312.098	94.5
312.328	100.5
312.557	95.5
312.787	96.5
313.017	104.5
313.246	101.5
313.476	104.5
313.706	90.5
313.935	96.5
314.165	92.5
314.394	102.5
314.624	92.5
314.853	113.5
315.083	96.5
315.312	98.5
315.542	97.5
315.771	89.5
316.001	89.5
316.23	88.5
316.46	97.5
316.689	73.5
316.919	82.5
317.148	104.5
317.377	89.5
317.607	96.5
317.836	94.5
318.065	75.5
318.295	80.5
318.524	86.5
318.753	90.5
318.983	109.5
319.212	109.5
319.441	109.5
319.67	109.5
319.9	96.5
320.129	103.5
320.358	94.5
320.587	99.5
320.816	90.5
321.046	87.5
321.275	97.5
321.504	99.5
321.733	94.5
321.962	98.5
322.191	103.5
322.42	120.5
322.649	108.5
322.878	114.5
323.108	116.5
323.337	122.5
323.566	117.5
323.795	147.5
324.024	187.5
324.253	372.5
324.482	847.5
324.71	1677.5
324.939	2220.5
325.168	802.5
325.397	225.5
325.626	142.5
325.855	122.5
326.084	126.5
326.313	118.5
326.542	140.5
326.77	207.5
326.999	455.5
327.228	952.5
327.457	1710.5
327.686	1350.5
327.914	355.5
328.143	186.5
328.372	128.5
328.6	127.5
328.829	117.5
329.058	125.5
329.287	120.5
329.515	104.5
329.744	104.5
329.972	107.5
330.201	102.5
330.43	97.5
330.658	113.5
330.887	146.5
331.115	119.5
331.344	95.5
331.572	96.5
331.801	86.5
332.03	96.5
332.258	93.5
332.486	86.5
332.715	89.5
332.943	103.5
333.172	90.5
333.4	91.5
333.629	110.5
333.857	98.5
334.085	107.5
334.314	99.5
334.542	91.5
334.771	91.5
334.999	87.5
335.227	93.5
335.455	100.5
335.684	100.5
335.912	108.5
336.14	90.5
336.369	96.5
336.597	91.5
336.825	84.5
337.053	91.5
337.281	95.5
337.51	87.5
337.738	86.5
337.966	70.5
338.194	86.5
338.422	91.5
338.65	103.5
338.878	86.5
339.106	86.5
339.334	95.5
339.562	95.5
339.79	87.5
340.018	70.5
340.246	94.5
340.474	100.5
340.702	88.5
340.93	99.5
341.158	74.5
341.386	109.5
341.614	85.5
341.842	101.5
342.07	82.5
342.298	90.5
342.526	95.5
342.754	91.5
342.981	100.5
343.209	98.5
343.437	96.5
343.665	73.5
343.893	82.5
344.12	74.5
344.348	89.5
344.576	73.5
344.804	92.5
345.031	101.5
345.259	103.5
345.487	90.5
345.714	88.5
345.942	93.5
346.17	93.5
346.397	83.5
346.625	79.5
346.853	97.5
347.08	109.5
347.308	97.5
347.535	96.5
347.763	102.5
347.99	84.5
348.218	93.5
348.445	108.5
348.673	104.5
348.9	91.5
349.128	82.5
349.355	87.5
349.583	90.5
349.81	87.5
350.037	101.5
350.265	97.5
350.492	90.5
350.72	88.5
350.947	80.5
351.174	93.5
351.402	114.5
351.629	112.5
351.856	119.5
352.083	94.5
352.311	101.5
352.538	110.5
352.765	100.5
352.992	116.5
353.22	108.5
353.447	109.5
353.674	99.5
353.901	96.5
354.128	95.5
354.355	79.5
354.583	90.5
354.81	97.5
355.037	92.5
355.264	84.5
355.491	95.5
355.718	106.5
355.945	97.5
356.172	94.5
356.399	87.5
356.626	90.5
356.853	97.5
357.08	94.5
357.307	86.5
357.534	86.5
357.761	79.5
357.988	101.5
358.215	86.5
358.441	99.5
358.668	90.5
358.895	88.5
359.122	75.5
359.349	95.5
359.576	89.5
359.802	103.5
360.029	98.5
360.256	117.5
360.483	97.5
360.709	77.5
360.936	86.5
361.163	101.5
361.39	100.5
361.616	84.5
361.843	92.5
362.07	87.5
362.296	104.5
362.523	84.5
362.749	86.5
362.976	82.5
363.203	111.5
363.429	78.5
363.656	98.5
363.882	93.5
364.109	92.5
364.335	99.5
364.562	92.5
364.788	87.5
365.015	93.5
365.241	110.5
365.468	118.5
365.694	103.5
365.92	89.5
366.147	102.5
366.373	102.5
366.599	94.5
366.826	90.5
367.052	79.5
367.278	80.5
367.505	76.5
367.731	94.5
367.957	94.5
368.184	85.5
368.41	96.5
368.636	98.5
368.862	114.5
369.089	111.5
369.315	89.5
369.541	85.5
369.767	84.5
369.993	87.5
370.219	79.5
370.445	75.5
370.672	80.5
370.898	95.5
371.124	95.5
371.35	73.5
371.576	91.5
371.802	71.5
372.028	90.5
372.254	89.5
372.48	79.5
372.706	81.5
372.932	94.5
373.158	97.5
373.384	80.5
373.61	72.5
373.835	78.5
374.061	83.5
374.287	76.5
374.513	85.5
374.739	87.5
374.965	82.5
375.191	87.5
375.416	77.5
375.642	87.5
375.868	75.5
376.094	89.5
376.319	74.5
376.545	74.5
376.771	97.5
376.997	91.5
377.222	90.5
377.448	100.5
377.674	80.5
377.899	98.5
378.125	86.5
378.35	95.5
378.576	108.5
378.802	78.5
379.027	104.5
379.253	98.5
379.478	77.5
379.704	89.5
379.929	87.5
380.155	92.5
380.38	99.5
380.606	92.5
380.831	88.5
381.057	93.5
381.282	79.5
381.507	83.5
381.733	93.5
381.958	85.5
382.184	84.5
382.409	94.5
382.634	102.5
382.86	104.5
383.085	99.5
383.31	89.5
383.535	88.5
383.761	99.5
383.986	96.5
384.211	94.5
384.436	96.5
384.662	92.5
384.887	103.5
385.112	98.5
385.337	108.5
385.562	102.5
385.787	109.5
386.013	93.5
386.238	102.5
386.463	102.5
386.688	114.5
386.913	101.5
387.138	86.5
387.363	113.5
387.588	100.5
387.813	94.5
388.038	98.5
388.263	109.5
388.488	113.5
388.713	100.5
388.938	89.5
389.163	86.5
389.387	83.5
389.612	96.5
389.837	81.5
390.062	97.5
390.287	90.5
390.512	86.5
390.736	90.5
390.961	93.5
391.186	95.5
391.411	91.5
391.636	73.5
391.86	78.5
392.085	81.5
392.31	86.5
392.534	76.5
392.759	85.5
392.984	88.5
393.208	83.5
393.433	93.5
393.658	99.5
393.882	102.5
394.107	80.5
394.331	79.5
394.556	99.5
394.78	98.5
395.005	85.5
395.229	83.5
395.454	94.5
395.678	89.5
395.903	106.5
396.127	105.5
396.352	94.5
396.576	82.5
396.801	93.5
397.025	84.5
397.249	86.5
397.474	98.5
397.698	79.5
397.922	77.5
398.147	92.5
398.371	91.5
398.595	87.5
398.82	94.5
399.044	93.5
399.268	80.5
399.492	96.5
399.717	89.5
399.941	94.5
400.165	86.5
400.389	87.5
400.613	84.5
400.837	73.5
401.062	86.5
401.286	67.5
401.51	83.5
401.734	71.5
401.958	92.5
402.182	126.5
402.406	170.5
402.63	123.5
402.854	91.5
403.078	90.5
403.302	85.5
403.526	80.5
403.75	79.5
403.974	97.5
404.198	80.5
404.422	100.5
404.645	82.5
404.869	91.5
405.093	99.5
405.317	99.5
405.541	114.5
405.765	111.5
405.988	111.5
406.212	164.5
406.436	215.5
406.66	142.5
406.883	91.5
407.107	94.5
407.331	99.5
407.555	97.5
407.778	87.5
408.002	102.5
408.226	91.5
408.449	79.5
408.673	86.5
408.896	93.5
409.12	109.5
409.344	95.5
409.567	85.5
409.791	82.5
410.014	86.5
410.238	90.5
410.461	84.5
410.685	93.5
410.908	79.5
411.132	99.5
411.355	96.5
411.578	95.5
411.802	93.5
412.025	96.5
412.249	87.5
412.472	87.5
412.695	77.5
412.919	79.5
413.142	93.5
413.365	98.5
413.589	69.5
413.812	89.5
414.035	96.5
414.258	81.5
414.482	96.5
414.705	96.5
414.928	96.5
415.151	84.5
415.374	79.5
415.597	79.5
415.821	91.5
416.044	93.5
416.267	82.5
416.49	75.5
416.713	97.5
416.936	84.5
417.159	83.5
417.382	99.5
417.605	75.5
417.828	87.5
418.051	89.5
418.274	90.5
418.497	91.5
418.72	87.5
418.943	95.5
419.166	79.5
419.389	75.5
419.611	86.5
419.834	94.5
420.057	106.5
420.28	88.5
420.503	76.5
420.726	89.5
420.948	88.5
421.171	99.5
421.394	97.5
421.617	90.5
421.839	78.5
422.062	92.5
422.285	96.5
422.507	95.5
422.73	102.5
422.953	86.5
423.175	73.5
423.398	102.5
423.621	93.5
423.843	86.5
424.066	92.5
424.288	91.5
424.511	83.5
424.733	93.5
424.956	96.5
425.178	94.5
425.401	96.5
425.623	116.5
425.846	107.5
426.068	103.5
426.291	89.5
426.513	83.5
426.735	83.5
426.958	99.5
427.18	115.5
427.402	148.5
427.625	157.5
427.847	125.5
428.069	109.5
428.292	72.5
428.514	76.5
428.736	95.5
428.958	76.5
429.181	103.5
429.403	82.5
429.625	98.5
429.847	83.5
430.069	114.5
430.292	81.5
430.514	80.5
430.736	82.5
430.958	82.5
431.18	89.5
431.402	93.5
431.624	87.5
431.846	75.5
432.068	78.5
432.29	86.5
432.512	65.5
432.734	81.5
432.956	84.5
433.178	102.5
433.4	97.5
433.622	91.5
433.844	87.5
434.066	79.5
434.287	74.5
434.509	84.5
434.731	107.5
434.953	91.5
435.175	78.5
435.397	86.5
435.618	100.5
435.84	105.5
436.062	120.5
436.284	133.5
436.505	90.5
436.727	102.5
436.949	92.5
437.17	81.5
437.392	72.5
437.614	82.5
437.835	102.5
438.057	117.5
438.278	104.5
438.5	102.5
438.721	129.5
438.943	115.5
439.165	83.5
439.386	101.5
439.608	103.5
439.829	94.5
440.05	123.5
440.272	128.5
440.493	104.5
440.715	81.5
440.936	99.5
441.158	83.5
441.379	96.5
441.6	91.5
441.822	93.5
442.043	89.5
442.264	90.5
442.486	92.5
442.707	89.5
442.928	105.5
443.149	113.5
443.371	120.5
443.592	105.5
443.813	99.5
444.034	125.5
444.255	87.5
444.476	99.5
444.698	92.5
444.919	89.5
445.14	141.5
445.361	116.5
445.582	108.5
445.803	126.5
446.024	129.5
446.245	139.5
446.466	108.5
446.687	86.5
446.908	90.5
447.129	89.5
447.35	80.5
447.571	83.5
447.792	94.5
448.013	87.5
448.234	108.5
448.455	94.5
448.675	122.5
448.896	122.5
449.117	111.5
449.338	92.5
449.559	130.5
449.779	122.5
450	95.5
450.221	95.5
450.442	88.5
450.662	81.5
450.883	105.5
451.104	122.5
451.324	84.5
451.545	98.5
451.766	102.5
451.986	75.5
452.207	82.5
452.428	98.5
452.648	111.5
452.869	100.5
453.089	108.5
453.31	103.5
453.53	89.5
453.751	88.5
453.971	105.5
454.192	98.5
454.412	91.5
454.633	79.5
454.853	86.5
455.073	99.5
455.294	82.5
455.514	98.5
455.734	90.5
455.955	83.5
456.175	91.5
456.395	79.5
456.616	96.5
456.836	76.5
457.056	82.5
457.276	82.5
457.497	88.5
457.717	88.5
457.937	78.5
458.157	85.5
458.377	89.5
458.598	109.5
458.818	135.5
459.038	155.5
459.258	111.5
459.478	92.5
459.698	78.5
459.918	75.5
460.138	78.5
460.358	87.5
460.578	77.5
460.798	88.5
461.018	66.5
461.238	88.5
461.458	86.5
461.678	91.5
461.898	77.5
462.118	84.5
462.338	97.5
462.558	75.5
462.777	90.5
462.997	90.5
463.217	80.5
463.437	75.5
463.657	78.5
463.876	110.5
464.096	87.5
464.316	87.5
464.536	97.5
464.755	91.5
464.975	102.5
465.195	157.5
465.414	156.5
465.634	91.5
465.854	95.5
466.073	82.5
466.293	84.5
466.512	85.5
466.732	90.5
466.951	91.5
467.171	87.5
467.391	81.5
467.61	100.5
467.829	102.5
468.049	86.5
468.268	89.5
468.488	87.5
468.707	86.5
468.927	70.5
469.146	100.5
469.365	91.5
469.585	87.5
469.804	94.5
470.023	93.5
470.243	96.5
470.462	111.5
470.681	84.5
470.901	90.5
471.12	91.5
471.339	87.5
471.558	71.5
471.777	95.5
471.997	100.5
472.216	91.5
472.435	77.5
472.654	78.5
472.873	84.5
473.092	91.5
473.311	98.5
473.53	80.5
473.749	104.5
473.968	86.5
474.187	99.5
474.406	99.5
474.625	91.5
474.844	91.5
475.063	90.5
475.282	97.5
475.501	83.5
475.72	107.5
475.939	83.5
476.158	87.5
476.377	90.5
476.596	76.5
476.814	87.5
477.033	98.5
477.252	90.5
477.471	88.5
477.69	86.5
477.908	86.5
478.127	88.5
478.346	87.5
478.564	73.5
478.783	91.5
479.002	94.5
479.22	108.5
479.439	91.5
479.658	101.5
479.876	96.5
480.095	84.5
480.313	100.5
480.532	97.5
480.751	74.5
480.969	82.5
481.188	109.5
481.406	84.5
481.624	92.5
481.843	73.5
482.061	81.5
482.28	101.5
482.498	88.5
482.717	85.5
482.935	81.5
483.153	76.5
483.372	80.5
483.59	75.5
483.808	105.5
484.027	99.5
484.245	77.5
484.463	89.5
484.681	84.5
484.9	85.5
485.118	97.5
485.336	69.5
485.554	102.5
485.772	89.5
485.99	94.5
486.209	103.5
486.427	91.5
486.645	106.5
486.863	113.5
487.081	91.5
487.299	98.5
487.517	99.5
487.735	82.5
487.953	90.5
488.171	104.5
488.389	92.5
488.607	96.5
488.825	80.5
489.043	79.5
489.261	70.5
489.479	78.5
489.696	102.5
489.914	77.5
490.132	62.5
490.35	77.5
490.568	86.5
490.786	83.5
491.003	82.5
491.221	91.5
491.439	86.5
491.657	89.5
491.874	90.5
492.092	98.5
492.31	81.5
492.527	81.5
492.745	90.5
492.963	92.5
493.18	86.5
493.398	96.5
493.615	91.5
493.833	98.5
494.05	87.5
494.268	86.5
494.485	71.5
494.703	84.5
494.92	74.5
495.138	78.5
495.355	87.5
495.573	74.5
495.79	79.5
496.008	91.5
496.225	90.5
496.442	102.5
496.66	94.5
496.877	94.5
497.094	95.5
497.312	91.5
497.529	97.5
497.746	97.5
497.963	79.5
498.181	84.5
498.398	89.5
498.615	104.5
498.832	100.5
499.049	90.5
499.267	77.5
499.484	83.5
499.701	83.5
499.918	88.5
500.135	92.5
500.352	94.5
500.569	86.5
500.786	80.5
501.003	97.5
501.22	95.5
501.437	104.5
501.654	97.5
501.871	98.5
502.088	82.5
502.305	80.5
502.522	88.5
502.739	95.5
502.956	83.5
503.172	83.5
503.389	89.5
503.606	104.5
503.823	95.5
504.04	91.5
504.256	79.5
504.473	96.5
504.69	78.5
504.907	95.5
505.123	95.5
505.34	81.5
505.557	77.5
505.773	97.5
505.99	81.5
506.207	91.5
506.423	90.5
506.64	107.5
506.856	88.5
507.073	83.5
507.289	88.5
507.506	88.5
507.722	113.5
507.939	114.5
508.155	108.5
508.372	92.5
508.588	82.5
508.805	99.5
509.021	90.5
509.238	89.5
509.454	110.5
509.67	94.5
509.887	91.5
510.103	124.5
510.319	219.5
510.536	783.5
510.752	2392.5
510.968	670.5
511.184	161.5
511.401	93.5
511.617	100.5
511.833	89.5
512.049	92.5
512.265	96.5
512.481	83.5
512.698	82.5
512.914	99.5
513.13	78.5
513.346	81.5
513.562	103.5
513.778	91.5
513.994	86.5
514.21	107.5
514.426	113.5
514.642	126.5
514.858	130.5
515.074	178.5
515.29	450.5
515.506	1482.5
515.721	532.5
515.937	158.5
516.153	99.5
516.369	85.5
516.585	94.5
516.801	91.5
517.016	90.5
517.232	91.5
517.448	81.5
517.664	92.5
517.879	99.5
518.095	74.5
518.311	72.5
518.527	86.5
518.742	95.5
518.958	78.5
519.173	90.5
519.389	95.5
519.605	85.5
519.82	97.5
520.036	91.5
520.251	115.5
520.467	91.5
520.682	107.5
520.898	105.5
521.113	102.5
521.329	133.5
521.544	204.5
521.76	584.5
521.975	2384.5
522.19	1430.5
522.406	299.5
522.621	135.5
522.836	92.5
523.052	93.5
523.267	90.5
523.482	106.5
523.698	100.5
523.913	115.5
524.128	119.5
524.343	90.5
524.559	89.5
524.774	85.5
524.989	93.5
525.204	105.5
525.419	99.5
525.634	83.5
525.849	92.5
526.064	88.5
526.28	87.5
526.495	72.5
526.71	91.5
526.925	83.5
527.14	86.5
527.355	90.5
527.57	94.5
527.785	89.5
527.999	93.5
528.214	88.5
528.429	85.5
528.644	83.5
528.859	86.5
529.074	94.5
529.289	130.5
529.503	187.5
529.718	95.5
529.933	90.5
530.148	99.5
530.363	96.5
530.577	102.5
530.792	86.5
531.007	81.5
531.221	70.5
531.436	80.5
531.651	79.5
531.865	88.5
532.08	97.5
532.295	73.5
532.509	95.5
532.724	79.5
532.938	90.5
533.153	88.5
533.367	90.5
533.582	88.5
533.796	95.5
534.011	87.5
534.225	95.5
534.44	84.5
534.654	108.5
534.868	80.5
535.083	85.5
535.297	92.5
535.511	102.5
535.726	110.5
535.94	98.5
