Data from Uncirc_1994_H10_HRD10591_00058.txt Node
Date: Wed Jan 03 11:39:32 EST 2024
User: Yrep
Spectrometer: HR+D1059
Trigger mode: 1
Integration Time (sec): 1.000000E-1
Scans to average: 1
Electric dark correction enabled: true
Nonlinearity correction enabled: false
Boxcar width: 0
XAxis mode: Wavelengths
Number of Pixels in Spectrum: 2048
>>>>>Begin Spectral Data<<<<<
223.165	-14.94
223.4	-14.94
223.635	-14.94
223.869	-8.94
224.104	-28.94
224.338	-16.94
224.573	-10.94
224.808	-12.94
225.042	1.06
225.277	6.06
225.511	-6.94
225.746	1.06
225.98	-9.94
226.215	16.06
226.449	23.06
226.683	13.06
226.918	18.06
227.152	32.06
227.387	31.06
227.621	40.06
227.856	49.06
228.09	57.06
228.324	49.06
228.559	59.06
228.793	40.06
229.027	59.06
229.262	77.06
229.496	59.06
229.73	84.06
229.964	81.06
230.199	60.06
230.433	83.06
230.667	71.06
230.901	68.06
231.136	83.06
231.37	79.06
231.604	97.06
231.838	77.06
232.072	81.06
232.306	78.06
232.541	89.06
232.775	65.06
233.009	76.06
233.243	81.06
233.477	73.06
233.711	89.06
233.945	76.06
234.179	83.06
234.413	87.06
234.647	91.06
234.881	73.06
235.115	75.06
235.349	84.06
235.583	88.06
235.817	75.06
236.051	71.06
236.285	70.06
236.519	77.06
236.753	79.06
236.987	83.06
237.221	87.06
237.455	83.06
237.689	67.06
237.922	78.06
238.156	79.06
238.39	78.06
238.624	76.06
238.858	67.06
239.091	75.06
239.325	71.06
239.559	80.06
239.793	77.06
240.027	75.06
240.26	80.06
240.494	66.06
240.728	72.06
240.961	66.06
241.195	63.06
241.429	60.06
241.662	59.06
241.896	69.06
242.13	94.06
242.363	78.06
242.597	81.06
242.83	81.06
243.064	70.06
243.298	69.06
243.531	74.06
243.765	70.06
243.998	63.06
244.232	79.06
244.465	85.06
244.699	81.06
244.932	86.06
245.166	70.06
245.399	76.06
245.633	75.06
245.866	73.06
246.099	73.06
246.333	74.06
246.566	76.06
246.8	79.06
247.033	90.06
247.266	71.06
247.5	88.06
247.733	58.06
247.966	83.06
248.2	93.06
248.433	81.06
248.666	80.06
248.899	87.06
249.133	78.06
249.366	95.06
249.599	82.06
249.832	97.06
250.066	77.06
250.299	69.06
250.532	79.06
250.765	75.06
250.998	73.06
251.231	70.06
251.465	80.06
251.698	62.06
251.931	69.06
252.164	72.06
252.397	75.06
252.63	84.06
252.863	58.06
253.096	73.06
253.329	63.06
253.562	82.06
253.795	79.06
254.028	75.06
254.261	77.06
254.494	64.06
254.727	91.06
254.96	59.06
255.193	82.06
255.426	93.06
255.659	86.06
255.892	83.06
256.124	82.06
256.357	91.06
256.59	96.06
256.823	68.06
257.056	74.06
257.289	58.06
257.521	82.06
257.754	65.06
257.987	81.06
258.22	84.06
258.452	88.06
258.685	82.06
258.918	86.06
259.151	92.06
259.383	86.06
259.616	85.06
259.849	84.06
260.081	84.06
260.314	85.06
260.547	80.06
260.779	79.06
261.012	83.06
261.244	74.06
261.477	73.06
261.71	89.06
261.942	105.06
262.175	111.06
262.407	83.06
262.64	77.06
262.872	93.06
263.105	87.06
263.337	88.06
263.57	65.06
263.802	79.06
264.035	93.06
264.267	74.06
264.499	83.06
264.732	72.06
264.964	85.06
265.197	85.06
265.429	82.06
265.661	65.06
265.894	79.06
266.126	84.06
266.358	83.06
266.591	83.06
266.823	88.06
267.055	59.06
267.287	80.06
267.52	81.06
267.752	79.06
267.984	90.06
268.216	73.06
268.448	81.06
268.681	87.06
268.913	77.06
269.145	76.06
269.377	87.06
269.609	78.06
269.841	72.06
270.073	86.06
270.306	77.06
270.538	72.06
270.77	70.06
271.002	90.06
271.234	89.06
271.466	85.06
271.698	81.06
271.93	85.06
272.162	83.06
272.394	78.06
272.626	80.06
272.858	84.06
273.09	86.06
273.322	74.06
273.553	77.06
273.785	88.06
274.017	81.06
274.249	90.06
274.481	88.06
274.713	78.06
274.945	83.06
275.176	89.06
275.408	69.06
275.64	89.06
275.872	76.06
276.104	80.06
276.335	94.06
276.567	88.06
276.799	98.06
277.031	82.06
277.262	87.06
277.494	90.06
277.726	61.06
277.957	77.06
278.189	89.06
278.421	78.06
278.652	82.06
278.884	94.06
279.115	92.06
279.347	78.06
279.579	91.06
279.81	61.06
280.042	71.06
280.273	79.06
280.505	89.06
280.736	81.06
280.968	86.06
281.199	80.06
281.431	85.06
281.662	90.06
281.894	93.06
282.125	83.06
282.356	107.06
282.588	131.06
282.819	122.06
283.051	85.06
283.282	70.06
283.513	83.06
283.745	82.06
283.976	90.06
284.207	85.06
284.439	77.06
284.67	79.06
284.901	72.06
285.132	85.06
285.364	71.06
285.595	84.06
285.826	81.06
286.057	73.06
286.288	74.06
286.52	86.06
286.751	88.06
286.982	81.06
287.213	79.06
287.444	86.06
287.675	81.06
287.906	91.06
288.138	82.06
288.369	92.06
288.6	79.06
288.831	92.06
289.062	96.06
289.293	91.06
289.524	72.06
289.755	85.06
289.986	71.06
290.217	78.06
290.448	83.06
290.679	81.06
290.91	85.06
291.141	79.06
291.371	85.06
291.602	90.06
291.833	80.06
292.064	85.06
292.295	73.06
292.526	90.06
292.757	99.06
292.987	86.06
293.218	88.06
293.449	73.06
293.68	98.06
293.91	79.06
294.141	99.06
294.372	74.06
294.603	75.06
294.833	108.06
295.064	86.06
295.295	82.06
295.525	91.06
295.756	88.06
295.987	111.06
296.217	138.06
296.448	119.06
296.679	91.06
296.909	93.06
297.14	92.06
297.37	91.06
297.601	89.06
297.831	99.06
298.062	88.06
298.292	88.06
298.523	94.06
298.753	85.06
298.984	77.06
299.214	81.06
299.445	88.06
299.675	99.06
299.905	88.06
300.136	91.06
300.366	86.06
300.597	81.06
300.827	97.06
301.057	93.06
301.288	85.06
301.518	103.06
301.748	78.06
301.979	101.06
302.209	94.06
302.439	98.06
302.669	89.06
302.9	87.06
303.13	72.06
303.36	88.06
303.59	98.06
303.82	98.06
304.051	101.06
304.281	89.06
304.511	99.06
304.741	78.06
304.971	90.06
305.201	99.06
305.431	91.06
305.661	81.06
305.891	83.06
306.121	90.06
306.352	81.06
306.582	101.06
306.812	81.06
307.042	73.06
307.272	88.06
307.502	94.06
307.731	83.06
307.961	91.06
308.191	98.06
308.421	81.06
308.651	80.06
308.881	89.06
309.111	95.06
309.341	90.06
309.571	87.06
309.8	91.06
310.03	94.06
310.26	107.06
310.49	97.06
310.72	106.06
310.949	92.06
311.179	97.06
311.409	94.06
311.639	94.06
311.868	89.06
312.098	90.06
312.328	90.06
312.557	80.06
312.787	90.06
313.017	97.06
313.246	106.06
313.476	88.06
313.706	80.06
313.935	91.06
314.165	108.06
314.394	98.06
314.624	101.06
314.853	93.06
315.083	88.06
315.312	73.06
315.542	96.06
315.771	98.06
316.001	87.06
316.23	92.06
316.46	98.06
316.689	95.06
316.919	86.06
317.148	83.06
317.377	80.06
317.607	93.06
317.836	90.06
318.065	85.06
318.295	95.06
318.524	107.06
318.753	90.06
318.983	96.06
319.212	97.06
319.441	107.06
319.67	110.06
319.9	93.06
320.129	94.06
320.358	82.06
320.587	86.06
320.816	104.06
321.046	98.06
321.275	109.06
321.504	86.06
321.733	88.06
321.962	91.06
322.191	97.06
322.42	99.06
322.649	103.06
322.878	116.06
323.108	110.06
323.337	107.06
323.566	122.06
323.795	149.06
324.024	197.06
324.253	416.06
324.482	818.06
324.71	1705.06
324.939	2217.06
325.168	773.06
325.397	241.06
325.626	145.06
325.855	116.06
326.084	131.06
326.313	117.06
326.542	144.06
326.77	224.06
326.999	447.06
327.228	947.06
327.457	1713.06
327.686	1353.06
327.914	354.06
328.143	185.06
328.372	142.06
328.6	117.06
328.829	117.06
329.058	126.06
329.287	119.06
329.515	107.06
329.744	95.06
329.972	99.06
330.201	91.06
330.43	114.06
330.658	105.06
330.887	128.06
331.115	119.06
331.344	88.06
331.572	86.06
331.801	97.06
332.03	105.06
332.258	93.06
332.486	108.06
332.715	99.06
332.943	85.06
333.172	107.06
333.4	97.06
333.629	103.06
333.857	105.06
334.085	101.06
334.314	80.06
334.542	95.06
334.771	89.06
334.999	99.06
335.227	97.06
335.455	91.06
335.684	109.06
335.912	91.06
336.14	93.06
336.369	89.06
336.597	94.06
336.825	76.06
337.053	97.06
337.281	82.06
337.51	104.06
337.738	81.06
337.966	98.06
338.194	83.06
338.422	88.06
338.65	94.06
338.878	98.06
339.106	89.06
339.334	95.06
339.562	80.06
339.79	80.06
340.018	87.06
340.246	80.06
340.474	86.06
340.702	103.06
340.93	97.06
341.158	84.06
341.386	90.06
341.614	90.06
341.842	82.06
342.07	79.06
342.298	88.06
342.526	85.06
342.754	80.06
342.981	88.06
343.209	88.06
343.437	97.06
343.665	91.06
343.893	92.06
344.12	82.06
344.348	77.06
344.576	81.06
344.804	94.06
345.031	94.06
345.259	95.06
345.487	82.06
345.714	92.06
345.942	96.06
346.17	80.06
346.397	91.06
346.625	95.06
346.853	87.06
347.08	96.06
347.308	93.06
347.535	94.06
347.763	81.06
347.99	79.06
348.218	97.06
348.445	102.06
348.673	89.06
348.9	81.06
349.128	97.06
349.355	82.06
349.583	80.06
349.81	96.06
350.037	85.06
350.265	93.06
350.492	91.06
350.72	90.06
350.947	85.06
351.174	104.06
351.402	106.06
351.629	87.06
351.856	91.06
352.083	111.06
352.311	96.06
352.538	112.06
352.765	99.06
352.992	100.06
353.22	120.06
353.447	105.06
353.674	114.06
353.901	96.06
354.128	100.06
354.355	81.06
354.583	80.06
354.81	96.06
355.037	102.06
355.264	89.06
355.491	95.06
355.718	87.06
355.945	95.06
356.172	107.06
356.399	73.06
356.626	87.06
356.853	90.06
357.08	81.06
357.307	101.06
357.534	98.06
357.761	78.06
357.988	82.06
358.215	99.06
358.441	91.06
358.668	86.06
358.895	91.06
359.122	93.06
359.349	95.06
359.576	88.06
359.802	91.06
360.029	104.06
360.256	109.06
360.483	96.06
360.709	87.06
360.936	93.06
361.163	86.06
361.39	101.06
361.616	86.06
361.843	83.06
362.07	99.06
362.296	99.06
362.523	92.06
362.749	96.06
362.976	100.06
363.203	90.06
363.429	95.06
363.656	82.06
363.882	95.06
364.109	81.06
364.335	87.06
364.562	96.06
364.788	82.06
365.015	99.06
365.241	95.06
365.468	100.06
365.694	101.06
365.92	84.06
366.147	92.06
366.373	83.06
366.599	89.06
366.826	85.06
367.052	87.06
367.278	78.06
367.505	76.06
367.731	84.06
367.957	88.06
368.184	80.06
368.41	96.06
368.636	113.06
368.862	110.06
369.089	101.06
369.315	102.06
369.541	92.06
369.767	78.06
369.993	94.06
370.219	94.06
370.445	79.06
370.672	65.06
370.898	87.06
371.124	91.06
371.35	97.06
371.576	77.06
371.802	89.06
372.028	78.06
372.254	87.06
372.48	97.06
372.706	84.06
372.932	97.06
373.158	77.06
373.384	93.06
373.61	90.06
373.835	78.06
374.061	71.06
374.287	101.06
374.513	102.06
374.739	77.06
374.965	82.06
375.191	79.06
375.416	89.06
375.642	78.06
375.868	91.06
376.094	85.06
376.319	93.06
376.545	89.06
376.771	91.06
376.997	87.06
377.222	81.06
377.448	90.06
377.674	84.06
377.899	77.06
378.125	79.06
378.35	93.06
378.576	90.06
378.802	87.06
379.027	94.06
379.253	105.06
379.478	91.06
379.704	81.06
379.929	87.06
380.155	80.06
380.38	105.06
380.606	90.06
380.831	94.06
381.057	83.06
381.282	89.06
381.507	83.06
381.733	75.06
381.958	90.06
382.184	87.06
382.409	91.06
382.634	86.06
382.86	83.06
383.085	95.06
383.31	88.06
383.535	90.06
383.761	93.06
383.986	91.06
384.211	75.06
384.436	84.06
384.662	95.06
384.887	85.06
385.112	81.06
385.337	98.06
385.562	104.06
385.787	95.06
386.013	105.06
386.238	112.06
386.463	113.06
386.688	102.06
386.913	100.06
387.138	99.06
387.363	101.06
387.588	96.06
387.813	97.06
388.038	95.06
388.263	99.06
388.488	95.06
388.713	97.06
388.938	91.06
389.163	85.06
389.387	83.06
389.612	92.06
389.837	99.06
390.062	81.06
390.287	80.06
390.512	82.06
390.736	79.06
390.961	83.06
391.186	94.06
391.411	97.06
391.636	89.06
391.86	78.06
392.085	81.06
392.31	86.06
392.534	77.06
392.759	86.06
392.984	80.06
393.208	87.06
393.433	89.06
393.658	105.06
393.882	86.06
394.107	80.06
394.331	78.06
394.556	83.06
394.78	95.06
395.005	89.06
395.229	79.06
395.454	88.06
395.678	70.06
395.903	90.06
396.127	89.06
396.352	78.06
396.576	88.06
396.801	89.06
397.025	76.06
397.249	89.06
397.474	78.06
397.698	71.06
397.922	75.06
398.147	87.06
398.371	87.06
398.595	80.06
398.82	90.06
399.044	72.06
399.268	91.06
399.492	77.06
399.717	76.06
399.941	99.06
400.165	84.06
400.389	96.06
400.613	83.06
400.837	91.06
401.062	98.06
401.286	88.06
401.51	86.06
401.734	93.06
401.958	94.06
402.182	113.06
402.406	147.06
402.63	113.06
402.854	93.06
403.078	89.06
403.302	84.06
403.526	81.06
403.75	85.06
403.974	81.06
404.198	89.06
404.422	80.06
404.645	69.06
404.869	85.06
405.093	96.06
405.317	79.06
405.541	87.06
405.765	96.06
405.988	111.06
406.212	170.06
406.436	209.06
406.66	128.06
406.883	94.06
407.107	82.06
407.331	94.06
407.555	102.06
407.778	88.06
408.002	95.06
408.226	83.06
408.449	90.06
408.673	87.06
408.896	101.06
409.12	88.06
409.344	83.06
409.567	94.06
409.791	90.06
410.014	83.06
410.238	89.06
410.461	98.06
410.685	98.06
410.908	96.06
411.132	103.06
411.355	73.06
411.578	72.06
411.802	87.06
412.025	85.06
412.249	88.06
412.472	89.06
412.695	87.06
412.919	82.06
413.142	83.06
413.365	87.06
413.589	83.06
413.812	86.06
414.035	79.06
414.258	67.06
414.482	89.06
414.705	99.06
414.928	81.06
415.151	96.06
415.374	88.06
415.597	94.06
415.821	99.06
416.044	83.06
416.267	83.06
416.49	87.06
416.713	61.06
416.936	76.06
417.159	82.06
417.382	86.06
417.605	86.06
417.828	94.06
418.051	90.06
418.274	94.06
418.497	77.06
418.72	71.06
418.943	77.06
419.166	77.06
419.389	89.06
419.611	98.06
419.834	89.06
420.057	75.06
420.28	87.06
420.503	81.06
420.726	79.06
420.948	67.06
421.171	96.06
421.394	89.06
421.617	74.06
421.839	86.06
422.062	87.06
422.285	98.06
422.507	97.06
422.73	91.06
422.953	96.06
423.175	89.06
423.398	92.06
423.621	83.06
423.843	86.06
424.066	91.06
424.288	80.06
424.511	90.06
424.733	93.06
424.956	93.06
425.178	94.06
425.401	98.06
425.623	86.06
425.846	91.06
426.068	97.06
426.291	89.06
426.513	83.06
426.735	90.06
426.958	81.06
427.18	83.06
427.402	136.06
427.625	153.06
427.847	103.06
428.069	95.06
428.292	78.06
428.514	86.06
428.736	90.06
428.958	81.06
429.181	81.06
429.403	84.06
429.625	79.06
429.847	96.06
430.069	96.06
430.292	90.06
430.514	75.06
430.736	88.06
430.958	88.06
431.18	72.06
431.402	76.06
431.624	72.06
431.846	77.06
432.068	97.06
432.29	80.06
432.512	94.06
432.734	76.06
432.956	88.06
433.178	98.06
433.4	88.06
433.622	79.06
433.844	79.06
434.066	91.06
434.287	80.06
434.509	98.06
434.731	84.06
434.953	91.06
435.175	85.06
435.397	96.06
435.618	86.06
435.84	108.06
436.062	134.06
436.284	107.06
436.505	95.06
436.727	106.06
436.949	96.06
437.17	78.06
437.392	76.06
437.614	90.06
437.835	99.06
438.057	122.06
438.278	109.06
438.5	105.06
438.721	126.06
438.943	98.06
439.165	92.06
439.386	84.06
439.608	86.06
439.829	92.06
440.05	111.06
440.272	117.06
440.493	110.06
440.715	89.06
440.936	75.06
441.158	85.06
441.379	87.06
441.6	91.06
441.822	103.06
442.043	88.06
442.264	97.06
442.486	82.06
442.707	90.06
442.928	99.06
443.149	109.06
443.371	118.06
443.592	94.06
443.813	106.06
444.034	105.06
444.255	86.06
444.476	73.06
444.698	77.06
444.919	86.06
445.14	137.06
445.361	117.06
445.582	118.06
445.803	149.06
446.024	135.06
446.245	131.06
446.466	110.06
446.687	97.06
446.908	81.06
447.129	89.06
447.35	78.06
447.571	88.06
447.792	88.06
448.013	93.06
448.234	106.06
448.455	93.06
448.675	103.06
448.896	112.06
449.117	106.06
449.338	97.06
449.559	119.06
449.779	146.06
450	81.06
450.221	90.06
450.442	75.06
450.662	105.06
450.883	99.06
451.104	116.06
451.324	84.06
451.545	83.06
451.766	77.06
451.986	89.06
452.207	97.06
452.428	89.06
452.648	89.06
452.869	101.06
453.089	105.06
453.31	118.06
453.53	98.06
453.751	89.06
453.971	94.06
454.192	114.06
454.412	111.06
454.633	81.06
454.853	88.06
455.073	91.06
455.294	105.06
455.514	98.06
455.734	77.06
455.955	94.06
456.175	77.06
456.395	93.06
456.616	78.06
456.836	89.06
457.056	97.06
457.276	76.06
457.497	96.06
457.717	80.06
457.937	81.06
458.157	85.06
458.377	80.06
458.598	80.06
458.818	153.06
459.038	172.06
459.258	113.06
459.478	89.06
459.698	62.06
459.918	75.06
460.138	76.06
460.358	77.06
460.578	88.06
460.798	96.06
461.018	74.06
461.238	88.06
461.458	83.06
461.678	74.06
461.898	82.06
462.118	90.06
462.338	91.06
462.558	83.06
462.777	72.06
462.997	91.06
463.217	93.06
463.437	77.06
463.657	92.06
463.876	83.06
464.096	82.06
464.316	74.06
464.536	90.06
464.755	97.06
464.975	96.06
465.195	163.06
465.414	151.06
465.634	103.06
465.854	80.06
466.073	85.06
466.293	77.06
466.512	83.06
466.732	89.06
466.951	91.06
467.171	85.06
467.391	85.06
467.61	101.06
467.829	91.06
468.049	88.06
468.268	82.06
468.488	82.06
468.707	84.06
468.927	92.06
469.146	79.06
469.365	93.06
469.585	98.06
469.804	89.06
470.023	88.06
470.243	83.06
470.462	101.06
470.681	99.06
470.901	98.06
471.12	84.06
471.339	93.06
471.558	87.06
471.777	82.06
471.997	100.06
472.216	85.06
472.435	79.06
472.654	73.06
472.873	106.06
473.092	87.06
473.311	88.06
473.53	93.06
473.749	104.06
473.968	90.06
474.187	101.06
474.406	88.06
474.625	96.06
474.844	93.06
475.063	87.06
475.282	79.06
475.501	94.06
475.72	98.06
475.939	95.06
476.158	81.06
476.377	99.06
476.596	80.06
476.814	94.06
477.033	90.06
477.252	100.06
477.471	91.06
477.69	99.06
477.908	85.06
478.127	103.06
478.346	86.06
478.564	86.06
478.783	96.06
479.002	96.06
479.22	98.06
479.439	98.06
479.658	93.06
479.876	85.06
480.095	83.06
480.313	107.06
480.532	88.06
480.751	94.06
480.969	80.06
481.188	106.06
481.406	103.06
481.624	87.06
481.843	87.06
482.061	88.06
482.28	86.06
482.498	88.06
482.717	93.06
482.935	83.06
483.153	79.06
483.372	90.06
483.59	85.06
483.808	75.06
484.027	88.06
484.245	99.06
484.463	90.06
484.681	99.06
484.9	91.06
485.118	92.06
485.336	97.06
485.554	90.06
485.772	100.06
485.99	105.06
486.209	106.06
486.427	90.06
486.645	96.06
486.863	118.06
487.081	108.06
487.299	98.06
487.517	96.06
487.735	105.06
487.953	82.06
488.171	90.06
488.389	84.06
488.607	82.06
488.825	99.06
489.043	87.06
489.261	79.06
489.479	102.06
489.696	99.06
489.914	81.06
490.132	91.06
490.35	87.06
490.568	79.06
490.786	82.06
491.003	95.06
491.221	87.06
491.439	83.06
491.657	88.06
491.874	81.06
492.092	83.06
492.31	93.06
492.527	75.06
492.745	89.06
492.963	95.06
493.18	87.06
493.398	86.06
493.615	99.06
493.833	95.06
494.05	90.06
494.268	98.06
494.485	72.06
494.703	79.06
494.92	87.06
495.138	72.06
495.355	85.06
495.573	96.06
495.79	84.06
496.008	88.06
496.225	90.06
496.442	86.06
496.66	80.06
496.877	99.06
497.094	89.06
497.312	90.06
497.529	87.06
497.746	90.06
497.963	90.06
498.181	88.06
498.398	85.06
498.615	101.06
498.832	106.06
499.049	97.06
499.267	89.06
499.484	91.06
499.701	82.06
499.918	81.06
500.135	85.06
500.352	74.06
500.569	82.06
500.786	80.06
501.003	82.06
501.22	95.06
501.437	90.06
501.654	83.06
501.871	96.06
502.088	78.06
502.305	90.06
502.522	79.06
502.739	79.06
502.956	98.06
503.172	91.06
503.389	84.06
503.606	99.06
503.823	79.06
504.04	93.06
504.256	85.06
504.473	97.06
504.69	85.06
504.907	101.06
505.123	82.06
505.34	95.06
505.557	93.06
505.773	78.06
505.99	83.06
506.207	73.06
506.423	87.06
506.64	84.06
506.856	102.06
507.073	93.06
507.289	88.06
507.506	102.06
507.722	98.06
507.939	102.06
508.155	93.06
508.372	88.06
508.588	107.06
508.805	99.06
509.021	88.06
509.238	101.06
509.454	98.06
509.67	86.06
509.887	104.06
510.103	125.06
510.319	211.06
510.536	765.06
510.752	2303.06
510.968	628.06
511.184	151.06
511.401	126.06
511.617	93.06
511.833	97.06
512.049	85.06
512.265	77.06
512.481	95.06
512.698	93.06
512.914	96.06
513.13	90.06
513.346	86.06
513.562	96.06
513.778	98.06
513.994	95.06
514.21	94.06
514.426	117.06
514.642	130.06
514.858	111.06
515.074	153.06
515.29	449.06
515.506	1415.06
515.721	517.06
515.937	152.06
516.153	105.06
516.369	86.06
516.585	96.06
516.801	90.06
517.016	89.06
517.232	92.06
