Data from Uncirc_1994_H10_HRD10591_00073.txt Node
Date: Wed Jan 03 11:39:35 EST 2024
User: Yrep
Spectrometer: HR+D1059
Trigger mode: 1
Integration Time (sec): 1.000000E-1
Scans to average: 1
Electric dark correction enabled: true
Nonlinearity correction enabled: false
Boxcar width: 0
XAxis mode: Wavelengths
Number of Pixels in Spectrum: 2048
>>>>>Begin Spectral Data<<<<<
223.165	-15.31
223.4	-15.31
223.635	-15.31
223.869	-16.31
224.104	-23.31
224.338	-9.31
224.573	-19.31
224.808	-16.31
225.042	-14.31
225.277	-7.31
225.511	-11.31
225.746	6.69
225.98	11.69
226.215	12.69
226.449	17.69
226.683	14.69
226.918	36.69
227.152	32.69
227.387	30.69
227.621	25.69
227.856	47.69
228.09	44.69
228.324	45.69
228.559	62.69
228.793	49.69
229.027	56.69
229.262	64.69
229.496	72.69
229.73	93.69
229.964	68.69
230.199	68.69
230.433	63.69
230.667	70.69
230.901	72.69
231.136	84.69
231.37	82.69
231.604	75.69
231.838	74.69
232.072	80.69
232.306	83.69
232.541	80.69
232.775	85.69
233.009	76.69
233.243	72.69
233.477	78.69
233.711	70.69
233.945	71.69
234.179	63.69
234.413	79.69
234.647	71.69
234.881	67.69
235.115	72.69
235.349	69.69
235.583	67.69
235.817	65.69
236.051	80.69
236.285	74.69
236.519	75.69
236.753	82.69
236.987	67.69
237.221	83.69
237.455	75.69
237.689	63.69
237.922	82.69
238.156	76.69
238.39	72.69
238.624	68.69
238.858	76.69
239.091	72.69
239.325	64.69
239.559	70.69
239.793	69.69
240.027	75.69
240.26	74.69
240.494	73.69
240.728	68.69
240.961	81.69
241.195	73.69
241.429	77.69
241.662	57.69
241.896	85.69
242.13	70.69
242.363	84.69
242.597	77.69
242.83	70.69
243.064	80.69
243.298	88.69
243.531	85.69
243.765	69.69
243.998	80.69
244.232	75.69
244.465	85.69
244.699	74.69
244.932	67.69
245.166	69.69
245.399	83.69
245.633	70.69
245.866	67.69
246.099	81.69
246.333	62.69
246.566	59.69
246.8	79.69
247.033	86.69
247.266	73.69
247.5	70.69
247.733	76.69
247.966	73.69
248.2	86.69
248.433	69.69
248.666	58.69
248.899	76.69
249.133	72.69
249.366	93.69
249.599	99.69
249.832	89.69
250.066	84.69
250.299	72.69
250.532	77.69
250.765	79.69
250.998	71.69
251.231	69.69
251.465	75.69
251.698	72.69
251.931	58.69
252.164	83.69
252.397	61.69
252.63	73.69
252.863	79.69
253.096	77.69
253.329	78.69
253.562	79.69
253.795	74.69
254.028	73.69
254.261	73.69
254.494	67.69
254.727	77.69
254.96	70.69
255.193	63.69
255.426	88.69
255.659	78.69
255.892	72.69
256.124	82.69
256.357	81.69
256.59	78.69
256.823	85.69
257.056	80.69
257.289	79.69
257.521	83.69
257.754	60.69
257.987	80.69
258.22	88.69
258.452	57.69
258.685	72.69
258.918	68.69
259.151	70.69
259.383	82.69
259.616	84.69
259.849	82.69
260.081	73.69
260.314	78.69
260.547	80.69
260.779	73.69
261.012	85.69
261.244	80.69
261.477	90.69
261.71	90.69
261.942	102.69
262.175	115.69
262.407	69.69
262.64	74.69
262.872	59.69
263.105	84.69
263.337	74.69
263.57	76.69
263.802	76.69
264.035	80.69
264.267	83.69
264.499	83.69
264.732	69.69
264.964	97.69
265.197	75.69
265.429	80.69
265.661	93.69
265.894	80.69
266.126	79.69
266.358	82.69
266.591	68.69
266.823	70.69
267.055	87.69
267.287	83.69
267.52	94.69
267.752	80.69
267.984	98.69
268.216	69.69
268.448	83.69
268.681	82.69
268.913	71.69
269.145	80.69
269.377	72.69
269.609	85.69
269.841	99.69
270.073	84.69
270.306	83.69
270.538	77.69
270.77	90.69
271.002	80.69
271.234	74.69
271.466	72.69
271.698	78.69
271.93	83.69
272.162	87.69
272.394	83.69
272.626	74.69
272.858	68.69
273.09	90.69
273.322	70.69
273.553	67.69
273.785	84.69
274.017	74.69
274.249	83.69
274.481	80.69
274.713	84.69
274.945	85.69
275.176	82.69
275.408	74.69
275.64	90.69
275.872	95.69
276.104	79.69
276.335	98.69
276.567	96.69
276.799	93.69
277.031	80.69
277.262	90.69
277.494	83.69
277.726	99.69
277.957	84.69
278.189	79.69
278.421	94.69
278.652	83.69
278.884	94.69
279.115	73.69
279.347	79.69
279.579	92.69
279.81	85.69
280.042	76.69
280.273	77.69
280.505	70.69
280.736	79.69
280.968	88.69
281.199	67.69
281.431	88.69
281.662	80.69
281.894	85.69
282.125	105.69
282.356	94.69
282.588	104.69
282.819	107.69
283.051	77.69
283.282	81.69
283.513	83.69
283.745	74.69
283.976	94.69
284.207	88.69
284.439	88.69
284.67	78.69
284.901	77.69
285.132	83.69
285.364	82.69
285.595	79.69
285.826	81.69
286.057	73.69
286.288	69.69
286.52	90.69
286.751	77.69
286.982	90.69
287.213	79.69
287.444	71.69
287.675	75.69
287.906	86.69
288.138	86.69
288.369	92.69
288.6	100.69
288.831	77.69
289.062	71.69
289.293	87.69
289.524	87.69
289.755	70.69
289.986	82.69
290.217	72.69
290.448	89.69
290.679	79.69
290.91	84.69
291.141	85.69
291.371	80.69
291.602	74.69
291.833	74.69
292.064	83.69
292.295	77.69
292.526	86.69
292.757	84.69
292.987	81.69
293.218	83.69
293.449	89.69
293.68	88.69
293.91	81.69
294.141	96.69
294.372	88.69
294.603	95.69
294.833	80.69
295.064	95.69
295.295	76.69
295.525	89.69
295.756	81.69
295.987	106.69
296.217	150.69
296.448	130.69
296.679	89.69
296.909	81.69
297.14	79.69
297.37	74.69
297.601	84.69
297.831	89.69
298.062	87.69
298.292	83.69
298.523	96.69
298.753	93.69
298.984	81.69
299.214	96.69
299.445	78.69
299.675	83.69
299.905	86.69
300.136	72.69
300.366	76.69
300.597	81.69
300.827	91.69
301.057	96.69
301.288	103.69
301.518	96.69
301.748	80.69
301.979	101.69
302.209	87.69
302.439	80.69
302.669	87.69
302.9	77.69
303.13	84.69
303.36	79.69
303.59	109.69
303.82	96.69
304.051	98.69
304.281	78.69
304.511	86.69
304.741	96.69
304.971	90.69
305.201	81.69
305.431	74.69
305.661	85.69
305.891	90.69
306.121	109.69
306.352	94.69
306.582	101.69
306.812	92.69
307.042	107.69
307.272	81.69
307.502	83.69
307.731	90.69
307.961	75.69
308.191	81.69
308.421	91.69
308.651	96.69
308.881	88.69
309.111	91.69
309.341	92.69
309.571	92.69
309.8	88.69
310.03	93.69
310.26	87.69
310.49	99.69
310.72	93.69
310.949	91.69
311.179	96.69
311.409	92.69
311.639	90.69
311.868	95.69
312.098	91.69
312.328	88.69
312.557	85.69
312.787	95.69
313.017	109.69
313.246	93.69
313.476	77.69
313.706	85.69
313.935	68.69
314.165	101.69
314.394	94.69
314.624	91.69
314.853	91.69
315.083	94.69
315.312	83.69
315.542	76.69
315.771	85.69
316.001	91.69
316.23	72.69
316.46	91.69
316.689	84.69
316.919	89.69
317.148	104.69
317.377	96.69
317.607	108.69
317.836	79.69
318.065	77.69
318.295	88.69
318.524	88.69
318.753	103.69
318.983	75.69
319.212	92.69
319.441	97.69
319.67	104.69
319.9	84.69
320.129	94.69
320.358	101.69
320.587	96.69
320.816	89.69
321.046	94.69
321.275	84.69
321.504	98.69
321.733	83.69
321.962	91.69
322.191	106.69
322.42	103.69
322.649	91.69
322.878	95.69
323.108	101.69
323.337	94.69
323.566	139.69
323.795	128.69
324.024	186.69
324.253	374.69
324.482	759.69
324.71	1582.69
324.939	2075.69
325.168	751.69
325.397	222.69
325.626	133.69
325.855	135.69
326.084	117.69
326.313	124.69
326.542	142.69
326.77	219.69
326.999	418.69
327.228	893.69
327.457	1532.69
327.686	1226.69
327.914	333.69
328.143	167.69
328.372	132.69
328.6	116.69
328.829	90.69
329.058	108.69
329.287	117.69
329.515	103.69
329.744	104.69
329.972	84.69
330.201	78.69
330.43	89.69
330.658	100.69
330.887	128.69
331.115	103.69
331.344	95.69
331.572	91.69
331.801	92.69
332.03	105.69
332.258	85.69
332.486	70.69
332.715	89.69
332.943	87.69
333.172	94.69
333.4	83.69
333.629	101.69
333.857	90.69
334.085	84.69
334.314	69.69
334.542	92.69
334.771	105.69
334.999	96.69
335.227	92.69
335.455	79.69
335.684	96.69
335.912	107.69
336.14	90.69
336.369	86.69
336.597	95.69
336.825	103.69
337.053	86.69
337.281	88.69
337.51	84.69
337.738	96.69
337.966	93.69
338.194	96.69
338.422	89.69
338.65	90.69
338.878	80.69
339.106	79.69
339.334	91.69
339.562	93.69
339.79	83.69
340.018	76.69
340.246	106.69
340.474	86.69
340.702	104.69
340.93	88.69
341.158	84.69
341.386	95.69
341.614	98.69
341.842	86.69
342.07	80.69
342.298	95.69
342.526	81.69
342.754	81.69
342.981	89.69
343.209	90.69
343.437	84.69
343.665	75.69
343.893	92.69
344.12	86.69
344.348	84.69
344.576	75.69
344.804	91.69
345.031	94.69
345.259	101.69
345.487	95.69
345.714	94.69
345.942	79.69
346.17	81.69
346.397	92.69
346.625	87.69
346.853	94.69
347.08	92.69
347.308	102.69
347.535	93.69
347.763	81.69
347.99	92.69
348.218	99.69
348.445	108.69
348.673	105.69
348.9	86.69
349.128	92.69
349.355	93.69
349.583	93.69
349.81	82.69
350.037	94.69
350.265	77.69
350.492	84.69
350.72	86.69
350.947	92.69
351.174	92.69
351.402	94.69
351.629	89.69
351.856	89.69
352.083	100.69
352.311	102.69
352.538	95.69
352.765	96.69
352.992	102.69
353.22	91.69
353.447	91.69
353.674	94.69
353.901	96.69
354.128	95.69
354.355	99.69
354.583	97.69
354.81	101.69
355.037	95.69
355.264	97.69
355.491	94.69
355.718	72.69
355.945	98.69
356.172	79.69
356.399	104.69
356.626	90.69
356.853	80.69
357.08	82.69
357.307	101.69
357.534	105.69
357.761	92.69
357.988	97.69
358.215	95.69
358.441	86.69
358.668	108.69
358.895	83.69
359.122	86.69
359.349	73.69
359.576	90.69
359.802	96.69
360.029	115.69
360.256	111.69
360.483	97.69
360.709	74.69
360.936	90.69
361.163	82.69
361.39	79.69
361.616	104.69
361.843	78.69
362.07	99.69
362.296	73.69
362.523	93.69
362.749	102.69
362.976	79.69
363.203	69.69
363.429	78.69
363.656	78.69
363.882	87.69
364.109	94.69
364.335	101.69
364.562	92.69
364.788	83.69
365.015	93.69
365.241	86.69
365.468	90.69
365.694	99.69
365.92	90.69
366.147	94.69
366.373	95.69
366.599	78.69
366.826	79.69
367.052	87.69
367.278	90.69
367.505	81.69
367.731	89.69
367.957	110.69
368.184	86.69
368.41	102.69
368.636	104.69
368.862	112.69
369.089	103.69
369.315	101.69
369.541	85.69
369.767	84.69
369.993	73.69
370.219	70.69
370.445	81.69
370.672	92.69
370.898	84.69
371.124	76.69
371.35	67.69
371.576	79.69
371.802	85.69
372.028	96.69
372.254	84.69
372.48	95.69
372.706	86.69
372.932	69.69
373.158	83.69
373.384	94.69
373.61	82.69
373.835	80.69
374.061	83.69
374.287	87.69
374.513	87.69
374.739	86.69
374.965	91.69
375.191	76.69
375.416	92.69
375.642	93.69
375.868	73.69
376.094	73.69
376.319	77.69
376.545	94.69
376.771	78.69
376.997	80.69
377.222	73.69
377.448	83.69
377.674	88.69
377.899	77.69
378.125	93.69
378.35	88.69
378.576	59.69
378.802	93.69
379.027	87.69
379.253	79.69
379.478	78.69
379.704	88.69
379.929	76.69
380.155	91.69
380.38	97.69
380.606	90.69
380.831	81.69
381.057	96.69
381.282	103.69
381.507	95.69
381.733	95.69
381.958	106.69
382.184	89.69
382.409	97.69
382.634	101.69
382.86	94.69
383.085	88.69
383.31	100.69
383.535	97.69
383.761	93.69
383.986	84.69
384.211	86.69
384.436	92.69
384.662	100.69
384.887	89.69
385.112	99.69
385.337	98.69
385.562	94.69
385.787	78.69
386.013	94.69
386.238	96.69
386.463	103.69
386.688	99.69
386.913	91.69
387.138	99.69
387.363	92.69
387.588	83.69
387.813	77.69
388.038	93.69
388.263	107.69
388.488	88.69
388.713	97.69
388.938	92.69
389.163	89.69
389.387	103.69
389.612	83.69
389.837	88.69
390.062	90.69
390.287	83.69
390.512	85.69
390.736	80.69
390.961	85.69
391.186	93.69
391.411	86.69
391.636	85.69
391.86	91.69
392.085	95.69
392.31	85.69
392.534	73.69
392.759	83.69
392.984	72.69
393.208	92.69
393.433	71.69
393.658	76.69
393.882	72.69
394.107	69.69
394.331	91.69
394.556	77.69
394.78	77.69
395.005	81.69
395.229	73.69
395.454	88.69
395.678	84.69
395.903	82.69
396.127	78.69
396.352	81.69
396.576	100.69
396.801	68.69
397.025	85.69
397.249	88.69
397.474	90.69
397.698	84.69
397.922	78.69
398.147	76.69
398.371	76.69
398.595	83.69
398.82	73.69
399.044	72.69
399.268	79.69
399.492	80.69
399.717	79.69
399.941	91.69
400.165	88.69
400.389	96.69
400.613	80.69
400.837	69.69
401.062	103.69
401.286	85.69
401.51	76.69
401.734	77.69
401.958	89.69
402.182	102.69
402.406	141.69
402.63	109.69
402.854	92.69
403.078	82.69
403.302	81.69
403.526	98.69
403.75	76.69
403.974	77.69
404.198	93.69
404.422	86.69
404.645	73.69
404.869	95.69
405.093	97.69
405.317	87.69
405.541	95.69
405.765	97.69
405.988	104.69
406.212	144.69
406.436	205.69
406.66	135.69
406.883	92.69
407.107	97.69
407.331	75.69
407.555	100.69
407.778	93.69
408.002	99.69
408.226	86.69
408.449	84.69
408.673	81.69
408.896	104.69
409.12	84.69
409.344	86.69
409.567	88.69
409.791	103.69
410.014	96.69
410.238	81.69
410.461	81.69
410.685	90.69
410.908	79.69
411.132	98.69
411.355	85.69
411.578	85.69
411.802	81.69
412.025	90.69
412.249	86.69
412.472	91.69
412.695	83.69
412.919	94.69
413.142	96.69
413.365	80.69
413.589	72.69
413.812	97.69
414.035	77.69
414.258	77.69
414.482	77.69
414.705	81.69
414.928	78.69
415.151	97.69
415.374	79.69
415.597	66.69
415.821	90.69
416.044	93.69
416.267	88.69
416.49	88.69
416.713	83.69
416.936	76.69
417.159	80.69
417.382	81.69
417.605	86.69
417.828	87.69
418.051	84.69
418.274	73.69
418.497	81.69
418.72	85.69
418.943	73.69
419.166	61.69
419.389	78.69
419.611	77.69
419.834	83.69
420.057	81.69
420.28	101.69
420.503	87.69
420.726	94.69
420.948	84.69
421.171	79.69
421.394	80.69
421.617	76.69
421.839	86.69
422.062	75.69
422.285	83.69
422.507	84.69
422.73	97.69
422.953	86.69
423.175	82.69
423.398	81.69
423.621	93.69
423.843	81.69
424.066	78.69
424.288	79.69
424.511	85.69
424.733	103.69
424.956	93.69
425.178	105.69
425.401	107.69
425.623	104.69
425.846	94.69
426.068	92.69
426.291	88.69
426.513	83.69
426.735	94.69
426.958	80.69
427.18	93.69
427.402	128.69
427.625	136.69
427.847	104.69
428.069	93.69
428.292	83.69
428.514	87.69
428.736	78.69
428.958	78.69
429.181	76.69
429.403	86.69
429.625	86.69
429.847	88.69
430.069	103.69
430.292	83.69
430.514	80.69
430.736	73.69
430.958	71.69
431.18	66.69
431.402	84.69
431.624	85.69
431.846	84.69
432.068	85.69
432.29	80.69
432.512	79.69
432.734	81.69
432.956	78.69
433.178	83.69
433.4	96.69
433.622	81.69
433.844	73.69
434.066	90.69
434.287	81.69
434.509	75.69
434.731	79.69
434.953	92.69
435.175	95.69
435.397	93.69
435.618	77.69
435.84	92.69
436.062	112.69
436.284	93.69
436.505	109.69
436.727	101.69
436.949	84.69
437.17	84.69
437.392	84.69
437.614	94.69
437.835	97.69
438.057	106.69
438.278	100.69
438.5	101.69
438.721	109.69
438.943	96.69
439.165	73.69
439.386	86.69
439.608	97.69
439.829	91.69
440.05	114.69
440.272	126.69
440.493	96.69
440.715	91.69
440.936	82.69
441.158	81.69
441.379	85.69
441.6	91.69
441.822	95.69
442.043	84.69
442.264	96.69
442.486	100.69
442.707	82.69
442.928	103.69
443.149	110.69
443.371	111.69
443.592	111.69
443.813	104.69
444.034	101.69
444.255	76.69
444.476	81.69
444.698	91.69
444.919	71.69
445.14	121.69
445.361	117.69
445.582	120.69
445.803	126.69
446.024	134.69
446.245	116.69
446.466	99.69
446.687	75.69
446.908	90.69
447.129	81.69
447.35	82.69
447.571	92.69
447.792	95.69
448.013	91.69
448.234	104.69
448.455	96.69
448.675	103.69
448.896	92.69
449.117	94.69
449.338	87.69
449.559	102.69
449.779	139.69
450	89.69
450.221	89.69
450.442	83.69
450.662	84.69
450.883	95.69
451.104	100.69
451.324	79.69
451.545	79.69
451.766	85.69
451.986	72.69
452.207	88.69
452.428	83.69
452.648	87.69
452.869	105.69
453.089	104.69
453.31	108.69
453.53	85.69
453.751	77.69
453.971	92.69
454.192	93.69
454.412	90.69
454.633	81.69
454.853	80.69
455.073	85.69
455.294	78.69
455.514	90.69
455.734	88.69
455.955	91.69
456.175	88.69
456.395	80.69
456.616	88.69
456.836	89.69
457.056	76.69
457.276	68.69
457.497	78.69
457.717	78.69
457.937	86.69
458.157	81.69
458.377	87.69
458.598	94.69
458.818	142.69
459.038	134.69
459.258	106.69
459.478	95.69
459.698	75.69
459.918	81.69
460.138	76.69
460.358	84.69
460.578	88.69
460.798	88.69
461.018	84.69
461.238	87.69
461.458	88.69
461.678	85.69
461.898	70.69
462.118	58.69
462.338	84.69
462.558	69.69
462.777	78.69
462.997	87.69
463.217	89.69
463.437	82.69
463.657	88.69
463.876	85.69
464.096	92.69
464.316	96.69
464.536	99.69
464.755	72.69
464.975	108.69
465.195	158.69
465.414	132.69
465.634	92.69
465.854	88.69
466.073	89.69
466.293	73.69
466.512	74.69
466.732	62.69
466.951	85.69
467.171	95.69
467.391	76.69
467.61	88.69
467.829	90.69
468.049	84.69
468.268	86.69
468.488	76.69
468.707	89.69
468.927	90.69
469.146	85.69
469.365	78.69
469.585	83.69
469.804	88.69
470.023	107.69
470.243	77.69
470.462	84.69
470.681	84.69
470.901	86.69
471.12	89.69
471.339	82.69
471.558	84.69
471.777	75.69
471.997	81.69
472.216	86.69
472.435	79.69
472.654	79.69
472.873	74.69
473.092	66.69
473.311	89.69
473.53	80.69
473.749	86.69
473.968	98.69
474.187	106.69
474.406	86.69
474.625	80.69
474.844	75.69
475.063	73.69
475.282	75.69
475.501	92.69
475.72	95.69
475.939	83.69
476.158	91.69
476.377	77.69
476.596	89.69
476.814	93.69
477.033	100.69
477.252	77.69
477.471	73.69
477.69	80.69
477.908	86.69
478.127	85.69
478.346	86.69
478.564	88.69
478.783	95.69
479.002	93.69
479.22	93.69
479.439	91.69
479.658	96.69
479.876	98.69
480.095	81.69
480.313	85.69
480.532	79.69
480.751	87.69
480.969	80.69
481.188	96.69
481.406	89.69
481.624	85.69
481.843	90.69
482.061	78.69
482.28	84.69
482.498	72.69
482.717	69.69
482.935	94.69
483.153	80.69
483.372	83.69
483.59	88.69
483.808	78.69
484.027	85.69
484.245	93.69
484.463	93.69
484.681	88.69
484.9	93.69
485.118	92.69
485.336	84.69
485.554	92.69
485.772	93.69
485.99	85.69
486.209	96.69
486.427	107.69
486.645	93.69
486.863	93.69
487.081	97.69
487.299	93.69
487.517	95.69
487.735	91.69
487.953	84.69
488.171	90.69
488.389	90.69
488.607	104.69
488.825	95.69
489.043	78.69
489.261	87.69
489.479	79.69
489.696	82.69
489.914	67.69
490.132	81.69
490.35	87.69
490.568	92.69
490.786	96.69
491.003	79.69
491.221	88.69
491.439	82.69
491.657	74.69
491.874	88.69
492.092	101.69
492.31	89.69
492.527	84.69
492.745	87.69
492.963	89.69
493.18	90.69
493.398	84.69
493.615	82.69
493.833	96.69
494.05	64.69
494.268	88.69
494.485	78.69
494.703	86.69
494.92	85.69
495.138	81.69
495.355	81.69
495.573	81.69
495.79	79.69
496.008	80.69
496.225	95.69
496.442	75.69
496.66	96.69
496.877	88.69
497.094	85.69
497.312	72.69
497.529	100.69
497.746	78.69
497.963	77.69
498.181	79.69
498.398	67.69
498.615	89.69
498.832	102.69
499.049	93.69
499.267	87.69
499.484	82.69
499.701	83.69
499.918	83.69
500.135	89.69
500.352	80.69
500.569	80.69
500.786	93.69
501.003	74.69
501.22	67.69
501.437	83.69
501.654	88.69
501.871	89.69
502.088	98.69
502.305	84.69
502.522	90.69
502.739	82.69
502.956	83.69
503.172	86.69
503.389	90.69
503.606	94.69
503.823	85.69
504.04	73.69
504.256	76.69
504.473	79.69
504.69	78.69
504.907	95.69
505.123	84.69
505.34	83.69
505.557	86.69
505.773	86.69
505.99	88.69
506.207	83.69
506.423	87.69
506.64	79.69
506.856	80.69
507.073	71.69
507.289	91.69
507.506	89.69
507.722	89.69
507.939	101.69
508.155	101.69
508.372	83.69
508.588	89.69
508.805	84.69
509.021	81.69
509.238	78.69
509.454	82.69
509.67	100.69
509.887	107.69
510.103	133.69
510.319	220.69
510.536	743.69
510.752	2311.69
510.968	604.69
511.184	139.69
511.401	108.69
511.617	108.69
511.833	91.69
512.049	98.69
512.265	87.69
512.481	82.69
512.698	82.69
512.914	96.69
513.13	101.69
513.346	79.69
513.562	99.69
513.778	96.69
513.994	93.69
514.21	87.69
514.426	109.69
514.642	121.69
514.858	109.69
515.074	155.69
515.29	404.69
515.506	1363.69
515.721	483.69
515.937	152.69
516.153	93.69
516.369	83.69
516.585	88.69
516.801	90.69
517.016	89.69
517.232	89.69
517.448	88.69
