Data from Uncirc_1994_H10_HRD10591_00087.txt Node
Date: Wed Jan 03 11:39:38 EST 2024
User: Yrep
Spectrometer: HR+D1059
Trigger mode: 1
Integration Time (sec): 1.000000E-1
Scans to average: 1
Electric dark correction enabled: true
Nonlinearity correction enabled: false
Boxcar width: 0
XAxis mode: Wavelengths
Number of Pixels in Spectrum: 2048
>>>>>Begin Spectral Data<<<<<
223.165	-3.88
223.4	-3.88
223.635	-3.88
223.869	-24.88
224.104	-13.88
224.338	-15.88
224.573	-18.88
224.808	-8.88
225.042	-18.88
225.277	-10.88
225.511	6.12
225.746	-3.88
225.98	14.12
226.215	6.12
226.449	19.12
226.683	19.12
226.918	20.12
227.152	35.12
227.387	26.12
227.621	33.12
227.856	50.12
228.09	36.12
228.324	43.12
228.559	43.12
228.793	49.12
229.027	63.12
229.262	63.12
229.496	64.12
229.73	87.12
229.964	83.12
230.199	75.12
230.433	77.12
230.667	84.12
230.901	81.12
231.136	68.12
231.37	60.12
231.604	83.12
231.838	79.12
232.072	82.12
232.306	80.12
232.541	80.12
232.775	82.12
233.009	75.12
233.243	77.12
233.477	75.12
233.711	74.12
233.945	70.12
234.179	81.12
234.413	73.12
234.647	90.12
234.881	74.12
235.115	77.12
235.349	95.12
235.583	93.12
235.817	70.12
236.051	67.12
236.285	82.12
236.519	59.12
236.753	59.12
236.987	76.12
237.221	72.12
237.455	84.12
237.689	76.12
237.922	79.12
238.156	75.12
238.39	78.12
238.624	61.12
238.858	87.12
239.091	83.12
239.325	76.12
239.559	83.12
239.793	81.12
240.027	74.12
240.26	89.12
240.494	60.12
240.728	78.12
240.961	69.12
241.195	83.12
241.429	81.12
241.662	85.12
241.896	79.12
242.13	81.12
242.363	75.12
242.597	70.12
242.83	80.12
243.064	82.12
243.298	84.12
243.531	77.12
243.765	73.12
243.998	78.12
244.232	74.12
244.465	78.12
244.699	71.12
244.932	66.12
245.166	84.12
245.399	86.12
245.633	77.12
245.866	68.12
246.099	78.12
246.333	82.12
246.566	88.12
246.8	75.12
247.033	68.12
247.266	90.12
247.5	82.12
247.733	91.12
247.966	87.12
248.2	81.12
248.433	80.12
248.666	76.12
248.899	84.12
249.133	83.12
249.366	104.12
249.599	86.12
249.832	75.12
250.066	80.12
250.299	87.12
250.532	87.12
250.765	70.12
250.998	64.12
251.231	76.12
251.465	82.12
251.698	83.12
251.931	75.12
252.164	67.12
252.397	79.12
252.63	83.12
252.863	74.12
253.096	86.12
253.329	84.12
253.562	85.12
253.795	90.12
254.028	73.12
254.261	92.12
254.494	78.12
254.727	73.12
254.96	85.12
255.193	81.12
255.426	79.12
255.659	74.12
255.892	91.12
256.124	88.12
256.357	65.12
256.59	72.12
256.823	65.12
257.056	92.12
257.289	93.12
257.521	82.12
257.754	78.12
257.987	90.12
258.22	78.12
258.452	75.12
258.685	89.12
258.918	68.12
259.151	75.12
259.383	70.12
259.616	72.12
259.849	85.12
260.081	90.12
260.314	91.12
260.547	65.12
260.779	86.12
261.012	52.12
261.244	78.12
261.477	80.12
261.71	83.12
261.942	99.12
262.175	105.12
262.407	95.12
262.64	87.12
262.872	71.12
263.105	66.12
263.337	99.12
263.57	78.12
263.802	76.12
264.035	85.12
264.267	90.12
264.499	70.12
264.732	79.12
264.964	84.12
265.197	68.12
265.429	86.12
265.661	80.12
265.894	95.12
266.126	90.12
266.358	91.12
266.591	76.12
266.823	91.12
267.055	86.12
267.287	72.12
267.52	81.12
267.752	92.12
267.984	77.12
268.216	81.12
268.448	83.12
268.681	74.12
268.913	93.12
269.145	97.12
269.377	80.12
269.609	71.12
269.841	78.12
270.073	88.12
270.306	78.12
270.538	85.12
270.77	84.12
271.002	76.12
271.234	98.12
271.466	89.12
271.698	83.12
271.93	81.12
272.162	90.12
272.394	72.12
272.626	78.12
272.858	84.12
273.09	66.12
273.322	80.12
273.553	72.12
273.785	97.12
274.017	81.12
274.249	90.12
274.481	65.12
274.713	81.12
274.945	84.12
275.176	82.12
275.408	88.12
275.64	77.12
275.872	86.12
276.104	91.12
276.335	91.12
276.567	92.12
276.799	98.12
277.031	107.12
277.262	94.12
277.494	99.12
277.726	90.12
277.957	87.12
278.189	90.12
278.421	80.12
278.652	91.12
278.884	76.12
279.115	82.12
279.347	78.12
279.579	61.12
279.81	90.12
280.042	74.12
280.273	95.12
280.505	88.12
280.736	95.12
280.968	65.12
281.199	74.12
281.431	95.12
281.662	78.12
281.894	88.12
282.125	110.12
282.356	113.12
282.588	130.12
282.819	116.12
283.051	94.12
283.282	88.12
283.513	83.12
283.745	91.12
283.976	80.12
284.207	88.12
284.439	69.12
284.67	91.12
284.901	67.12
285.132	75.12
285.364	96.12
285.595	85.12
285.826	82.12
286.057	86.12
286.288	73.12
286.52	93.12
286.751	89.12
286.982	90.12
287.213	91.12
287.444	77.12
287.675	74.12
287.906	78.12
288.138	85.12
288.369	82.12
288.6	78.12
288.831	86.12
289.062	83.12
289.293	87.12
289.524	87.12
289.755	87.12
289.986	90.12
290.217	81.12
290.448	75.12
290.679	81.12
290.91	85.12
291.141	83.12
291.371	88.12
291.602	93.12
291.833	91.12
292.064	93.12
292.295	92.12
292.526	95.12
292.757	96.12
292.987	86.12
293.218	69.12
293.449	91.12
293.68	112.12
293.91	83.12
294.141	92.12
294.372	82.12
294.603	80.12
294.833	88.12
295.064	81.12
295.295	96.12
295.525	88.12
295.756	91.12
295.987	99.12
296.217	127.12
296.448	127.12
296.679	104.12
296.909	94.12
297.14	82.12
297.37	83.12
297.601	84.12
297.831	81.12
298.062	81.12
298.292	84.12
298.523	80.12
298.753	71.12
298.984	92.12
299.214	89.12
299.445	90.12
299.675	83.12
299.905	87.12
300.136	100.12
300.366	100.12
300.597	107.12
300.827	105.12
301.057	99.12
301.288	79.12
301.518	90.12
301.748	81.12
301.979	93.12
302.209	93.12
302.439	79.12
302.669	82.12
302.9	87.12
303.13	90.12
303.36	87.12
303.59	99.12
303.82	98.12
304.051	96.12
304.281	80.12
304.511	91.12
304.741	85.12
304.971	92.12
305.201	98.12
305.431	81.12
305.661	89.12
305.891	100.12
306.121	97.12
306.352	104.12
306.582	103.12
306.812	88.12
307.042	83.12
307.272	91.12
307.502	81.12
307.731	86.12
307.961	95.12
308.191	78.12
308.421	92.12
308.651	86.12
308.881	78.12
309.111	76.12
309.341	84.12
309.571	76.12
309.8	76.12
310.03	70.12
310.26	87.12
310.49	103.12
310.72	97.12
310.949	95.12
311.179	92.12
311.409	90.12
311.639	105.12
311.868	99.12
312.098	88.12
312.328	78.12
312.557	92.12
312.787	108.12
313.017	90.12
313.246	93.12
313.476	77.12
313.706	81.12
313.935	86.12
314.165	93.12
314.394	92.12
314.624	98.12
314.853	96.12
315.083	94.12
315.312	64.12
315.542	74.12
315.771	80.12
316.001	88.12
316.23	97.12
316.46	84.12
316.689	85.12
316.919	93.12
317.148	104.12
317.377	80.12
317.607	89.12
317.836	104.12
318.065	91.12
318.295	92.12
318.524	99.12
318.753	99.12
318.983	88.12
319.212	93.12
319.441	99.12
319.67	105.12
319.9	87.12
320.129	106.12
320.358	94.12
320.587	110.12
320.816	97.12
321.046	109.12
321.275	92.12
321.504	101.12
321.733	100.12
321.962	90.12
322.191	104.12
322.42	91.12
322.649	97.12
322.878	111.12
323.108	116.12
323.337	124.12
323.566	129.12
323.795	132.12
324.024	200.12
324.253	367.12
324.482	791.12
324.71	1628.12
324.939	2137.12
325.168	784.12
325.397	218.12
325.626	135.12
325.855	118.12
326.084	118.12
326.313	117.12
326.542	152.12
326.77	232.12
326.999	426.12
327.228	903.12
327.457	1637.12
327.686	1296.12
327.914	353.12
328.143	198.12
328.372	137.12
328.6	125.12
328.829	104.12
329.058	119.12
329.287	125.12
329.515	100.12
329.744	86.12
329.972	93.12
330.201	89.12
330.43	107.12
330.658	119.12
330.887	138.12
331.115	102.12
331.344	99.12
331.572	106.12
331.801	87.12
332.03	99.12
332.258	84.12
332.486	81.12
332.715	95.12
332.943	95.12
333.172	94.12
333.4	90.12
333.629	100.12
333.857	107.12
334.085	95.12
334.314	90.12
334.542	93.12
334.771	90.12
334.999	99.12
335.227	102.12
335.455	80.12
335.684	96.12
335.912	92.12
336.14	102.12
336.369	84.12
336.597	106.12
336.825	91.12
337.053	90.12
337.281	94.12
337.51	90.12
337.738	84.12
337.966	95.12
338.194	94.12
338.422	97.12
338.65	84.12
338.878	98.12
339.106	91.12
339.334	86.12
339.562	89.12
339.79	82.12
340.018	91.12
340.246	92.12
340.474	105.12
340.702	98.12
340.93	99.12
341.158	80.12
341.386	87.12
341.614	89.12
341.842	73.12
342.07	96.12
342.298	86.12
342.526	86.12
342.754	90.12
342.981	74.12
343.209	81.12
343.437	106.12
343.665	92.12
343.893	90.12
344.12	95.12
344.348	99.12
344.576	95.12
344.804	95.12
345.031	96.12
345.259	104.12
345.487	77.12
345.714	96.12
345.942	87.12
346.17	99.12
346.397	95.12
346.625	92.12
346.853	89.12
347.08	89.12
347.308	91.12
347.535	88.12
347.763	100.12
347.99	104.12
348.218	98.12
348.445	100.12
348.673	94.12
348.9	100.12
349.128	108.12
349.355	99.12
349.583	102.12
349.81	86.12
350.037	102.12
350.265	80.12
350.492	105.12
350.72	90.12
350.947	88.12
351.174	111.12
351.402	96.12
351.629	103.12
351.856	93.12
352.083	113.12
352.311	114.12
352.538	122.12
352.765	116.12
352.992	114.12
353.22	97.12
353.447	109.12
353.674	112.12
353.901	100.12
354.128	98.12
354.355	90.12
354.583	90.12
354.81	107.12
355.037	91.12
355.264	82.12
355.491	91.12
355.718	86.12
355.945	90.12
356.172	104.12
356.399	83.12
356.626	87.12
356.853	99.12
357.08	92.12
357.307	85.12
357.534	92.12
357.761	97.12
357.988	97.12
358.215	91.12
358.441	81.12
358.668	87.12
358.895	80.12
359.122	86.12
359.349	87.12
359.576	88.12
359.802	101.12
360.029	104.12
360.256	91.12
360.483	97.12
360.709	88.12
360.936	98.12
361.163	84.12
361.39	91.12
361.616	87.12
361.843	105.12
362.07	86.12
362.296	92.12
362.523	104.12
362.749	82.12
362.976	85.12
363.203	100.12
363.429	91.12
363.656	83.12
363.882	85.12
364.109	90.12
364.335	93.12
364.562	92.12
364.788	89.12
365.015	100.12
365.241	102.12
365.468	114.12
365.694	104.12
365.92	91.12
366.147	74.12
366.373	89.12
366.599	78.12
366.826	98.12
367.052	90.12
367.278	92.12
367.505	89.12
367.731	86.12
367.957	98.12
368.184	105.12
368.41	108.12
368.636	112.12
368.862	118.12
369.089	105.12
369.315	97.12
369.541	93.12
369.767	87.12
369.993	91.12
370.219	83.12
370.445	89.12
370.672	90.12
370.898	83.12
371.124	90.12
371.35	80.12
371.576	94.12
371.802	84.12
372.028	80.12
372.254	89.12
372.48	97.12
372.706	97.12
372.932	84.12
373.158	80.12
373.384	80.12
373.61	91.12
373.835	96.12
374.061	82.12
374.287	88.12
374.513	86.12
374.739	91.12
374.965	93.12
375.191	95.12
375.416	81.12
375.642	95.12
375.868	77.12
376.094	94.12
376.319	90.12
376.545	88.12
376.771	99.12
376.997	94.12
377.222	82.12
377.448	86.12
377.674	82.12
377.899	97.12
378.125	79.12
378.35	80.12
378.576	85.12
378.802	92.12
379.027	78.12
379.253	78.12
379.478	98.12
379.704	87.12
379.929	83.12
380.155	93.12
380.38	83.12
380.606	85.12
380.831	92.12
381.057	90.12
381.282	82.12
381.507	93.12
381.733	84.12
381.958	95.12
382.184	94.12
382.409	97.12
382.634	83.12
382.86	106.12
383.085	80.12
383.31	90.12
383.535	94.12
383.761	104.12
383.986	95.12
384.211	92.12
384.436	82.12
384.662	99.12
384.887	95.12
385.112	93.12
385.337	105.12
385.562	106.12
385.787	98.12
386.013	92.12
386.238	99.12
386.463	100.12
386.688	107.12
386.913	99.12
387.138	93.12
387.363	88.12
387.588	107.12
387.813	94.12
388.038	97.12
388.263	104.12
388.488	98.12
388.713	90.12
388.938	94.12
389.163	80.12
389.387	93.12
389.612	100.12
389.837	89.12
390.062	95.12
390.287	97.12
390.512	104.12
390.736	94.12
390.961	88.12
391.186	90.12
391.411	102.12
391.636	86.12
391.86	84.12
392.085	100.12
392.31	75.12
392.534	69.12
392.759	79.12
392.984	91.12
393.208	77.12
393.433	72.12
393.658	67.12
393.882	88.12
394.107	83.12
394.331	93.12
394.556	94.12
394.78	80.12
395.005	90.12
395.229	80.12
395.454	86.12
395.678	79.12
395.903	86.12
396.127	90.12
396.352	85.12
396.576	72.12
396.801	85.12
397.025	66.12
397.249	92.12
397.474	86.12
397.698	83.12
397.922	78.12
398.147	83.12
398.371	87.12
398.595	83.12
398.82	94.12
399.044	94.12
399.268	82.12
399.492	82.12
399.717	81.12
399.941	71.12
400.165	89.12
400.389	80.12
400.613	79.12
400.837	61.12
401.062	82.12
401.286	87.12
401.51	83.12
401.734	86.12
401.958	104.12
402.182	120.12
402.406	154.12
402.63	108.12
402.854	90.12
403.078	89.12
403.302	92.12
403.526	82.12
403.75	83.12
403.974	83.12
404.198	81.12
404.422	86.12
404.645	80.12
404.869	89.12
405.093	99.12
405.317	83.12
405.541	95.12
405.765	100.12
405.988	109.12
406.212	162.12
406.436	222.12
406.66	139.12
406.883	95.12
407.107	94.12
407.331	91.12
407.555	88.12
407.778	94.12
408.002	95.12
408.226	99.12
408.449	101.12
408.673	96.12
408.896	118.12
409.12	75.12
409.344	95.12
409.567	75.12
409.791	96.12
410.014	94.12
410.238	86.12
410.461	99.12
410.685	94.12
410.908	90.12
411.132	96.12
411.355	102.12
411.578	78.12
411.802	83.12
412.025	95.12
412.249	88.12
412.472	89.12
412.695	88.12
412.919	96.12
413.142	89.12
413.365	79.12
413.589	90.12
413.812	86.12
414.035	83.12
414.258	90.12
414.482	77.12
414.705	99.12
414.928	90.12
415.151	72.12
415.374	98.12
415.597	91.12
415.821	96.12
416.044	92.12
416.267	89.12
416.49	84.12
416.713	84.12
416.936	84.12
417.159	94.12
417.382	82.12
417.605	82.12
417.828	92.12
418.051	87.12
418.274	80.12
418.497	90.12
418.72	90.12
418.943	74.12
419.166	92.12
419.389	91.12
419.611	90.12
419.834	85.12
420.057	89.12
420.28	92.12
420.503	72.12
420.726	90.12
420.948	80.12
421.171	91.12
421.394	102.12
421.617	98.12
421.839	81.12
422.062	83.12
422.285	89.12
422.507	94.12
422.73	100.12
422.953	89.12
423.175	80.12
423.398	85.12
423.621	79.12
423.843	95.12
424.066	88.12
424.288	78.12
424.511	90.12
424.733	95.12
424.956	92.12
425.178	99.12
425.401	102.12
425.623	99.12
425.846	86.12
426.068	82.12
426.291	84.12
426.513	82.12
426.735	82.12
426.958	96.12
427.18	102.12
427.402	135.12
427.625	146.12
427.847	113.12
428.069	82.12
428.292	89.12
428.514	78.12
428.736	89.12
428.958	70.12
429.181	81.12
429.403	88.12
429.625	86.12
429.847	91.12
430.069	81.12
430.292	99.12
430.514	108.12
430.736	94.12
430.958	89.12
431.18	95.12
431.402	87.12
431.624	86.12
431.846	85.12
432.068	81.12
432.29	88.12
432.512	83.12
432.734	80.12
432.956	87.12
433.178	103.12
433.4	90.12
433.622	100.12
433.844	100.12
434.066	99.12
434.287	97.12
434.509	90.12
434.731	83.12
434.953	86.12
435.175	97.12
435.397	77.12
435.618	96.12
435.84	93.12
436.062	128.12
436.284	102.12
436.505	113.12
436.727	107.12
436.949	106.12
437.17	95.12
437.392	76.12
437.614	93.12
437.835	106.12
438.057	104.12
438.278	122.12
438.5	98.12
438.721	114.12
438.943	92.12
439.165	73.12
439.386	80.12
439.608	95.12
439.829	96.12
440.05	111.12
440.272	143.12
440.493	94.12
440.715	92.12
440.936	85.12
441.158	90.12
441.379	84.12
441.6	98.12
441.822	78.12
442.043	100.12
442.264	106.12
442.486	102.12
442.707	87.12
442.928	98.12
443.149	122.12
443.371	112.12
443.592	118.12
443.813	114.12
444.034	104.12
444.255	81.12
444.476	86.12
444.698	83.12
444.919	90.12
445.14	129.12
445.361	113.12
445.582	80.12
445.803	141.12
446.024	134.12
446.245	122.12
446.466	113.12
446.687	89.12
446.908	88.12
447.129	96.12
447.35	82.12
447.571	91.12
447.792	82.12
448.013	103.12
448.234	110.12
448.455	81.12
448.675	118.12
448.896	112.12
449.117	92.12
449.338	100.12
449.559	139.12
449.779	141.12
450	95.12
450.221	84.12
450.442	97.12
450.662	96.12
450.883	92.12
451.104	106.12
451.324	106.12
451.545	92.12
451.766	94.12
451.986	82.12
452.207	84.12
452.428	91.12
452.648	94.12
452.869	102.12
453.089	100.12
453.31	105.12
453.53	97.12
453.751	88.12
453.971	92.12
454.192	100.12
454.412	102.12
454.633	74.12
454.853	88.12
455.073	80.12
455.294	87.12
455.514	94.12
455.734	74.12
455.955	81.12
456.175	107.12
456.395	73.12
456.616	76.12
456.836	59.12
457.056	81.12
457.276	98.12
457.497	77.12
457.717	94.12
457.937	84.12
458.157	91.12
458.377	95.12
458.598	105.12
458.818	122.12
459.038	149.12
459.258	114.12
459.478	83.12
459.698	80.12
459.918	83.12
460.138	90.12
460.358	79.12
460.578	94.12
460.798	84.12
461.018	76.12
461.238	82.12
461.458	91.12
461.678	78.12
461.898	83.12
462.118	90.12
462.338	94.12
462.558	84.12
462.777	86.12
462.997	86.12
463.217	81.12
463.437	87.12
463.657	97.12
463.876	98.12
464.096	84.12
464.316	87.12
464.536	95.12
464.755	99.12
464.975	103.12
465.195	154.12
465.414	138.12
465.634	98.12
465.854	83.12
466.073	85.12
466.293	86.12
466.512	87.12
466.732	92.12
466.951	92.12
467.171	74.12
467.391	90.12
467.61	100.12
467.829	90.12
468.049	91.12
468.268	87.12
468.488	86.12
468.707	79.12
468.927	86.12
469.146	90.12
469.365	96.12
469.585	86.12
469.804	84.12
470.023	108.12
470.243	84.12
470.462	103.12
470.681	99.12
470.901	79.12
471.12	86.12
471.339	88.12
471.558	81.12
471.777	81.12
471.997	84.12
472.216	66.12
472.435	79.12
472.654	84.12
472.873	85.12
473.092	83.12
473.311	80.12
473.53	88.12
473.749	98.12
473.968	115.12
474.187	119.12
474.406	88.12
474.625	87.12
474.844	84.12
475.063	92.12
475.282	92.12
475.501	86.12
475.72	87.12
475.939	83.12
476.158	88.12
476.377	79.12
476.596	91.12
476.814	80.12
477.033	100.12
477.252	93.12
477.471	78.12
477.69	78.12
477.908	80.12
478.127	87.12
478.346	91.12
478.564	81.12
478.783	90.12
479.002	68.12
479.22	96.12
479.439	105.12
479.658	90.12
479.876	87.12
480.095	77.12
480.313	80.12
480.532	91.12
480.751	103.12
480.969	94.12
481.188	92.12
481.406	95.12
481.624	82.12
481.843	89.12
482.061	82.12
482.28	73.12
482.498	95.12
482.717	95.12
482.935	92.12
483.153	82.12
483.372	84.12
483.59	75.12
483.808	91.12
484.027	93.12
484.245	95.12
484.463	88.12
484.681	95.12
484.9	89.12
485.118	88.12
485.336	95.12
485.554	92.12
485.772	98.12
485.99	109.12
486.209	100.12
486.427	107.12
486.645	108.12
486.863	128.12
487.081	95.12
487.299	99.12
487.517	94.12
487.735	89.12
487.953	77.12
488.171	83.12
488.389	71.12
488.607	108.12
488.825	87.12
489.043	95.12
489.261	100.12
489.479	99.12
489.696	96.12
489.914	103.12
490.132	78.12
490.35	74.12
490.568	96.12
490.786	106.12
491.003	101.12
491.221	95.12
491.439	94.12
491.657	86.12
491.874	109.12
492.092	94.12
492.31	88.12
492.527	100.12
492.745	92.12
492.963	85.12
493.18	95.12
493.398	84.12
493.615	94.12
493.833	94.12
494.05	79.12
494.268	88.12
494.485	89.12
494.703	98.12
494.92	82.12
495.138	93.12
495.355	83.12
495.573	81.12
495.79	86.12
496.008	91.12
496.225	76.12
496.442	83.12
496.66	86.12
496.877	86.12
497.094	98.12
497.312	87.12
497.529	81.12
497.746	72.12
497.963	93.12
498.181	94.12
498.398	95.12
498.615	117.12
498.832	116.12
499.049	92.12
499.267	107.12
499.484	108.12
499.701	96.12
499.918	92.12
500.135	79.12
500.352	82.12
500.569	100.12
500.786	76.12
501.003	89.12
501.22	100.12
501.437	88.12
501.654	94.12
501.871	100.12
502.088	87.12
502.305	92.12
502.522	83.12
502.739	95.12
502.956	82.12
503.172	109.12
503.389	100.12
503.606	91.12
503.823	98.12
504.04	99.12
504.256	75.12
504.473	83.12
504.69	87.12
504.907	91.12
505.123	81.12
505.34	75.12
505.557	96.12
505.773	87.12
505.99	86.12
506.207	90.12
506.423	97.12
506.64	83.12
506.856	100.12
507.073	83.12
507.289	94.12
507.506	91.12
507.722	116.12
507.939	111.12
508.155	95.12
508.372	92.12
508.588	94.12
508.805	93.12
509.021	96.12
509.238	101.12
509.454	99.12
509.67	95.12
509.887	97.12
510.103	123.12
510.319	221.12
510.536	769.12
510.752	2282.12
510.968	640.12
511.184	142.12
511.401	121.12
511.617	90.12
511.833	78.12
512.049	88.12
512.265	80.12
512.481	94.12
512.698	87.12
512.914	91.12
513.13	105.12
513.346	95.12
513.562	104.12
513.778	97.12
513.994	94.12
514.21	110.12
514.426	102.12
514.642	127.12
514.858	130.12
515.074	142.12
515.29	437.12
515.506	1376.12
515.721	488.12
515.937	144.12
516.153	104.12
516.369	114.12
516.585	104.12
