Data from Uncirc_1994_H10_HRD10591_00044.txt Node
Date: Wed Jan 03 11:39:29 EST 2024
User: Yrep
Spectrometer: HR+D1059
Trigger mode: 1
Integration Time (sec): 1.000000E-1
Scans to average: 1
Electric dark correction enabled: true
Nonlinearity correction enabled: false
Boxcar width: 0
XAxis mode: Wavelengths
Number of Pixels in Spectrum: 2048
>>>>>Begin Spectral Data<<<<<
223.165	-16.62
223.4	-16.62
223.635	-16.62
223.869	-17.62
224.104	-15.62
224.338	-16.62
224.573	-1.62
224.808	-15.62
225.042	0.38
225.277	-6.62
225.511	-4.62
225.746	5.38
225.98	8.38
226.215	24.38
226.449	10.38
226.683	3.38
226.918	18.38
227.152	24.38
227.387	45.38
227.621	36.38
227.856	46.38
228.09	60.38
228.324	47.38
228.559	59.38
228.793	54.38
229.027	58.38
229.262	77.38
229.496	74.38
229.73	79.38
229.964	80.38
230.199	80.38
230.433	78.38
230.667	95.38
230.901	81.38
231.136	68.38
231.37	88.38
231.604	76.38
231.838	72.38
232.072	81.38
232.306	86.38
232.541	82.38
232.775	78.38
233.009	78.38
233.243	83.38
233.477	76.38
233.711	78.38
233.945	73.38
234.179	87.38
234.413	91.38
234.647	72.38
234.881	76.38
235.115	92.38
235.349	87.38
235.583	80.38
235.817	81.38
236.051	72.38
236.285	73.38
236.519	69.38
236.753	95.38
236.987	97.38
237.221	78.38
237.455	85.38
237.689	75.38
237.922	82.38
238.156	78.38
238.39	67.38
238.624	69.38
238.858	71.38
239.091	80.38
239.325	85.38
239.559	72.38
239.793	84.38
240.027	84.38
240.26	81.38
240.494	85.38
240.728	65.38
240.961	66.38
241.195	78.38
241.429	70.38
241.662	79.38
241.896	70.38
242.13	75.38
242.363	82.38
242.597	69.38
242.83	80.38
243.064	93.38
243.298	72.38
243.531	85.38
243.765	78.38
243.998	78.38
244.232	93.38
244.465	83.38
244.699	77.38
244.932	73.38
245.166	78.38
245.399	74.38
245.633	80.38
245.866	89.38
246.099	69.38
246.333	76.38
246.566	82.38
246.8	93.38
247.033	80.38
247.266	83.38
247.5	66.38
247.733	67.38
247.966	80.38
248.2	88.38
248.433	80.38
248.666	82.38
248.899	76.38
249.133	84.38
249.366	99.38
249.599	81.38
249.832	71.38
250.066	83.38
250.299	83.38
250.532	83.38
250.765	97.38
250.998	87.38
251.231	82.38
251.465	76.38
251.698	76.38
251.931	63.38
252.164	76.38
252.397	66.38
252.63	76.38
252.863	83.38
253.096	79.38
253.329	86.38
253.562	81.38
253.795	69.38
254.028	89.38
254.261	81.38
254.494	83.38
254.727	100.38
254.96	80.38
255.193	72.38
255.426	70.38
255.659	85.38
255.892	76.38
256.124	77.38
256.357	86.38
256.59	85.38
256.823	90.38
257.056	79.38
257.289	88.38
257.521	87.38
257.754	95.38
257.987	68.38
258.22	90.38
258.452	81.38
258.685	83.38
258.918	74.38
259.151	72.38
259.383	80.38
259.616	93.38
259.849	90.38
260.081	80.38
260.314	77.38
260.547	68.38
260.779	94.38
261.012	81.38
261.244	83.38
261.477	82.38
261.71	101.38
261.942	103.38
262.175	110.38
262.407	86.38
262.64	88.38
262.872	86.38
263.105	85.38
263.337	69.38
263.57	85.38
263.802	88.38
264.035	76.38
264.267	88.38
264.499	83.38
264.732	90.38
264.964	78.38
265.197	85.38
265.429	92.38
265.661	91.38
265.894	92.38
266.126	96.38
266.358	93.38
266.591	78.38
266.823	85.38
267.055	82.38
267.287	90.38
267.52	82.38
267.752	99.38
267.984	83.38
268.216	72.38
268.448	90.38
268.681	89.38
268.913	94.38
269.145	87.38
269.377	86.38
269.609	90.38
269.841	89.38
270.073	83.38
270.306	80.38
270.538	79.38
270.77	84.38
271.002	86.38
271.234	81.38
271.466	89.38
271.698	88.38
271.93	78.38
272.162	82.38
272.394	96.38
272.626	74.38
272.858	79.38
273.09	81.38
273.322	90.38
273.553	90.38
273.785	85.38
274.017	79.38
274.249	98.38
274.481	70.38
274.713	72.38
274.945	89.38
275.176	78.38
275.408	86.38
275.64	87.38
275.872	78.38
276.104	98.38
276.335	86.38
276.567	104.38
276.799	102.38
277.031	100.38
277.262	86.38
277.494	95.38
277.726	82.38
277.957	90.38
278.189	91.38
278.421	81.38
278.652	98.38
278.884	96.38
279.115	90.38
279.347	95.38
279.579	79.38
279.81	95.38
280.042	82.38
280.273	77.38
280.505	100.38
280.736	83.38
280.968	85.38
281.199	80.38
281.431	93.38
281.662	90.38
281.894	89.38
282.125	85.38
282.356	102.38
282.588	122.38
282.819	104.38
283.051	84.38
283.282	95.38
283.513	90.38
283.745	83.38
283.976	99.38
284.207	78.38
284.439	80.38
284.67	93.38
284.901	97.38
285.132	99.38
285.364	88.38
285.595	88.38
285.826	84.38
286.057	87.38
286.288	79.38
286.52	92.38
286.751	100.38
286.982	91.38
287.213	100.38
287.444	95.38
287.675	93.38
287.906	92.38
288.138	101.38
288.369	100.38
288.6	90.38
288.831	82.38
289.062	97.38
289.293	102.38
289.524	94.38
289.755	89.38
289.986	97.38
290.217	92.38
290.448	99.38
290.679	89.38
290.91	88.38
291.141	94.38
291.371	88.38
291.602	88.38
291.833	91.38
292.064	81.38
292.295	92.38
292.526	81.38
292.757	93.38
292.987	83.38
293.218	74.38
293.449	105.38
293.68	98.38
293.91	90.38
294.141	77.38
294.372	100.38
294.603	103.38
294.833	91.38
295.064	97.38
295.295	95.38
295.525	94.38
295.756	94.38
295.987	108.38
296.217	131.38
296.448	120.38
296.679	102.38
296.909	102.38
297.14	85.38
297.37	101.38
297.601	87.38
297.831	85.38
298.062	91.38
298.292	86.38
298.523	95.38
298.753	100.38
298.984	77.38
299.214	89.38
299.445	95.38
299.675	84.38
299.905	89.38
300.136	102.38
300.366	96.38
300.597	87.38
300.827	91.38
301.057	101.38
301.288	83.38
301.518	99.38
301.748	86.38
301.979	91.38
302.209	85.38
302.439	76.38
302.669	84.38
302.9	94.38
303.13	93.38
303.36	99.38
303.59	85.38
303.82	89.38
304.051	92.38
304.281	86.38
304.511	88.38
304.741	91.38
304.971	96.38
305.201	94.38
305.431	98.38
305.661	86.38
305.891	102.38
306.121	98.38
306.352	112.38
306.582	112.38
306.812	86.38
307.042	100.38
307.272	97.38
307.502	99.38
307.731	102.38
307.961	97.38
308.191	104.38
308.421	91.38
308.651	88.38
308.881	95.38
309.111	100.38
309.341	104.38
309.571	88.38
309.8	102.38
310.03	97.38
310.26	108.38
310.49	107.38
310.72	96.38
310.949	85.38
311.179	96.38
311.409	94.38
311.639	95.38
311.868	103.38
312.098	100.38
312.328	81.38
312.557	106.38
312.787	96.38
313.017	93.38
313.246	100.38
313.476	102.38
313.706	83.38
313.935	110.38
314.165	100.38
314.394	98.38
314.624	91.38
314.853	98.38
315.083	88.38
315.312	84.38
315.542	81.38
315.771	101.38
316.001	103.38
316.23	95.38
316.46	93.38
316.689	96.38
316.919	106.38
317.148	98.38
317.377	92.38
317.607	96.38
317.836	93.38
318.065	105.38
318.295	99.38
318.524	96.38
318.753	97.38
318.983	81.38
319.212	92.38
319.441	106.38
319.67	104.38
319.9	88.38
320.129	86.38
320.358	98.38
320.587	110.38
320.816	84.38
321.046	97.38
321.275	102.38
321.504	99.38
321.733	109.38
321.962	105.38
322.191	92.38
322.42	101.38
322.649	98.38
322.878	101.38
323.108	111.38
323.337	128.38
323.566	113.38
323.795	132.38
324.024	181.38
324.253	339.38
324.482	741.38
324.71	1461.38
324.939	1877.38
325.168	678.38
325.397	234.38
325.626	141.38
325.855	110.38
326.084	130.38
326.313	123.38
326.542	149.38
326.77	208.38
326.999	413.38
327.228	844.38
327.457	1480.38
327.686	1180.38
327.914	330.38
328.143	172.38
328.372	131.38
328.6	108.38
328.829	121.38
329.058	128.38
329.287	132.38
329.515	110.38
329.744	99.38
329.972	110.38
330.201	90.38
330.43	97.38
330.658	111.38
330.887	129.38
331.115	108.38
331.344	96.38
331.572	108.38
331.801	106.38
332.03	109.38
332.258	90.38
332.486	105.38
332.715	86.38
332.943	91.38
333.172	100.38
333.4	90.38
333.629	90.38
333.857	101.38
334.085	101.38
334.314	97.38
334.542	95.38
334.771	103.38
334.999	96.38
335.227	98.38
335.455	108.38
335.684	100.38
335.912	92.38
336.14	93.38
336.369	100.38
336.597	104.38
336.825	109.38
337.053	121.38
337.281	101.38
337.51	97.38
337.738	80.38
337.966	100.38
338.194	93.38
338.422	115.38
338.65	95.38
338.878	80.38
339.106	91.38
339.334	99.38
339.562	99.38
339.79	97.38
340.018	104.38
340.246	84.38
340.474	88.38
340.702	82.38
340.93	102.38
341.158	98.38
341.386	92.38
341.614	104.38
341.842	94.38
342.07	91.38
342.298	103.38
342.526	92.38
342.754	89.38
342.981	99.38
343.209	103.38
343.437	101.38
343.665	97.38
343.893	101.38
344.12	103.38
344.348	99.38
344.576	100.38
344.804	96.38
345.031	94.38
345.259	93.38
345.487	90.38
345.714	97.38
345.942	83.38
346.17	90.38
346.397	102.38
346.625	88.38
346.853	92.38
347.08	92.38
347.308	94.38
347.535	109.38
347.763	119.38
347.99	101.38
348.218	117.38
348.445	98.38
348.673	93.38
348.9	92.38
349.128	93.38
349.355	82.38
349.583	103.38
349.81	85.38
350.037	114.38
350.265	88.38
350.492	84.38
350.72	94.38
350.947	102.38
351.174	111.38
351.402	117.38
351.629	121.38
351.856	104.38
352.083	101.38
352.311	103.38
352.538	101.38
352.765	93.38
352.992	104.38
353.22	90.38
353.447	103.38
353.674	107.38
353.901	107.38
354.128	85.38
354.355	93.38
354.583	109.38
354.81	90.38
355.037	83.38
355.264	104.38
355.491	81.38
355.718	100.38
355.945	98.38
356.172	93.38
356.399	98.38
356.626	93.38
356.853	99.38
357.08	86.38
357.307	93.38
357.534	96.38
357.761	101.38
357.988	103.38
358.215	87.38
358.441	94.38
358.668	82.38
358.895	96.38
359.122	93.38
359.349	101.38
359.576	87.38
359.802	94.38
360.029	100.38
360.256	100.38
360.483	95.38
360.709	99.38
360.936	94.38
361.163	96.38
361.39	93.38
361.616	98.38
361.843	97.38
362.07	94.38
362.296	99.38
362.523	87.38
362.749	85.38
362.976	91.38
363.203	94.38
363.429	85.38
363.656	100.38
363.882	95.38
364.109	101.38
364.335	89.38
364.562	104.38
364.788	96.38
365.015	98.38
365.241	99.38
365.468	101.38
365.694	98.38
365.92	110.38
366.147	100.38
366.373	88.38
366.599	85.38
366.826	94.38
367.052	98.38
367.278	86.38
367.505	102.38
367.731	82.38
367.957	100.38
368.184	91.38
368.41	98.38
368.636	103.38
368.862	121.38
369.089	106.38
369.315	89.38
369.541	94.38
369.767	94.38
369.993	88.38
370.219	96.38
370.445	88.38
370.672	61.38
370.898	94.38
371.124	86.38
371.35	98.38
371.576	101.38
371.802	92.38
372.028	88.38
372.254	89.38
372.48	86.38
372.706	97.38
372.932	102.38
373.158	97.38
373.384	74.38
373.61	87.38
373.835	98.38
374.061	100.38
374.287	90.38
374.513	83.38
374.739	99.38
374.965	91.38
375.191	89.38
375.416	83.38
375.642	100.38
375.868	110.38
376.094	95.38
376.319	92.38
376.545	92.38
376.771	88.38
376.997	81.38
377.222	75.38
377.448	102.38
377.674	89.38
377.899	103.38
378.125	87.38
378.35	89.38
378.576	98.38
378.802	96.38
379.027	97.38
379.253	97.38
379.478	90.38
379.704	94.38
379.929	101.38
380.155	100.38
380.38	90.38
380.606	91.38
380.831	97.38
381.057	102.38
381.282	110.38
381.507	81.38
381.733	98.38
381.958	111.38
382.184	100.38
382.409	114.38
382.634	107.38
382.86	89.38
383.085	96.38
383.31	115.38
383.535	112.38
383.761	102.38
383.986	100.38
384.211	100.38
384.436	78.38
384.662	93.38
384.887	92.38
385.112	110.38
385.337	108.38
385.562	108.38
385.787	90.38
386.013	111.38
386.238	107.38
386.463	96.38
386.688	124.38
386.913	93.38
387.138	99.38
387.363	90.38
387.588	90.38
387.813	108.38
388.038	99.38
388.263	100.38
388.488	81.38
388.713	106.38
388.938	91.38
389.163	112.38
389.387	89.38
389.612	101.38
389.837	100.38
390.062	74.38
390.287	93.38
390.512	93.38
390.736	82.38
390.961	90.38
391.186	109.38
391.411	102.38
391.636	80.38
391.86	86.38
392.085	97.38
392.31	73.38
392.534	86.38
392.759	82.38
392.984	84.38
393.208	100.38
393.433	98.38
393.658	86.38
393.882	99.38
394.107	82.38
394.331	89.38
394.556	77.38
394.78	88.38
395.005	93.38
395.229	82.38
395.454	80.38
395.678	84.38
395.903	97.38
396.127	90.38
396.352	90.38
396.576	94.38
396.801	93.38
397.025	68.38
397.249	84.38
397.474	91.38
397.698	92.38
397.922	83.38
398.147	90.38
398.371	84.38
398.595	83.38
398.82	94.38
399.044	77.38
399.268	96.38
399.492	78.38
399.717	86.38
399.941	92.38
400.165	92.38
400.389	82.38
400.613	84.38
400.837	93.38
401.062	94.38
401.286	92.38
401.51	95.38
401.734	102.38
401.958	113.38
402.182	118.38
402.406	143.38
402.63	110.38
402.854	91.38
403.078	98.38
403.302	83.38
403.526	77.38
403.75	84.38
403.974	79.38
404.198	82.38
404.422	98.38
404.645	95.38
404.869	99.38
405.093	84.38
405.317	99.38
405.541	101.38
405.765	95.38
405.988	117.38
406.212	138.38
406.436	194.38
406.66	138.38
406.883	114.38
407.107	84.38
407.331	105.38
407.555	99.38
407.778	96.38
408.002	78.38
408.226	91.38
408.449	101.38
408.673	92.38
408.896	99.38
409.12	109.38
409.344	94.38
409.567	97.38
409.791	93.38
410.014	88.38
410.238	88.38
410.461	94.38
410.685	101.38
410.908	96.38
411.132	98.38
411.355	112.38
411.578	91.38
411.802	83.38
412.025	90.38
412.249	88.38
412.472	93.38
412.695	97.38
412.919	96.38
413.142	91.38
413.365	101.38
413.589	84.38
413.812	93.38
414.035	90.38
414.258	100.38
414.482	93.38
414.705	93.38
414.928	109.38
415.151	103.38
415.374	84.38
415.597	80.38
415.821	96.38
416.044	105.38
416.267	88.38
416.49	91.38
416.713	86.38
416.936	96.38
417.159	78.38
417.382	94.38
417.605	84.38
417.828	94.38
418.051	97.38
418.274	96.38
418.497	90.38
418.72	88.38
418.943	83.38
419.166	93.38
419.389	86.38
419.611	81.38
419.834	87.38
420.057	84.38
420.28	89.38
420.503	79.38
420.726	92.38
420.948	76.38
421.171	86.38
421.394	80.38
421.617	98.38
421.839	86.38
422.062	89.38
422.285	100.38
422.507	82.38
422.73	109.38
422.953	97.38
423.175	91.38
423.398	89.38
423.621	95.38
423.843	88.38
424.066	86.38
424.288	79.38
424.511	93.38
424.733	95.38
424.956	101.38
425.178	84.38
425.401	100.38
425.623	105.38
425.846	90.38
426.068	82.38
426.291	79.38
426.513	93.38
426.735	96.38
426.958	101.38
427.18	106.38
427.402	129.38
427.625	162.38
427.847	111.38
428.069	99.38
428.292	92.38
428.514	66.38
428.736	77.38
428.958	95.38
429.181	83.38
429.403	93.38
429.625	95.38
429.847	100.38
430.069	89.38
430.292	96.38
430.514	82.38
430.736	93.38
430.958	89.38
431.18	89.38
431.402	73.38
431.624	89.38
431.846	95.38
432.068	84.38
432.29	79.38
432.512	88.38
432.734	82.38
432.956	101.38
433.178	89.38
433.4	92.38
433.622	95.38
433.844	75.38
434.066	91.38
434.287	103.38
434.509	100.38
434.731	84.38
434.953	79.38
435.175	86.38
435.397	96.38
435.618	109.38
435.84	109.38
436.062	110.38
436.284	113.38
436.505	100.38
436.727	91.38
436.949	102.38
437.17	90.38
437.392	88.38
437.614	98.38
437.835	104.38
438.057	117.38
438.278	115.38
438.5	110.38
438.721	112.38
438.943	107.38
439.165	83.38
439.386	87.38
439.608	92.38
439.829	103.38
440.05	114.38
440.272	121.38
440.493	102.38
440.715	83.38
440.936	73.38
441.158	81.38
441.379	83.38
441.6	93.38
441.822	99.38
442.043	96.38
442.264	92.38
442.486	103.38
442.707	100.38
442.928	103.38
443.149	113.38
443.371	131.38
443.592	107.38
443.813	101.38
444.034	100.38
444.255	74.38
444.476	87.38
444.698	92.38
444.919	73.38
445.14	122.38
445.361	126.38
445.582	106.38
445.803	132.38
446.024	136.38
446.245	129.38
446.466	108.38
446.687	102.38
446.908	75.38
447.129	87.38
447.35	89.38
447.571	90.38
447.792	100.38
448.013	98.38
448.234	92.38
448.455	93.38
448.675	110.38
448.896	109.38
449.117	113.38
449.338	118.38
449.559	120.38
449.779	120.38
450	107.38
450.221	76.38
450.442	82.38
450.662	100.38
450.883	96.38
451.104	97.38
451.324	93.38
451.545	91.38
451.766	83.38
451.986	89.38
452.207	78.38
452.428	91.38
452.648	107.38
452.869	107.38
453.089	115.38
453.31	112.38
453.53	95.38
453.751	91.38
453.971	94.38
454.192	103.38
454.412	77.38
454.633	62.38
454.853	88.38
455.073	83.38
455.294	86.38
455.514	109.38
455.734	93.38
455.955	90.38
456.175	87.38
456.395	81.38
456.616	85.38
456.836	107.38
457.056	77.38
457.276	80.38
457.497	84.38
457.717	84.38
457.937	90.38
458.157	88.38
458.377	109.38
458.598	106.38
458.818	148.38
459.038	152.38
459.258	110.38
459.478	100.38
459.698	79.38
459.918	80.38
460.138	81.38
460.358	89.38
460.578	101.38
460.798	83.38
461.018	84.38
461.238	93.38
461.458	76.38
461.678	81.38
461.898	78.38
462.118	82.38
462.338	96.38
462.558	95.38
462.777	84.38
462.997	84.38
463.217	76.38
463.437	93.38
463.657	88.38
463.876	85.38
464.096	108.38
464.316	69.38
464.536	93.38
464.755	95.38
464.975	102.38
465.195	159.38
465.414	129.38
465.634	94.38
465.854	103.38
466.073	90.38
466.293	101.38
466.512	89.38
466.732	89.38
466.951	96.38
467.171	108.38
467.391	102.38
467.61	98.38
467.829	87.38
468.049	90.38
468.268	80.38
468.488	93.38
468.707	79.38
468.927	88.38
469.146	87.38
469.365	98.38
469.585	101.38
469.804	84.38
470.023	90.38
470.243	92.38
470.462	108.38
470.681	107.38
470.901	99.38
471.12	83.38
471.339	86.38
471.558	94.38
471.777	91.38
471.997	74.38
472.216	80.38
472.435	98.38
472.654	96.38
472.873	84.38
473.092	96.38
473.311	101.38
473.53	89.38
473.749	101.38
473.968	94.38
474.187	90.38
474.406	91.38
474.625	98.38
474.844	81.38
475.063	87.38
475.282	85.38
475.501	74.38
475.72	78.38
475.939	101.38
476.158	83.38
476.377	101.38
476.596	90.38
476.814	93.38
477.033	113.38
477.252	92.38
477.471	92.38
477.69	86.38
477.908	94.38
478.127	83.38
478.346	101.38
478.564	112.38
478.783	85.38
479.002	85.38
479.22	89.38
479.439	93.38
479.658	107.38
479.876	86.38
480.095	79.38
480.313	101.38
480.532	103.38
480.751	90.38
480.969	95.38
481.188	98.38
481.406	100.38
481.624	84.38
481.843	78.38
482.061	76.38
482.28	78.38
482.498	83.38
482.717	97.38
482.935	105.38
483.153	94.38
483.372	97.38
483.59	95.38
483.808	77.38
484.027	87.38
484.245	89.38
484.463	90.38
484.681	94.38
484.9	98.38
485.118	107.38
485.336	105.38
485.554	108.38
485.772	109.38
485.99	115.38
486.209	105.38
486.427	113.38
486.645	104.38
486.863	96.38
487.081	92.38
487.299	95.38
487.517	96.38
487.735	98.38
487.953	98.38
488.171	82.38
488.389	92.38
488.607	89.38
488.825	87.38
489.043	97.38
489.261	100.38
489.479	96.38
489.696	93.38
489.914	111.38
490.132	94.38
490.35	97.38
490.568	91.38
490.786	93.38
491.003	72.38
491.221	92.38
491.439	83.38
491.657	96.38
491.874	84.38
492.092	96.38
492.31	91.38
492.527	86.38
492.745	89.38
492.963	83.38
493.18	79.38
493.398	101.38
493.615	105.38
493.833	85.38
494.05	86.38
494.268	80.38
494.485	93.38
494.703	99.38
494.92	74.38
495.138	94.38
495.355	96.38
495.573	82.38
495.79	89.38
496.008	95.38
496.225	91.38
496.442	85.38
496.66	88.38
496.877	74.38
497.094	85.38
497.312	93.38
497.529	89.38
497.746	91.38
497.963	93.38
498.181	78.38
498.398	90.38
498.615	103.38
498.832	109.38
499.049	87.38
499.267	108.38
499.484	91.38
499.701	90.38
499.918	100.38
500.135	108.38
500.352	96.38
500.569	98.38
500.786	81.38
501.003	89.38
501.22	90.38
501.437	88.38
501.654	82.38
501.871	96.38
502.088	90.38
502.305	96.38
502.522	101.38
502.739	112.38
502.956	109.38
503.172	105.38
503.389	97.38
503.606	103.38
503.823	86.38
504.04	88.38
504.256	81.38
504.473	92.38
504.69	84.38
504.907	89.38
505.123	82.38
505.34	95.38
505.557	84.38
505.773	95.38
505.99	84.38
506.207	94.38
506.423	97.38
506.64	80.38
506.856	82.38
507.073	94.38
507.289	93.38
507.506	98.38
507.722	94.38
507.939	95.38
508.155	82.38
508.372	98.38
508.588	85.38
508.805	89.38
509.021	100.38
509.238	86.38
509.454	92.38
509.67	121.38
509.887	119.38
510.103	118.38
510.319	198.38
510.536	692.38
510.752	2104.38
510.968	590.38
511.184	137.38
511.401	101.38
511.617	97.38
511.833	96.38
512.049	89.38
512.265	101.38
512.481	95.38
512.698	80.38
512.914	88.38
513.13	102.38
513.346	82.38
513.562	86.38
513.778	85.38
513.994	97.38
514.21	109.38
514.426	103.38
514.642	130.38
514.858	122.38
515.074	153.38
515.29	396.38
