Data from Uncirc_1994_H10_HRD10591_00040.txt Node
Date: Wed Jan 03 11:39:28 EST 2024
User: Yrep
Spectrometer: HR+D1059
Trigger mode: 1
Integration Time (sec): 1.000000E-1
Scans to average: 1
Electric dark correction enabled: true
Nonlinearity correction enabled: false
Boxcar width: 0
XAxis mode: Wavelengths
Number of Pixels in Spectrum: 2048
>>>>>Begin Spectral Data<<<<<
223.165	-19.19
223.4	-19.19
223.635	-19.19
223.869	-20.19
224.104	-30.19
224.338	-14.19
224.573	-2.19
224.808	-10.19
225.042	-12.19
225.277	-7.19
225.511	-4.19
225.746	-2.19
225.98	0.81
226.215	11.81
226.449	13.81
226.683	21.81
226.918	31.81
227.152	41.81
227.387	21.81
227.621	34.81
227.856	43.81
228.09	39.81
228.324	47.81
228.559	46.81
228.793	57.81
229.027	64.81
229.262	64.81
229.496	64.81
229.73	82.81
229.964	84.81
230.199	76.81
230.433	76.81
230.667	84.81
230.901	79.81
231.136	84.81
231.37	88.81
231.604	81.81
231.838	75.81
232.072	76.81
232.306	85.81
232.541	87.81
232.775	88.81
233.009	82.81
233.243	82.81
233.477	69.81
233.711	92.81
233.945	74.81
234.179	72.81
234.413	92.81
234.647	75.81
234.881	82.81
235.115	80.81
235.349	87.81
235.583	85.81
235.817	83.81
236.051	80.81
236.285	64.81
236.519	92.81
236.753	81.81
236.987	71.81
237.221	68.81
237.455	81.81
237.689	77.81
237.922	92.81
238.156	83.81
238.39	76.81
238.624	77.81
238.858	75.81
239.091	72.81
239.325	60.81
239.559	91.81
239.793	77.81
240.027	81.81
240.26	73.81
240.494	80.81
240.728	77.81
240.961	68.81
241.195	64.81
241.429	63.81
241.662	69.81
241.896	57.81
242.13	99.81
242.363	71.81
242.597	82.81
242.83	67.81
243.064	79.81
243.298	83.81
243.531	72.81
243.765	89.81
243.998	80.81
244.232	73.81
244.465	89.81
244.699	92.81
244.932	80.81
245.166	66.81
245.399	67.81
245.633	71.81
245.866	66.81
246.099	76.81
246.333	77.81
246.566	78.81
246.8	76.81
247.033	79.81
247.266	68.81
247.5	87.81
247.733	89.81
247.966	66.81
248.2	68.81
248.433	64.81
248.666	74.81
248.899	75.81
249.133	95.81
249.366	98.81
249.599	95.81
249.832	70.81
250.066	80.81
250.299	72.81
250.532	83.81
250.765	96.81
250.998	69.81
251.231	77.81
251.465	83.81
251.698	68.81
251.931	73.81
252.164	86.81
252.397	78.81
252.63	75.81
252.863	87.81
253.096	72.81
253.329	73.81
253.562	74.81
253.795	77.81
254.028	76.81
254.261	76.81
254.494	73.81
254.727	79.81
254.96	75.81
255.193	81.81
255.426	67.81
255.659	65.81
255.892	83.81
256.124	75.81
256.357	82.81
256.59	85.81
256.823	87.81
257.056	79.81
257.289	90.81
257.521	81.81
257.754	75.81
257.987	79.81
258.22	69.81
258.452	76.81
258.685	84.81
258.918	85.81
259.151	75.81
259.383	95.81
259.616	90.81
259.849	81.81
260.081	77.81
260.314	78.81
260.547	85.81
260.779	75.81
261.012	82.81
261.244	76.81
261.477	91.81
261.71	91.81
261.942	116.81
262.175	103.81
262.407	92.81
262.64	88.81
262.872	76.81
263.105	96.81
263.337	87.81
263.57	95.81
263.802	61.81
264.035	61.81
264.267	78.81
264.499	95.81
264.732	81.81
264.964	82.81
265.197	82.81
265.429	91.81
265.661	96.81
265.894	98.81
266.126	86.81
266.358	79.81
266.591	92.81
266.823	73.81
267.055	86.81
267.287	88.81
267.52	92.81
267.752	83.81
267.984	85.81
268.216	87.81
268.448	83.81
268.681	83.81
268.913	84.81
269.145	89.81
269.377	83.81
269.609	89.81
269.841	75.81
270.073	86.81
270.306	79.81
270.538	75.81
270.77	90.81
271.002	93.81
271.234	94.81
271.466	83.81
271.698	83.81
271.93	85.81
272.162	88.81
272.394	97.81
272.626	103.81
272.858	77.81
273.09	72.81
273.322	78.81
273.553	87.81
273.785	91.81
274.017	84.81
274.249	92.81
274.481	77.81
274.713	91.81
274.945	79.81
275.176	72.81
275.408	86.81
275.64	84.81
275.872	83.81
276.104	86.81
276.335	96.81
276.567	98.81
276.799	116.81
277.031	99.81
277.262	91.81
277.494	89.81
277.726	91.81
277.957	77.81
278.189	82.81
278.421	85.81
278.652	85.81
278.884	82.81
279.115	89.81
279.347	91.81
279.579	80.81
279.81	96.81
280.042	87.81
280.273	78.81
280.505	89.81
280.736	89.81
280.968	69.81
281.199	92.81
281.431	90.81
281.662	97.81
281.894	82.81
282.125	89.81
282.356	106.81
282.588	141.81
282.819	106.81
283.051	97.81
283.282	93.81
283.513	94.81
283.745	82.81
283.976	83.81
284.207	85.81
284.439	76.81
284.67	84.81
284.901	88.81
285.132	83.81
285.364	91.81
285.595	99.81
285.826	80.81
286.057	98.81
286.288	83.81
286.52	84.81
286.751	87.81
286.982	79.81
287.213	92.81
287.444	80.81
287.675	94.81
287.906	73.81
288.138	79.81
288.369	85.81
288.6	82.81
288.831	89.81
289.062	94.81
289.293	83.81
289.524	88.81
289.755	83.81
289.986	97.81
290.217	106.81
290.448	91.81
290.679	81.81
290.91	81.81
291.141	86.81
291.371	71.81
291.602	99.81
291.833	84.81
292.064	81.81
292.295	99.81
292.526	97.81
292.757	88.81
292.987	87.81
293.218	81.81
293.449	71.81
293.68	87.81
293.91	76.81
294.141	95.81
294.372	93.81
294.603	83.81
294.833	74.81
295.064	80.81
295.295	100.81
295.525	77.81
295.756	103.81
295.987	97.81
296.217	117.81
296.448	114.81
296.679	91.81
296.909	103.81
297.14	90.81
297.37	84.81
297.601	97.81
297.831	88.81
298.062	91.81
298.292	91.81
298.523	99.81
298.753	87.81
298.984	80.81
299.214	93.81
299.445	77.81
299.675	90.81
299.905	98.81
300.136	102.81
300.366	90.81
300.597	86.81
300.827	101.81
301.057	87.81
301.288	98.81
301.518	99.81
301.748	84.81
301.979	106.81
302.209	95.81
302.439	99.81
302.669	95.81
302.9	104.81
303.13	89.81
303.36	95.81
303.59	89.81
303.82	98.81
304.051	89.81
304.281	88.81
304.511	80.81
304.741	85.81
304.971	95.81
305.201	101.81
305.431	90.81
305.661	92.81
305.891	94.81
306.121	100.81
306.352	95.81
306.582	104.81
306.812	84.81
307.042	83.81
307.272	84.81
307.502	96.81
307.731	100.81
307.961	88.81
308.191	92.81
308.421	84.81
308.651	91.81
308.881	95.81
309.111	108.81
309.341	105.81
309.571	96.81
309.8	100.81
310.03	113.81
310.26	101.81
310.49	101.81
310.72	95.81
310.949	85.81
311.179	98.81
311.409	107.81
311.639	93.81
311.868	100.81
312.098	96.81
312.328	89.81
312.557	113.81
312.787	94.81
313.017	103.81
313.246	94.81
313.476	81.81
313.706	96.81
313.935	89.81
314.165	91.81
314.394	99.81
314.624	109.81
314.853	105.81
315.083	82.81
315.312	86.81
315.542	95.81
315.771	87.81
316.001	94.81
316.23	112.81
316.46	89.81
316.689	100.81
316.919	93.81
317.148	73.81
317.377	98.81
317.607	100.81
317.836	98.81
318.065	95.81
318.295	93.81
318.524	84.81
318.753	95.81
318.983	81.81
319.212	103.81
319.441	100.81
319.67	112.81
319.9	90.81
320.129	108.81
320.358	92.81
320.587	96.81
320.816	110.81
321.046	96.81
321.275	94.81
321.504	99.81
321.733	89.81
321.962	95.81
322.191	93.81
322.42	96.81
322.649	107.81
322.878	84.81
323.108	103.81
323.337	125.81
323.566	135.81
323.795	145.81
324.024	204.81
324.253	368.81
324.482	791.81
324.71	1603.81
324.939	2119.81
325.168	775.81
325.397	240.81
325.626	171.81
325.855	122.81
326.084	110.81
326.313	131.81
326.542	164.81
326.77	220.81
326.999	441.81
327.228	907.81
327.457	1699.81
327.686	1295.81
327.914	352.81
328.143	173.81
328.372	138.81
328.6	108.81
328.829	105.81
329.058	124.81
329.287	114.81
329.515	109.81
329.744	99.81
329.972	88.81
330.201	97.81
330.43	104.81
330.658	125.81
330.887	120.81
331.115	105.81
331.344	92.81
331.572	97.81
331.801	107.81
332.03	93.81
332.258	108.81
332.486	89.81
332.715	82.81
332.943	91.81
333.172	88.81
333.4	100.81
333.629	109.81
333.857	93.81
334.085	105.81
334.314	88.81
334.542	93.81
334.771	100.81
334.999	88.81
335.227	111.81
335.455	97.81
335.684	99.81
335.912	94.81
336.14	102.81
336.369	92.81
336.597	96.81
336.825	87.81
337.053	100.81
337.281	80.81
337.51	97.81
337.738	87.81
337.966	83.81
338.194	83.81
338.422	102.81
338.65	93.81
338.878	92.81
339.106	97.81
339.334	88.81
339.562	90.81
339.79	91.81
340.018	93.81
340.246	96.81
340.474	101.81
340.702	99.81
340.93	91.81
341.158	96.81
341.386	80.81
341.614	89.81
341.842	89.81
342.07	76.81
342.298	83.81
342.526	89.81
342.754	96.81
342.981	93.81
343.209	83.81
343.437	106.81
343.665	90.81
343.893	85.81
344.12	73.81
344.348	91.81
344.576	91.81
344.804	80.81
345.031	83.81
345.259	97.81
345.487	101.81
345.714	92.81
345.942	103.81
346.17	77.81
346.397	98.81
346.625	83.81
346.853	100.81
347.08	91.81
347.308	104.81
347.535	79.81
347.763	90.81
347.99	92.81
348.218	87.81
348.445	108.81
348.673	112.81
348.9	104.81
349.128	87.81
349.355	111.81
349.583	79.81
349.81	103.81
350.037	103.81
350.265	98.81
350.492	85.81
350.72	99.81
350.947	101.81
351.174	99.81
351.402	107.81
351.629	100.81
351.856	102.81
352.083	85.81
352.311	106.81
352.538	96.81
352.765	111.81
352.992	108.81
353.22	124.81
353.447	103.81
353.674	95.81
353.901	97.81
354.128	106.81
354.355	81.81
354.583	103.81
354.81	80.81
355.037	100.81
355.264	89.81
355.491	95.81
355.718	99.81
355.945	98.81
356.172	98.81
356.399	86.81
356.626	95.81
356.853	90.81
357.08	108.81
357.307	84.81
357.534	91.81
357.761	85.81
357.988	107.81
358.215	84.81
358.441	97.81
358.668	92.81
358.895	89.81
359.122	88.81
359.349	100.81
359.576	72.81
359.802	92.81
360.029	107.81
360.256	85.81
360.483	91.81
360.709	88.81
360.936	80.81
361.163	109.81
361.39	81.81
361.616	87.81
361.843	88.81
362.07	115.81
362.296	97.81
362.523	97.81
362.749	84.81
362.976	97.81
363.203	98.81
363.429	92.81
363.656	92.81
363.882	86.81
364.109	95.81
364.335	93.81
364.562	88.81
364.788	93.81
365.015	93.81
365.241	83.81
365.468	99.81
365.694	98.81
365.92	89.81
366.147	97.81
366.373	89.81
366.599	89.81
366.826	96.81
367.052	80.81
367.278	82.81
367.505	93.81
367.731	102.81
367.957	87.81
368.184	95.81
368.41	84.81
368.636	100.81
368.862	115.81
369.089	120.81
369.315	88.81
369.541	85.81
369.767	84.81
369.993	79.81
370.219	88.81
370.445	85.81
370.672	77.81
370.898	82.81
371.124	93.81
371.35	89.81
371.576	98.81
371.802	90.81
372.028	95.81
372.254	103.81
372.48	90.81
372.706	88.81
372.932	99.81
373.158	92.81
373.384	98.81
373.61	88.81
373.835	84.81
374.061	86.81
374.287	87.81
374.513	76.81
374.739	85.81
374.965	90.81
375.191	98.81
375.416	82.81
375.642	103.81
375.868	79.81
376.094	87.81
376.319	93.81
376.545	91.81
376.771	96.81
376.997	89.81
377.222	81.81
377.448	100.81
377.674	80.81
377.899	84.81
378.125	76.81
378.35	83.81
378.576	91.81
378.802	82.81
379.027	98.81
379.253	101.81
379.478	111.81
379.704	92.81
379.929	88.81
380.155	94.81
380.38	84.81
380.606	85.81
380.831	105.81
381.057	88.81
381.282	96.81
381.507	95.81
381.733	84.81
381.958	107.81
382.184	85.81
382.409	89.81
382.634	91.81
382.86	91.81
383.085	96.81
383.31	96.81
383.535	93.81
383.761	81.81
383.986	87.81
384.211	93.81
384.436	94.81
384.662	98.81
384.887	101.81
385.112	101.81
385.337	91.81
385.562	99.81
385.787	99.81
386.013	103.81
386.238	103.81
386.463	93.81
386.688	110.81
386.913	94.81
387.138	94.81
387.363	115.81
387.588	98.81
387.813	99.81
388.038	106.81
388.263	106.81
388.488	106.81
388.713	95.81
388.938	97.81
389.163	100.81
389.387	98.81
389.612	95.81
389.837	97.81
390.062	100.81
390.287	85.81
390.512	86.81
390.736	95.81
390.961	107.81
391.186	89.81
391.411	100.81
391.636	105.81
391.86	77.81
392.085	69.81
392.31	100.81
392.534	90.81
392.759	100.81
392.984	90.81
393.208	109.81
393.433	97.81
393.658	80.81
393.882	88.81
394.107	96.81
394.331	92.81
394.556	66.81
394.78	75.81
395.005	89.81
395.229	91.81
395.454	89.81
395.678	89.81
395.903	83.81
396.127	95.81
396.352	81.81
396.576	80.81
396.801	95.81
397.025	83.81
397.249	112.81
397.474	99.81
397.698	90.81
397.922	84.81
398.147	80.81
398.371	79.81
398.595	83.81
398.82	72.81
399.044	94.81
399.268	85.81
399.492	83.81
399.717	72.81
399.941	79.81
400.165	89.81
400.389	88.81
400.613	80.81
400.837	88.81
401.062	89.81
401.286	87.81
401.51	95.81
401.734	88.81
401.958	97.81
402.182	120.81
402.406	149.81
402.63	101.81
402.854	99.81
403.078	84.81
403.302	75.81
403.526	99.81
403.75	80.81
403.974	99.81
404.198	65.81
404.422	93.81
404.645	88.81
404.869	97.81
405.093	91.81
405.317	94.81
405.541	94.81
405.765	96.81
405.988	115.81
406.212	154.81
406.436	194.81
406.66	123.81
406.883	95.81
407.107	105.81
407.331	97.81
407.555	104.81
407.778	80.81
408.002	83.81
408.226	79.81
408.449	96.81
408.673	93.81
408.896	85.81
409.12	98.81
409.344	101.81
409.567	89.81
409.791	82.81
410.014	88.81
410.238	92.81
410.461	88.81
410.685	88.81
410.908	90.81
411.132	87.81
411.355	106.81
411.578	89.81
411.802	89.81
412.025	90.81
412.249	81.81
412.472	83.81
412.695	86.81
412.919	91.81
413.142	92.81
413.365	100.81
413.589	92.81
413.812	77.81
414.035	95.81
414.258	83.81
414.482	84.81
414.705	89.81
414.928	88.81
415.151	93.81
415.374	93.81
415.597	84.81
415.821	92.81
416.044	85.81
416.267	95.81
416.49	91.81
416.713	97.81
416.936	96.81
417.159	82.81
417.382	96.81
417.605	86.81
417.828	81.81
418.051	91.81
418.274	91.81
418.497	96.81
418.72	91.81
418.943	83.81
419.166	95.81
419.389	92.81
419.611	85.81
419.834	81.81
420.057	105.81
420.28	86.81
420.503	97.81
420.726	95.81
420.948	80.81
421.171	90.81
421.394	95.81
421.617	110.81
421.839	89.81
422.062	95.81
422.285	95.81
422.507	95.81
422.73	105.81
422.953	88.81
423.175	101.81
423.398	93.81
423.621	90.81
423.843	83.81
424.066	75.81
424.288	102.81
424.511	93.81
424.733	94.81
424.956	110.81
425.178	102.81
425.401	97.81
425.623	86.81
425.846	101.81
426.068	82.81
426.291	91.81
426.513	90.81
426.735	83.81
426.958	101.81
427.18	93.81
427.402	124.81
427.625	153.81
427.847	115.81
428.069	100.81
428.292	99.81
428.514	84.81
428.736	87.81
428.958	92.81
429.181	88.81
429.403	84.81
429.625	88.81
429.847	83.81
430.069	99.81
430.292	100.81
430.514	83.81
430.736	85.81
430.958	77.81
431.18	76.81
431.402	78.81
431.624	87.81
431.846	80.81
432.068	90.81
432.29	99.81
432.512	90.81
432.734	90.81
432.956	91.81
433.178	104.81
433.4	112.81
433.622	102.81
433.844	74.81
434.066	90.81
434.287	89.81
434.509	78.81
434.731	88.81
434.953	95.81
435.175	76.81
435.397	85.81
435.618	97.81
435.84	96.81
436.062	110.81
436.284	114.81
436.505	113.81
436.727	95.81
436.949	90.81
437.17	99.81
437.392	78.81
437.614	89.81
437.835	103.81
438.057	124.81
438.278	108.81
438.5	101.81
438.721	126.81
438.943	95.81
439.165	91.81
439.386	95.81
439.608	80.81
439.829	97.81
440.05	135.81
440.272	146.81
440.493	96.81
440.715	86.81
440.936	87.81
441.158	87.81
441.379	85.81
441.6	91.81
441.822	89.81
442.043	105.81
442.264	107.81
442.486	106.81
442.707	94.81
442.928	93.81
443.149	116.81
443.371	117.81
443.592	117.81
443.813	95.81
444.034	99.81
444.255	85.81
444.476	77.81
444.698	70.81
444.919	90.81
445.14	126.81
445.361	120.81
445.582	116.81
445.803	127.81
446.024	143.81
446.245	124.81
446.466	106.81
446.687	79.81
446.908	87.81
447.129	94.81
447.35	82.81
447.571	98.81
447.792	83.81
448.013	101.81
448.234	101.81
448.455	94.81
448.675	114.81
448.896	99.81
449.117	91.81
449.338	110.81
449.559	103.81
449.779	128.81
450	88.81
450.221	85.81
450.442	81.81
450.662	96.81
450.883	85.81
451.104	106.81
451.324	101.81
451.545	76.81
451.766	90.81
451.986	86.81
452.207	76.81
452.428	84.81
452.648	80.81
452.869	90.81
453.089	115.81
453.31	115.81
453.53	93.81
453.751	103.81
453.971	92.81
454.192	99.81
454.412	96.81
454.633	98.81
454.853	79.81
455.073	93.81
455.294	92.81
455.514	88.81
455.734	84.81
455.955	91.81
456.175	96.81
456.395	106.81
456.616	90.81
456.836	68.81
457.056	90.81
457.276	94.81
457.497	78.81
457.717	94.81
457.937	95.81
458.157	100.81
458.377	88.81
458.598	111.81
458.818	142.81
459.038	144.81
459.258	117.81
459.478	86.81
459.698	85.81
459.918	87.81
460.138	83.81
460.358	82.81
460.578	88.81
460.798	87.81
461.018	91.81
461.238	88.81
461.458	91.81
461.678	84.81
461.898	93.81
462.118	84.81
462.338	89.81
462.558	79.81
462.777	89.81
462.997	95.81
463.217	68.81
463.437	63.81
463.657	68.81
463.876	89.81
464.096	83.81
464.316	96.81
464.536	97.81
464.755	106.81
464.975	91.81
465.195	128.81
465.414	137.81
465.634	79.81
465.854	82.81
466.073	92.81
466.293	76.81
466.512	86.81
466.732	83.81
466.951	80.81
467.171	86.81
467.391	92.81
467.61	108.81
467.829	92.81
468.049	89.81
468.268	88.81
468.488	84.81
468.707	76.81
468.927	83.81
469.146	83.81
469.365	84.81
469.585	77.81
469.804	93.81
470.023	92.81
470.243	93.81
470.462	96.81
470.681	107.81
470.901	90.81
471.12	93.81
471.339	79.81
471.558	73.81
471.777	83.81
471.997	107.81
472.216	84.81
472.435	93.81
472.654	76.81
472.873	82.81
473.092	92.81
473.311	95.81
473.53	83.81
473.749	86.81
473.968	104.81
474.187	101.81
474.406	98.81
474.625	92.81
474.844	91.81
475.063	92.81
475.282	96.81
475.501	75.81
475.72	85.81
475.939	83.81
476.158	86.81
476.377	99.81
476.596	77.81
476.814	74.81
477.033	89.81
477.252	87.81
477.471	99.81
477.69	107.81
477.908	92.81
478.127	84.81
478.346	90.81
478.564	98.81
478.783	88.81
479.002	95.81
479.22	97.81
479.439	105.81
479.658	91.81
479.876	91.81
480.095	93.81
480.313	89.81
480.532	89.81
480.751	82.81
480.969	77.81
481.188	85.81
481.406	86.81
481.624	81.81
481.843	91.81
482.061	82.81
482.28	85.81
482.498	80.81
482.717	91.81
482.935	88.81
483.153	88.81
483.372	95.81
483.59	95.81
483.808	84.81
484.027	99.81
484.245	82.81
484.463	91.81
484.681	92.81
484.9	88.81
485.118	105.81
485.336	110.81
485.554	100.81
485.772	96.81
485.99	102.81
486.209	94.81
486.427	112.81
486.645	104.81
486.863	110.81
487.081	95.81
487.299	100.81
487.517	91.81
487.735	100.81
487.953	96.81
488.171	89.81
488.389	76.81
488.607	98.81
488.825	100.81
489.043	95.81
489.261	97.81
489.479	83.81
489.696	100.81
489.914	86.81
490.132	80.81
490.35	83.81
490.568	82.81
490.786	99.81
491.003	92.81
491.221	99.81
491.439	85.81
491.657	91.81
491.874	89.81
492.092	87.81
492.31	97.81
492.527	94.81
492.745	78.81
492.963	72.81
493.18	96.81
493.398	94.81
493.615	97.81
493.833	90.81
494.05	95.81
494.268	95.81
494.485	91.81
494.703	93.81
494.92	93.81
495.138	90.81
495.355	95.81
495.573	85.81
495.79	93.81
496.008	109.81
496.225	88.81
496.442	100.81
496.66	92.81
496.877	80.81
497.094	93.81
497.312	83.81
497.529	97.81
497.746	92.81
497.963	92.81
498.181	89.81
498.398	105.81
498.615	95.81
498.832	96.81
499.049	103.81
499.267	105.81
499.484	98.81
499.701	98.81
499.918	93.81
500.135	96.81
500.352	86.81
500.569	79.81
500.786	87.81
501.003	89.81
501.22	79.81
501.437	84.81
501.654	106.81
501.871	112.81
502.088	85.81
502.305	91.81
502.522	89.81
502.739	79.81
502.956	82.81
503.172	89.81
503.389	88.81
503.606	100.81
503.823	104.81
504.04	85.81
504.256	91.81
504.473	91.81
504.69	82.81
504.907	83.81
505.123	95.81
505.34	86.81
505.557	87.81
505.773	90.81
505.99	82.81
506.207	70.81
506.423	84.81
506.64	73.81
506.856	100.81
507.073	99.81
507.289	101.81
507.506	87.81
507.722	103.81
507.939	104.81
508.155	68.81
508.372	84.81
508.588	90.81
508.805	96.81
509.021	88.81
509.238	99.81
509.454	85.81
509.67	96.81
509.887	123.81
510.103	110.81
510.319	217.81
510.536	737.81
510.752	2150.81
510.968	575.81
511.184	147.81
511.401	111.81
511.617	96.81
511.833	95.81
512.049	82.81
512.265	91.81
512.481	79.81
512.698	95.81
512.914	88.81
513.13	99.81
513.346	83.81
513.562	79.81
513.778	100.81
513.994	93.81
514.21	93.81
514.426	109.81
514.642	120.81
514.858	125.81
515.074	153.81
515.29	424.81
515.506	1279.81
515.721	474.81
515.937	137.81
516.153	113.81
516.369	80.81
