Data from Uncirc_1994_H10_HRD10591_00057.txt Node
Date: Wed Jan 03 11:39:32 EST 2024
User: Yrep
Spectrometer: HR+D1059
Trigger mode: 1
Integration Time (sec): 1.000000E-1
Scans to average: 1
Electric dark correction enabled: true
Nonlinearity correction enabled: false
Boxcar width: 0
XAxis mode: Wavelengths
Number of Pixels in Spectrum: 2048
>>>>>Begin Spectral Data<<<<<
223.165	1.5
223.4	1.5
223.635	1.5
223.869	-18.5
224.104	-23.5
224.338	-9.5
224.573	-5.5
224.808	-30.5
225.042	-8.5
225.277	-9.5
225.511	0.5
225.746	-3.5
225.98	9.5
226.215	3.5
226.449	16.5
226.683	19.5
226.918	31.5
227.152	26.5
227.387	42.5
227.621	46.5
227.856	52.5
228.09	46.5
228.324	57.5
228.559	49.5
228.793	72.5
229.027	68.5
229.262	81.5
229.496	63.5
229.73	80.5
229.964	84.5
230.199	83.5
230.433	67.5
230.667	82.5
230.901	64.5
231.136	77.5
231.37	82.5
231.604	66.5
231.838	93.5
232.072	84.5
232.306	82.5
232.541	88.5
232.775	83.5
233.009	86.5
233.243	80.5
233.477	83.5
233.711	84.5
233.945	76.5
234.179	81.5
234.413	93.5
234.647	81.5
234.881	72.5
235.115	84.5
235.349	74.5
235.583	73.5
235.817	79.5
236.051	78.5
236.285	81.5
236.519	74.5
236.753	77.5
236.987	81.5
237.221	86.5
237.455	83.5
237.689	83.5
237.922	73.5
238.156	91.5
238.39	71.5
238.624	85.5
238.858	80.5
239.091	72.5
239.325	84.5
239.559	87.5
239.793	85.5
240.027	71.5
240.26	79.5
240.494	72.5
240.728	76.5
240.961	80.5
241.195	73.5
241.429	87.5
241.662	80.5
241.896	71.5
242.13	79.5
242.363	81.5
242.597	79.5
242.83	83.5
243.064	79.5
243.298	81.5
243.531	88.5
243.765	71.5
243.998	63.5
244.232	71.5
244.465	80.5
244.699	91.5
244.932	71.5
245.166	79.5
245.399	72.5
245.633	87.5
245.866	67.5
246.099	91.5
246.333	79.5
246.566	87.5
246.8	67.5
247.033	83.5
247.266	74.5
247.5	91.5
247.733	77.5
247.966	92.5
248.2	84.5
248.433	84.5
248.666	85.5
248.899	61.5
249.133	86.5
249.366	103.5
249.599	90.5
249.832	68.5
250.066	78.5
250.299	79.5
250.532	76.5
250.765	76.5
250.998	91.5
251.231	77.5
251.465	72.5
251.698	76.5
251.931	82.5
252.164	100.5
252.397	79.5
252.63	91.5
252.863	82.5
253.096	98.5
253.329	80.5
253.562	72.5
253.795	69.5
254.028	72.5
254.261	86.5
254.494	82.5
254.727	80.5
254.96	82.5
255.193	78.5
255.426	85.5
255.659	75.5
255.892	77.5
256.124	91.5
256.357	79.5
256.59	97.5
256.823	93.5
257.056	66.5
257.289	66.5
257.521	90.5
257.754	83.5
257.987	91.5
258.22	76.5
258.452	76.5
258.685	104.5
258.918	83.5
259.151	75.5
259.383	77.5
259.616	95.5
259.849	96.5
260.081	75.5
260.314	95.5
260.547	80.5
260.779	81.5
261.012	82.5
261.244	85.5
261.477	93.5
261.71	92.5
261.942	110.5
262.175	105.5
262.407	91.5
262.64	82.5
262.872	87.5
263.105	65.5
263.337	79.5
263.57	81.5
263.802	79.5
264.035	75.5
264.267	81.5
264.499	79.5
264.732	93.5
264.964	78.5
265.197	75.5
265.429	83.5
265.661	85.5
265.894	88.5
266.126	90.5
266.358	71.5
266.591	81.5
266.823	79.5
267.055	96.5
267.287	87.5
267.52	91.5
267.752	88.5
267.984	76.5
268.216	80.5
268.448	90.5
268.681	81.5
268.913	79.5
269.145	97.5
269.377	93.5
269.609	98.5
269.841	84.5
270.073	104.5
270.306	83.5
270.538	84.5
270.77	95.5
271.002	89.5
271.234	90.5
271.466	101.5
271.698	86.5
271.93	75.5
272.162	89.5
272.394	78.5
272.626	76.5
272.858	93.5
273.09	89.5
273.322	74.5
273.553	85.5
273.785	85.5
274.017	84.5
274.249	88.5
274.481	83.5
274.713	81.5
274.945	90.5
275.176	91.5
275.408	82.5
275.64	99.5
275.872	80.5
276.104	87.5
276.335	101.5
276.567	97.5
276.799	97.5
277.031	107.5
277.262	96.5
277.494	87.5
277.726	96.5
277.957	84.5
278.189	66.5
278.421	87.5
278.652	71.5
278.884	84.5
279.115	81.5
279.347	80.5
279.579	94.5
279.81	94.5
280.042	91.5
280.273	80.5
280.505	84.5
280.736	74.5
280.968	89.5
281.199	91.5
281.431	85.5
281.662	85.5
281.894	91.5
282.125	92.5
282.356	136.5
282.588	132.5
282.819	96.5
283.051	94.5
283.282	81.5
283.513	81.5
283.745	83.5
283.976	79.5
284.207	92.5
284.439	85.5
284.67	84.5
284.901	95.5
285.132	89.5
285.364	98.5
285.595	100.5
285.826	82.5
286.057	93.5
286.288	92.5
286.52	90.5
286.751	95.5
286.982	82.5
287.213	80.5
287.444	93.5
287.675	93.5
287.906	93.5
288.138	104.5
288.369	95.5
288.6	87.5
288.831	83.5
289.062	82.5
289.293	73.5
289.524	87.5
289.755	98.5
289.986	81.5
290.217	92.5
290.448	87.5
290.679	86.5
290.91	86.5
291.141	93.5
291.371	106.5
291.602	106.5
291.833	88.5
292.064	82.5
292.295	73.5
292.526	80.5
292.757	83.5
292.987	84.5
293.218	85.5
293.449	88.5
293.68	92.5
293.91	88.5
294.141	92.5
294.372	75.5
294.603	81.5
294.833	98.5
295.064	95.5
295.295	91.5
295.525	94.5
295.756	92.5
295.987	110.5
296.217	121.5
296.448	120.5
296.679	95.5
296.909	92.5
297.14	96.5
297.37	85.5
297.601	67.5
297.831	98.5
298.062	88.5
298.292	94.5
298.523	83.5
298.753	88.5
298.984	89.5
299.214	83.5
299.445	92.5
299.675	85.5
299.905	101.5
300.136	97.5
300.366	91.5
300.597	95.5
300.827	91.5
301.057	96.5
301.288	112.5
301.518	97.5
301.748	93.5
301.979	101.5
302.209	94.5
302.439	92.5
302.669	74.5
302.9	98.5
303.13	100.5
303.36	100.5
303.59	104.5
303.82	101.5
304.051	91.5
304.281	83.5
304.511	96.5
304.741	89.5
304.971	91.5
305.201	89.5
305.431	84.5
305.661	98.5
305.891	86.5
306.121	89.5
306.352	105.5
306.582	100.5
306.812	101.5
307.042	87.5
307.272	99.5
307.502	92.5
307.731	95.5
307.961	87.5
308.191	94.5
308.421	85.5
308.651	100.5
308.881	91.5
309.111	97.5
309.341	102.5
309.571	100.5
309.8	96.5
310.03	93.5
310.26	97.5
310.49	90.5
310.72	92.5
310.949	104.5
311.179	94.5
311.409	110.5
311.639	96.5
311.868	93.5
312.098	90.5
312.328	88.5
312.557	91.5
312.787	93.5
313.017	104.5
313.246	83.5
313.476	95.5
313.706	103.5
313.935	85.5
314.165	97.5
314.394	106.5
314.624	92.5
314.853	81.5
315.083	91.5
315.312	95.5
315.542	85.5
315.771	88.5
316.001	84.5
316.23	85.5
316.46	80.5
316.689	85.5
316.919	89.5
317.148	91.5
317.377	93.5
317.607	101.5
317.836	104.5
318.065	96.5
318.295	93.5
318.524	88.5
318.753	98.5
318.983	101.5
319.212	99.5
319.441	106.5
319.67	117.5
319.9	98.5
320.129	86.5
320.358	85.5
320.587	104.5
320.816	106.5
321.046	103.5
321.275	103.5
321.504	97.5
321.733	101.5
321.962	100.5
322.191	95.5
322.42	91.5
322.649	100.5
322.878	110.5
323.108	124.5
323.337	131.5
323.566	123.5
323.795	144.5
324.024	204.5
324.253	376.5
324.482	774.5
324.71	1636.5
324.939	2110.5
325.168	784.5
325.397	231.5
325.626	155.5
325.855	124.5
326.084	108.5
326.313	128.5
326.542	146.5
326.77	215.5
326.999	438.5
327.228	898.5
327.457	1636.5
327.686	1293.5
327.914	363.5
328.143	195.5
328.372	140.5
328.6	119.5
328.829	117.5
329.058	114.5
329.287	114.5
329.515	108.5
329.744	102.5
329.972	88.5
330.201	99.5
330.43	90.5
330.658	111.5
330.887	133.5
331.115	125.5
331.344	101.5
331.572	108.5
331.801	93.5
332.03	84.5
332.258	88.5
332.486	94.5
332.715	91.5
332.943	91.5
333.172	95.5
333.4	105.5
333.629	93.5
333.857	116.5
334.085	100.5
334.314	84.5
334.542	92.5
334.771	91.5
334.999	113.5
335.227	91.5
335.455	87.5
335.684	89.5
335.912	91.5
336.14	81.5
336.369	101.5
336.597	99.5
336.825	98.5
337.053	104.5
337.281	102.5
337.51	91.5
337.738	92.5
337.966	98.5
338.194	93.5
338.422	100.5
338.65	85.5
338.878	81.5
339.106	85.5
339.334	97.5
339.562	105.5
339.79	88.5
340.018	91.5
340.246	88.5
340.474	82.5
340.702	92.5
340.93	87.5
341.158	101.5
341.386	93.5
341.614	108.5
341.842	92.5
342.07	101.5
342.298	85.5
342.526	82.5
342.754	97.5
342.981	95.5
343.209	79.5
343.437	107.5
343.665	104.5
343.893	73.5
344.12	90.5
344.348	89.5
344.576	89.5
344.804	94.5
345.031	98.5
345.259	89.5
345.487	90.5
345.714	87.5
345.942	87.5
346.17	96.5
346.397	89.5
346.625	103.5
346.853	100.5
347.08	97.5
347.308	89.5
347.535	103.5
347.763	92.5
347.99	97.5
348.218	105.5
348.445	114.5
348.673	84.5
348.9	95.5
349.128	97.5
349.355	96.5
349.583	88.5
349.81	89.5
350.037	84.5
350.265	87.5
350.492	81.5
350.72	109.5
350.947	100.5
351.174	100.5
351.402	111.5
351.629	101.5
351.856	94.5
352.083	90.5
352.311	114.5
352.538	111.5
352.765	99.5
352.992	108.5
353.22	113.5
353.447	111.5
353.674	101.5
353.901	93.5
354.128	109.5
354.355	106.5
354.583	110.5
354.81	114.5
355.037	95.5
355.264	100.5
355.491	100.5
355.718	90.5
355.945	87.5
356.172	89.5
356.399	100.5
356.626	96.5
356.853	96.5
357.08	104.5
357.307	93.5
357.534	98.5
357.761	88.5
357.988	84.5
358.215	103.5
358.441	93.5
358.668	88.5
358.895	67.5
359.122	81.5
359.349	84.5
359.576	101.5
359.802	92.5
360.029	108.5
360.256	105.5
360.483	90.5
360.709	87.5
360.936	113.5
361.163	81.5
361.39	88.5
361.616	106.5
361.843	82.5
362.07	82.5
362.296	83.5
362.523	93.5
362.749	98.5
362.976	102.5
363.203	99.5
363.429	92.5
363.656	87.5
363.882	84.5
364.109	92.5
364.335	96.5
364.562	84.5
364.788	81.5
365.015	86.5
365.241	100.5
365.468	103.5
365.694	107.5
365.92	84.5
366.147	84.5
366.373	78.5
366.599	91.5
366.826	79.5
367.052	93.5
367.278	86.5
367.505	93.5
367.731	92.5
367.957	84.5
368.184	96.5
368.41	95.5
368.636	109.5
368.862	120.5
369.089	108.5
369.315	85.5
369.541	107.5
369.767	93.5
369.993	92.5
370.219	86.5
370.445	94.5
370.672	91.5
370.898	90.5
371.124	96.5
371.35	89.5
371.576	84.5
371.802	89.5
372.028	97.5
372.254	90.5
372.48	80.5
372.706	98.5
372.932	87.5
373.158	91.5
373.384	96.5
373.61	85.5
373.835	91.5
374.061	76.5
374.287	92.5
374.513	88.5
374.739	90.5
374.965	99.5
375.191	84.5
375.416	79.5
375.642	68.5
375.868	91.5
376.094	94.5
376.319	81.5
376.545	85.5
376.771	92.5
376.997	93.5
377.222	99.5
377.448	80.5
377.674	96.5
377.899	70.5
378.125	75.5
378.35	102.5
378.576	84.5
378.802	93.5
379.027	100.5
379.253	84.5
379.478	90.5
379.704	87.5
379.929	98.5
380.155	81.5
380.38	82.5
380.606	96.5
380.831	96.5
381.057	109.5
381.282	92.5
381.507	83.5
381.733	94.5
381.958	93.5
382.184	101.5
382.409	101.5
382.634	122.5
382.86	86.5
383.085	96.5
383.31	105.5
383.535	110.5
383.761	101.5
383.986	94.5
384.211	87.5
384.436	100.5
384.662	90.5
384.887	93.5
385.112	101.5
385.337	99.5
385.562	103.5
385.787	96.5
386.013	103.5
386.238	108.5
386.463	118.5
386.688	110.5
386.913	97.5
387.138	87.5
387.363	95.5
387.588	99.5
387.813	93.5
388.038	95.5
388.263	110.5
388.488	93.5
388.713	85.5
388.938	92.5
389.163	96.5
389.387	87.5
389.612	92.5
389.837	77.5
390.062	81.5
390.287	92.5
390.512	84.5
390.736	81.5
390.961	89.5
391.186	84.5
391.411	106.5
391.636	92.5
391.86	88.5
392.085	83.5
392.31	85.5
392.534	82.5
392.759	75.5
392.984	87.5
393.208	77.5
393.433	97.5
393.658	86.5
393.882	83.5
394.107	78.5
394.331	99.5
394.556	83.5
394.78	93.5
395.005	100.5
395.229	91.5
395.454	77.5
395.678	85.5
395.903	85.5
396.127	90.5
396.352	87.5
396.576	83.5
396.801	83.5
397.025	77.5
397.249	77.5
397.474	93.5
397.698	83.5
397.922	96.5
398.147	88.5
398.371	88.5
398.595	91.5
398.82	84.5
399.044	91.5
399.268	75.5
399.492	95.5
399.717	87.5
399.941	91.5
400.165	111.5
400.389	99.5
400.613	94.5
400.837	91.5
401.062	70.5
401.286	84.5
401.51	75.5
401.734	95.5
401.958	97.5
402.182	126.5
402.406	149.5
402.63	106.5
402.854	99.5
403.078	68.5
403.302	90.5
403.526	76.5
403.75	75.5
403.974	78.5
404.198	91.5
404.422	84.5
404.645	98.5
404.869	86.5
405.093	82.5
405.317	90.5
405.541	101.5
405.765	96.5
405.988	104.5
406.212	175.5
406.436	226.5
406.66	127.5
406.883	87.5
407.107	94.5
407.331	88.5
407.555	90.5
407.778	92.5
408.002	97.5
408.226	86.5
408.449	85.5
408.673	96.5
408.896	92.5
409.12	96.5
409.344	98.5
409.567	87.5
409.791	99.5
410.014	90.5
410.238	91.5
410.461	78.5
410.685	95.5
410.908	80.5
411.132	113.5
411.355	102.5
411.578	98.5
411.802	88.5
412.025	83.5
412.249	84.5
412.472	92.5
412.695	79.5
412.919	78.5
413.142	89.5
413.365	87.5
413.589	81.5
413.812	103.5
414.035	96.5
414.258	95.5
414.482	87.5
414.705	105.5
414.928	94.5
415.151	109.5
415.374	100.5
415.597	83.5
415.821	87.5
416.044	81.5
416.267	84.5
416.49	95.5
416.713	88.5
416.936	86.5
417.159	79.5
417.382	82.5
417.605	98.5
417.828	97.5
418.051	88.5
418.274	94.5
418.497	85.5
418.72	91.5
418.943	87.5
419.166	82.5
419.389	90.5
419.611	93.5
419.834	80.5
420.057	83.5
420.28	86.5
420.503	89.5
420.726	89.5
420.948	86.5
421.171	75.5
421.394	80.5
421.617	98.5
421.839	81.5
422.062	85.5
422.285	78.5
422.507	95.5
422.73	106.5
422.953	89.5
423.175	78.5
423.398	85.5
423.621	99.5
423.843	79.5
424.066	75.5
424.288	82.5
424.511	86.5
424.733	98.5
424.956	112.5
425.178	95.5
425.401	104.5
425.623	94.5
425.846	100.5
426.068	83.5
426.291	87.5
426.513	91.5
426.735	85.5
426.958	103.5
427.18	95.5
427.402	125.5
427.625	153.5
427.847	113.5
428.069	97.5
428.292	84.5
428.514	84.5
428.736	76.5
428.958	102.5
429.181	82.5
429.403	75.5
429.625	77.5
429.847	93.5
430.069	96.5
430.292	100.5
430.514	84.5
430.736	67.5
430.958	90.5
431.18	81.5
431.402	75.5
431.624	84.5
431.846	81.5
432.068	87.5
432.29	81.5
432.512	99.5
432.734	91.5
432.956	82.5
433.178	99.5
433.4	91.5
433.622	88.5
433.844	95.5
434.066	80.5
434.287	100.5
434.509	82.5
434.731	87.5
434.953	82.5
435.175	95.5
435.397	73.5
435.618	96.5
435.84	90.5
436.062	103.5
436.284	95.5
436.505	101.5
436.727	102.5
436.949	92.5
437.17	88.5
437.392	91.5
437.614	84.5
437.835	106.5
438.057	113.5
438.278	104.5
438.5	113.5
438.721	114.5
438.943	101.5
439.165	95.5
439.386	89.5
439.608	73.5
439.829	102.5
440.05	110.5
440.272	137.5
440.493	104.5
440.715	85.5
440.936	81.5
441.158	99.5
441.379	95.5
441.6	84.5
441.822	95.5
442.043	92.5
442.264	103.5
442.486	83.5
442.707	89.5
442.928	87.5
443.149	120.5
443.371	113.5
443.592	112.5
443.813	113.5
444.034	115.5
444.255	82.5
444.476	97.5
444.698	81.5
444.919	84.5
445.14	140.5
445.361	112.5
445.582	114.5
445.803	124.5
446.024	132.5
446.245	119.5
446.466	92.5
446.687	94.5
446.908	96.5
447.129	93.5
447.35	77.5
447.571	98.5
447.792	89.5
448.013	96.5
448.234	96.5
448.455	100.5
448.675	96.5
448.896	103.5
449.117	105.5
449.338	95.5
449.559	114.5
449.779	129.5
450	92.5
450.221	91.5
450.442	82.5
450.662	91.5
450.883	107.5
451.104	97.5
451.324	85.5
451.545	90.5
451.766	79.5
451.986	84.5
452.207	77.5
452.428	82.5
452.648	104.5
452.869	107.5
453.089	113.5
453.31	118.5
453.53	100.5
453.751	93.5
453.971	87.5
454.192	101.5
454.412	98.5
454.633	90.5
454.853	84.5
455.073	88.5
455.294	100.5
455.514	96.5
455.734	83.5
455.955	81.5
456.175	84.5
456.395	88.5
456.616	92.5
456.836	90.5
457.056	93.5
457.276	77.5
457.497	84.5
457.717	85.5
457.937	86.5
458.157	70.5
458.377	97.5
458.598	99.5
458.818	138.5
459.038	131.5
459.258	129.5
459.478	93.5
459.698	95.5
459.918	76.5
460.138	81.5
460.358	76.5
460.578	97.5
460.798	87.5
461.018	93.5
461.238	96.5
461.458	77.5
461.678	76.5
461.898	90.5
462.118	68.5
462.338	74.5
462.558	93.5
462.777	85.5
462.997	96.5
463.217	84.5
463.437	80.5
463.657	90.5
463.876	92.5
464.096	86.5
464.316	84.5
464.536	99.5
464.755	90.5
464.975	91.5
465.195	155.5
465.414	157.5
465.634	90.5
465.854	88.5
466.073	79.5
466.293	80.5
466.512	92.5
466.732	91.5
466.951	77.5
467.171	89.5
467.391	92.5
467.61	101.5
467.829	88.5
468.049	78.5
468.268	89.5
468.488	85.5
468.707	80.5
468.927	89.5
469.146	87.5
469.365	90.5
469.585	72.5
469.804	97.5
470.023	95.5
470.243	92.5
470.462	103.5
470.681	111.5
470.901	86.5
471.12	86.5
471.339	77.5
471.558	91.5
471.777	92.5
471.997	91.5
472.216	87.5
472.435	95.5
472.654	75.5
472.873	93.5
473.092	87.5
473.311	91.5
473.53	83.5
473.749	85.5
473.968	109.5
474.187	108.5
474.406	97.5
474.625	82.5
474.844	91.5
475.063	80.5
475.282	69.5
475.501	91.5
475.72	96.5
475.939	86.5
476.158	83.5
476.377	85.5
476.596	96.5
476.814	86.5
477.033	96.5
477.252	83.5
477.471	97.5
477.69	80.5
477.908	96.5
478.127	98.5
478.346	91.5
478.564	92.5
478.783	109.5
479.002	91.5
479.22	98.5
479.439	97.5
479.658	108.5
479.876	101.5
480.095	85.5
480.313	101.5
480.532	100.5
480.751	82.5
480.969	90.5
481.188	85.5
481.406	97.5
481.624	74.5
481.843	87.5
482.061	89.5
482.28	78.5
482.498	81.5
482.717	91.5
482.935	91.5
483.153	84.5
483.372	88.5
483.59	79.5
483.808	92.5
484.027	87.5
484.245	95.5
484.463	117.5
484.681	96.5
484.9	106.5
485.118	98.5
485.336	95.5
485.554	99.5
485.772	84.5
485.99	109.5
486.209	108.5
486.427	93.5
486.645	109.5
486.863	99.5
487.081	91.5
487.299	92.5
487.517	102.5
487.735	84.5
487.953	115.5
488.171	92.5
488.389	95.5
488.607	90.5
488.825	98.5
489.043	96.5
489.261	84.5
489.479	82.5
489.696	98.5
489.914	84.5
490.132	95.5
490.35	86.5
490.568	92.5
490.786	102.5
491.003	83.5
491.221	90.5
491.439	90.5
491.657	93.5
491.874	87.5
492.092	82.5
492.31	86.5
492.527	96.5
492.745	82.5
492.963	81.5
493.18	85.5
493.398	85.5
493.615	93.5
493.833	97.5
494.05	76.5
494.268	102.5
494.485	97.5
494.703	101.5
494.92	94.5
495.138	87.5
495.355	93.5
495.573	94.5
495.79	90.5
496.008	100.5
496.225	77.5
496.442	81.5
496.66	85.5
496.877	83.5
497.094	98.5
497.312	92.5
497.529	81.5
497.746	84.5
497.963	97.5
498.181	88.5
498.398	92.5
498.615	100.5
498.832	100.5
499.049	90.5
499.267	90.5
499.484	82.5
499.701	93.5
499.918	90.5
500.135	77.5
500.352	67.5
500.569	81.5
500.786	95.5
501.003	104.5
501.22	89.5
501.437	96.5
501.654	92.5
501.871	108.5
502.088	66.5
502.305	93.5
502.522	92.5
502.739	89.5
502.956	87.5
503.172	91.5
503.389	92.5
503.606	107.5
503.823	101.5
504.04	99.5
504.256	82.5
504.473	94.5
504.69	83.5
504.907	86.5
505.123	98.5
505.34	92.5
505.557	81.5
505.773	111.5
505.99	87.5
506.207	98.5
506.423	89.5
506.64	81.5
506.856	94.5
507.073	86.5
507.289	109.5
507.506	105.5
507.722	116.5
507.939	90.5
508.155	92.5
508.372	96.5
508.588	104.5
508.805	86.5
509.021	96.5
509.238	93.5
509.454	91.5
509.67	113.5
509.887	112.5
510.103	138.5
510.319	239.5
510.536	777.5
510.752	2394.5
510.968	649.5
511.184	149.5
511.401	116.5
511.617	91.5
511.833	100.5
512.049	100.5
512.265	91.5
512.481	84.5
512.698	79.5
512.914	87.5
513.13	92.5
513.346	84.5
513.562	81.5
513.778	99.5
513.994	88.5
514.21	95.5
514.426	112.5
514.642	135.5
514.858	117.5
515.074	157.5
515.29	421.5
515.506	1452.5
515.721	500.5
515.937	155.5
516.153	111.5
516.369	100.5
516.585	89.5
516.801	91.5
517.016	100.5
517.232	101.5
517.448	98.5
517.664	107.5
517.879	101.5
518.095	98.5
518.311	95.5
518.527	90.5
518.742	98.5
518.958	104.5
519.173	85.5
519.389	80.5
519.605	91.5
519.82	89.5
520.036	95.5
520.251	113.5
520.467	114.5
520.682	93.5
520.898	111.5
521.113	100.5
521.329	132.5
521.544	208.5
521.76	569.5
521.975	2388.5
522.19	1440.5
522.406	301.5
522.621	119.5
522.836	89.5
523.052	88.5
523.267	93.5
523.482	93.5
523.698	106.5
523.913	107.5
524.128	106.5
524.343	92.5
524.559	90.5
524.774	77.5
524.989	96.5
525.204	100.5
525.419	101.5
525.634	104.5
525.849	86.5
526.064	85.5
526.28	103.5
526.495	80.5
526.71	77.5
526.925	83.5
527.14	89.5
527.355	94.5
527.57	86.5
527.785	81.5
527.999	92.5
528.214	107.5
528.429	95.5
528.644	82.5
528.859	98.5
529.074	103.5
529.289	113.5
529.503	192.5
529.718	100.5
529.933	91.5
530.148	87.5
530.363	81.5
530.577	90.5
530.792	100.5
531.007	90.5
531.221	91.5
531.436	75.5
531.651	95.5
531.865	85.5
532.08	85.5
532.295	90.5
532.509	93.5
532.724	98.5
532.938	87.5
533.153	85.5
533.367	88.5
533.582	83.5
533.796	87.5
534.011	80.5
534.225	95.5
534.44	86.5
534.654	105.5
534.868	100.5
535.083	94.5
535.297	95.5
535.511	103.5
535.726	99.5
535.94	94.5
