Data from Uncirc_1994_H10_HRD10591_00011.txt Node
Date: Wed Jan 03 11:39:23 EST 2024
User: Yrep
Spectrometer: HR+D1059
Trigger mode: 1
Integration Time (sec): 1.000000E-1
Scans to average: 1
Electric dark correction enabled: true
Nonlinearity correction enabled: false
Boxcar width: 0
XAxis mode: Wavelengths
Number of Pixels in Spectrum: 2048
>>>>>Begin Spectral Data<<<<<
223.165	-30.5
223.4	-30.5
223.635	-30.5
223.869	-24.5
224.104	-17.5
224.338	-23.5
224.573	-3.5
224.808	-16.5
225.042	-14.5
225.277	3.5
225.511	7.5
225.746	-7.5
225.98	22.5
226.215	20.5
226.449	11.5
226.683	14.5
226.918	30.5
227.152	27.5
227.387	42.5
227.621	44.5
227.856	49.5
228.09	44.5
228.324	43.5
228.559	56.5
228.793	54.5
229.027	76.5
229.262	75.5
229.496	64.5
229.73	79.5
229.964	81.5
230.199	88.5
230.433	86.5
230.667	70.5
230.901	65.5
231.136	78.5
231.37	88.5
231.604	84.5
231.838	86.5
232.072	89.5
232.306	85.5
232.541	92.5
232.775	70.5
233.009	71.5
233.243	79.5
233.477	84.5
233.711	82.5
233.945	84.5
234.179	89.5
234.413	84.5
234.647	80.5
234.881	85.5
235.115	68.5
235.349	83.5
235.583	74.5
235.817	75.5
236.051	89.5
236.285	73.5
236.519	84.5
236.753	67.5
236.987	79.5
237.221	78.5
237.455	92.5
237.689	70.5
237.922	71.5
238.156	78.5
238.39	61.5
238.624	63.5
238.858	80.5
239.091	86.5
239.325	62.5
239.559	77.5
239.793	75.5
240.027	66.5
240.26	78.5
240.494	65.5
240.728	71.5
240.961	74.5
241.195	72.5
241.429	83.5
241.662	68.5
241.896	82.5
242.13	72.5
242.363	73.5
242.597	64.5
242.83	78.5
243.064	69.5
243.298	71.5
243.531	71.5
243.765	74.5
243.998	70.5
244.232	80.5
244.465	98.5
244.699	78.5
244.932	69.5
245.166	85.5
245.399	77.5
245.633	89.5
245.866	67.5
246.099	78.5
246.333	70.5
246.566	75.5
246.8	70.5
247.033	87.5
247.266	74.5
247.5	74.5
247.733	86.5
247.966	78.5
248.2	86.5
248.433	76.5
248.666	78.5
248.899	84.5
249.133	89.5
249.366	99.5
249.599	91.5
249.832	88.5
250.066	76.5
250.299	81.5
250.532	68.5
250.765	86.5
250.998	78.5
251.231	82.5
251.465	82.5
251.698	84.5
251.931	83.5
252.164	73.5
252.397	75.5
252.63	66.5
252.863	74.5
253.096	88.5
253.329	88.5
253.562	67.5
253.795	87.5
254.028	81.5
254.261	83.5
254.494	78.5
254.727	79.5
254.96	80.5
255.193	67.5
255.426	80.5
255.659	84.5
255.892	80.5
256.124	78.5
256.357	78.5
256.59	84.5
256.823	78.5
257.056	85.5
257.289	82.5
257.521	86.5
257.754	75.5
257.987	86.5
258.22	88.5
258.452	79.5
258.685	86.5
258.918	83.5
259.151	80.5
259.383	87.5
259.616	87.5
259.849	83.5
260.081	83.5
260.314	80.5
260.547	86.5
260.779	75.5
261.012	82.5
261.244	86.5
261.477	89.5
261.71	81.5
261.942	102.5
262.175	95.5
262.407	86.5
262.64	94.5
262.872	63.5
263.105	67.5
263.337	80.5
263.57	84.5
263.802	84.5
264.035	82.5
264.267	84.5
264.499	78.5
264.732	104.5
264.964	77.5
265.197	84.5
265.429	85.5
265.661	76.5
265.894	84.5
266.126	66.5
266.358	78.5
266.591	75.5
266.823	83.5
267.055	87.5
267.287	85.5
267.52	80.5
267.752	74.5
267.984	73.5
268.216	74.5
268.448	93.5
268.681	68.5
268.913	81.5
269.145	87.5
269.377	73.5
269.609	87.5
269.841	91.5
270.073	73.5
270.306	77.5
270.538	76.5
270.77	74.5
271.002	80.5
271.234	98.5
271.466	86.5
271.698	82.5
271.93	82.5
272.162	75.5
272.394	68.5
272.626	90.5
272.858	91.5
273.09	77.5
273.322	75.5
273.553	81.5
273.785	92.5
274.017	79.5
274.249	67.5
274.481	82.5
274.713	86.5
274.945	84.5
275.176	84.5
275.408	90.5
275.64	92.5
275.872	86.5
276.104	76.5
276.335	88.5
276.567	97.5
276.799	90.5
277.031	90.5
277.262	81.5
277.494	78.5
277.726	83.5
277.957	85.5
278.189	80.5
278.421	89.5
278.652	76.5
278.884	81.5
279.115	87.5
279.347	82.5
279.579	92.5
279.81	95.5
280.042	79.5
280.273	86.5
280.505	84.5
280.736	93.5
280.968	92.5
281.199	79.5
281.431	74.5
281.662	80.5
281.894	80.5
282.125	93.5
282.356	113.5
282.588	123.5
282.819	104.5
283.051	92.5
283.282	94.5
283.513	88.5
283.745	82.5
283.976	93.5
284.207	86.5
284.439	89.5
284.67	59.5
284.901	81.5
285.132	88.5
285.364	74.5
285.595	86.5
285.826	99.5
286.057	95.5
286.288	95.5
286.52	96.5
286.751	91.5
286.982	91.5
287.213	83.5
287.444	77.5
287.675	86.5
287.906	99.5
288.138	89.5
288.369	96.5
288.6	100.5
288.831	88.5
289.062	97.5
289.293	83.5
289.524	76.5
289.755	89.5
289.986	91.5
290.217	87.5
290.448	89.5
290.679	89.5
290.91	82.5
291.141	91.5
291.371	92.5
291.602	82.5
291.833	95.5
292.064	99.5
292.295	98.5
292.526	94.5
292.757	90.5
292.987	101.5
293.218	87.5
293.449	94.5
293.68	96.5
293.91	88.5
294.141	73.5
294.372	76.5
294.603	91.5
294.833	96.5
295.064	95.5
295.295	73.5
295.525	86.5
295.756	92.5
295.987	114.5
296.217	124.5
296.448	114.5
296.679	85.5
296.909	82.5
297.14	76.5
297.37	84.5
297.601	79.5
297.831	89.5
298.062	88.5
298.292	97.5
298.523	90.5
298.753	82.5
298.984	89.5
299.214	86.5
299.445	85.5
299.675	90.5
299.905	85.5
300.136	94.5
300.366	92.5
300.597	70.5
300.827	85.5
301.057	99.5
301.288	79.5
301.518	86.5
301.748	81.5
301.979	88.5
302.209	88.5
302.439	85.5
302.669	93.5
302.9	65.5
303.13	92.5
303.36	107.5
303.59	94.5
303.82	100.5
304.051	98.5
304.281	96.5
304.511	73.5
304.741	98.5
304.971	99.5
305.201	95.5
305.431	85.5
305.661	78.5
305.891	87.5
306.121	100.5
306.352	98.5
306.582	107.5
306.812	92.5
307.042	89.5
307.272	88.5
307.502	89.5
307.731	101.5
307.961	92.5
308.191	86.5
308.421	81.5
308.651	77.5
308.881	94.5
309.111	98.5
309.341	89.5
309.571	99.5
309.8	94.5
310.03	84.5
310.26	83.5
310.49	95.5
310.72	91.5
310.949	103.5
311.179	97.5
311.409	98.5
311.639	109.5
311.868	88.5
312.098	92.5
312.328	108.5
312.557	98.5
312.787	97.5
313.017	89.5
313.246	86.5
313.476	94.5
313.706	98.5
313.935	103.5
314.165	97.5
314.394	95.5
314.624	83.5
314.853	98.5
315.083	83.5
315.312	82.5
315.542	94.5
315.771	89.5
316.001	99.5
316.23	98.5
316.46	89.5
316.689	95.5
316.919	92.5
317.148	96.5
317.377	108.5
317.607	99.5
317.836	75.5
318.065	107.5
318.295	83.5
318.524	94.5
318.753	94.5
318.983	95.5
319.212	103.5
319.441	106.5
319.67	90.5
319.9	91.5
320.129	94.5
320.358	97.5
320.587	85.5
320.816	100.5
321.046	93.5
321.275	102.5
321.504	97.5
321.733	81.5
321.962	94.5
322.191	96.5
322.42	92.5
322.649	111.5
322.878	117.5
323.108	116.5
323.337	118.5
323.566	135.5
323.795	152.5
324.024	185.5
324.253	365.5
324.482	738.5
324.71	1521.5
324.939	1981.5
325.168	736.5
325.397	229.5
325.626	130.5
325.855	102.5
326.084	101.5
326.313	134.5
326.542	142.5
326.77	217.5
326.999	417.5
327.228	886.5
327.457	1560.5
327.686	1243.5
327.914	351.5
328.143	175.5
328.372	135.5
328.6	111.5
328.829	123.5
329.058	126.5
329.287	114.5
329.515	112.5
329.744	95.5
329.972	96.5
330.201	87.5
330.43	104.5
330.658	92.5
330.887	114.5
331.115	126.5
331.344	88.5
331.572	95.5
331.801	104.5
332.03	104.5
332.258	96.5
332.486	88.5
332.715	94.5
332.943	89.5
333.172	93.5
333.4	97.5
333.629	107.5
333.857	112.5
334.085	96.5
334.314	105.5
334.542	80.5
334.771	94.5
334.999	86.5
335.227	78.5
335.455	86.5
335.684	98.5
335.912	96.5
336.14	88.5
336.369	72.5
336.597	102.5
336.825	97.5
337.053	92.5
337.281	97.5
337.51	81.5
337.738	90.5
337.966	72.5
338.194	103.5
338.422	88.5
338.65	79.5
338.878	96.5
339.106	78.5
339.334	97.5
339.562	85.5
339.79	96.5
340.018	92.5
340.246	80.5
340.474	97.5
340.702	107.5
340.93	94.5
341.158	88.5
341.386	100.5
341.614	88.5
341.842	96.5
342.07	88.5
342.298	89.5
342.526	101.5
342.754	82.5
342.981	96.5
343.209	102.5
343.437	104.5
343.665	82.5
343.893	104.5
344.12	88.5
344.348	78.5
344.576	85.5
344.804	87.5
345.031	84.5
345.259	100.5
345.487	82.5
345.714	93.5
345.942	86.5
346.17	89.5
346.397	92.5
346.625	91.5
346.853	82.5
347.08	84.5
347.308	84.5
347.535	88.5
347.763	103.5
347.99	99.5
348.218	92.5
348.445	98.5
348.673	84.5
348.9	112.5
349.128	89.5
349.355	78.5
349.583	85.5
349.81	79.5
350.037	80.5
350.265	96.5
350.492	83.5
350.72	83.5
350.947	106.5
351.174	96.5
351.402	105.5
351.629	93.5
351.856	106.5
352.083	97.5
352.311	103.5
352.538	96.5
352.765	106.5
352.992	97.5
353.22	107.5
353.447	90.5
353.674	102.5
353.901	96.5
354.128	78.5
354.355	83.5
354.583	95.5
354.81	110.5
355.037	107.5
355.264	90.5
355.491	92.5
355.718	91.5
355.945	97.5
356.172	103.5
356.399	95.5
356.626	92.5
356.853	96.5
357.08	86.5
357.307	98.5
357.534	100.5
357.761	90.5
357.988	77.5
358.215	97.5
358.441	84.5
358.668	99.5
358.895	95.5
359.122	99.5
359.349	83.5
359.576	83.5
359.802	103.5
360.029	86.5
360.256	110.5
360.483	95.5
360.709	89.5
360.936	99.5
361.163	93.5
361.39	98.5
361.616	100.5
361.843	102.5
362.07	72.5
362.296	108.5
362.523	85.5
362.749	78.5
362.976	100.5
363.203	87.5
363.429	97.5
363.656	82.5
363.882	89.5
364.109	91.5
364.335	86.5
364.562	104.5
364.788	80.5
365.015	103.5
365.241	100.5
365.468	115.5
365.694	98.5
365.92	90.5
366.147	100.5
366.373	80.5
366.599	94.5
366.826	84.5
367.052	104.5
367.278	104.5
367.505	97.5
367.731	91.5
367.957	80.5
368.184	81.5
368.41	86.5
368.636	105.5
368.862	114.5
369.089	110.5
369.315	90.5
369.541	87.5
369.767	84.5
369.993	78.5
370.219	94.5
370.445	79.5
370.672	70.5
370.898	105.5
371.124	95.5
371.35	84.5
371.576	83.5
371.802	96.5
372.028	97.5
372.254	86.5
372.48	89.5
372.706	81.5
372.932	75.5
373.158	97.5
373.384	92.5
373.61	97.5
373.835	94.5
374.061	76.5
374.287	100.5
374.513	79.5
374.739	97.5
374.965	104.5
375.191	98.5
375.416	84.5
375.642	87.5
375.868	89.5
376.094	103.5
376.319	85.5
376.545	88.5
376.771	93.5
376.997	94.5
377.222	95.5
377.448	80.5
377.674	101.5
377.899	97.5
378.125	90.5
378.35	84.5
378.576	100.5
378.802	97.5
379.027	94.5
379.253	73.5
379.478	93.5
379.704	104.5
379.929	93.5
380.155	90.5
380.38	90.5
380.606	89.5
380.831	104.5
381.057	102.5
381.282	94.5
381.507	85.5
381.733	90.5
381.958	90.5
382.184	90.5
382.409	115.5
382.634	101.5
382.86	95.5
383.085	109.5
383.31	92.5
383.535	95.5
383.761	97.5
383.986	92.5
384.211	99.5
384.436	88.5
384.662	95.5
384.887	97.5
385.112	85.5
385.337	93.5
385.562	105.5
385.787	118.5
386.013	108.5
386.238	115.5
386.463	113.5
386.688	109.5
386.913	107.5
387.138	109.5
387.363	97.5
387.588	92.5
387.813	99.5
388.038	104.5
388.263	104.5
388.488	108.5
388.713	95.5
388.938	91.5
389.163	95.5
389.387	84.5
389.612	88.5
389.837	92.5
390.062	95.5
390.287	92.5
390.512	96.5
390.736	94.5
390.961	94.5
391.186	94.5
391.411	94.5
391.636	91.5
391.86	83.5
392.085	105.5
392.31	87.5
392.534	99.5
392.759	77.5
392.984	89.5
393.208	96.5
393.433	117.5
393.658	94.5
393.882	89.5
394.107	84.5
394.331	82.5
394.556	72.5
394.78	92.5
395.005	87.5
395.229	68.5
395.454	82.5
395.678	79.5
395.903	86.5
396.127	92.5
396.352	89.5
396.576	90.5
396.801	86.5
397.025	87.5
397.249	92.5
397.474	74.5
397.698	88.5
397.922	88.5
398.147	84.5
398.371	99.5
398.595	97.5
398.82	95.5
399.044	80.5
399.268	95.5
399.492	94.5
399.717	84.5
399.941	79.5
400.165	80.5
400.389	90.5
400.613	76.5
400.837	106.5
401.062	72.5
401.286	100.5
401.51	94.5
401.734	90.5
401.958	87.5
402.182	118.5
402.406	133.5
402.63	93.5
402.854	84.5
403.078	95.5
403.302	91.5
403.526	93.5
403.75	89.5
403.974	89.5
404.198	90.5
404.422	99.5
404.645	96.5
404.869	99.5
405.093	89.5
405.317	88.5
405.541	83.5
405.765	95.5
405.988	103.5
406.212	144.5
406.436	202.5
406.66	113.5
406.883	92.5
407.107	88.5
407.331	85.5
407.555	91.5
407.778	90.5
408.002	90.5
408.226	78.5
408.449	78.5
408.673	88.5
408.896	96.5
409.12	94.5
409.344	84.5
409.567	82.5
409.791	87.5
410.014	95.5
410.238	87.5
410.461	88.5
410.685	106.5
410.908	104.5
411.132	108.5
411.355	94.5
411.578	81.5
411.802	91.5
412.025	81.5
412.249	108.5
412.472	86.5
412.695	78.5
412.919	82.5
413.142	80.5
413.365	93.5
413.589	81.5
413.812	84.5
414.035	89.5
414.258	99.5
414.482	81.5
414.705	91.5
414.928	100.5
415.151	83.5
415.374	106.5
415.597	84.5
415.821	78.5
416.044	95.5
416.267	83.5
416.49	95.5
416.713	75.5
416.936	78.5
417.159	82.5
417.382	93.5
417.605	90.5
417.828	99.5
418.051	109.5
418.274	109.5
418.497	78.5
418.72	85.5
418.943	80.5
419.166	96.5
419.389	84.5
419.611	81.5
419.834	91.5
420.057	98.5
420.28	92.5
420.503	91.5
420.726	84.5
420.948	90.5
421.171	104.5
421.394	90.5
421.617	98.5
421.839	87.5
422.062	90.5
422.285	95.5
422.507	89.5
422.73	96.5
422.953	85.5
423.175	98.5
423.398	80.5
423.621	94.5
423.843	83.5
424.066	74.5
424.288	72.5
424.511	71.5
424.733	87.5
424.956	95.5
425.178	96.5
425.401	88.5
425.623	89.5
425.846	90.5
426.068	72.5
426.291	84.5
426.513	97.5
426.735	83.5
426.958	98.5
427.18	116.5
427.402	131.5
427.625	142.5
427.847	107.5
428.069	89.5
428.292	76.5
428.514	95.5
428.736	76.5
428.958	95.5
429.181	85.5
429.403	85.5
429.625	83.5
429.847	92.5
430.069	89.5
430.292	88.5
430.514	80.5
430.736	96.5
430.958	86.5
431.18	79.5
431.402	79.5
431.624	89.5
431.846	89.5
432.068	85.5
432.29	73.5
432.512	92.5
432.734	86.5
432.956	95.5
433.178	99.5
433.4	93.5
433.622	90.5
433.844	94.5
434.066	74.5
434.287	99.5
434.509	80.5
434.731	105.5
434.953	87.5
435.175	82.5
435.397	76.5
435.618	82.5
435.84	97.5
436.062	106.5
436.284	106.5
436.505	84.5
436.727	91.5
436.949	72.5
437.17	97.5
437.392	89.5
437.614	88.5
437.835	99.5
438.057	102.5
438.278	104.5
438.5	95.5
438.721	108.5
438.943	90.5
439.165	87.5
439.386	98.5
439.608	87.5
439.829	105.5
440.05	123.5
440.272	135.5
440.493	86.5
440.715	93.5
440.936	89.5
441.158	76.5
441.379	99.5
441.6	91.5
441.822	90.5
442.043	80.5
442.264	110.5
442.486	87.5
442.707	93.5
442.928	116.5
443.149	125.5
443.371	122.5
443.592	100.5
443.813	103.5
444.034	106.5
444.255	89.5
444.476	84.5
444.698	97.5
444.919	91.5
445.14	113.5
445.361	113.5
445.582	117.5
445.803	113.5
446.024	142.5
446.245	135.5
446.466	97.5
446.687	81.5
446.908	93.5
447.129	73.5
447.35	96.5
447.571	100.5
447.792	98.5
448.013	80.5
448.234	99.5
448.455	83.5
448.675	106.5
448.896	109.5
449.117	92.5
449.338	102.5
449.559	111.5
449.779	124.5
450	98.5
450.221	83.5
450.442	87.5
450.662	87.5
450.883	92.5
451.104	84.5
451.324	78.5
451.545	84.5
451.766	79.5
451.986	87.5
452.207	91.5
452.428	83.5
452.648	98.5
452.869	105.5
453.089	102.5
453.31	119.5
453.53	110.5
453.751	91.5
453.971	86.5
454.192	98.5
454.412	77.5
454.633	89.5
454.853	91.5
455.073	87.5
455.294	81.5
455.514	96.5
455.734	86.5
455.955	95.5
456.175	77.5
456.395	81.5
456.616	80.5
456.836	86.5
457.056	65.5
457.276	78.5
457.497	80.5
457.717	83.5
457.937	77.5
458.157	79.5
458.377	78.5
458.598	100.5
458.818	141.5
459.038	148.5
459.258	101.5
459.478	90.5
459.698	83.5
459.918	94.5
460.138	81.5
460.358	95.5
460.578	92.5
460.798	96.5
461.018	88.5
461.238	88.5
461.458	93.5
461.678	96.5
461.898	85.5
462.118	79.5
462.338	95.5
462.558	91.5
462.777	63.5
462.997	82.5
463.217	91.5
463.437	89.5
463.657	88.5
463.876	79.5
464.096	89.5
464.316	96.5
464.536	80.5
464.755	91.5
464.975	103.5
465.195	131.5
465.414	133.5
465.634	94.5
465.854	76.5
466.073	79.5
466.293	90.5
466.512	75.5
466.732	87.5
466.951	88.5
467.171	98.5
467.391	84.5
467.61	108.5
467.829	100.5
468.049	76.5
468.268	88.5
468.488	82.5
468.707	78.5
468.927	92.5
469.146	86.5
469.365	64.5
469.585	93.5
469.804	91.5
470.023	89.5
470.243	74.5
470.462	87.5
470.681	96.5
470.901	88.5
471.12	92.5
471.339	87.5
471.558	100.5
471.777	86.5
471.997	79.5
472.216	83.5
472.435	78.5
472.654	95.5
472.873	83.5
473.092	82.5
473.311	98.5
473.53	95.5
473.749	82.5
473.968	91.5
474.187	96.5
474.406	95.5
474.625	84.5
474.844	76.5
475.063	90.5
475.282	83.5
475.501	94.5
475.72	82.5
475.939	71.5
476.158	82.5
476.377	95.5
476.596	80.5
476.814	94.5
477.033	100.5
477.252	81.5
477.471	86.5
477.69	95.5
477.908	74.5
478.127	83.5
478.346	89.5
478.564	82.5
478.783	93.5
479.002	85.5
479.22	94.5
479.439	93.5
479.658	85.5
479.876	83.5
480.095	76.5
480.313	94.5
480.532	84.5
480.751	90.5
480.969	78.5
481.188	97.5
481.406	96.5
481.624	84.5
481.843	75.5
482.061	83.5
482.28	89.5
482.498	82.5
482.717	83.5
482.935	94.5
483.153	87.5
483.372	95.5
483.59	83.5
483.808	87.5
484.027	76.5
484.245	83.5
484.463	90.5
484.681	95.5
484.9	88.5
485.118	94.5
485.336	96.5
485.554	108.5
485.772	89.5
485.99	93.5
486.209	96.5
486.427	114.5
486.645	115.5
486.863	99.5
487.081	96.5
487.299	100.5
487.517	87.5
487.735	83.5
487.953	80.5
488.171	109.5
488.389	94.5
488.607	97.5
488.825	87.5
489.043	97.5
489.261	91.5
489.479	87.5
489.696	81.5
489.914	85.5
490.132	95.5
490.35	105.5
490.568	87.5
490.786	108.5
491.003	85.5
491.221	75.5
491.439	67.5
491.657	96.5
491.874	90.5
492.092	77.5
492.31	95.5
492.527	77.5
492.745	96.5
492.963	93.5
493.18	83.5
493.398	98.5
493.615	94.5
493.833	94.5
494.05	97.5
494.268	84.5
494.485	95.5
494.703	81.5
494.92	87.5
495.138	85.5
495.355	83.5
495.573	97.5
495.79	93.5
496.008	97.5
496.225	88.5
496.442	82.5
496.66	92.5
496.877	98.5
497.094	99.5
497.312	83.5
497.529	81.5
497.746	91.5
497.963	83.5
498.181	94.5
498.398	104.5
498.615	111.5
498.832	96.5
499.049	78.5
499.267	88.5
499.484	96.5
499.701	81.5
499.918	90.5
500.135	85.5
500.352	93.5
500.569	89.5
500.786	87.5
501.003	97.5
501.22	106.5
501.437	94.5
501.654	78.5
501.871	97.5
502.088	91.5
502.305	99.5
502.522	92.5
502.739	84.5
502.956	74.5
503.172	91.5
503.389	87.5
503.606	105.5
503.823	93.5
504.04	86.5
504.256	96.5
504.473	95.5
504.69	90.5
504.907	92.5
505.123	91.5
505.34	91.5
505.557	87.5
505.773	81.5
505.99	88.5
506.207	95.5
506.423	90.5
506.64	87.5
506.856	91.5
507.073	92.5
507.289	100.5
507.506	90.5
507.722	103.5
507.939	113.5
508.155	104.5
508.372	90.5
508.588	96.5
508.805	90.5
509.021	108.5
509.238	102.5
509.454	97.5
509.67	89.5
509.887	87.5
510.103	127.5
510.319	201.5
510.536	682.5
510.752	2055.5
510.968	568.5
511.184	146.5
511.401	109.5
511.617	99.5
511.833	91.5
512.049	87.5
512.265	74.5
512.481	94.5
512.698	96.5
512.914	79.5
513.13	102.5
513.346	90.5
513.562	101.5
513.778	105.5
513.994	86.5
514.21	88.5
514.426	101.5
514.642	112.5
514.858	108.5
515.074	122.5
515.29	388.5
515.506	1222.5
515.721	464.5
515.937	144.5
516.153	121.5
516.369	91.5
516.585	98.5
516.801	93.5
517.016	83.5
517.232	88.5
517.448	102.5
517.664	82.5
517.879	93.5
518.095	83.5
518.311	86.5
518.527	98.5
518.742	93.5
518.958	77.5
519.173	102.5
519.389	89.5
519.605	95.5
519.82	99.5
520.036	90.5
520.251	110.5
520.467	95.5
520.682	104.5
520.898	97.5
521.113	116.5
521.329	130.5
521.544	198.5
521.76	508.5
521.975	1983.5
522.19	1192.5
522.406	262.5
522.621	110.5
522.836	102.5
523.052	96.5
523.267	98.5
523.482	78.5
523.698	100.5
523.913	118.5
524.128	110.5
524.343	93.5
524.559	86.5
524.774	86.5
524.989	88.5
525.204	88.5
525.419	93.5
525.634	89.5
525.849	80.5
526.064	80.5
526.28	84.5
526.495	82.5
526.71	81.5
526.925	87.5
527.14	86.5
527.355	92.5
527.57	93.5
527.785	82.5
527.999	89.5
528.214	88.5
528.429	97.5
528.644	92.5
528.859	91.5
529.074	82.5
529.289	127.5
529.503	154.5
529.718	99.5
529.933	86.5
530.148	92.5
530.363	99.5
530.577	79.5
530.792	84.5
531.007	89.5
531.221	98.5
531.436	96.5
531.651	94.5
531.865	72.5
532.08	98.5
532.295	99.5
532.509	90.5
532.724	87.5
532.938	94.5
533.153	96.5
533.367	104.5
533.582	87.5
533.796	96.5
534.011	90.5
534.225	92.5
534.44	96.5
534.654	94.5
534.868	89.5
535.083	81.5
535.297	89.5
535.511	89.5
535.726	106.5
535.94	104.5
536.154	88.5
536.369	92.5
536.583	84.5
