Data from Uncirc_1994_H10_HRD10591_00066.txt Node
Date: Wed Jan 03 11:39:34 EST 2024
User: Yrep
Spectrometer: HR+D1059
Trigger mode: 1
Integration Time (sec): 1.000000E-1
Scans to average: 1
Electric dark correction enabled: true
Nonlinearity correction enabled: false
Boxcar width: 0
XAxis mode: Wavelengths
Number of Pixels in Spectrum: 2048
>>>>>Begin Spectral Data<<<<<
223.165	-14.56
223.4	-14.56
223.635	-14.56
223.869	-3.56
224.104	-14.56
224.338	-6.56
224.573	-13.56
224.808	-31.56
225.042	-16.56
225.277	-4.56
225.511	-8.56
225.746	14.44
225.98	4.44
226.215	20.44
226.449	10.44
226.683	23.44
226.918	16.44
227.152	24.44
227.387	32.44
227.621	45.44
227.856	42.44
228.09	49.44
228.324	72.44
228.559	60.44
228.793	60.44
229.027	70.44
229.262	60.44
229.496	64.44
229.73	75.44
229.964	75.44
230.199	63.44
230.433	76.44
230.667	82.44
230.901	84.44
231.136	91.44
231.37	81.44
231.604	72.44
231.838	81.44
232.072	78.44
232.306	76.44
232.541	77.44
232.775	92.44
233.009	78.44
233.243	89.44
233.477	77.44
233.711	86.44
233.945	82.44
234.179	82.44
234.413	87.44
234.647	73.44
234.881	66.44
235.115	87.44
235.349	76.44
235.583	88.44
235.817	76.44
236.051	76.44
236.285	80.44
236.519	79.44
236.753	83.44
236.987	70.44
237.221	84.44
237.455	80.44
237.689	76.44
237.922	96.44
238.156	92.44
238.39	78.44
238.624	76.44
238.858	75.44
239.091	62.44
239.325	67.44
239.559	77.44
239.793	79.44
240.027	87.44
240.26	82.44
240.494	82.44
240.728	82.44
240.961	88.44
241.195	77.44
241.429	87.44
241.662	79.44
241.896	66.44
242.13	72.44
242.363	78.44
242.597	80.44
242.83	92.44
243.064	65.44
243.298	63.44
243.531	71.44
243.765	75.44
243.998	91.44
244.232	86.44
244.465	67.44
244.699	94.44
244.932	91.44
245.166	75.44
245.399	83.44
245.633	77.44
245.866	96.44
246.099	92.44
246.333	80.44
246.566	60.44
246.8	82.44
247.033	89.44
247.266	67.44
247.5	72.44
247.733	90.44
247.966	78.44
248.2	103.44
248.433	87.44
248.666	80.44
248.899	85.44
249.133	87.44
249.366	114.44
249.599	93.44
249.832	77.44
250.066	101.44
250.299	83.44
250.532	100.44
250.765	95.44
250.998	77.44
251.231	82.44
251.465	79.44
251.698	80.44
251.931	78.44
252.164	96.44
252.397	76.44
252.63	81.44
252.863	70.44
253.096	73.44
253.329	80.44
253.562	86.44
253.795	80.44
254.028	80.44
254.261	86.44
254.494	75.44
254.727	77.44
254.96	80.44
255.193	84.44
255.426	78.44
255.659	77.44
255.892	75.44
256.124	87.44
256.357	83.44
256.59	86.44
256.823	71.44
257.056	84.44
257.289	77.44
257.521	103.44
257.754	75.44
257.987	71.44
258.22	79.44
258.452	83.44
258.685	66.44
258.918	89.44
259.151	85.44
259.383	99.44
259.616	83.44
259.849	72.44
260.081	84.44
260.314	87.44
260.547	83.44
260.779	89.44
261.012	94.44
261.244	84.44
261.477	88.44
261.71	100.44
261.942	109.44
262.175	107.44
262.407	87.44
262.64	81.44
262.872	90.44
263.105	69.44
263.337	89.44
263.57	92.44
263.802	93.44
264.035	93.44
264.267	93.44
264.499	83.44
264.732	80.44
264.964	99.44
265.197	87.44
265.429	93.44
265.661	77.44
265.894	90.44
266.126	88.44
266.358	86.44
266.591	83.44
266.823	76.44
267.055	71.44
267.287	81.44
267.52	76.44
267.752	86.44
267.984	76.44
268.216	88.44
268.448	85.44
268.681	102.44
268.913	87.44
269.145	88.44
269.377	84.44
269.609	83.44
269.841	90.44
270.073	86.44
270.306	89.44
270.538	96.44
270.77	87.44
271.002	96.44
271.234	108.44
271.466	86.44
271.698	89.44
271.93	80.44
272.162	96.44
272.394	96.44
272.626	97.44
272.858	100.44
273.09	83.44
273.322	82.44
273.553	83.44
273.785	81.44
274.017	87.44
274.249	81.44
274.481	92.44
274.713	87.44
274.945	89.44
275.176	94.44
275.408	92.44
275.64	93.44
275.872	83.44
276.104	105.44
276.335	81.44
276.567	112.44
276.799	105.44
277.031	89.44
277.262	100.44
277.494	93.44
277.726	88.44
277.957	85.44
278.189	83.44
278.421	95.44
278.652	87.44
278.884	102.44
279.115	91.44
279.347	87.44
279.579	78.44
279.81	67.44
280.042	97.44
280.273	101.44
280.505	90.44
280.736	87.44
280.968	79.44
281.199	82.44
281.431	86.44
281.662	88.44
281.894	95.44
282.125	101.44
282.356	119.44
282.588	138.44
282.819	116.44
283.051	104.44
283.282	79.44
283.513	101.44
283.745	87.44
283.976	84.44
284.207	86.44
284.439	95.44
284.67	99.44
284.901	81.44
285.132	83.44
285.364	83.44
285.595	87.44
285.826	79.44
286.057	101.44
286.288	104.44
286.52	87.44
286.751	87.44
286.982	87.44
287.213	83.44
287.444	93.44
287.675	97.44
287.906	87.44
288.138	84.44
288.369	99.44
288.6	82.44
288.831	101.44
289.062	89.44
289.293	111.44
289.524	101.44
289.755	95.44
289.986	86.44
290.217	93.44
290.448	99.44
290.679	99.44
290.91	88.44
291.141	93.44
291.371	89.44
291.602	82.44
291.833	91.44
292.064	80.44
292.295	95.44
292.526	91.44
292.757	91.44
292.987	88.44
293.218	100.44
293.449	99.44
293.68	88.44
293.91	93.44
294.141	87.44
294.372	95.44
294.603	88.44
294.833	85.44
295.064	79.44
295.295	87.44
295.525	105.44
295.756	95.44
295.987	110.44
296.217	123.44
296.448	118.44
296.679	95.44
296.909	95.44
297.14	84.44
297.37	87.44
297.601	99.44
297.831	79.44
298.062	90.44
298.292	80.44
298.523	96.44
298.753	98.44
298.984	99.44
299.214	104.44
299.445	87.44
299.675	105.44
299.905	102.44
300.136	87.44
300.366	85.44
300.597	102.44
300.827	96.44
301.057	100.44
301.288	115.44
301.518	100.44
301.748	87.44
301.979	101.44
302.209	81.44
302.439	85.44
302.669	97.44
302.9	103.44
303.13	121.44
303.36	95.44
303.59	109.44
303.82	104.44
304.051	100.44
304.281	94.44
304.511	101.44
304.741	96.44
304.971	89.44
305.201	82.44
305.431	72.44
305.661	103.44
305.891	100.44
306.121	92.44
306.352	112.44
306.582	110.44
306.812	93.44
307.042	101.44
307.272	94.44
307.502	96.44
307.731	96.44
307.961	89.44
308.191	76.44
308.421	83.44
308.651	97.44
308.881	92.44
309.111	87.44
309.341	115.44
309.571	102.44
309.8	94.44
310.03	101.44
310.26	115.44
310.49	109.44
310.72	103.44
310.949	97.44
311.179	95.44
311.409	93.44
311.639	91.44
311.868	97.44
312.098	91.44
312.328	101.44
312.557	110.44
312.787	114.44
313.017	100.44
313.246	105.44
313.476	100.44
313.706	102.44
313.935	103.44
314.165	115.44
314.394	103.44
314.624	107.44
314.853	95.44
315.083	91.44
315.312	109.44
315.542	107.44
315.771	99.44
316.001	93.44
316.23	89.44
316.46	84.44
316.689	94.44
316.919	110.44
317.148	99.44
317.377	101.44
317.607	103.44
317.836	89.44
318.065	96.44
318.295	93.44
318.524	96.44
318.753	105.44
318.983	105.44
319.212	96.44
319.441	97.44
319.67	124.44
319.9	94.44
320.129	100.44
320.358	99.44
320.587	95.44
320.816	112.44
321.046	91.44
321.275	95.44
321.504	96.44
321.733	98.44
321.962	101.44
322.191	122.44
322.42	107.44
322.649	104.44
322.878	104.44
323.108	97.44
323.337	118.44
323.566	126.44
323.795	156.44
324.024	191.44
324.253	391.44
324.482	833.44
324.71	1671.44
324.939	2160.44
325.168	812.44
325.397	229.44
325.626	146.44
325.855	138.44
326.084	116.44
326.313	133.44
326.542	169.44
326.77	222.44
326.999	463.44
327.228	927.44
327.457	1657.44
327.686	1286.44
327.914	376.44
328.143	212.44
328.372	143.44
328.6	139.44
328.829	115.44
329.058	118.44
329.287	127.44
329.515	111.44
329.744	110.44
329.972	96.44
330.201	107.44
330.43	111.44
330.658	125.44
330.887	149.44
331.115	126.44
331.344	118.44
331.572	104.44
331.801	101.44
332.03	97.44
332.258	102.44
332.486	93.44
332.715	101.44
332.943	96.44
333.172	105.44
333.4	107.44
333.629	103.44
333.857	117.44
334.085	109.44
334.314	100.44
334.542	92.44
334.771	98.44
334.999	90.44
335.227	100.44
335.455	104.44
335.684	109.44
335.912	95.44
336.14	98.44
336.369	109.44
336.597	104.44
336.825	99.44
337.053	98.44
337.281	94.44
337.51	97.44
337.738	90.44
337.966	92.44
338.194	91.44
338.422	105.44
338.65	80.44
338.878	100.44
339.106	88.44
339.334	75.44
339.562	89.44
339.79	72.44
340.018	111.44
340.246	102.44
340.474	99.44
340.702	102.44
340.93	91.44
341.158	98.44
341.386	91.44
341.614	96.44
341.842	95.44
342.07	92.44
342.298	108.44
342.526	103.44
342.754	107.44
342.981	93.44
343.209	96.44
343.437	103.44
343.665	99.44
343.893	87.44
344.12	84.44
344.348	81.44
344.576	100.44
344.804	106.44
345.031	122.44
345.259	95.44
345.487	100.44
345.714	85.44
345.942	91.44
346.17	98.44
346.397	105.44
346.625	102.44
346.853	91.44
347.08	99.44
347.308	103.44
347.535	103.44
347.763	92.44
347.99	92.44
348.218	96.44
348.445	94.44
348.673	108.44
348.9	96.44
349.128	104.44
349.355	94.44
349.583	92.44
349.81	88.44
350.037	79.44
350.265	104.44
350.492	108.44
350.72	101.44
350.947	95.44
351.174	99.44
351.402	109.44
351.629	119.44
351.856	93.44
352.083	102.44
352.311	117.44
352.538	114.44
352.765	103.44
352.992	99.44
353.22	103.44
353.447	112.44
353.674	119.44
353.901	86.44
354.128	110.44
354.355	101.44
354.583	125.44
354.81	112.44
355.037	113.44
355.264	96.44
355.491	92.44
355.718	89.44
355.945	104.44
356.172	97.44
356.399	113.44
356.626	94.44
356.853	89.44
357.08	78.44
357.307	86.44
357.534	106.44
357.761	103.44
357.988	85.44
358.215	86.44
358.441	96.44
358.668	94.44
358.895	92.44
359.122	118.44
359.349	99.44
359.576	91.44
359.802	107.44
360.029	111.44
360.256	110.44
360.483	107.44
360.709	86.44
360.936	97.44
361.163	93.44
361.39	100.44
361.616	102.44
361.843	106.44
362.07	93.44
362.296	94.44
362.523	102.44
362.749	105.44
362.976	96.44
363.203	92.44
363.429	86.44
363.656	83.44
363.882	87.44
364.109	104.44
364.335	89.44
364.562	91.44
364.788	89.44
365.015	90.44
365.241	100.44
365.468	111.44
365.694	104.44
365.92	99.44
366.147	87.44
366.373	94.44
366.599	103.44
366.826	83.44
367.052	102.44
367.278	83.44
367.505	88.44
367.731	89.44
367.957	99.44
368.184	83.44
368.41	96.44
368.636	116.44
368.862	139.44
369.089	128.44
369.315	100.44
369.541	97.44
369.767	101.44
369.993	88.44
370.219	101.44
370.445	87.44
370.672	109.44
370.898	97.44
371.124	84.44
371.35	86.44
371.576	83.44
371.802	92.44
372.028	81.44
372.254	76.44
372.48	100.44
372.706	89.44
372.932	84.44
373.158	85.44
373.384	91.44
373.61	95.44
373.835	92.44
374.061	79.44
374.287	107.44
374.513	82.44
374.739	81.44
374.965	91.44
375.191	103.44
375.416	87.44
375.642	102.44
375.868	99.44
376.094	95.44
376.319	95.44
376.545	98.44
376.771	100.44
376.997	103.44
377.222	81.44
377.448	91.44
377.674	91.44
377.899	95.44
378.125	83.44
378.35	96.44
378.576	99.44
378.802	99.44
379.027	97.44
379.253	89.44
379.478	90.44
379.704	87.44
379.929	81.44
380.155	79.44
380.38	75.44
380.606	110.44
380.831	88.44
381.057	95.44
381.282	99.44
381.507	105.44
381.733	109.44
381.958	88.44
382.184	70.44
382.409	105.44
382.634	94.44
382.86	94.44
383.085	105.44
383.31	115.44
383.535	102.44
383.761	100.44
383.986	100.44
384.211	93.44
384.436	103.44
384.662	102.44
384.887	118.44
385.112	102.44
385.337	102.44
385.562	94.44
385.787	106.44
386.013	107.44
386.238	110.44
386.463	105.44
386.688	127.44
386.913	98.44
387.138	103.44
387.363	106.44
387.588	85.44
387.813	109.44
388.038	114.44
388.263	107.44
388.488	102.44
388.713	116.44
388.938	98.44
389.163	101.44
389.387	103.44
389.612	84.44
389.837	87.44
390.062	105.44
390.287	96.44
390.512	107.44
390.736	97.44
390.961	91.44
391.186	114.44
391.411	103.44
391.636	88.44
391.86	79.44
392.085	88.44
392.31	79.44
392.534	93.44
392.759	99.44
392.984	91.44
393.208	91.44
393.433	93.44
393.658	89.44
393.882	88.44
394.107	83.44
394.331	77.44
394.556	81.44
394.78	97.44
395.005	88.44
395.229	87.44
395.454	98.44
395.678	89.44
395.903	103.44
396.127	99.44
396.352	85.44
396.576	88.44
396.801	89.44
397.025	85.44
397.249	92.44
397.474	89.44
397.698	101.44
397.922	87.44
398.147	101.44
398.371	94.44
398.595	95.44
398.82	100.44
399.044	88.44
399.268	89.44
399.492	100.44
399.717	95.44
399.941	93.44
400.165	93.44
400.389	95.44
400.613	104.44
400.837	92.44
401.062	102.44
401.286	88.44
401.51	96.44
401.734	80.44
401.958	110.44
402.182	124.44
402.406	155.44
402.63	107.44
402.854	97.44
403.078	89.44
403.302	88.44
403.526	84.44
403.75	93.44
403.974	103.44
404.198	96.44
404.422	89.44
404.645	90.44
404.869	109.44
405.093	93.44
405.317	100.44
405.541	103.44
405.765	109.44
405.988	123.44
406.212	176.44
406.436	216.44
406.66	143.44
406.883	102.44
407.107	100.44
407.331	95.44
407.555	94.44
407.778	99.44
408.002	87.44
408.226	82.44
408.449	101.44
408.673	89.44
408.896	78.44
409.12	103.44
409.344	85.44
409.567	99.44
409.791	94.44
410.014	91.44
410.238	104.44
410.461	102.44
410.685	100.44
410.908	83.44
411.132	109.44
411.355	100.44
411.578	85.44
411.802	77.44
412.025	95.44
412.249	81.44
412.472	84.44
412.695	82.44
412.919	94.44
413.142	95.44
413.365	79.44
413.589	94.44
413.812	80.44
414.035	95.44
414.258	102.44
414.482	103.44
414.705	92.44
414.928	93.44
415.151	88.44
415.374	101.44
415.597	91.44
415.821	102.44
416.044	85.44
416.267	95.44
416.49	102.44
416.713	91.44
416.936	102.44
417.159	89.44
417.382	94.44
417.605	100.44
417.828	99.44
418.051	96.44
418.274	96.44
418.497	79.44
418.72	93.44
418.943	84.44
419.166	100.44
419.389	93.44
419.611	96.44
419.834	93.44
420.057	87.44
420.28	101.44
420.503	88.44
420.726	84.44
420.948	89.44
421.171	88.44
421.394	89.44
421.617	99.44
421.839	80.44
422.062	107.44
422.285	91.44
422.507	89.44
422.73	91.44
422.953	97.44
423.175	95.44
423.398	91.44
423.621	91.44
423.843	94.44
424.066	94.44
424.288	100.44
424.511	91.44
424.733	105.44
424.956	93.44
425.178	103.44
425.401	91.44
425.623	105.44
425.846	91.44
426.068	105.44
426.291	111.44
426.513	104.44
426.735	86.44
426.958	100.44
427.18	101.44
427.402	115.44
427.625	162.44
427.847	111.44
428.069	99.44
428.292	83.44
428.514	69.44
428.736	95.44
428.958	85.44
429.181	97.44
429.403	93.44
429.625	97.44
429.847	109.44
430.069	121.44
430.292	107.44
430.514	90.44
430.736	95.44
430.958	81.44
431.18	88.44
431.402	86.44
431.624	89.44
431.846	71.44
432.068	92.44
432.29	87.44
432.512	97.44
432.734	85.44
432.956	100.44
433.178	91.44
433.4	104.44
433.622	83.44
433.844	88.44
434.066	97.44
434.287	96.44
434.509	106.44
434.731	103.44
434.953	91.44
435.175	89.44
435.397	88.44
435.618	89.44
435.84	107.44
436.062	115.44
436.284	117.44
436.505	95.44
436.727	99.44
436.949	107.44
437.17	91.44
437.392	83.44
437.614	95.44
437.835	121.44
438.057	109.44
438.278	109.44
438.5	101.44
438.721	128.44
438.943	97.44
439.165	89.44
439.386	89.44
439.608	94.44
439.829	83.44
440.05	114.44
440.272	144.44
440.493	102.44
440.715	99.44
440.936	98.44
441.158	90.44
441.379	92.44
441.6	98.44
441.822	109.44
442.043	96.44
442.264	104.44
442.486	95.44
442.707	88.44
442.928	103.44
443.149	122.44
443.371	117.44
443.592	98.44
443.813	104.44
444.034	124.44
444.255	95.44
444.476	83.44
444.698	96.44
444.919	76.44
445.14	133.44
445.361	133.44
445.582	114.44
445.803	147.44
446.024	144.44
446.245	126.44
446.466	105.44
446.687	80.44
446.908	104.44
447.129	96.44
447.35	95.44
447.571	98.44
447.792	93.44
448.013	103.44
448.234	87.44
448.455	100.44
448.675	108.44
448.896	123.44
449.117	123.44
449.338	115.44
449.559	123.44
449.779	124.44
450	95.44
450.221	99.44
450.442	81.44
450.662	113.44
450.883	95.44
451.104	102.44
451.324	102.44
451.545	88.44
451.766	104.44
451.986	67.44
452.207	95.44
452.428	88.44
452.648	102.44
452.869	111.44
453.089	102.44
453.31	121.44
453.53	92.44
453.751	90.44
453.971	97.44
454.192	112.44
454.412	91.44
454.633	98.44
454.853	84.44
455.073	92.44
455.294	91.44
455.514	121.44
455.734	100.44
455.955	85.44
456.175	82.44
456.395	88.44
456.616	86.44
456.836	80.44
457.056	95.44
457.276	86.44
457.497	86.44
457.717	92.44
457.937	80.44
458.157	99.44
458.377	96.44
458.598	109.44
458.818	142.44
459.038	169.44
459.258	120.44
459.478	90.44
459.698	81.44
459.918	98.44
460.138	85.44
460.358	87.44
460.578	72.44
460.798	87.44
461.018	85.44
461.238	86.44
461.458	80.44
461.678	90.44
461.898	107.44
462.118	87.44
462.338	93.44
462.558	94.44
462.777	85.44
462.997	104.44
463.217	88.44
463.437	85.44
463.657	83.44
463.876	84.44
464.096	92.44
464.316	95.44
464.536	87.44
464.755	105.44
464.975	108.44
465.195	161.44
465.414	155.44
465.634	102.44
465.854	92.44
466.073	104.44
466.293	77.44
466.512	97.44
466.732	95.44
466.951	82.44
467.171	98.44
467.391	87.44
467.61	107.44
467.829	84.44
468.049	109.44
468.268	85.44
468.488	88.44
468.707	85.44
468.927	85.44
469.146	81.44
469.365	95.44
469.585	76.44
469.804	88.44
470.023	88.44
470.243	97.44
470.462	101.44
470.681	113.44
470.901	84.44
471.12	70.44
471.339	89.44
471.558	85.44
471.777	84.44
471.997	91.44
472.216	77.44
472.435	89.44
472.654	90.44
472.873	77.44
473.092	81.44
473.311	86.44
473.53	83.44
473.749	104.44
473.968	100.44
474.187	97.44
474.406	101.44
474.625	91.44
474.844	79.44
475.063	86.44
475.282	89.44
475.501	88.44
475.72	95.44
475.939	83.44
476.158	94.44
476.377	95.44
476.596	85.44
476.814	90.44
477.033	87.44
477.252	88.44
477.471	82.44
477.69	91.44
477.908	82.44
478.127	96.44
478.346	103.44
478.564	88.44
478.783	89.44
479.002	96.44
479.22	93.44
479.439	102.44
479.658	121.44
479.876	98.44
480.095	86.44
480.313	96.44
480.532	93.44
480.751	81.44
480.969	98.44
481.188	97.44
481.406	97.44
481.624	105.44
481.843	95.44
482.061	90.44
482.28	76.44
482.498	86.44
482.717	81.44
482.935	102.44
483.153	105.44
483.372	91.44
483.59	89.44
483.808	96.44
484.027	85.44
484.245	85.44
484.463	96.44
484.681	93.44
484.9	105.44
485.118	100.44
485.336	89.44
485.554	100.44
485.772	90.44
485.99	86.44
486.209	119.44
486.427	96.44
486.645	115.44
486.863	114.44
487.081	100.44
487.299	96.44
487.517	89.44
487.735	103.44
487.953	84.44
488.171	91.44
488.389	105.44
488.607	105.44
488.825	89.44
489.043	93.44
489.261	84.44
489.479	102.44
489.696	94.44
489.914	91.44
490.132	88.44
490.35	91.44
490.568	90.44
490.786	85.44
491.003	79.44
491.221	87.44
491.439	102.44
491.657	102.44
491.874	102.44
492.092	100.44
492.31	99.44
492.527	90.44
492.745	92.44
492.963	88.44
493.18	88.44
493.398	87.44
493.615	93.44
493.833	94.44
494.05	94.44
494.268	98.44
494.485	90.44
494.703	99.44
494.92	93.44
495.138	97.44
495.355	103.44
495.573	95.44
495.79	89.44
496.008	84.44
496.225	82.44
496.442	90.44
496.66	98.44
496.877	88.44
497.094	89.44
497.312	82.44
497.529	91.44
497.746	94.44
497.963	94.44
498.181	93.44
498.398	97.44
498.615	101.44
498.832	102.44
499.049	95.44
499.267	88.44
499.484	83.44
499.701	80.44
499.918	92.44
500.135	100.44
500.352	93.44
500.569	101.44
500.786	111.44
501.003	81.44
501.22	82.44
501.437	84.44
501.654	106.44
501.871	106.44
502.088	106.44
502.305	98.44
502.522	100.44
502.739	92.44
502.956	97.44
503.172	102.44
503.389	104.44
503.606	108.44
503.823	91.44
504.04	89.44
504.256	106.44
504.473	97.44
504.69	89.44
504.907	92.44
505.123	84.44
505.34	87.44
505.557	86.44
505.773	92.44
505.99	92.44
506.207	98.44
506.423	83.44
506.64	88.44
506.856	109.44
507.073	94.44
507.289	100.44
507.506	100.44
507.722	111.44
507.939	100.44
508.155	105.44
508.372	99.44
508.588	103.44
508.805	91.44
509.021	99.44
509.238	102.44
509.454	90.44
509.67	96.44
509.887	124.44
510.103	144.44
510.319	231.44
510.536	804.44
510.752	2396.44
510.968	652.44
511.184	161.44
511.401	103.44
511.617	103.44
511.833	96.44
512.049	98.44
512.265	94.44
512.481	107.44
512.698	99.44
512.914	85.44
513.13	77.44
513.346	83.44
513.562	85.44
513.778	111.44
513.994	95.44
514.21	99.44
