Data from Uncirc_1994_H10_HRD10591_00065.txt Node
Date: Wed Jan 03 11:39:33 EST 2024
User: Yrep
Spectrometer: HR+D1059
Trigger mode: 1
Integration Time (sec): 1.000000E-1
Scans to average: 1
Electric dark correction enabled: true
Nonlinearity correction enabled: false
Boxcar width: 0
XAxis mode: Wavelengths
Number of Pixels in Spectrum: 2048
>>>>>Begin Spectral Data<<<<<
223.165	-19.19
223.4	-19.19
223.635	-19.19
223.869	-21.19
224.104	-20.19
224.338	-15.19
224.573	-9.19
224.808	-11.19
225.042	-12.19
225.277	0.81
225.511	-6.19
225.746	8.81
225.98	14.81
226.215	14.81
226.449	17.81
226.683	19.81
226.918	13.81
227.152	23.81
227.387	20.81
227.621	41.81
227.856	35.81
228.09	49.81
228.324	48.81
228.559	53.81
228.793	64.81
229.027	59.81
229.262	58.81
229.496	75.81
229.73	79.81
229.964	88.81
230.199	71.81
230.433	76.81
230.667	73.81
230.901	75.81
231.136	79.81
231.37	78.81
231.604	85.81
231.838	68.81
232.072	79.81
232.306	78.81
232.541	78.81
232.775	80.81
233.009	79.81
233.243	81.81
233.477	76.81
233.711	91.81
233.945	92.81
234.179	71.81
234.413	84.81
234.647	72.81
234.881	65.81
235.115	74.81
235.349	82.81
235.583	90.81
235.817	79.81
236.051	80.81
236.285	70.81
236.519	79.81
236.753	79.81
236.987	76.81
237.221	75.81
237.455	91.81
237.689	80.81
237.922	93.81
238.156	90.81
238.39	64.81
238.624	63.81
238.858	76.81
239.091	75.81
239.325	75.81
239.559	81.81
239.793	75.81
240.027	73.81
240.26	78.81
240.494	73.81
240.728	78.81
240.961	75.81
241.195	62.81
241.429	76.81
241.662	85.81
241.896	79.81
242.13	71.81
242.363	80.81
242.597	63.81
242.83	81.81
243.064	81.81
243.298	80.81
243.531	79.81
243.765	63.81
243.998	79.81
244.232	77.81
244.465	92.81
244.699	93.81
244.932	75.81
245.166	80.81
245.399	72.81
245.633	63.81
245.866	80.81
246.099	81.81
246.333	82.81
246.566	82.81
246.8	68.81
247.033	76.81
247.266	76.81
247.5	82.81
247.733	75.81
247.966	88.81
248.2	87.81
248.433	89.81
248.666	87.81
248.899	78.81
249.133	71.81
249.366	89.81
249.599	86.81
249.832	87.81
250.066	89.81
250.299	78.81
250.532	64.81
250.765	80.81
250.998	81.81
251.231	78.81
251.465	81.81
251.698	79.81
251.931	85.81
252.164	84.81
252.397	94.81
252.63	62.81
252.863	78.81
253.096	88.81
253.329	76.81
253.562	90.81
253.795	77.81
254.028	89.81
254.261	71.81
254.494	85.81
254.727	88.81
254.96	87.81
255.193	89.81
255.426	72.81
255.659	83.81
255.892	75.81
256.124	78.81
256.357	79.81
256.59	96.81
256.823	93.81
257.056	85.81
257.289	87.81
257.521	79.81
257.754	82.81
257.987	72.81
258.22	88.81
258.452	81.81
258.685	87.81
258.918	80.81
259.151	77.81
259.383	91.81
259.616	80.81
259.849	80.81
260.081	73.81
260.314	85.81
260.547	87.81
260.779	92.81
261.012	87.81
261.244	81.81
261.477	97.81
261.71	85.81
261.942	105.81
262.175	112.81
262.407	81.81
262.64	71.81
262.872	89.81
263.105	89.81
263.337	72.81
263.57	80.81
263.802	78.81
264.035	85.81
264.267	78.81
264.499	81.81
264.732	69.81
264.964	76.81
265.197	85.81
265.429	88.81
265.661	82.81
265.894	90.81
266.126	85.81
266.358	85.81
266.591	88.81
266.823	81.81
267.055	99.81
267.287	76.81
267.52	75.81
267.752	92.81
267.984	77.81
268.216	75.81
268.448	87.81
268.681	85.81
268.913	85.81
269.145	91.81
269.377	89.81
269.609	84.81
269.841	75.81
270.073	80.81
270.306	83.81
270.538	90.81
270.77	81.81
271.002	107.81
271.234	92.81
271.466	99.81
271.698	99.81
271.93	84.81
272.162	88.81
272.394	81.81
272.626	68.81
272.858	91.81
273.09	77.81
273.322	94.81
273.553	85.81
273.785	85.81
274.017	73.81
274.249	103.81
274.481	93.81
274.713	92.81
274.945	102.81
275.176	68.81
275.408	88.81
275.64	82.81
275.872	93.81
276.104	79.81
276.335	95.81
276.567	95.81
276.799	104.81
277.031	97.81
277.262	98.81
277.494	88.81
277.726	86.81
277.957	80.81
278.189	75.81
278.421	79.81
278.652	78.81
278.884	91.81
279.115	89.81
279.347	88.81
279.579	85.81
279.81	89.81
280.042	84.81
280.273	76.81
280.505	90.81
280.736	85.81
280.968	87.81
281.199	93.81
281.431	90.81
281.662	79.81
281.894	82.81
282.125	92.81
282.356	109.81
282.588	118.81
282.819	105.81
283.051	91.81
283.282	79.81
283.513	77.81
283.745	82.81
283.976	93.81
284.207	101.81
284.439	84.81
284.67	73.81
284.901	79.81
285.132	86.81
285.364	84.81
285.595	96.81
285.826	77.81
286.057	91.81
286.288	85.81
286.52	100.81
286.751	91.81
286.982	78.81
287.213	85.81
287.444	88.81
287.675	93.81
287.906	77.81
288.138	86.81
288.369	103.81
288.6	104.81
288.831	83.81
289.062	103.81
289.293	96.81
289.524	93.81
289.755	84.81
289.986	80.81
290.217	86.81
290.448	83.81
290.679	76.81
290.91	91.81
291.141	95.81
291.371	93.81
291.602	98.81
291.833	97.81
292.064	88.81
292.295	89.81
292.526	86.81
292.757	89.81
292.987	88.81
293.218	89.81
293.449	86.81
293.68	85.81
293.91	85.81
294.141	84.81
294.372	87.81
294.603	104.81
294.833	85.81
295.064	105.81
295.295	92.81
295.525	81.81
295.756	91.81
295.987	100.81
296.217	119.81
296.448	113.81
296.679	96.81
296.909	89.81
297.14	99.81
297.37	82.81
297.601	87.81
297.831	79.81
298.062	85.81
298.292	89.81
298.523	91.81
298.753	96.81
298.984	90.81
299.214	91.81
299.445	84.81
299.675	88.81
299.905	66.81
300.136	103.81
300.366	84.81
300.597	96.81
300.827	91.81
301.057	89.81
301.288	91.81
301.518	106.81
301.748	77.81
301.979	93.81
302.209	92.81
302.439	88.81
302.669	91.81
302.9	75.81
303.13	96.81
303.36	94.81
303.59	89.81
303.82	110.81
304.051	96.81
304.281	84.81
304.511	87.81
304.741	100.81
304.971	91.81
305.201	91.81
305.431	87.81
305.661	109.81
305.891	85.81
306.121	99.81
306.352	94.81
306.582	95.81
306.812	85.81
307.042	103.81
307.272	92.81
307.502	92.81
307.731	93.81
307.961	95.81
308.191	85.81
308.421	95.81
308.651	90.81
308.881	86.81
309.111	82.81
309.341	85.81
309.571	90.81
309.8	92.81
310.03	92.81
310.26	101.81
310.49	91.81
310.72	96.81
310.949	114.81
311.179	100.81
311.409	79.81
311.639	93.81
311.868	99.81
312.098	102.81
312.328	100.81
312.557	95.81
312.787	113.81
313.017	99.81
313.246	84.81
313.476	86.81
313.706	77.81
313.935	87.81
314.165	88.81
314.394	80.81
314.624	81.81
314.853	96.81
315.083	93.81
315.312	92.81
315.542	100.81
315.771	99.81
316.001	85.81
316.23	98.81
316.46	83.81
316.689	96.81
316.919	76.81
317.148	95.81
317.377	89.81
317.607	97.81
317.836	108.81
318.065	90.81
318.295	86.81
318.524	87.81
318.753	95.81
318.983	99.81
319.212	97.81
319.441	96.81
319.67	96.81
319.9	83.81
320.129	85.81
320.358	97.81
320.587	99.81
320.816	94.81
321.046	103.81
321.275	106.81
321.504	99.81
321.733	98.81
321.962	104.81
322.191	82.81
322.42	105.81
322.649	99.81
322.878	113.81
323.108	101.81
323.337	138.81
323.566	138.81
323.795	138.81
324.024	208.81
324.253	358.81
324.482	763.81
324.71	1532.81
324.939	2015.81
325.168	736.81
325.397	223.81
325.626	151.81
325.855	126.81
326.084	115.81
326.313	121.81
326.542	154.81
326.77	228.81
326.999	428.81
327.228	879.81
327.457	1588.81
327.686	1224.81
327.914	326.81
328.143	181.81
328.372	138.81
328.6	132.81
328.829	110.81
329.058	121.81
329.287	129.81
329.515	110.81
329.744	105.81
329.972	88.81
330.201	87.81
330.43	103.81
330.658	98.81
330.887	118.81
331.115	111.81
331.344	94.81
331.572	105.81
331.801	85.81
332.03	102.81
332.258	90.81
332.486	97.81
332.715	82.81
332.943	100.81
333.172	104.81
333.4	97.81
333.629	100.81
333.857	99.81
334.085	95.81
334.314	93.81
334.542	99.81
334.771	93.81
334.999	110.81
335.227	99.81
335.455	88.81
335.684	100.81
335.912	94.81
336.14	105.81
336.369	93.81
336.597	92.81
336.825	87.81
337.053	93.81
337.281	91.81
337.51	96.81
337.738	87.81
337.966	89.81
338.194	106.81
338.422	84.81
338.65	98.81
338.878	89.81
339.106	78.81
339.334	94.81
339.562	87.81
339.79	109.81
340.018	83.81
340.246	80.81
340.474	91.81
340.702	87.81
340.93	87.81
341.158	99.81
341.386	95.81
341.614	97.81
341.842	91.81
342.07	95.81
342.298	80.81
342.526	86.81
342.754	78.81
342.981	90.81
343.209	97.81
343.437	97.81
343.665	96.81
343.893	88.81
344.12	109.81
344.348	87.81
344.576	85.81
344.804	97.81
345.031	104.81
345.259	109.81
345.487	94.81
345.714	92.81
345.942	91.81
346.17	82.81
346.397	85.81
346.625	96.81
346.853	93.81
347.08	99.81
347.308	89.81
347.535	82.81
347.763	95.81
347.99	84.81
348.218	96.81
348.445	88.81
348.673	100.81
348.9	101.81
349.128	77.81
349.355	82.81
349.583	89.81
349.81	93.81
350.037	89.81
350.265	92.81
350.492	100.81
350.72	81.81
350.947	102.81
351.174	97.81
351.402	106.81
351.629	87.81
351.856	94.81
352.083	105.81
352.311	90.81
352.538	103.81
352.765	109.81
352.992	110.81
353.22	117.81
353.447	90.81
353.674	104.81
353.901	98.81
354.128	83.81
354.355	92.81
354.583	84.81
354.81	99.81
355.037	89.81
355.264	95.81
355.491	97.81
355.718	76.81
355.945	89.81
356.172	84.81
356.399	84.81
356.626	90.81
356.853	94.81
357.08	96.81
357.307	93.81
357.534	86.81
357.761	98.81
357.988	104.81
358.215	85.81
358.441	99.81
358.668	100.81
358.895	82.81
359.122	86.81
359.349	101.81
359.576	89.81
359.802	97.81
360.029	101.81
360.256	99.81
360.483	94.81
360.709	99.81
360.936	89.81
361.163	103.81
361.39	103.81
361.616	101.81
361.843	91.81
362.07	96.81
362.296	91.81
362.523	107.81
362.749	95.81
362.976	95.81
363.203	87.81
363.429	88.81
363.656	88.81
363.882	74.81
364.109	86.81
364.335	86.81
364.562	96.81
364.788	100.81
365.015	110.81
365.241	85.81
365.468	111.81
365.694	98.81
365.92	88.81
366.147	87.81
366.373	83.81
366.599	85.81
366.826	96.81
367.052	93.81
367.278	104.81
367.505	83.81
367.731	85.81
367.957	76.81
368.184	85.81
368.41	94.81
368.636	99.81
368.862	109.81
369.089	105.81
369.315	87.81
369.541	75.81
369.767	91.81
369.993	97.81
370.219	89.81
370.445	83.81
370.672	93.81
370.898	83.81
371.124	96.81
371.35	91.81
371.576	90.81
371.802	80.81
372.028	98.81
372.254	82.81
372.48	83.81
372.706	92.81
372.932	90.81
373.158	79.81
373.384	97.81
373.61	87.81
373.835	95.81
374.061	73.81
374.287	102.81
374.513	83.81
374.739	91.81
374.965	91.81
375.191	95.81
375.416	96.81
375.642	83.81
375.868	101.81
376.094	91.81
376.319	76.81
376.545	100.81
376.771	89.81
376.997	80.81
377.222	85.81
377.448	94.81
377.674	68.81
377.899	88.81
378.125	81.81
378.35	80.81
378.576	95.81
378.802	96.81
379.027	75.81
379.253	99.81
379.478	89.81
379.704	87.81
379.929	96.81
380.155	87.81
380.38	89.81
380.606	91.81
380.831	93.81
381.057	99.81
381.282	104.81
381.507	96.81
381.733	90.81
381.958	96.81
382.184	92.81
382.409	108.81
382.634	91.81
382.86	100.81
383.085	104.81
383.31	87.81
383.535	111.81
383.761	98.81
383.986	75.81
384.211	94.81
384.436	103.81
384.662	112.81
384.887	112.81
385.112	97.81
385.337	92.81
385.562	83.81
385.787	97.81
386.013	100.81
386.238	114.81
386.463	99.81
386.688	116.81
386.913	100.81
387.138	94.81
387.363	103.81
387.588	92.81
387.813	98.81
388.038	104.81
388.263	110.81
388.488	108.81
388.713	97.81
388.938	85.81
389.163	98.81
389.387	79.81
389.612	93.81
389.837	94.81
390.062	84.81
390.287	97.81
390.512	97.81
390.736	95.81
390.961	75.81
391.186	88.81
391.411	82.81
391.636	70.81
391.86	94.81
392.085	71.81
392.31	96.81
392.534	90.81
392.759	94.81
392.984	93.81
393.208	89.81
393.433	89.81
393.658	96.81
393.882	93.81
394.107	71.81
394.331	82.81
394.556	92.81
394.78	97.81
395.005	97.81
395.229	93.81
395.454	83.81
395.678	94.81
395.903	75.81
396.127	83.81
396.352	79.81
396.576	89.81
396.801	85.81
397.025	94.81
397.249	93.81
397.474	86.81
397.698	86.81
397.922	92.81
398.147	88.81
398.371	93.81
398.595	73.81
398.82	77.81
399.044	80.81
399.268	79.81
399.492	78.81
399.717	91.81
399.941	96.81
400.165	85.81
400.389	102.81
400.613	102.81
400.837	79.81
401.062	85.81
401.286	84.81
401.51	88.81
401.734	84.81
401.958	106.81
402.182	115.81
402.406	142.81
402.63	125.81
402.854	95.81
403.078	85.81
403.302	87.81
403.526	92.81
403.75	87.81
403.974	92.81
404.198	83.81
404.422	88.81
404.645	105.81
404.869	84.81
405.093	95.81
405.317	97.81
405.541	91.81
405.765	96.81
405.988	103.81
406.212	156.81
406.436	199.81
406.66	119.81
406.883	100.81
407.107	84.81
407.331	92.81
407.555	108.81
407.778	99.81
408.002	88.81
408.226	81.81
408.449	87.81
408.673	101.81
408.896	100.81
409.12	99.81
409.344	91.81
409.567	79.81
409.791	98.81
410.014	87.81
410.238	80.81
410.461	94.81
410.685	93.81
410.908	102.81
411.132	119.81
411.355	102.81
411.578	87.81
411.802	86.81
412.025	73.81
412.249	87.81
412.472	80.81
412.695	92.81
412.919	80.81
413.142	69.81
413.365	93.81
413.589	93.81
413.812	83.81
414.035	86.81
414.258	80.81
414.482	89.81
414.705	82.81
414.928	98.81
415.151	81.81
415.374	85.81
415.597	92.81
415.821	88.81
416.044	84.81
416.267	79.81
416.49	76.81
416.713	81.81
416.936	79.81
417.159	94.81
417.382	95.81
417.605	97.81
417.828	92.81
418.051	96.81
418.274	83.81
418.497	88.81
418.72	90.81
418.943	88.81
419.166	89.81
419.389	89.81
419.611	97.81
419.834	93.81
420.057	85.81
420.28	85.81
420.503	99.81
420.726	96.81
420.948	87.81
421.171	94.81
421.394	83.81
421.617	81.81
421.839	85.81
422.062	100.81
422.285	90.81
422.507	96.81
422.73	88.81
422.953	99.81
423.175	99.81
423.398	100.81
423.621	90.81
423.843	97.81
424.066	74.81
424.288	92.81
424.511	83.81
424.733	96.81
424.956	103.81
425.178	96.81
425.401	88.81
425.623	101.81
425.846	96.81
426.068	75.81
426.291	107.81
426.513	98.81
426.735	97.81
426.958	84.81
427.18	86.81
427.402	119.81
427.625	153.81
427.847	128.81
428.069	92.81
428.292	72.81
428.514	102.81
428.736	78.81
428.958	80.81
429.181	92.81
429.403	78.81
429.625	96.81
429.847	89.81
430.069	88.81
430.292	91.81
430.514	84.81
430.736	97.81
430.958	91.81
431.18	88.81
431.402	79.81
431.624	99.81
431.846	96.81
432.068	91.81
432.29	75.81
432.512	90.81
432.734	93.81
432.956	95.81
433.178	93.81
433.4	100.81
433.622	98.81
433.844	95.81
434.066	75.81
434.287	81.81
434.509	86.81
434.731	85.81
434.953	89.81
435.175	92.81
435.397	99.81
435.618	89.81
435.84	100.81
436.062	91.81
436.284	108.81
436.505	103.81
436.727	93.81
436.949	100.81
437.17	106.81
437.392	98.81
437.614	100.81
437.835	99.81
438.057	122.81
438.278	99.81
438.5	100.81
438.721	112.81
438.943	95.81
439.165	90.81
439.386	92.81
439.608	112.81
439.829	90.81
440.05	98.81
440.272	113.81
440.493	94.81
440.715	86.81
440.936	85.81
441.158	82.81
441.379	88.81
441.6	88.81
441.822	77.81
442.043	83.81
442.264	99.81
442.486	104.81
442.707	78.81
442.928	103.81
443.149	116.81
443.371	127.81
443.592	100.81
443.813	94.81
444.034	86.81
444.255	74.81
444.476	89.81
444.698	88.81
444.919	71.81
445.14	129.81
445.361	120.81
445.582	100.81
445.803	127.81
446.024	135.81
446.245	127.81
446.466	107.81
446.687	102.81
446.908	78.81
447.129	80.81
447.35	92.81
447.571	73.81
447.792	62.81
448.013	100.81
448.234	115.81
448.455	87.81
448.675	112.81
448.896	111.81
449.117	99.81
449.338	97.81
449.559	121.81
449.779	114.81
450	98.81
450.221	90.81
450.442	86.81
450.662	98.81
450.883	99.81
451.104	92.81
451.324	102.81
451.545	89.81
451.766	82.81
451.986	99.81
452.207	89.81
452.428	79.81
452.648	100.81
452.869	101.81
453.089	111.81
453.31	100.81
453.53	91.81
453.751	103.81
453.971	96.81
454.192	107.81
454.412	113.81
454.633	87.81
454.853	91.81
455.073	83.81
455.294	94.81
455.514	98.81
455.734	87.81
455.955	95.81
456.175	87.81
456.395	88.81
456.616	89.81
456.836	90.81
457.056	85.81
457.276	94.81
457.497	80.81
457.717	93.81
457.937	88.81
458.157	104.81
458.377	95.81
458.598	91.81
458.818	128.81
459.038	142.81
459.258	105.81
459.478	79.81
459.698	86.81
459.918	106.81
460.138	82.81
460.358	74.81
460.578	92.81
460.798	75.81
461.018	89.81
461.238	83.81
461.458	102.81
461.678	89.81
461.898	82.81
462.118	85.81
462.338	87.81
462.558	81.81
462.777	71.81
462.997	82.81
463.217	70.81
463.437	91.81
463.657	80.81
463.876	80.81
464.096	79.81
464.316	85.81
464.536	84.81
464.755	92.81
464.975	110.81
465.195	155.81
465.414	128.81
465.634	85.81
465.854	86.81
466.073	83.81
466.293	82.81
466.512	101.81
466.732	87.81
466.951	85.81
467.171	82.81
467.391	99.81
467.61	84.81
467.829	81.81
468.049	89.81
468.268	95.81
468.488	81.81
468.707	85.81
468.927	94.81
469.146	83.81
469.365	73.81
469.585	96.81
469.804	89.81
470.023	96.81
470.243	88.81
470.462	91.81
470.681	109.81
470.901	94.81
471.12	81.81
471.339	68.81
471.558	87.81
471.777	81.81
471.997	76.81
472.216	87.81
472.435	103.81
472.654	88.81
472.873	82.81
473.092	94.81
473.311	91.81
473.53	84.81
473.749	75.81
473.968	84.81
474.187	86.81
474.406	96.81
474.625	77.81
474.844	88.81
475.063	87.81
475.282	98.81
475.501	83.81
475.72	89.81
475.939	87.81
476.158	76.81
476.377	75.81
476.596	88.81
476.814	91.81
477.033	82.81
477.252	86.81
477.471	73.81
477.69	85.81
477.908	80.81
478.127	78.81
478.346	104.81
478.564	92.81
478.783	96.81
479.002	76.81
479.22	89.81
479.439	98.81
479.658	100.81
479.876	92.81
480.095	87.81
480.313	84.81
480.532	83.81
480.751	89.81
480.969	85.81
481.188	85.81
481.406	96.81
481.624	96.81
481.843	74.81
482.061	96.81
482.28	89.81
482.498	91.81
482.717	91.81
482.935	95.81
483.153	85.81
483.372	72.81
483.59	101.81
483.808	87.81
484.027	90.81
484.245	82.81
484.463	68.81
484.681	92.81
484.9	91.81
485.118	94.81
485.336	92.81
485.554	92.81
485.772	93.81
485.99	112.81
486.209	105.81
486.427	99.81
486.645	107.81
486.863	96.81
487.081	99.81
487.299	99.81
487.517	68.81
487.735	95.81
487.953	102.81
488.171	99.81
488.389	105.81
488.607	105.81
488.825	87.81
489.043	96.81
489.261	86.81
489.479	92.81
489.696	83.81
489.914	88.81
490.132	90.81
490.35	90.81
490.568	97.81
490.786	93.81
491.003	92.81
491.221	81.81
491.439	87.81
491.657	111.81
491.874	91.81
492.092	88.81
492.31	91.81
492.527	91.81
492.745	82.81
492.963	92.81
493.18	89.81
493.398	94.81
493.615	100.81
493.833	85.81
494.05	85.81
494.268	91.81
494.485	88.81
494.703	80.81
494.92	88.81
495.138	94.81
495.355	95.81
495.573	102.81
495.79	95.81
496.008	87.81
496.225	98.81
496.442	91.81
496.66	88.81
496.877	84.81
497.094	93.81
497.312	91.81
497.529	81.81
497.746	86.81
497.963	83.81
498.181	90.81
498.398	94.81
498.615	110.81
498.832	99.81
499.049	73.81
499.267	94.81
499.484	89.81
499.701	81.81
499.918	95.81
500.135	88.81
500.352	81.81
500.569	94.81
500.786	83.81
501.003	95.81
501.22	115.81
501.437	77.81
501.654	92.81
501.871	104.81
502.088	96.81
502.305	79.81
502.522	90.81
502.739	69.81
502.956	80.81
503.172	92.81
503.389	93.81
503.606	94.81
503.823	91.81
504.04	96.81
504.256	95.81
504.473	84.81
504.69	97.81
504.907	91.81
505.123	88.81
505.34	83.81
505.557	77.81
505.773	95.81
505.99	87.81
506.207	92.81
506.423	94.81
506.64	95.81
506.856	88.81
507.073	98.81
507.289	98.81
507.506	95.81
507.722	99.81
507.939	101.81
508.155	98.81
508.372	84.81
508.588	90.81
508.805	92.81
509.021	81.81
509.238	108.81
509.454	103.81
509.67	93.81
509.887	115.81
510.103	136.81
510.319	205.81
510.536	700.81
510.752	2087.81
510.968	587.81
511.184	139.81
511.401	87.81
511.617	87.81
511.833	98.81
512.049	92.81
512.265	94.81
512.481	111.81
512.698	104.81
512.914	100.81
513.13	100.81
513.346	85.81
513.562	90.81
513.778	87.81
513.994	107.81
514.21	116.81
514.426	116.81
514.642	106.81
514.858	114.81
515.074	159.81
515.29	394.81
515.506	1229.81
515.721	464.81
515.937	137.81
516.153	104.81
516.369	93.81
516.585	87.81
