Data from Uncirc_1994_H10_HRD10591_00061.txt Node
Date: Wed Jan 03 11:39:33 EST 2024
User: Yrep
Spectrometer: HR+D1059
Trigger mode: 1
Integration Time (sec): 1.000000E-1
Scans to average: 1
Electric dark correction enabled: true
Nonlinearity correction enabled: false
Boxcar width: 0
XAxis mode: Wavelengths
Number of Pixels in Spectrum: 2048
>>>>>Begin Spectral Data<<<<<
223.165	-15.25
223.4	-15.25
223.635	-15.25
223.869	-20.25
224.104	-23.25
224.338	-19.25
224.573	-17.25
224.808	-7.25
225.042	10.75
225.277	-10.25
225.511	7.75
225.746	13.75
225.98	5.75
226.215	2.75
226.449	13.75
226.683	18.75
226.918	18.75
227.152	20.75
227.387	26.75
227.621	45.75
227.856	42.75
228.09	55.75
228.324	55.75
228.559	52.75
228.793	59.75
229.027	68.75
229.262	58.75
229.496	82.75
229.73	73.75
229.964	81.75
230.199	82.75
230.433	76.75
230.667	69.75
230.901	91.75
231.136	68.75
231.37	76.75
231.604	82.75
231.838	73.75
232.072	82.75
232.306	83.75
232.541	96.75
232.775	98.75
233.009	75.75
233.243	89.75
233.477	65.75
233.711	79.75
233.945	94.75
234.179	83.75
234.413	86.75
234.647	79.75
234.881	71.75
235.115	80.75
235.349	80.75
235.583	93.75
235.817	68.75
236.051	85.75
236.285	80.75
236.519	87.75
236.753	73.75
236.987	82.75
237.221	83.75
237.455	80.75
237.689	79.75
237.922	80.75
238.156	68.75
238.39	80.75
238.624	84.75
238.858	73.75
239.091	73.75
239.325	89.75
239.559	63.75
239.793	76.75
240.027	69.75
240.26	76.75
240.494	79.75
240.728	74.75
240.961	69.75
241.195	81.75
241.429	83.75
241.662	67.75
241.896	82.75
242.13	73.75
242.363	72.75
242.597	72.75
242.83	74.75
243.064	88.75
243.298	77.75
243.531	87.75
243.765	79.75
243.998	65.75
244.232	76.75
244.465	79.75
244.699	62.75
244.932	81.75
245.166	89.75
245.399	66.75
245.633	94.75
245.866	71.75
246.099	104.75
246.333	66.75
246.566	73.75
246.8	78.75
247.033	77.75
247.266	75.75
247.5	83.75
247.733	71.75
247.966	87.75
248.2	78.75
248.433	75.75
248.666	70.75
248.899	83.75
249.133	84.75
249.366	113.75
249.599	91.75
249.832	90.75
250.066	74.75
250.299	82.75
250.532	64.75
250.765	75.75
250.998	84.75
251.231	80.75
251.465	79.75
251.698	81.75
251.931	76.75
252.164	81.75
252.397	67.75
252.63	89.75
252.863	96.75
253.096	72.75
253.329	84.75
253.562	90.75
253.795	89.75
254.028	88.75
254.261	71.75
254.494	75.75
254.727	74.75
254.96	87.75
255.193	78.75
255.426	74.75
255.659	64.75
255.892	83.75
256.124	72.75
256.357	76.75
256.59	73.75
256.823	75.75
257.056	89.75
257.289	81.75
257.521	81.75
257.754	73.75
257.987	92.75
258.22	64.75
258.452	69.75
258.685	79.75
258.918	91.75
259.151	81.75
259.383	90.75
259.616	81.75
259.849	80.75
260.081	69.75
260.314	66.75
260.547	83.75
260.779	83.75
261.012	81.75
261.244	83.75
261.477	76.75
261.71	91.75
261.942	104.75
262.175	116.75
262.407	88.75
262.64	85.75
262.872	87.75
263.105	73.75
263.337	91.75
263.57	80.75
263.802	92.75
264.035	86.75
264.267	90.75
264.499	81.75
264.732	72.75
264.964	82.75
265.197	76.75
265.429	76.75
265.661	97.75
265.894	79.75
266.126	98.75
266.358	77.75
266.591	81.75
266.823	95.75
267.055	79.75
267.287	73.75
267.52	95.75
267.752	101.75
267.984	85.75
268.216	86.75
268.448	81.75
268.681	84.75
268.913	89.75
269.145	97.75
269.377	80.75
269.609	82.75
269.841	93.75
270.073	81.75
270.306	78.75
270.538	78.75
270.77	82.75
271.002	83.75
271.234	86.75
271.466	84.75
271.698	80.75
271.93	93.75
272.162	83.75
272.394	90.75
272.626	85.75
272.858	90.75
273.09	79.75
273.322	81.75
273.553	86.75
273.785	76.75
274.017	73.75
274.249	83.75
274.481	72.75
274.713	79.75
274.945	83.75
275.176	100.75
275.408	83.75
275.64	85.75
275.872	89.75
276.104	88.75
276.335	100.75
276.567	98.75
276.799	107.75
277.031	100.75
277.262	91.75
277.494	89.75
277.726	86.75
277.957	94.75
278.189	82.75
278.421	76.75
278.652	89.75
278.884	87.75
279.115	82.75
279.347	79.75
279.579	90.75
279.81	90.75
280.042	78.75
280.273	83.75
280.505	73.75
280.736	94.75
280.968	85.75
281.199	90.75
281.431	85.75
281.662	84.75
281.894	84.75
282.125	97.75
282.356	113.75
282.588	131.75
282.819	107.75
283.051	96.75
283.282	90.75
283.513	86.75
283.745	86.75
283.976	80.75
284.207	78.75
284.439	91.75
284.67	80.75
284.901	87.75
285.132	94.75
285.364	78.75
285.595	90.75
285.826	84.75
286.057	87.75
286.288	87.75
286.52	80.75
286.751	93.75
286.982	78.75
287.213	92.75
287.444	89.75
287.675	79.75
287.906	78.75
288.138	97.75
288.369	91.75
288.6	83.75
288.831	78.75
289.062	92.75
289.293	95.75
289.524	84.75
289.755	88.75
289.986	83.75
290.217	88.75
290.448	97.75
290.679	100.75
290.91	86.75
291.141	73.75
291.371	92.75
291.602	107.75
291.833	96.75
292.064	75.75
292.295	85.75
292.526	78.75
292.757	79.75
292.987	95.75
293.218	74.75
293.449	91.75
293.68	87.75
293.91	75.75
294.141	89.75
294.372	95.75
294.603	87.75
294.833	94.75
295.064	81.75
295.295	79.75
295.525	91.75
295.756	96.75
295.987	106.75
296.217	129.75
296.448	120.75
296.679	93.75
296.909	87.75
297.14	104.75
297.37	92.75
297.601	89.75
297.831	101.75
298.062	93.75
298.292	84.75
298.523	97.75
298.753	68.75
298.984	95.75
299.214	105.75
299.445	83.75
299.675	86.75
299.905	91.75
300.136	88.75
300.366	84.75
300.597	79.75
300.827	89.75
301.057	104.75
301.288	103.75
301.518	101.75
301.748	77.75
301.979	108.75
302.209	97.75
302.439	84.75
302.669	92.75
302.9	89.75
303.13	90.75
303.36	86.75
303.59	113.75
303.82	96.75
304.051	101.75
304.281	95.75
304.511	101.75
304.741	92.75
304.971	84.75
305.201	89.75
305.431	91.75
305.661	98.75
305.891	87.75
306.121	78.75
306.352	105.75
306.582	92.75
306.812	85.75
307.042	75.75
307.272	98.75
307.502	91.75
307.731	82.75
307.961	83.75
308.191	101.75
308.421	93.75
308.651	92.75
308.881	93.75
309.111	97.75
309.341	88.75
309.571	96.75
309.8	100.75
310.03	107.75
310.26	104.75
310.49	75.75
310.72	95.75
310.949	94.75
311.179	87.75
311.409	83.75
311.639	90.75
311.868	84.75
312.098	91.75
312.328	101.75
312.557	105.75
312.787	115.75
313.017	105.75
313.246	101.75
313.476	87.75
313.706	92.75
313.935	75.75
314.165	89.75
314.394	93.75
314.624	94.75
314.853	96.75
315.083	85.75
315.312	83.75
315.542	86.75
315.771	98.75
316.001	95.75
316.23	80.75
316.46	73.75
316.689	96.75
316.919	90.75
317.148	107.75
317.377	89.75
317.607	92.75
317.836	85.75
318.065	89.75
318.295	89.75
318.524	84.75
318.753	85.75
318.983	92.75
319.212	98.75
319.441	108.75
319.67	117.75
319.9	98.75
320.129	93.75
320.358	92.75
320.587	76.75
320.816	96.75
321.046	88.75
321.275	100.75
321.504	87.75
321.733	96.75
321.962	95.75
322.191	88.75
322.42	98.75
322.649	108.75
322.878	95.75
323.108	100.75
323.337	124.75
323.566	115.75
323.795	155.75
324.024	192.75
324.253	357.75
324.482	767.75
324.71	1585.75
324.939	2045.75
325.168	750.75
325.397	226.75
325.626	131.75
325.855	127.75
326.084	126.75
326.313	135.75
326.542	163.75
326.77	226.75
326.999	426.75
327.228	903.75
327.457	1576.75
327.686	1254.75
327.914	353.75
328.143	178.75
328.372	133.75
328.6	126.75
328.829	107.75
329.058	117.75
329.287	109.75
329.515	103.75
329.744	102.75
329.972	96.75
330.201	88.75
330.43	102.75
330.658	117.75
330.887	120.75
331.115	117.75
331.344	85.75
331.572	100.75
331.801	92.75
332.03	99.75
332.258	92.75
332.486	85.75
332.715	103.75
332.943	92.75
333.172	86.75
333.4	85.75
333.629	98.75
333.857	107.75
334.085	100.75
334.314	97.75
334.542	90.75
334.771	97.75
334.999	87.75
335.227	103.75
335.455	88.75
335.684	94.75
335.912	83.75
336.14	95.75
336.369	95.75
336.597	97.75
336.825	97.75
337.053	95.75
337.281	97.75
337.51	82.75
337.738	87.75
337.966	106.75
338.194	91.75
338.422	89.75
338.65	80.75
338.878	96.75
339.106	90.75
339.334	84.75
339.562	96.75
339.79	84.75
340.018	87.75
340.246	64.75
340.474	75.75
340.702	88.75
340.93	91.75
341.158	93.75
341.386	81.75
341.614	95.75
341.842	90.75
342.07	95.75
342.298	93.75
342.526	80.75
342.754	80.75
342.981	81.75
343.209	87.75
343.437	91.75
343.665	83.75
343.893	88.75
344.12	89.75
344.348	87.75
344.576	87.75
344.804	93.75
345.031	101.75
345.259	84.75
345.487	96.75
345.714	93.75
345.942	87.75
346.17	89.75
346.397	93.75
346.625	94.75
346.853	98.75
347.08	88.75
347.308	91.75
347.535	95.75
347.763	106.75
347.99	88.75
348.218	81.75
348.445	115.75
348.673	99.75
348.9	102.75
349.128	97.75
349.355	97.75
349.583	87.75
349.81	98.75
350.037	87.75
350.265	92.75
350.492	92.75
350.72	82.75
350.947	91.75
351.174	102.75
351.402	112.75
351.629	89.75
351.856	94.75
352.083	94.75
352.311	93.75
352.538	107.75
352.765	104.75
352.992	96.75
353.22	121.75
353.447	107.75
353.674	103.75
353.901	97.75
354.128	111.75
354.355	108.75
354.583	96.75
354.81	102.75
355.037	89.75
355.264	99.75
355.491	84.75
355.718	85.75
355.945	102.75
356.172	92.75
356.399	97.75
356.626	73.75
356.853	100.75
357.08	98.75
357.307	79.75
357.534	94.75
357.761	98.75
357.988	106.75
358.215	99.75
358.441	101.75
358.668	104.75
358.895	113.75
359.122	97.75
359.349	109.75
359.576	80.75
359.802	84.75
360.029	96.75
360.256	100.75
360.483	100.75
360.709	84.75
360.936	83.75
361.163	105.75
361.39	82.75
361.616	89.75
361.843	85.75
362.07	95.75
362.296	101.75
362.523	84.75
362.749	97.75
362.976	79.75
363.203	95.75
363.429	72.75
363.656	89.75
363.882	93.75
364.109	88.75
364.335	90.75
364.562	97.75
364.788	92.75
365.015	82.75
365.241	89.75
365.468	103.75
365.694	98.75
365.92	97.75
366.147	93.75
366.373	77.75
366.599	94.75
366.826	79.75
367.052	94.75
367.278	97.75
367.505	104.75
367.731	90.75
367.957	90.75
368.184	88.75
368.41	91.75
368.636	113.75
368.862	108.75
369.089	108.75
369.315	93.75
369.541	105.75
369.767	87.75
369.993	100.75
370.219	97.75
370.445	91.75
370.672	90.75
370.898	97.75
371.124	94.75
371.35	88.75
371.576	98.75
371.802	83.75
372.028	90.75
372.254	83.75
372.48	87.75
372.706	85.75
372.932	91.75
373.158	87.75
373.384	90.75
373.61	106.75
373.835	84.75
374.061	91.75
374.287	99.75
374.513	95.75
374.739	94.75
374.965	104.75
375.191	91.75
375.416	85.75
375.642	85.75
375.868	88.75
376.094	93.75
376.319	83.75
376.545	80.75
376.771	79.75
376.997	93.75
377.222	92.75
377.448	96.75
377.674	88.75
377.899	95.75
378.125	84.75
378.35	98.75
378.576	95.75
378.802	95.75
379.027	95.75
379.253	89.75
379.478	103.75
379.704	83.75
379.929	98.75
380.155	81.75
380.38	90.75
380.606	99.75
380.831	98.75
381.057	88.75
381.282	103.75
381.507	99.75
381.733	96.75
381.958	106.75
382.184	93.75
382.409	109.75
382.634	115.75
382.86	96.75
383.085	102.75
383.31	106.75
383.535	107.75
383.761	110.75
383.986	91.75
384.211	74.75
384.436	101.75
384.662	92.75
384.887	114.75
385.112	111.75
385.337	113.75
385.562	102.75
385.787	104.75
386.013	107.75
386.238	118.75
386.463	109.75
386.688	124.75
386.913	97.75
387.138	114.75
387.363	110.75
387.588	101.75
387.813	106.75
388.038	105.75
388.263	125.75
388.488	119.75
388.713	104.75
388.938	93.75
389.163	94.75
389.387	87.75
389.612	87.75
389.837	89.75
390.062	104.75
390.287	90.75
390.512	95.75
390.736	103.75
390.961	91.75
391.186	105.75
391.411	90.75
391.636	91.75
391.86	90.75
392.085	82.75
392.31	82.75
392.534	86.75
392.759	92.75
392.984	96.75
393.208	177.75
393.433	260.75
393.658	191.75
393.882	95.75
394.107	81.75
394.331	89.75
394.556	71.75
394.78	82.75
395.005	96.75
395.229	91.75
395.454	91.75
395.678	73.75
395.903	85.75
396.127	92.75
396.352	116.75
396.576	136.75
396.801	163.75
397.025	198.75
397.249	121.75
397.474	101.75
397.698	96.75
397.922	90.75
398.147	97.75
398.371	82.75
398.595	78.75
398.82	92.75
399.044	82.75
399.268	87.75
399.492	86.75
399.717	77.75
399.941	93.75
400.165	96.75
400.389	90.75
400.613	81.75
400.837	77.75
401.062	96.75
401.286	84.75
401.51	86.75
401.734	71.75
401.958	65.75
402.182	109.75
402.406	124.75
402.63	107.75
402.854	84.75
403.078	85.75
403.302	82.75
403.526	102.75
403.75	83.75
403.974	58.75
404.198	92.75
404.422	94.75
404.645	89.75
404.869	82.75
405.093	88.75
405.317	82.75
405.541	101.75
405.765	87.75
405.988	104.75
406.212	157.75
406.436	210.75
406.66	116.75
406.883	93.75
407.107	95.75
407.331	86.75
407.555	95.75
407.778	99.75
408.002	98.75
408.226	106.75
408.449	101.75
408.673	100.75
408.896	97.75
409.12	87.75
409.344	98.75
409.567	94.75
409.791	108.75
410.014	104.75
410.238	83.75
410.461	100.75
410.685	99.75
410.908	99.75
411.132	96.75
411.355	100.75
411.578	94.75
411.802	93.75
412.025	97.75
412.249	99.75
412.472	82.75
412.695	86.75
412.919	80.75
413.142	74.75
413.365	98.75
413.589	88.75
413.812	95.75
414.035	77.75
414.258	89.75
414.482	95.75
414.705	83.75
414.928	97.75
415.151	83.75
415.374	92.75
415.597	68.75
415.821	74.75
416.044	83.75
416.267	86.75
416.49	83.75
416.713	98.75
416.936	88.75
417.159	96.75
417.382	90.75
417.605	91.75
417.828	92.75
418.051	98.75
418.274	83.75
418.497	67.75
418.72	86.75
418.943	98.75
419.166	83.75
419.389	90.75
419.611	94.75
419.834	96.75
420.057	94.75
420.28	89.75
420.503	101.75
420.726	93.75
420.948	79.75
421.171	91.75
421.394	85.75
421.617	81.75
421.839	96.75
422.062	81.75
422.285	96.75
422.507	126.75
422.73	194.75
422.953	139.75
423.175	113.75
423.398	104.75
423.621	92.75
423.843	93.75
424.066	74.75
424.288	83.75
424.511	91.75
424.733	110.75
424.956	97.75
425.178	95.75
425.401	98.75
425.623	99.75
425.846	98.75
426.068	97.75
426.291	92.75
426.513	96.75
426.735	81.75
426.958	97.75
427.18	99.75
427.402	132.75
427.625	170.75
427.847	120.75
428.069	113.75
428.292	90.75
428.514	99.75
428.736	99.75
428.958	86.75
429.181	94.75
429.403	76.75
429.625	90.75
429.847	93.75
430.069	114.75
430.292	105.75
430.514	91.75
430.736	92.75
430.958	92.75
431.18	84.75
431.402	91.75
431.624	93.75
431.846	82.75
432.068	91.75
432.29	88.75
432.512	104.75
432.734	82.75
432.956	98.75
433.178	87.75
433.4	101.75
433.622	88.75
433.844	104.75
434.066	99.75
434.287	101.75
434.509	90.75
434.731	87.75
434.953	82.75
435.175	93.75
435.397	86.75
435.618	96.75
435.84	98.75
436.062	114.75
436.284	113.75
436.505	104.75
436.727	102.75
436.949	86.75
437.17	86.75
437.392	82.75
437.614	93.75
437.835	112.75
438.057	114.75
438.278	113.75
438.5	99.75
438.721	111.75
438.943	91.75
439.165	85.75
439.386	90.75
439.608	99.75
439.829	108.75
440.05	111.75
440.272	137.75
440.493	98.75
440.715	90.75
440.936	91.75
441.158	84.75
441.379	81.75
441.6	95.75
441.822	87.75
442.043	89.75
442.264	103.75
442.486	115.75
442.707	75.75
442.928	89.75
443.149	109.75
443.371	114.75
443.592	91.75
443.813	100.75
444.034	109.75
444.255	89.75
444.476	92.75
444.698	80.75
444.919	88.75
445.14	138.75
445.361	127.75
445.582	127.75
445.803	134.75
446.024	140.75
446.245	128.75
446.466	89.75
446.687	87.75
446.908	92.75
447.129	89.75
447.35	87.75
447.571	89.75
447.792	106.75
448.013	97.75
448.234	93.75
448.455	91.75
448.675	101.75
448.896	122.75
449.117	111.75
449.338	98.75
449.559	133.75
449.779	130.75
450	110.75
450.221	91.75
450.442	96.75
450.662	97.75
450.883	103.75
451.104	103.75
451.324	88.75
451.545	80.75
451.766	94.75
451.986	100.75
452.207	87.75
452.428	81.75
452.648	87.75
452.869	98.75
453.089	96.75
453.31	112.75
453.53	88.75
453.751	96.75
453.971	98.75
454.192	104.75
454.412	101.75
454.633	91.75
454.853	98.75
455.073	81.75
455.294	81.75
455.514	107.75
455.734	85.75
455.955	92.75
456.175	80.75
456.395	76.75
456.616	91.75
456.836	94.75
457.056	88.75
457.276	82.75
457.497	91.75
457.717	84.75
457.937	74.75
458.157	79.75
458.377	108.75
458.598	99.75
458.818	132.75
459.038	135.75
459.258	118.75
459.478	93.75
459.698	69.75
459.918	84.75
460.138	75.75
460.358	88.75
460.578	89.75
460.798	90.75
461.018	87.75
461.238	84.75
461.458	89.75
461.678	79.75
461.898	85.75
462.118	92.75
462.338	87.75
462.558	76.75
462.777	90.75
462.997	87.75
463.217	98.75
463.437	93.75
463.657	75.75
463.876	82.75
464.096	79.75
464.316	95.75
464.536	88.75
464.755	98.75
464.975	100.75
465.195	148.75
465.414	149.75
465.634	94.75
465.854	91.75
466.073	91.75
466.293	90.75
466.512	90.75
466.732	75.75
466.951	91.75
467.171	82.75
467.391	84.75
467.61	98.75
467.829	90.75
468.049	78.75
468.268	82.75
468.488	80.75
468.707	86.75
468.927	87.75
469.146	88.75
469.365	74.75
469.585	65.75
469.804	99.75
470.023	89.75
470.243	99.75
470.462	96.75
470.681	98.75
470.901	78.75
471.12	87.75
471.339	81.75
471.558	96.75
471.777	89.75
471.997	71.75
472.216	75.75
472.435	85.75
472.654	87.75
472.873	91.75
473.092	93.75
473.311	91.75
473.53	88.75
473.749	72.75
473.968	90.75
474.187	105.75
474.406	107.75
474.625	83.75
474.844	85.75
475.063	72.75
475.282	99.75
475.501	95.75
475.72	87.75
475.939	83.75
476.158	76.75
476.377	91.75
476.596	89.75
476.814	88.75
477.033	95.75
477.252	97.75
477.471	74.75
477.69	83.75
477.908	105.75
478.127	103.75
478.346	99.75
478.564	89.75
478.783	92.75
479.002	93.75
479.22	82.75
479.439	81.75
479.658	106.75
479.876	89.75
480.095	90.75
480.313	86.75
480.532	88.75
480.751	99.75
480.969	105.75
481.188	84.75
481.406	89.75
481.624	91.75
481.843	83.75
482.061	89.75
482.28	81.75
482.498	89.75
482.717	81.75
482.935	96.75
483.153	90.75
483.372	81.75
483.59	94.75
483.808	88.75
484.027	88.75
484.245	88.75
484.463	101.75
484.681	82.75
484.9	81.75
485.118	95.75
485.336	103.75
485.554	87.75
485.772	94.75
485.99	102.75
486.209	102.75
486.427	108.75
486.645	92.75
486.863	109.75
487.081	91.75
487.299	100.75
487.517	103.75
487.735	101.75
487.953	101.75
488.171	86.75
488.389	104.75
488.607	89.75
488.825	94.75
489.043	93.75
489.261	95.75
489.479	89.75
489.696	106.75
489.914	94.75
490.132	83.75
490.35	111.75
490.568	77.75
490.786	78.75
491.003	94.75
491.221	83.75
491.439	82.75
491.657	106.75
491.874	83.75
492.092	87.75
492.31	99.75
492.527	90.75
492.745	78.75
492.963	82.75
493.18	93.75
493.398	81.75
493.615	107.75
493.833	93.75
494.05	101.75
494.268	91.75
494.485	96.75
494.703	76.75
494.92	77.75
495.138	91.75
495.355	97.75
495.573	105.75
495.79	75.75
496.008	86.75
496.225	76.75
496.442	78.75
496.66	102.75
496.877	103.75
497.094	108.75
497.312	92.75
497.529	86.75
497.746	88.75
497.963	101.75
498.181	91.75
498.398	79.75
498.615	99.75
498.832	100.75
499.049	99.75
499.267	87.75
499.484	87.75
499.701	84.75
499.918	94.75
500.135	91.75
500.352	89.75
500.569	83.75
500.786	108.75
501.003	93.75
501.22	83.75
501.437	87.75
501.654	79.75
501.871	93.75
502.088	97.75
502.305	89.75
502.522	94.75
502.739	87.75
502.956	75.75
503.172	96.75
503.389	98.75
503.606	97.75
503.823	86.75
504.04	101.75
504.256	95.75
504.473	91.75
504.69	86.75
504.907	110.75
505.123	78.75
505.34	94.75
505.557	105.75
505.773	112.75
505.99	86.75
506.207	98.75
506.423	89.75
506.64	87.75
506.856	95.75
507.073	104.75
507.289	96.75
507.506	96.75
507.722	111.75
507.939	96.75
508.155	96.75
508.372	84.75
508.588	92.75
508.805	86.75
509.021	106.75
509.238	91.75
509.454	96.75
509.67	104.75
509.887	101.75
510.103	133.75
510.319	196.75
510.536	718.75
510.752	2171.75
510.968	607.75
511.184	146.75
511.401	100.75
511.617	101.75
511.833	88.75
512.049	86.75
512.265	96.75
512.481	98.75
512.698	94.75
512.914	97.75
513.13	96.75
513.346	83.75
513.562	93.75
513.778	93.75
513.994	96.75
514.21	98.75
514.426	107.75
514.642	124.75
514.858	120.75
515.074	156.75
515.29	415.75
515.506	1290.75
515.721	465.75
515.937	136.75
