Data from Uncirc_1994_H10_HRD10591_00043.txt Node
Date: Wed Jan 03 11:39:29 EST 2024
User: Yrep
Spectrometer: HR+D1059
Trigger mode: 1
Integration Time (sec): 1.000000E-1
Scans to average: 1
Electric dark correction enabled: true
Nonlinearity correction enabled: false
Boxcar width: 0
XAxis mode: Wavelengths
Number of Pixels in Spectrum: 2048
>>>>>Begin Spectral Data<<<<<
223.165	-17.69
223.4	-17.69
223.635	-17.69
223.869	-29.69
224.104	-23.69
224.338	-8.69
224.573	-2.69
224.808	-15.69
225.042	-8.69
225.277	-6.69
225.511	-11.69
225.746	5.31
225.98	4.31
226.215	19.31
226.449	7.31
226.683	19.31
226.918	39.31
227.152	30.31
227.387	43.31
227.621	34.31
227.856	37.31
228.09	53.31
228.324	52.31
228.559	51.31
228.793	63.31
229.027	66.31
229.262	73.31
229.496	75.31
229.73	81.31
229.964	69.31
230.199	68.31
230.433	77.31
230.667	85.31
230.901	75.31
231.136	85.31
231.37	71.31
231.604	76.31
231.838	95.31
232.072	77.31
232.306	78.31
232.541	85.31
232.775	88.31
233.009	99.31
233.243	85.31
233.477	84.31
233.711	71.31
233.945	96.31
234.179	79.31
234.413	78.31
234.647	82.31
234.881	80.31
235.115	77.31
235.349	82.31
235.583	77.31
235.817	85.31
236.051	93.31
236.285	72.31
236.519	81.31
236.753	84.31
236.987	91.31
237.221	80.31
237.455	70.31
237.689	90.31
237.922	65.31
238.156	82.31
238.39	65.31
238.624	68.31
238.858	75.31
239.091	82.31
239.325	84.31
239.559	92.31
239.793	81.31
240.027	87.31
240.26	74.31
240.494	85.31
240.728	75.31
240.961	72.31
241.195	68.31
241.429	79.31
241.662	91.31
241.896	87.31
242.13	92.31
242.363	76.31
242.597	75.31
242.83	87.31
243.064	93.31
243.298	83.31
243.531	78.31
243.765	76.31
243.998	74.31
244.232	73.31
244.465	93.31
244.699	88.31
244.932	87.31
245.166	74.31
245.399	82.31
245.633	78.31
245.866	82.31
246.099	95.31
246.333	73.31
246.566	80.31
246.8	84.31
247.033	66.31
247.266	85.31
247.5	79.31
247.733	80.31
247.966	79.31
248.2	83.31
248.433	85.31
248.666	80.31
248.899	79.31
249.133	91.31
249.366	92.31
249.599	92.31
249.832	77.31
250.066	74.31
250.299	73.31
250.532	87.31
250.765	74.31
250.998	79.31
251.231	74.31
251.465	64.31
251.698	84.31
251.931	87.31
252.164	91.31
252.397	64.31
252.63	76.31
252.863	79.31
253.096	85.31
253.329	82.31
253.562	74.31
253.795	81.31
254.028	75.31
254.261	88.31
254.494	84.31
254.727	97.31
254.96	94.31
255.193	80.31
255.426	83.31
255.659	87.31
255.892	78.31
256.124	84.31
256.357	79.31
256.59	88.31
256.823	87.31
257.056	62.31
257.289	91.31
257.521	78.31
257.754	77.31
257.987	66.31
258.22	79.31
258.452	87.31
258.685	76.31
258.918	75.31
259.151	74.31
259.383	75.31
259.616	74.31
259.849	79.31
260.081	71.31
260.314	86.31
260.547	76.31
260.779	91.31
261.012	95.31
261.244	84.31
261.477	91.31
261.71	84.31
261.942	99.31
262.175	126.31
262.407	91.31
262.64	87.31
262.872	76.31
263.105	89.31
263.337	96.31
263.57	89.31
263.802	86.31
264.035	82.31
264.267	72.31
264.499	95.31
264.732	100.31
264.964	96.31
265.197	89.31
265.429	87.31
265.661	68.31
265.894	89.31
266.126	97.31
266.358	93.31
266.591	88.31
266.823	84.31
267.055	81.31
267.287	76.31
267.52	91.31
267.752	77.31
267.984	78.31
268.216	87.31
268.448	86.31
268.681	93.31
268.913	94.31
269.145	85.31
269.377	81.31
269.609	78.31
269.841	77.31
270.073	78.31
270.306	75.31
270.538	79.31
270.77	73.31
271.002	85.31
271.234	84.31
271.466	99.31
271.698	100.31
271.93	81.31
272.162	92.31
272.394	75.31
272.626	78.31
272.858	80.31
273.09	81.31
273.322	78.31
273.553	85.31
273.785	89.31
274.017	89.31
274.249	78.31
274.481	80.31
274.713	84.31
274.945	68.31
275.176	85.31
275.408	81.31
275.64	95.31
275.872	93.31
276.104	90.31
276.335	85.31
276.567	101.31
276.799	108.31
277.031	109.31
277.262	105.31
277.494	96.31
277.726	76.31
277.957	87.31
278.189	74.31
278.421	78.31
278.652	83.31
278.884	83.31
279.115	83.31
279.347	92.31
279.579	91.31
279.81	100.31
280.042	80.31
280.273	82.31
280.505	83.31
280.736	77.31
280.968	95.31
281.199	79.31
281.431	95.31
281.662	95.31
281.894	101.31
282.125	105.31
282.356	119.31
282.588	130.31
282.819	114.31
283.051	89.31
283.282	97.31
283.513	80.31
283.745	84.31
283.976	95.31
284.207	91.31
284.439	84.31
284.67	92.31
284.901	95.31
285.132	83.31
285.364	95.31
285.595	81.31
285.826	90.31
286.057	84.31
286.288	87.31
286.52	82.31
286.751	78.31
286.982	98.31
287.213	87.31
287.444	90.31
287.675	86.31
287.906	89.31
288.138	83.31
288.369	103.31
288.6	87.31
288.831	77.31
289.062	91.31
289.293	88.31
289.524	89.31
289.755	97.31
289.986	85.31
290.217	93.31
290.448	91.31
290.679	74.31
290.91	74.31
291.141	75.31
291.371	98.31
291.602	94.31
291.833	98.31
292.064	92.31
292.295	77.31
292.526	81.31
292.757	91.31
292.987	87.31
293.218	84.31
293.449	80.31
293.68	86.31
293.91	88.31
294.141	100.31
294.372	83.31
294.603	80.31
294.833	95.31
295.064	91.31
295.295	73.31
295.525	93.31
295.756	92.31
295.987	113.31
296.217	137.31
296.448	122.31
296.679	85.31
296.909	83.31
297.14	99.31
297.37	85.31
297.601	84.31
297.831	80.31
298.062	87.31
298.292	84.31
298.523	77.31
298.753	80.31
298.984	75.31
299.214	77.31
299.445	98.31
299.675	94.31
299.905	99.31
300.136	93.31
300.366	91.31
300.597	85.31
300.827	84.31
301.057	93.31
301.288	97.31
301.518	99.31
301.748	90.31
301.979	96.31
302.209	81.31
302.439	71.31
302.669	92.31
302.9	79.31
303.13	94.31
303.36	89.31
303.59	99.31
303.82	90.31
304.051	91.31
304.281	79.31
304.511	85.31
304.741	73.31
304.971	87.31
305.201	108.31
305.431	97.31
305.661	110.31
305.891	93.31
306.121	87.31
306.352	88.31
306.582	91.31
306.812	87.31
307.042	85.31
307.272	98.31
307.502	89.31
307.731	91.31
307.961	81.31
308.191	93.31
308.421	93.31
308.651	89.31
308.881	89.31
309.111	87.31
309.341	90.31
309.571	99.31
309.8	95.31
310.03	91.31
310.26	86.31
310.49	87.31
310.72	109.31
310.949	102.31
311.179	91.31
311.409	99.31
311.639	96.31
311.868	100.31
312.098	96.31
312.328	103.31
312.557	110.31
312.787	98.31
313.017	96.31
313.246	95.31
313.476	88.31
313.706	82.31
313.935	112.31
314.165	104.31
314.394	101.31
314.624	111.31
314.853	96.31
315.083	89.31
315.312	91.31
315.542	92.31
315.771	94.31
316.001	87.31
316.23	90.31
316.46	97.31
316.689	95.31
316.919	94.31
317.148	92.31
317.377	91.31
317.607	88.31
317.836	97.31
318.065	94.31
318.295	97.31
318.524	85.31
318.753	88.31
318.983	94.31
319.212	103.31
319.441	117.31
319.67	99.31
319.9	87.31
320.129	95.31
320.358	101.31
320.587	90.31
320.816	91.31
321.046	108.31
321.275	100.31
321.504	103.31
321.733	91.31
321.962	92.31
322.191	100.31
322.42	102.31
322.649	116.31
322.878	127.31
323.108	113.31
323.337	131.31
323.566	104.31
323.795	151.31
324.024	188.31
324.253	371.31
324.482	799.31
324.71	1649.31
324.939	2117.31
325.168	775.31
325.397	226.31
325.626	150.31
325.855	115.31
326.084	121.31
326.313	130.31
326.542	161.31
326.77	233.31
326.999	442.31
327.228	913.31
327.457	1628.31
327.686	1311.31
327.914	353.31
328.143	195.31
328.372	145.31
328.6	120.31
328.829	116.31
329.058	133.31
329.287	131.31
329.515	111.31
329.744	107.31
329.972	90.31
330.201	105.31
330.43	93.31
330.658	120.31
330.887	140.31
331.115	121.31
331.344	100.31
331.572	99.31
331.801	99.31
332.03	105.31
332.258	98.31
332.486	81.31
332.715	90.31
332.943	94.31
333.172	89.31
333.4	84.31
333.629	112.31
333.857	110.31
334.085	97.31
334.314	99.31
334.542	100.31
334.771	85.31
334.999	88.31
335.227	87.31
335.455	103.31
335.684	86.31
335.912	95.31
336.14	93.31
336.369	91.31
336.597	106.31
336.825	80.31
337.053	90.31
337.281	96.31
337.51	94.31
337.738	101.31
337.966	97.31
338.194	85.31
338.422	99.31
338.65	92.31
338.878	103.31
339.106	92.31
339.334	84.31
339.562	79.31
339.79	86.31
340.018	93.31
340.246	87.31
340.474	98.31
340.702	96.31
340.93	87.31
341.158	94.31
341.386	91.31
341.614	108.31
341.842	79.31
342.07	92.31
342.298	106.31
342.526	88.31
342.754	77.31
342.981	66.31
343.209	84.31
343.437	98.31
343.665	94.31
343.893	92.31
344.12	71.31
344.348	83.31
344.576	92.31
344.804	103.31
345.031	96.31
345.259	93.31
345.487	82.31
345.714	97.31
345.942	113.31
346.17	91.31
346.397	89.31
346.625	93.31
346.853	90.31
347.08	84.31
347.308	97.31
347.535	93.31
347.763	88.31
347.99	116.31
348.218	100.31
348.445	110.31
348.673	88.31
348.9	91.31
349.128	94.31
349.355	79.31
349.583	89.31
349.81	94.31
350.037	97.31
350.265	91.31
350.492	92.31
350.72	92.31
350.947	98.31
351.174	105.31
351.402	110.31
351.629	91.31
351.856	97.31
352.083	100.31
352.311	100.31
352.538	117.31
352.765	104.31
352.992	125.31
353.22	120.31
353.447	108.31
353.674	104.31
353.901	109.31
354.128	106.31
354.355	90.31
354.583	96.31
354.81	97.31
355.037	101.31
355.264	97.31
355.491	95.31
355.718	79.31
355.945	79.31
356.172	97.31
356.399	94.31
356.626	94.31
356.853	91.31
357.08	87.31
357.307	87.31
357.534	88.31
357.761	87.31
357.988	90.31
358.215	92.31
358.441	90.31
358.668	89.31
358.895	88.31
359.122	88.31
359.349	74.31
359.576	111.31
359.802	98.31
360.029	105.31
360.256	99.31
360.483	96.31
360.709	91.31
360.936	80.31
361.163	91.31
361.39	119.31
361.616	85.31
361.843	86.31
362.07	84.31
362.296	91.31
362.523	87.31
362.749	102.31
362.976	89.31
363.203	96.31
363.429	84.31
363.656	83.31
363.882	75.31
364.109	96.31
364.335	87.31
364.562	73.31
364.788	95.31
365.015	93.31
365.241	103.31
365.468	87.31
365.694	100.31
365.92	98.31
366.147	85.31
366.373	89.31
366.599	92.31
366.826	88.31
367.052	100.31
367.278	97.31
367.505	95.31
367.731	96.31
367.957	96.31
368.184	96.31
368.41	98.31
368.636	113.31
368.862	111.31
369.089	109.31
369.315	98.31
369.541	101.31
369.767	99.31
369.993	82.31
370.219	96.31
370.445	94.31
370.672	80.31
370.898	94.31
371.124	85.31
371.35	85.31
371.576	79.31
371.802	97.31
372.028	76.31
372.254	89.31
372.48	93.31
372.706	84.31
372.932	88.31
373.158	89.31
373.384	90.31
373.61	99.31
373.835	96.31
374.061	82.31
374.287	82.31
374.513	98.31
374.739	89.31
374.965	108.31
375.191	83.31
375.416	103.31
375.642	78.31
375.868	89.31
376.094	82.31
376.319	88.31
376.545	78.31
376.771	95.31
376.997	82.31
377.222	83.31
377.448	98.31
377.674	90.31
377.899	94.31
378.125	82.31
378.35	83.31
378.576	94.31
378.802	78.31
379.027	82.31
379.253	88.31
379.478	94.31
379.704	86.31
379.929	90.31
380.155	105.31
380.38	87.31
380.606	85.31
380.831	86.31
381.057	92.31
381.282	89.31
381.507	112.31
381.733	94.31
381.958	90.31
382.184	103.31
382.409	95.31
382.634	93.31
382.86	109.31
383.085	107.31
383.31	91.31
383.535	94.31
383.761	90.31
383.986	100.31
384.211	101.31
384.436	88.31
384.662	105.31
384.887	91.31
385.112	106.31
385.337	115.31
385.562	106.31
385.787	100.31
386.013	105.31
386.238	119.31
386.463	110.31
386.688	98.31
386.913	99.31
387.138	89.31
387.363	94.31
387.588	89.31
387.813	91.31
388.038	95.31
388.263	105.31
388.488	99.31
388.713	91.31
388.938	83.31
389.163	87.31
389.387	92.31
389.612	76.31
389.837	88.31
390.062	85.31
390.287	110.31
390.512	92.31
390.736	82.31
390.961	100.31
391.186	87.31
391.411	102.31
391.636	93.31
391.86	94.31
392.085	84.31
392.31	80.31
392.534	81.31
392.759	90.31
392.984	83.31
393.208	101.31
393.433	91.31
393.658	103.31
393.882	91.31
394.107	68.31
394.331	97.31
394.556	75.31
394.78	87.31
395.005	91.31
395.229	87.31
395.454	82.31
395.678	82.31
395.903	83.31
396.127	88.31
396.352	84.31
396.576	87.31
396.801	91.31
397.025	96.31
397.249	101.31
397.474	96.31
397.698	89.31
397.922	84.31
398.147	82.31
398.371	96.31
398.595	101.31
398.82	81.31
399.044	99.31
399.268	90.31
399.492	105.31
399.717	98.31
399.941	91.31
400.165	88.31
400.389	90.31
400.613	77.31
400.837	103.31
401.062	94.31
401.286	88.31
401.51	83.31
401.734	86.31
401.958	96.31
402.182	136.31
402.406	143.31
402.63	103.31
402.854	82.31
403.078	75.31
403.302	88.31
403.526	94.31
403.75	82.31
403.974	73.31
404.198	95.31
404.422	89.31
404.645	87.31
404.869	92.31
405.093	97.31
405.317	105.31
405.541	91.31
405.765	85.31
405.988	112.31
406.212	153.31
406.436	203.31
406.66	142.31
406.883	100.31
407.107	95.31
407.331	101.31
407.555	86.31
407.778	99.31
408.002	80.31
408.226	97.31
408.449	104.31
408.673	83.31
408.896	105.31
409.12	96.31
409.344	75.31
409.567	94.31
409.791	89.31
410.014	95.31
410.238	85.31
410.461	95.31
410.685	81.31
410.908	104.31
411.132	110.31
411.355	97.31
411.578	100.31
411.802	107.31
412.025	78.31
412.249	84.31
412.472	85.31
412.695	78.31
412.919	68.31
413.142	91.31
413.365	89.31
413.589	90.31
413.812	83.31
414.035	79.31
414.258	71.31
414.482	84.31
414.705	87.31
414.928	93.31
415.151	87.31
415.374	92.31
415.597	78.31
415.821	94.31
416.044	84.31
416.267	88.31
416.49	84.31
416.713	91.31
416.936	90.31
417.159	85.31
417.382	82.31
417.605	91.31
417.828	82.31
418.051	79.31
418.274	100.31
418.497	93.31
418.72	82.31
418.943	92.31
419.166	88.31
419.389	96.31
419.611	94.31
419.834	96.31
420.057	104.31
420.28	83.31
420.503	95.31
420.726	94.31
420.948	101.31
421.171	86.31
421.394	98.31
421.617	91.31
421.839	104.31
422.062	80.31
422.285	105.31
422.507	93.31
422.73	106.31
422.953	86.31
423.175	89.31
423.398	94.31
423.621	98.31
423.843	84.31
424.066	95.31
424.288	77.31
424.511	79.31
424.733	99.31
424.956	107.31
425.178	98.31
425.401	92.31
425.623	87.31
425.846	99.31
426.068	91.31
426.291	79.31
426.513	76.31
426.735	89.31
426.958	99.31
427.18	111.31
427.402	132.31
427.625	160.31
427.847	120.31
428.069	100.31
428.292	97.31
428.514	90.31
428.736	89.31
428.958	84.31
429.181	93.31
429.403	83.31
429.625	82.31
429.847	92.31
430.069	108.31
430.292	87.31
430.514	84.31
430.736	95.31
430.958	72.31
431.18	96.31
431.402	78.31
431.624	96.31
431.846	92.31
432.068	95.31
432.29	101.31
432.512	91.31
432.734	98.31
432.956	103.31
433.178	115.31
433.4	101.31
433.622	97.31
433.844	87.31
434.066	96.31
434.287	78.31
434.509	94.31
434.731	87.31
434.953	86.31
435.175	94.31
435.397	98.31
435.618	90.31
435.84	92.31
436.062	128.31
436.284	125.31
436.505	107.31
436.727	115.31
436.949	87.31
437.17	92.31
437.392	69.31
437.614	100.31
437.835	109.31
438.057	113.31
438.278	111.31
438.5	101.31
438.721	111.31
438.943	96.31
439.165	92.31
439.386	83.31
439.608	95.31
439.829	89.31
440.05	117.31
440.272	120.31
440.493	88.31
440.715	81.31
440.936	95.31
441.158	85.31
441.379	71.31
441.6	82.31
441.822	83.31
442.043	91.31
442.264	91.31
442.486	87.31
442.707	97.31
442.928	111.31
443.149	113.31
443.371	126.31
443.592	123.31
443.813	114.31
444.034	113.31
444.255	94.31
444.476	86.31
444.698	90.31
444.919	86.31
445.14	114.31
445.361	116.31
445.582	106.31
445.803	151.31
446.024	135.31
446.245	120.31
446.466	104.31
446.687	88.31
446.908	80.31
447.129	83.31
447.35	75.31
447.571	104.31
447.792	97.31
448.013	106.31
448.234	94.31
448.455	105.31
448.675	121.31
448.896	105.31
449.117	103.31
449.338	105.31
449.559	129.31
449.779	133.31
450	97.31
450.221	78.31
450.442	80.31
450.662	91.31
450.883	89.31
451.104	89.31
451.324	94.31
451.545	92.31
451.766	86.31
451.986	86.31
452.207	78.31
452.428	98.31
452.648	107.31
452.869	95.31
453.089	105.31
453.31	99.31
453.53	103.31
453.751	92.31
453.971	99.31
454.192	104.31
454.412	83.31
454.633	92.31
454.853	86.31
455.073	88.31
455.294	97.31
455.514	111.31
455.734	104.31
455.955	91.31
456.175	81.31
456.395	83.31
456.616	93.31
456.836	92.31
457.056	89.31
457.276	95.31
457.497	99.31
457.717	99.31
457.937	91.31
458.157	89.31
458.377	79.31
458.598	117.31
458.818	144.31
459.038	140.31
459.258	97.31
459.478	108.31
459.698	85.31
459.918	92.31
460.138	89.31
460.358	72.31
460.578	83.31
460.798	87.31
461.018	92.31
461.238	81.31
461.458	93.31
461.678	98.31
461.898	91.31
462.118	84.31
462.338	92.31
462.558	90.31
462.777	90.31
462.997	81.31
463.217	82.31
463.437	85.31
463.657	83.31
463.876	76.31
464.096	98.31
464.316	76.31
464.536	80.31
464.755	83.31
464.975	114.31
465.195	150.31
465.414	148.31
465.634	86.31
465.854	83.31
466.073	84.31
466.293	80.31
466.512	86.31
466.732	92.31
466.951	81.31
467.171	108.31
467.391	92.31
467.61	115.31
467.829	89.31
468.049	83.31
468.268	78.31
468.488	81.31
468.707	88.31
468.927	87.31
469.146	87.31
469.365	88.31
469.585	82.31
469.804	91.31
470.023	98.31
470.243	88.31
470.462	81.31
470.681	111.31
470.901	89.31
471.12	80.31
471.339	89.31
471.558	80.31
471.777	77.31
471.997	92.31
472.216	98.31
472.435	96.31
472.654	92.31
472.873	86.31
473.092	82.31
473.311	88.31
473.53	91.31
473.749	88.31
473.968	84.31
474.187	109.31
474.406	104.31
474.625	93.31
474.844	94.31
475.063	89.31
475.282	95.31
475.501	77.31
475.72	82.31
475.939	93.31
476.158	87.31
476.377	93.31
476.596	88.31
476.814	98.31
477.033	93.31
477.252	76.31
477.471	94.31
477.69	85.31
477.908	96.31
478.127	77.31
478.346	102.31
478.564	87.31
478.783	100.31
479.002	84.31
479.22	80.31
479.439	88.31
479.658	101.31
479.876	87.31
480.095	92.31
480.313	98.31
480.532	85.31
480.751	104.31
480.969	100.31
481.188	82.31
481.406	89.31
481.624	92.31
481.843	90.31
482.061	82.31
482.28	92.31
482.498	86.31
482.717	86.31
482.935	89.31
483.153	95.31
483.372	91.31
483.59	89.31
483.808	95.31
484.027	88.31
484.245	99.31
484.463	92.31
484.681	90.31
484.9	91.31
485.118	83.31
485.336	94.31
485.554	102.31
485.772	100.31
485.99	93.31
486.209	105.31
486.427	99.31
486.645	96.31
486.863	117.31
487.081	100.31
487.299	99.31
487.517	100.31
487.735	100.31
487.953	83.31
488.171	104.31
488.389	91.31
488.607	105.31
488.825	89.31
489.043	82.31
489.261	85.31
489.479	85.31
489.696	92.31
489.914	97.31
490.132	86.31
490.35	80.31
490.568	78.31
490.786	92.31
491.003	76.31
491.221	92.31
491.439	103.31
491.657	99.31
491.874	87.31
492.092	99.31
492.31	94.31
492.527	90.31
492.745	89.31
492.963	83.31
493.18	82.31
493.398	89.31
493.615	113.31
493.833	100.31
494.05	99.31
494.268	100.31
494.485	88.31
494.703	90.31
494.92	102.31
495.138	85.31
495.355	91.31
495.573	94.31
495.79	93.31
496.008	95.31
496.225	82.31
496.442	93.31
496.66	101.31
496.877	91.31
497.094	89.31
497.312	84.31
497.529	84.31
497.746	91.31
497.963	98.31
498.181	83.31
498.398	85.31
498.615	100.31
498.832	86.31
499.049	98.31
499.267	95.31
499.484	91.31
499.701	80.31
499.918	107.31
500.135	80.31
500.352	75.31
500.569	96.31
500.786	77.31
501.003	87.31
501.22	88.31
501.437	88.31
501.654	98.31
501.871	100.31
502.088	100.31
502.305	98.31
502.522	86.31
502.739	101.31
502.956	82.31
503.172	88.31
503.389	103.31
503.606	99.31
503.823	91.31
504.04	95.31
504.256	87.31
504.473	107.31
504.69	98.31
504.907	113.31
505.123	86.31
505.34	83.31
505.557	94.31
505.773	92.31
505.99	89.31
506.207	88.31
506.423	111.31
506.64	80.31
506.856	104.31
507.073	83.31
507.289	96.31
507.506	95.31
507.722	104.31
507.939	128.31
508.155	87.31
508.372	93.31
508.588	88.31
508.805	92.31
509.021	84.31
509.238	88.31
509.454	107.31
509.67	101.31
509.887	112.31
510.103	124.31
510.319	209.31
510.536	769.31
510.752	2380.31
510.968	657.31
511.184	155.31
511.401	108.31
511.617	86.31
511.833	98.31
512.049	83.31
512.265	92.31
512.481	96.31
512.698	94.31
512.914	90.31
513.13	89.31
513.346	96.31
513.562	104.31
513.778	99.31
513.994	97.31
514.21	92.31
514.426	112.31
514.642	143.31
514.858	129.31
515.074	169.31
515.29	425.31
515.506	1441.31
515.721	512.31
515.937	137.31
516.153	105.31
