Data from Uncirc_1994_H10_HRD10591_00096.txt Node
Date: Wed Jan 03 11:39:40 EST 2024
User: Yrep
Spectrometer: HR+D1059
Trigger mode: 1
Integration Time (sec): 1.000000E-1
Scans to average: 1
Electric dark correction enabled: true
Nonlinearity correction enabled: false
Boxcar width: 0
XAxis mode: Wavelengths
Number of Pixels in Spectrum: 2048
>>>>>Begin Spectral Data<<<<<
223.165	-13.31
223.4	-13.31
223.635	-13.31
223.869	-26.31
224.104	-13.31
224.338	-31.31
224.573	-17.31
224.808	-11.31
225.042	-13.31
225.277	8.69
225.511	-4.31
225.746	-4.31
225.98	13.69
226.215	-0.31
226.449	24.69
226.683	24.69
226.918	25.69
227.152	37.69
227.387	29.69
227.621	41.69
227.856	50.69
228.09	45.69
228.324	52.69
228.559	51.69
228.793	67.69
229.027	65.69
229.262	68.69
229.496	57.69
229.73	72.69
229.964	72.69
230.199	63.69
230.433	84.69
230.667	81.69
230.901	84.69
231.136	78.69
231.37	73.69
231.604	67.69
231.838	74.69
232.072	83.69
232.306	80.69
232.541	79.69
232.775	93.69
233.009	80.69
233.243	68.69
233.477	85.69
233.711	82.69
233.945	80.69
234.179	81.69
234.413	75.69
234.647	63.69
234.881	72.69
235.115	85.69
235.349	83.69
235.583	74.69
235.817	84.69
236.051	83.69
236.285	63.69
236.519	76.69
236.753	74.69
236.987	80.69
237.221	84.69
237.455	83.69
237.689	72.69
237.922	79.69
238.156	80.69
238.39	70.69
238.624	61.69
238.858	74.69
239.091	85.69
239.325	84.69
239.559	73.69
239.793	69.69
240.027	91.69
240.26	85.69
240.494	73.69
240.728	73.69
240.961	70.69
241.195	77.69
241.429	68.69
241.662	80.69
241.896	80.69
242.13	78.69
242.363	70.69
242.597	80.69
242.83	77.69
243.064	82.69
243.298	74.69
243.531	81.69
243.765	81.69
243.998	81.69
244.232	72.69
244.465	74.69
244.699	84.69
244.932	74.69
245.166	77.69
245.399	72.69
245.633	74.69
245.866	86.69
246.099	72.69
246.333	80.69
246.566	63.69
246.8	72.69
247.033	80.69
247.266	83.69
247.5	85.69
247.733	77.69
247.966	83.69
248.2	77.69
248.433	84.69
248.666	75.69
248.899	79.69
249.133	83.69
249.366	88.69
249.599	94.69
249.832	93.69
250.066	73.69
250.299	75.69
250.532	76.69
250.765	94.69
250.998	61.69
251.231	76.69
251.465	70.69
251.698	68.69
251.931	72.69
252.164	83.69
252.397	81.69
252.63	94.69
252.863	81.69
253.096	84.69
253.329	74.69
253.562	72.69
253.795	80.69
254.028	75.69
254.261	77.69
254.494	82.69
254.727	84.69
254.96	83.69
255.193	72.69
255.426	92.69
255.659	78.69
255.892	91.69
256.124	76.69
256.357	81.69
256.59	67.69
256.823	76.69
257.056	76.69
257.289	74.69
257.521	74.69
257.754	72.69
257.987	83.69
258.22	82.69
258.452	90.69
258.685	91.69
258.918	74.69
259.151	93.69
259.383	91.69
259.616	94.69
259.849	77.69
260.081	81.69
260.314	92.69
260.547	71.69
260.779	68.69
261.012	85.69
261.244	93.69
261.477	84.69
261.71	100.69
261.942	115.69
262.175	103.69
262.407	68.69
262.64	70.69
262.872	102.69
263.105	76.69
263.337	93.69
263.57	86.69
263.802	79.69
264.035	93.69
264.267	94.69
264.499	88.69
264.732	81.69
264.964	77.69
265.197	76.69
265.429	80.69
265.661	78.69
265.894	78.69
266.126	84.69
266.358	86.69
266.591	76.69
266.823	85.69
267.055	67.69
267.287	78.69
267.52	94.69
267.752	87.69
267.984	88.69
268.216	87.69
268.448	79.69
268.681	82.69
268.913	77.69
269.145	77.69
269.377	63.69
269.609	78.69
269.841	78.69
270.073	88.69
270.306	67.69
270.538	91.69
270.77	84.69
271.002	84.69
271.234	97.69
271.466	84.69
271.698	82.69
271.93	76.69
272.162	85.69
272.394	76.69
272.626	103.69
272.858	84.69
273.09	82.69
273.322	80.69
273.553	73.69
273.785	85.69
274.017	79.69
274.249	89.69
274.481	92.69
274.713	88.69
274.945	86.69
275.176	80.69
275.408	80.69
275.64	69.69
275.872	99.69
276.104	88.69
276.335	79.69
276.567	86.69
276.799	95.69
277.031	99.69
277.262	80.69
277.494	84.69
277.726	93.69
277.957	85.69
278.189	95.69
278.421	94.69
278.652	99.69
278.884	84.69
279.115	79.69
279.347	78.69
279.579	92.69
279.81	86.69
280.042	94.69
280.273	81.69
280.505	86.69
280.736	74.69
280.968	92.69
281.199	90.69
281.431	97.69
281.662	96.69
281.894	87.69
282.125	102.69
282.356	119.69
282.588	126.69
282.819	109.69
283.051	96.69
283.282	101.69
283.513	93.69
283.745	107.69
283.976	92.69
284.207	87.69
284.439	85.69
284.67	70.69
284.901	81.69
285.132	79.69
285.364	85.69
285.595	93.69
285.826	85.69
286.057	89.69
286.288	85.69
286.52	86.69
286.751	71.69
286.982	84.69
287.213	88.69
287.444	78.69
287.675	88.69
287.906	91.69
288.138	84.69
288.369	89.69
288.6	88.69
288.831	97.69
289.062	88.69
289.293	80.69
289.524	87.69
289.755	79.69
289.986	86.69
290.217	91.69
290.448	92.69
290.679	90.69
290.91	88.69
291.141	78.69
291.371	89.69
291.602	92.69
291.833	82.69
292.064	81.69
292.295	84.69
292.526	76.69
292.757	88.69
292.987	79.69
293.218	93.69
293.449	89.69
293.68	92.69
293.91	90.69
294.141	92.69
294.372	93.69
294.603	94.69
294.833	86.69
295.064	97.69
295.295	69.69
295.525	84.69
295.756	100.69
295.987	108.69
296.217	139.69
296.448	116.69
296.679	83.69
296.909	88.69
297.14	89.69
297.37	85.69
297.601	83.69
297.831	87.69
298.062	85.69
298.292	88.69
298.523	83.69
298.753	80.69
298.984	83.69
299.214	57.69
299.445	98.69
299.675	85.69
299.905	94.69
300.136	91.69
300.366	88.69
300.597	95.69
300.827	95.69
301.057	105.69
301.288	115.69
301.518	102.69
301.748	85.69
301.979	106.69
302.209	99.69
302.439	82.69
302.669	82.69
302.9	106.69
303.13	96.69
303.36	106.69
303.59	93.69
303.82	108.69
304.051	89.69
304.281	109.69
304.511	92.69
304.741	87.69
304.971	84.69
305.201	81.69
305.431	95.69
305.661	95.69
305.891	85.69
306.121	97.69
306.352	93.69
306.582	105.69
306.812	100.69
307.042	91.69
307.272	101.69
307.502	111.69
307.731	103.69
307.961	85.69
308.191	81.69
308.421	87.69
308.651	95.69
308.881	97.69
309.111	96.69
309.341	98.69
309.571	94.69
309.8	91.69
310.03	105.69
310.26	72.69
310.49	101.69
310.72	108.69
310.949	108.69
311.179	93.69
311.409	77.69
311.639	87.69
311.868	101.69
312.098	81.69
312.328	83.69
312.557	101.69
312.787	106.69
313.017	97.69
313.246	98.69
313.476	86.69
313.706	91.69
313.935	77.69
314.165	86.69
314.394	97.69
314.624	90.69
314.853	101.69
315.083	91.69
315.312	86.69
315.542	82.69
315.771	97.69
316.001	93.69
316.23	93.69
316.46	79.69
316.689	93.69
316.919	90.69
317.148	105.69
317.377	98.69
317.607	86.69
317.836	82.69
318.065	91.69
318.295	99.69
318.524	89.69
318.753	103.69
318.983	96.69
319.212	98.69
319.441	97.69
319.67	115.69
319.9	91.69
320.129	92.69
320.358	94.69
320.587	98.69
320.816	112.69
321.046	102.69
321.275	90.69
321.504	91.69
321.733	94.69
321.962	86.69
322.191	106.69
322.42	100.69
322.649	113.69
322.878	106.69
323.108	117.69
323.337	122.69
323.566	131.69
323.795	148.69
324.024	202.69
324.253	360.69
324.482	772.69
324.71	1567.69
324.939	1960.69
325.168	728.69
325.397	244.69
325.626	158.69
325.855	132.69
326.084	115.69
326.313	125.69
326.542	144.69
326.77	232.69
326.999	438.69
327.228	877.69
327.457	1558.69
327.686	1256.69
327.914	344.69
328.143	179.69
328.372	138.69
328.6	133.69
328.829	115.69
329.058	121.69
329.287	132.69
329.515	109.69
329.744	96.69
329.972	97.69
330.201	92.69
330.43	105.69
330.658	116.69
330.887	134.69
331.115	118.69
331.344	98.69
331.572	90.69
331.801	100.69
332.03	86.69
332.258	81.69
332.486	95.69
332.715	85.69
332.943	96.69
333.172	88.69
333.4	111.69
333.629	120.69
333.857	81.69
334.085	81.69
334.314	93.69
334.542	101.69
334.771	87.69
334.999	94.69
335.227	106.69
335.455	103.69
335.684	88.69
335.912	92.69
336.14	88.69
336.369	102.69
336.597	99.69
336.825	100.69
337.053	93.69
337.281	88.69
337.51	90.69
337.738	108.69
337.966	79.69
338.194	101.69
338.422	88.69
338.65	93.69
338.878	91.69
339.106	99.69
339.334	105.69
339.562	90.69
339.79	102.69
340.018	83.69
340.246	98.69
340.474	92.69
340.702	81.69
340.93	93.69
341.158	86.69
341.386	95.69
341.614	86.69
341.842	99.69
342.07	81.69
342.298	79.69
342.526	91.69
342.754	92.69
342.981	81.69
343.209	93.69
343.437	99.69
343.665	86.69
343.893	96.69
344.12	93.69
344.348	85.69
344.576	92.69
344.804	91.69
345.031	93.69
345.259	95.69
345.487	100.69
345.714	99.69
345.942	98.69
346.17	95.69
346.397	84.69
346.625	85.69
346.853	93.69
347.08	90.69
347.308	95.69
347.535	97.69
347.763	93.69
347.99	106.69
348.218	109.69
348.445	94.69
348.673	96.69
348.9	85.69
349.128	90.69
349.355	108.69
349.583	88.69
349.81	113.69
350.037	84.69
350.265	94.69
350.492	91.69
350.72	85.69
350.947	97.69
351.174	91.69
351.402	107.69
351.629	97.69
351.856	89.69
352.083	103.69
352.311	118.69
352.538	94.69
352.765	91.69
352.992	115.69
353.22	99.69
353.447	101.69
353.674	94.69
353.901	95.69
354.128	98.69
354.355	100.69
354.583	105.69
354.81	91.69
355.037	105.69
355.264	98.69
355.491	100.69
355.718	98.69
355.945	92.69
356.172	88.69
356.399	90.69
356.626	90.69
356.853	88.69
357.08	91.69
357.307	83.69
357.534	72.69
357.761	94.69
357.988	97.69
358.215	99.69
358.441	100.69
358.668	86.69
358.895	81.69
359.122	91.69
359.349	84.69
359.576	81.69
359.802	105.69
360.029	102.69
360.256	110.69
360.483	102.69
360.709	86.69
360.936	103.69
361.163	100.69
361.39	97.69
361.616	105.69
361.843	88.69
362.07	82.69
362.296	98.69
362.523	100.69
362.749	89.69
362.976	92.69
363.203	89.69
363.429	90.69
363.656	86.69
363.882	100.69
364.109	90.69
364.335	94.69
364.562	98.69
364.788	94.69
365.015	90.69
365.241	84.69
365.468	109.69
365.694	95.69
365.92	86.69
366.147	84.69
366.373	95.69
366.599	88.69
366.826	96.69
367.052	78.69
367.278	75.69
367.505	81.69
367.731	91.69
367.957	82.69
368.184	85.69
368.41	95.69
368.636	104.69
368.862	115.69
369.089	101.69
369.315	94.69
369.541	96.69
369.767	80.69
369.993	83.69
370.219	102.69
370.445	96.69
370.672	84.69
370.898	88.69
371.124	109.69
371.35	91.69
371.576	93.69
371.802	86.69
372.028	83.69
372.254	102.69
372.48	82.69
372.706	89.69
372.932	98.69
373.158	88.69
373.384	100.69
373.61	98.69
373.835	83.69
374.061	78.69
374.287	85.69
374.513	74.69
374.739	96.69
374.965	90.69
375.191	84.69
375.416	70.69
375.642	82.69
375.868	87.69
376.094	84.69
376.319	81.69
376.545	83.69
376.771	87.69
376.997	88.69
377.222	91.69
377.448	80.69
377.674	88.69
377.899	83.69
378.125	75.69
378.35	101.69
378.576	85.69
378.802	89.69
379.027	86.69
379.253	95.69
379.478	93.69
379.704	94.69
379.929	89.69
380.155	87.69
380.38	88.69
380.606	93.69
380.831	88.69
381.057	100.69
381.282	88.69
381.507	93.69
381.733	93.69
381.958	96.69
382.184	84.69
382.409	88.69
382.634	90.69
382.86	101.69
383.085	113.69
383.31	92.69
383.535	102.69
383.761	118.69
383.986	100.69
384.211	99.69
384.436	89.69
384.662	98.69
384.887	93.69
385.112	97.69
385.337	84.69
385.562	99.69
385.787	101.69
386.013	99.69
386.238	102.69
386.463	95.69
386.688	111.69
386.913	106.69
387.138	99.69
387.363	89.69
387.588	109.69
387.813	97.69
388.038	115.69
388.263	108.69
388.488	98.69
388.713	107.69
388.938	94.69
389.163	92.69
389.387	92.69
389.612	99.69
389.837	97.69
390.062	106.69
390.287	106.69
390.512	92.69
390.736	91.69
390.961	85.69
391.186	95.69
391.411	101.69
391.636	91.69
391.86	84.69
392.085	80.69
392.31	94.69
392.534	107.69
392.759	81.69
392.984	92.69
393.208	96.69
393.433	92.69
393.658	99.69
393.882	84.69
394.107	88.69
394.331	98.69
394.556	102.69
394.78	96.69
395.005	84.69
395.229	93.69
395.454	91.69
395.678	90.69
395.903	85.69
396.127	88.69
396.352	90.69
396.576	82.69
396.801	97.69
397.025	92.69
397.249	69.69
397.474	86.69
397.698	89.69
397.922	98.69
398.147	72.69
398.371	91.69
398.595	95.69
398.82	103.69
399.044	68.69
399.268	90.69
399.492	101.69
399.717	103.69
399.941	106.69
400.165	98.69
400.389	100.69
400.613	91.69
400.837	89.69
401.062	94.69
401.286	74.69
401.51	97.69
401.734	116.69
401.958	93.69
402.182	127.69
402.406	146.69
402.63	111.69
402.854	88.69
403.078	91.69
403.302	85.69
403.526	81.69
403.75	95.69
403.974	86.69
404.198	93.69
404.422	84.69
404.645	75.69
404.869	93.69
405.093	78.69
405.317	91.69
405.541	99.69
405.765	90.69
405.988	102.69
406.212	165.69
406.436	206.69
406.66	136.69
406.883	98.69
407.107	102.69
407.331	84.69
407.555	107.69
407.778	108.69
408.002	89.69
408.226	87.69
408.449	82.69
408.673	91.69
408.896	78.69
409.12	89.69
409.344	108.69
409.567	81.69
409.791	106.69
410.014	93.69
410.238	97.69
410.461	96.69
410.685	76.69
410.908	84.69
411.132	100.69
411.355	87.69
411.578	95.69
411.802	94.69
412.025	85.69
412.249	92.69
412.472	80.69
412.695	93.69
412.919	94.69
413.142	88.69
413.365	89.69
413.589	91.69
413.812	82.69
414.035	91.69
414.258	101.69
414.482	80.69
414.705	97.69
414.928	94.69
415.151	97.69
415.374	81.69
415.597	88.69
415.821	98.69
416.044	88.69
416.267	102.69
416.49	108.69
416.713	105.69
416.936	84.69
417.159	87.69
417.382	98.69
417.605	91.69
417.828	94.69
418.051	107.69
418.274	100.69
418.497	95.69
418.72	81.69
418.943	86.69
419.166	98.69
419.389	81.69
419.611	81.69
419.834	81.69
420.057	92.69
420.28	83.69
420.503	90.69
420.726	81.69
420.948	93.69
421.171	94.69
421.394	114.69
421.617	88.69
421.839	83.69
422.062	96.69
422.285	96.69
422.507	96.69
422.73	92.69
422.953	100.69
423.175	97.69
423.398	102.69
423.621	89.69
423.843	85.69
424.066	99.69
424.288	88.69
424.511	84.69
424.733	86.69
424.956	95.69
425.178	107.69
425.401	110.69
425.623	109.69
425.846	101.69
426.068	87.69
426.291	90.69
426.513	77.69
426.735	98.69
426.958	101.69
427.18	102.69
427.402	134.69
427.625	172.69
427.847	102.69
428.069	105.69
428.292	91.69
428.514	88.69
428.736	89.69
428.958	97.69
429.181	83.69
429.403	88.69
429.625	95.69
429.847	86.69
430.069	87.69
430.292	78.69
430.514	88.69
430.736	89.69
430.958	90.69
431.18	96.69
431.402	90.69
431.624	81.69
431.846	76.69
432.068	81.69
432.29	85.69
432.512	88.69
432.734	79.69
432.956	78.69
433.178	98.69
433.4	108.69
433.622	105.69
433.844	97.69
434.066	84.69
434.287	79.69
434.509	98.69
434.731	79.69
434.953	81.69
435.175	85.69
435.397	96.69
435.618	86.69
435.84	100.69
436.062	130.69
436.284	109.69
436.505	93.69
436.727	99.69
436.949	92.69
437.17	84.69
437.392	97.69
437.614	104.69
437.835	104.69
438.057	105.69
438.278	116.69
438.5	93.69
438.721	122.69
438.943	92.69
439.165	93.69
439.386	90.69
439.608	89.69
439.829	83.69
440.05	125.69
440.272	133.69
440.493	109.69
440.715	77.69
440.936	92.69
441.158	79.69
441.379	88.69
441.6	113.69
441.822	100.69
442.043	87.69
442.264	94.69
442.486	103.69
442.707	81.69
442.928	107.69
443.149	120.69
443.371	125.69
443.592	111.69
443.813	107.69
444.034	102.69
444.255	99.69
444.476	77.69
444.698	86.69
444.919	84.69
445.14	139.69
445.361	96.69
445.582	114.69
445.803	131.69
446.024	117.69
446.245	120.69
446.466	97.69
446.687	86.69
446.908	79.69
447.129	95.69
447.35	85.69
447.571	89.69
447.792	94.69
448.013	90.69
448.234	105.69
448.455	96.69
448.675	107.69
448.896	116.69
449.117	86.69
449.338	100.69
449.559	107.69
449.779	130.69
450	94.69
450.221	83.69
450.442	80.69
450.662	94.69
450.883	100.69
451.104	114.69
451.324	99.69
451.545	86.69
451.766	72.69
451.986	77.69
452.207	90.69
452.428	80.69
452.648	92.69
452.869	107.69
453.089	105.69
453.31	118.69
453.53	91.69
453.751	110.69
453.971	112.69
454.192	107.69
454.412	88.69
454.633	92.69
454.853	85.69
455.073	91.69
455.294	90.69
455.514	98.69
455.734	95.69
455.955	80.69
456.175	89.69
456.395	73.69
456.616	89.69
456.836	94.69
457.056	65.69
457.276	90.69
457.497	94.69
457.717	70.69
457.937	100.69
458.157	95.69
458.377	102.69
458.598	113.69
458.818	134.69
459.038	150.69
459.258	113.69
459.478	76.69
459.698	70.69
459.918	88.69
460.138	87.69
460.358	71.69
460.578	96.69
460.798	78.69
461.018	108.69
461.238	82.69
461.458	86.69
461.678	84.69
461.898	88.69
462.118	83.69
462.338	84.69
462.558	93.69
462.777	82.69
462.997	98.69
463.217	89.69
463.437	78.69
463.657	83.69
463.876	77.69
464.096	90.69
464.316	82.69
464.536	97.69
464.755	89.69
464.975	104.69
465.195	152.69
465.414	134.69
465.634	85.69
465.854	84.69
466.073	83.69
466.293	69.69
466.512	83.69
466.732	78.69
466.951	90.69
467.171	98.69
467.391	100.69
467.61	90.69
467.829	97.69
468.049	91.69
468.268	92.69
468.488	88.69
468.707	83.69
468.927	79.69
469.146	85.69
469.365	87.69
469.585	93.69
469.804	92.69
470.023	95.69
470.243	80.69
470.462	94.69
470.681	102.69
470.901	84.69
471.12	83.69
471.339	84.69
471.558	86.69
471.777	85.69
471.997	82.69
472.216	102.69
472.435	93.69
472.654	98.69
472.873	84.69
473.092	100.69
473.311	97.69
473.53	90.69
473.749	80.69
473.968	81.69
474.187	107.69
474.406	91.69
474.625	92.69
474.844	87.69
475.063	93.69
475.282	89.69
475.501	98.69
475.72	94.69
475.939	96.69
476.158	78.69
476.377	88.69
476.596	83.69
476.814	80.69
477.033	85.69
477.252	77.69
477.471	85.69
477.69	93.69
477.908	91.69
478.127	79.69
478.346	82.69
478.564	80.69
478.783	83.69
479.002	101.69
479.22	85.69
479.439	94.69
479.658	96.69
479.876	85.69
480.095	100.69
480.313	89.69
480.532	88.69
480.751	84.69
480.969	91.69
481.188	84.69
481.406	90.69
481.624	74.69
481.843	91.69
482.061	78.69
482.28	92.69
482.498	83.69
482.717	93.69
482.935	94.69
483.153	105.69
483.372	84.69
483.59	83.69
483.808	82.69
484.027	89.69
484.245	84.69
484.463	90.69
484.681	91.69
484.9	92.69
485.118	97.69
485.336	103.69
485.554	101.69
485.772	93.69
485.99	103.69
486.209	110.69
486.427	92.69
486.645	102.69
486.863	120.69
487.081	80.69
487.299	93.69
487.517	101.69
487.735	96.69
487.953	105.69
488.171	82.69
488.389	95.69
488.607	103.69
488.825	108.69
489.043	100.69
489.261	92.69
489.479	97.69
489.696	94.69
489.914	88.69
490.132	96.69
490.35	91.69
490.568	82.69
490.786	94.69
491.003	84.69
491.221	88.69
491.439	100.69
491.657	109.69
491.874	92.69
492.092	95.69
492.31	100.69
492.527	83.69
492.745	94.69
492.963	94.69
493.18	100.69
493.398	94.69
493.615	98.69
493.833	101.69
494.05	85.69
494.268	98.69
494.485	89.69
494.703	87.69
494.92	90.69
495.138	90.69
495.355	89.69
495.573	78.69
495.79	92.69
496.008	75.69
496.225	90.69
496.442	90.69
496.66	86.69
496.877	95.69
497.094	84.69
497.312	95.69
497.529	84.69
497.746	91.69
497.963	85.69
498.181	106.69
498.398	100.69
498.615	101.69
498.832	102.69
499.049	84.69
499.267	105.69
499.484	81.69
499.701	90.69
499.918	108.69
500.135	85.69
500.352	89.69
500.569	91.69
500.786	96.69
501.003	97.69
501.22	87.69
501.437	85.69
501.654	94.69
501.871	113.69
502.088	102.69
502.305	94.69
502.522	94.69
502.739	93.69
502.956	83.69
503.172	95.69
503.389	99.69
503.606	107.69
503.823	100.69
504.04	80.69
504.256	81.69
504.473	81.69
504.69	93.69
504.907	95.69
505.123	94.69
505.34	84.69
505.557	84.69
505.773	101.69
505.99	88.69
506.207	100.69
506.423	92.69
506.64	101.69
506.856	89.69
507.073	98.69
507.289	94.69
507.506	103.69
507.722	102.69
507.939	110.69
508.155	92.69
508.372	95.69
508.588	92.69
508.805	95.69
509.021	94.69
509.238	88.69
509.454	97.69
509.67	106.69
509.887	102.69
510.103	139.69
510.319	207.69
510.536	700.69
510.752	2166.69
510.968	589.69
511.184	151.69
511.401	117.69
511.617	89.69
511.833	85.69
512.049	92.69
512.265	103.69
512.481	99.69
512.698	101.69
512.914	88.69
513.13	85.69
513.346	89.69
513.562	103.69
513.778	91.69
513.994	99.69
514.21	104.69
514.426	126.69
514.642	128.69
514.858	114.69
515.074	165.69
515.29	403.69
515.506	1283.69
515.721	462.69
515.937	144.69
