Data from Uncirc_1994_H10_HRD10591_00034.txt Node
Date: Wed Jan 03 11:39:27 EST 2024
User: Yrep
Spectrometer: HR+D1059
Trigger mode: 1
Integration Time (sec): 1.000000E-1
Scans to average: 1
Electric dark correction enabled: true
Nonlinearity correction enabled: false
Boxcar width: 0
XAxis mode: Wavelengths
Number of Pixels in Spectrum: 2048
>>>>>Begin Spectral Data<<<<<
223.165	-11.19
223.4	-11.19
223.635	-11.19
223.869	-18.19
224.104	-13.19
224.338	-5.19
224.573	-12.19
224.808	-19.19
225.042	-11.19
225.277	-15.19
225.511	-8.19
225.746	9.81
225.98	-1.19
226.215	11.81
226.449	11.81
226.683	22.81
226.918	21.81
227.152	36.81
227.387	33.81
227.621	42.81
227.856	32.81
228.09	47.81
228.324	53.81
228.559	67.81
228.793	70.81
229.027	60.81
229.262	64.81
229.496	90.81
229.73	79.81
229.964	79.81
230.199	86.81
230.433	79.81
230.667	79.81
230.901	82.81
231.136	82.81
231.37	77.81
231.604	74.81
231.838	80.81
232.072	80.81
232.306	76.81
232.541	79.81
232.775	83.81
233.009	74.81
233.243	66.81
233.477	81.81
233.711	85.81
233.945	79.81
234.179	77.81
234.413	77.81
234.647	85.81
234.881	66.81
235.115	79.81
235.349	62.81
235.583	73.81
235.817	77.81
236.051	71.81
236.285	73.81
236.519	85.81
236.753	79.81
236.987	71.81
237.221	82.81
237.455	75.81
237.689	80.81
237.922	81.81
238.156	79.81
238.39	74.81
238.624	76.81
238.858	79.81
239.091	89.81
239.325	64.81
239.559	92.81
239.793	71.81
240.027	73.81
240.26	80.81
240.494	74.81
240.728	79.81
240.961	91.81
241.195	71.81
241.429	65.81
241.662	88.81
241.896	69.81
242.13	68.81
242.363	87.81
242.597	82.81
242.83	77.81
243.064	70.81
243.298	82.81
243.531	86.81
243.765	75.81
243.998	75.81
244.232	84.81
244.465	81.81
244.699	76.81
244.932	90.81
245.166	76.81
245.399	81.81
245.633	75.81
245.866	75.81
246.099	81.81
246.333	76.81
246.566	80.81
246.8	78.81
247.033	73.81
247.266	83.81
247.5	77.81
247.733	79.81
247.966	81.81
248.2	87.81
248.433	91.81
248.666	82.81
248.899	80.81
249.133	94.81
249.366	84.81
249.599	89.81
249.832	87.81
250.066	81.81
250.299	90.81
250.532	84.81
250.765	80.81
250.998	83.81
251.231	83.81
251.465	85.81
251.698	76.81
251.931	90.81
252.164	92.81
252.397	95.81
252.63	84.81
252.863	84.81
253.096	81.81
253.329	88.81
253.562	81.81
253.795	79.81
254.028	74.81
254.261	85.81
254.494	85.81
254.727	88.81
254.96	84.81
255.193	93.81
255.426	76.81
255.659	63.81
255.892	71.81
256.124	86.81
256.357	75.81
256.59	94.81
256.823	63.81
257.056	71.81
257.289	83.81
257.521	89.81
257.754	86.81
257.987	82.81
258.22	82.81
258.452	75.81
258.685	84.81
258.918	92.81
259.151	77.81
259.383	88.81
259.616	90.81
259.849	91.81
260.081	84.81
260.314	72.81
260.547	78.81
260.779	66.81
261.012	89.81
261.244	86.81
261.477	99.81
261.71	91.81
261.942	91.81
262.175	107.81
262.407	95.81
262.64	73.81
262.872	79.81
263.105	84.81
263.337	84.81
263.57	87.81
263.802	93.81
264.035	81.81
264.267	82.81
264.499	75.81
264.732	93.81
264.964	91.81
265.197	82.81
265.429	79.81
265.661	80.81
265.894	87.81
266.126	97.81
266.358	87.81
266.591	78.81
266.823	90.81
267.055	82.81
267.287	82.81
267.52	85.81
267.752	86.81
267.984	81.81
268.216	77.81
268.448	97.81
268.681	85.81
268.913	80.81
269.145	84.81
269.377	93.81
269.609	83.81
269.841	80.81
270.073	88.81
270.306	81.81
270.538	82.81
270.77	85.81
271.002	80.81
271.234	76.81
271.466	101.81
271.698	79.81
271.93	80.81
272.162	83.81
272.394	105.81
272.626	85.81
272.858	88.81
273.09	78.81
273.322	95.81
273.553	95.81
273.785	75.81
274.017	83.81
274.249	91.81
274.481	67.81
274.713	85.81
274.945	96.81
275.176	93.81
275.408	92.81
275.64	84.81
275.872	84.81
276.104	101.81
276.335	82.81
276.567	89.81
276.799	91.81
277.031	100.81
277.262	95.81
277.494	84.81
277.726	79.81
277.957	77.81
278.189	86.81
278.421	87.81
278.652	94.81
278.884	88.81
279.115	92.81
279.347	80.81
279.579	81.81
279.81	75.81
280.042	75.81
280.273	96.81
280.505	84.81
280.736	79.81
280.968	97.81
281.199	98.81
281.431	92.81
281.662	87.81
281.894	94.81
282.125	88.81
282.356	110.81
282.588	120.81
282.819	109.81
283.051	90.81
283.282	95.81
283.513	101.81
283.745	84.81
283.976	95.81
284.207	66.81
284.439	109.81
284.67	90.81
284.901	77.81
285.132	91.81
285.364	74.81
285.595	93.81
285.826	75.81
286.057	83.81
286.288	88.81
286.52	87.81
286.751	80.81
286.982	83.81
287.213	80.81
287.444	73.81
287.675	87.81
287.906	95.81
288.138	95.81
288.369	94.81
288.6	89.81
288.831	67.81
289.062	81.81
289.293	99.81
289.524	95.81
289.755	91.81
289.986	94.81
290.217	92.81
290.448	92.81
290.679	81.81
290.91	87.81
291.141	71.81
291.371	78.81
291.602	79.81
291.833	97.81
292.064	73.81
292.295	89.81
292.526	81.81
292.757	87.81
292.987	95.81
293.218	101.81
293.449	91.81
293.68	68.81
293.91	91.81
294.141	88.81
294.372	87.81
294.603	84.81
294.833	88.81
295.064	81.81
295.295	84.81
295.525	90.81
295.756	108.81
295.987	107.81
296.217	134.81
296.448	116.81
296.679	97.81
296.909	95.81
297.14	85.81
297.37	95.81
297.601	69.81
297.831	80.81
298.062	91.81
298.292	78.81
298.523	88.81
298.753	85.81
298.984	95.81
299.214	94.81
299.445	102.81
299.675	101.81
299.905	80.81
300.136	96.81
300.366	75.81
300.597	68.81
300.827	87.81
301.057	89.81
301.288	99.81
301.518	90.81
301.748	89.81
301.979	87.81
302.209	94.81
302.439	91.81
302.669	83.81
302.9	96.81
303.13	90.81
303.36	88.81
303.59	105.81
303.82	92.81
304.051	93.81
304.281	98.81
304.511	81.81
304.741	73.81
304.971	76.81
305.201	93.81
305.431	88.81
305.661	89.81
305.891	80.81
306.121	85.81
306.352	102.81
306.582	96.81
306.812	80.81
307.042	95.81
307.272	97.81
307.502	92.81
307.731	84.81
307.961	86.81
308.191	88.81
308.421	92.81
308.651	88.81
308.881	95.81
309.111	104.81
309.341	95.81
309.571	99.81
309.8	90.81
310.03	101.81
310.26	104.81
310.49	95.81
310.72	85.81
310.949	101.81
311.179	92.81
311.409	88.81
311.639	83.81
311.868	94.81
312.098	91.81
312.328	88.81
312.557	107.81
312.787	96.81
313.017	92.81
313.246	89.81
313.476	93.81
313.706	85.81
313.935	80.81
314.165	95.81
314.394	86.81
314.624	81.81
314.853	98.81
315.083	96.81
315.312	91.81
315.542	85.81
315.771	89.81
316.001	97.81
316.23	98.81
316.46	90.81
316.689	91.81
316.919	91.81
317.148	87.81
317.377	96.81
317.607	102.81
317.836	101.81
318.065	103.81
318.295	91.81
318.524	92.81
318.753	82.81
318.983	82.81
319.212	100.81
319.441	96.81
319.67	103.81
319.9	87.81
320.129	90.81
320.358	115.81
320.587	87.81
320.816	93.81
321.046	119.81
321.275	102.81
321.504	98.81
321.733	80.81
321.962	87.81
322.191	94.81
322.42	106.81
322.649	102.81
322.878	109.81
323.108	117.81
323.337	114.81
323.566	108.81
323.795	141.81
324.024	192.81
324.253	335.81
324.482	735.81
324.71	1455.81
324.939	1875.81
325.168	711.81
325.397	220.81
325.626	128.81
325.855	118.81
326.084	111.81
326.313	101.81
326.542	136.81
326.77	205.81
326.999	393.81
327.228	847.81
327.457	1458.81
327.686	1169.81
327.914	324.81
328.143	167.81
328.372	123.81
328.6	117.81
328.829	132.81
329.058	112.81
329.287	115.81
329.515	88.81
329.744	91.81
329.972	95.81
330.201	89.81
330.43	107.81
330.658	97.81
330.887	114.81
331.115	117.81
331.344	103.81
331.572	97.81
331.801	104.81
332.03	99.81
332.258	83.81
332.486	98.81
332.715	93.81
332.943	85.81
333.172	104.81
333.4	87.81
333.629	104.81
333.857	108.81
334.085	96.81
334.314	86.81
334.542	91.81
334.771	89.81
334.999	89.81
335.227	97.81
335.455	99.81
335.684	88.81
335.912	85.81
336.14	100.81
336.369	99.81
336.597	107.81
336.825	85.81
337.053	87.81
337.281	87.81
337.51	100.81
337.738	101.81
337.966	81.81
338.194	85.81
338.422	97.81
338.65	87.81
338.878	85.81
339.106	95.81
339.334	90.81
339.562	80.81
339.79	89.81
340.018	93.81
340.246	98.81
340.474	82.81
340.702	79.81
340.93	99.81
341.158	93.81
341.386	100.81
341.614	105.81
341.842	100.81
342.07	89.81
342.298	79.81
342.526	92.81
342.754	76.81
342.981	90.81
343.209	80.81
343.437	81.81
343.665	101.81
343.893	91.81
344.12	96.81
344.348	92.81
344.576	81.81
344.804	89.81
345.031	94.81
345.259	97.81
345.487	90.81
345.714	89.81
345.942	91.81
346.17	91.81
346.397	86.81
346.625	79.81
346.853	77.81
347.08	77.81
347.308	80.81
347.535	88.81
347.763	97.81
347.99	100.81
348.218	116.81
348.445	88.81
348.673	85.81
348.9	90.81
349.128	96.81
349.355	83.81
349.583	85.81
349.81	98.81
350.037	88.81
350.265	87.81
350.492	92.81
350.72	85.81
350.947	106.81
351.174	104.81
351.402	113.81
351.629	105.81
351.856	103.81
352.083	95.81
352.311	94.81
352.538	92.81
352.765	105.81
352.992	101.81
353.22	111.81
353.447	109.81
353.674	101.81
353.901	97.81
354.128	92.81
354.355	87.81
354.583	91.81
354.81	90.81
355.037	104.81
355.264	89.81
355.491	93.81
355.718	97.81
355.945	107.81
356.172	91.81
356.399	87.81
356.626	99.81
356.853	80.81
357.08	94.81
357.307	93.81
357.534	87.81
357.761	96.81
357.988	98.81
358.215	82.81
358.441	101.81
358.668	88.81
358.895	91.81
359.122	89.81
359.349	103.81
359.576	84.81
359.802	114.81
360.029	109.81
360.256	96.81
360.483	116.81
360.709	97.81
360.936	85.81
361.163	79.81
361.39	103.81
361.616	83.81
361.843	89.81
362.07	96.81
362.296	77.81
362.523	90.81
362.749	101.81
362.976	97.81
363.203	98.81
363.429	96.81
363.656	79.81
363.882	90.81
364.109	99.81
364.335	90.81
364.562	74.81
364.788	90.81
365.015	89.81
365.241	97.81
365.468	96.81
365.694	107.81
365.92	91.81
366.147	89.81
366.373	82.81
366.599	85.81
366.826	90.81
367.052	89.81
367.278	93.81
367.505	91.81
367.731	87.81
367.957	96.81
368.184	91.81
368.41	102.81
368.636	97.81
368.862	113.81
369.089	108.81
369.315	75.81
369.541	96.81
369.767	90.81
369.993	92.81
370.219	95.81
370.445	67.81
370.672	61.81
370.898	96.81
371.124	78.81
371.35	88.81
371.576	94.81
371.802	86.81
372.028	97.81
372.254	87.81
372.48	71.81
372.706	72.81
372.932	91.81
373.158	94.81
373.384	88.81
373.61	91.81
373.835	95.81
374.061	84.81
374.287	94.81
374.513	88.81
374.739	75.81
374.965	97.81
375.191	88.81
375.416	92.81
375.642	94.81
375.868	96.81
376.094	90.81
376.319	97.81
376.545	84.81
376.771	75.81
376.997	81.81
377.222	96.81
377.448	106.81
377.674	92.81
377.899	93.81
378.125	82.81
378.35	85.81
378.576	92.81
378.802	89.81
379.027	104.81
379.253	84.81
379.478	95.81
379.704	77.81
379.929	100.81
380.155	88.81
380.38	89.81
380.606	101.81
380.831	100.81
381.057	93.81
381.282	82.81
381.507	90.81
381.733	103.81
381.958	90.81
382.184	89.81
382.409	80.81
382.634	103.81
382.86	107.81
383.085	106.81
383.31	97.81
383.535	97.81
383.761	92.81
383.986	105.81
384.211	106.81
384.436	87.81
384.662	102.81
384.887	105.81
385.112	104.81
385.337	107.81
385.562	94.81
385.787	112.81
386.013	88.81
386.238	103.81
386.463	93.81
386.688	114.81
386.913	92.81
387.138	95.81
387.363	107.81
387.588	104.81
387.813	85.81
388.038	116.81
388.263	99.81
388.488	98.81
388.713	100.81
388.938	93.81
389.163	90.81
389.387	95.81
389.612	96.81
389.837	97.81
390.062	101.81
390.287	90.81
390.512	88.81
390.736	106.81
390.961	89.81
391.186	97.81
391.411	91.81
391.636	83.81
391.86	82.81
392.085	89.81
392.31	89.81
392.534	95.81
392.759	82.81
392.984	92.81
393.208	101.81
393.433	94.81
393.658	92.81
393.882	90.81
394.107	84.81
394.331	86.81
394.556	81.81
394.78	101.81
395.005	93.81
395.229	72.81
395.454	85.81
395.678	92.81
395.903	90.81
396.127	81.81
396.352	82.81
396.576	100.81
396.801	87.81
397.025	85.81
397.249	95.81
397.474	78.81
397.698	75.81
397.922	92.81
398.147	79.81
398.371	76.81
398.595	93.81
398.82	85.81
399.044	83.81
399.268	81.81
399.492	95.81
399.717	89.81
399.941	88.81
400.165	83.81
400.389	85.81
400.613	92.81
400.837	109.81
401.062	91.81
401.286	92.81
401.51	87.81
401.734	85.81
401.958	103.81
402.182	117.81
402.406	163.81
402.63	110.81
402.854	91.81
403.078	84.81
403.302	82.81
403.526	95.81
403.75	87.81
403.974	98.81
404.198	75.81
404.422	81.81
404.645	83.81
404.869	90.81
405.093	85.81
405.317	105.81
405.541	91.81
405.765	98.81
405.988	122.81
406.212	136.81
406.436	192.81
406.66	141.81
406.883	99.81
407.107	96.81
407.331	108.81
407.555	105.81
407.778	101.81
408.002	87.81
408.226	93.81
408.449	87.81
408.673	85.81
408.896	76.81
409.12	88.81
409.344	85.81
409.567	84.81
409.791	91.81
410.014	102.81
410.238	90.81
410.461	91.81
410.685	84.81
410.908	93.81
411.132	92.81
411.355	103.81
411.578	96.81
411.802	82.81
412.025	94.81
412.249	74.81
412.472	95.81
412.695	94.81
412.919	100.81
413.142	87.81
413.365	85.81
413.589	96.81
413.812	68.81
414.035	82.81
414.258	104.81
414.482	94.81
414.705	95.81
414.928	90.81
415.151	85.81
415.374	107.81
415.597	89.81
415.821	88.81
416.044	83.81
416.267	85.81
416.49	85.81
416.713	83.81
416.936	94.81
417.159	79.81
417.382	82.81
417.605	99.81
417.828	99.81
418.051	87.81
418.274	85.81
418.497	75.81
418.72	85.81
418.943	84.81
419.166	82.81
419.389	84.81
419.611	95.81
419.834	90.81
420.057	95.81
420.28	99.81
420.503	83.81
420.726	90.81
420.948	91.81
421.171	96.81
421.394	84.81
421.617	95.81
421.839	84.81
422.062	96.81
422.285	87.81
422.507	99.81
422.73	111.81
422.953	96.81
423.175	85.81
423.398	87.81
423.621	97.81
423.843	96.81
424.066	83.81
424.288	82.81
424.511	79.81
424.733	104.81
424.956	95.81
425.178	87.81
425.401	94.81
425.623	103.81
425.846	97.81
426.068	100.81
426.291	102.81
426.513	92.81
426.735	98.81
426.958	103.81
427.18	93.81
427.402	122.81
427.625	154.81
427.847	101.81
428.069	103.81
428.292	75.81
428.514	94.81
428.736	77.81
428.958	85.81
429.181	88.81
429.403	79.81
429.625	75.81
429.847	95.81
430.069	89.81
430.292	95.81
430.514	88.81
430.736	87.81
430.958	81.81
431.18	90.81
431.402	76.81
431.624	84.81
431.846	80.81
432.068	91.81
432.29	85.81
432.512	78.81
432.734	85.81
432.956	93.81
433.178	86.81
433.4	98.81
433.622	100.81
433.844	94.81
434.066	88.81
434.287	100.81
434.509	86.81
434.731	99.81
434.953	91.81
435.175	88.81
435.397	88.81
435.618	88.81
435.84	83.81
436.062	111.81
436.284	99.81
436.505	110.81
436.727	99.81
436.949	115.81
437.17	83.81
437.392	86.81
437.614	91.81
437.835	106.81
438.057	115.81
438.278	111.81
438.5	111.81
438.721	120.81
438.943	90.81
439.165	99.81
439.386	74.81
439.608	93.81
439.829	105.81
440.05	113.81
440.272	133.81
440.493	111.81
440.715	90.81
440.936	86.81
441.158	93.81
441.379	77.81
441.6	92.81
441.822	96.81
442.043	83.81
442.264	97.81
442.486	99.81
442.707	73.81
442.928	107.81
443.149	128.81
443.371	125.81
443.592	113.81
443.813	96.81
444.034	118.81
444.255	79.81
444.476	83.81
444.698	72.81
444.919	78.81
445.14	124.81
445.361	125.81
445.582	123.81
445.803	125.81
446.024	123.81
446.245	128.81
446.466	104.81
446.687	96.81
446.908	93.81
447.129	83.81
447.35	83.81
447.571	106.81
447.792	85.81
448.013	93.81
448.234	101.81
448.455	101.81
448.675	101.81
448.896	110.81
449.117	83.81
449.338	109.81
449.559	122.81
449.779	127.81
450	93.81
450.221	79.81
450.442	75.81
450.662	93.81
450.883	83.81
451.104	96.81
451.324	97.81
451.545	92.81
451.766	72.81
451.986	86.81
452.207	82.81
452.428	96.81
452.648	109.81
452.869	107.81
453.089	100.81
453.31	120.81
453.53	87.81
453.751	87.81
453.971	92.81
454.192	103.81
454.412	71.81
454.633	91.81
454.853	84.81
455.073	82.81
455.294	90.81
455.514	113.81
455.734	74.81
455.955	79.81
456.175	98.81
456.395	89.81
456.616	89.81
456.836	85.81
457.056	96.81
457.276	84.81
457.497	96.81
457.717	88.81
457.937	92.81
458.157	104.81
458.377	90.81
458.598	110.81
458.818	127.81
459.038	149.81
459.258	119.81
459.478	91.81
459.698	72.81
459.918	82.81
460.138	91.81
460.358	80.81
460.578	79.81
460.798	80.81
461.018	99.81
461.238	107.81
461.458	88.81
461.678	80.81
461.898	97.81
462.118	90.81
462.338	92.81
462.558	85.81
462.777	77.81
462.997	82.81
463.217	92.81
463.437	82.81
463.657	80.81
463.876	99.81
464.096	89.81
464.316	93.81
464.536	100.81
464.755	87.81
464.975	95.81
465.195	140.81
465.414	130.81
465.634	88.81
465.854	77.81
466.073	83.81
466.293	92.81
466.512	70.81
466.732	87.81
466.951	79.81
467.171	98.81
467.391	90.81
467.61	97.81
467.829	89.81
468.049	83.81
468.268	81.81
468.488	80.81
468.707	109.81
468.927	76.81
469.146	81.81
469.365	74.81
469.585	64.81
469.804	91.81
470.023	111.81
470.243	82.81
470.462	95.81
470.681	99.81
470.901	92.81
471.12	95.81
471.339	98.81
471.558	87.81
471.777	75.81
471.997	84.81
472.216	91.81
472.435	95.81
472.654	93.81
472.873	87.81
473.092	87.81
473.311	91.81
473.53	80.81
473.749	84.81
473.968	88.81
474.187	108.81
474.406	78.81
474.625	86.81
474.844	73.81
475.063	74.81
475.282	96.81
475.501	105.81
475.72	87.81
475.939	95.81
476.158	80.81
476.377	79.81
476.596	91.81
476.814	86.81
477.033	80.81
477.252	90.81
477.471	89.81
477.69	84.81
477.908	90.81
478.127	96.81
478.346	83.81
478.564	82.81
478.783	92.81
479.002	73.81
479.22	76.81
479.439	105.81
479.658	95.81
479.876	97.81
480.095	89.81
480.313	90.81
480.532	85.81
480.751	95.81
480.969	97.81
481.188	87.81
481.406	97.81
481.624	79.81
481.843	90.81
482.061	82.81
482.28	96.81
482.498	87.81
482.717	82.81
482.935	75.81
483.153	79.81
483.372	78.81
483.59	85.81
483.808	87.81
484.027	85.81
484.245	98.81
484.463	89.81
484.681	105.81
484.9	102.81
485.118	89.81
485.336	87.81
485.554	85.81
485.772	103.81
485.99	111.81
486.209	101.81
486.427	105.81
486.645	105.81
486.863	93.81
487.081	91.81
487.299	99.81
487.517	89.81
487.735	95.81
487.953	109.81
488.171	87.81
488.389	86.81
488.607	112.81
488.825	87.81
489.043	97.81
489.261	88.81
489.479	74.81
489.696	81.81
489.914	103.81
490.132	95.81
490.35	81.81
490.568	79.81
490.786	80.81
491.003	77.81
491.221	84.81
491.439	84.81
491.657	88.81
491.874	97.81
492.092	96.81
492.31	91.81
492.527	81.81
492.745	83.81
492.963	75.81
493.18	95.81
493.398	93.81
493.615	103.81
493.833	87.81
494.05	98.81
494.268	90.81
494.485	86.81
494.703	90.81
494.92	91.81
495.138	91.81
495.355	82.81
495.573	98.81
495.79	88.81
496.008	97.81
496.225	92.81
496.442	87.81
496.66	91.81
496.877	76.81
497.094	98.81
497.312	104.81
497.529	96.81
497.746	91.81
497.963	94.81
498.181	83.81
498.398	99.81
498.615	109.81
498.832	91.81
499.049	89.81
499.267	94.81
499.484	98.81
499.701	102.81
499.918	87.81
500.135	99.81
500.352	87.81
500.569	102.81
500.786	98.81
501.003	91.81
501.22	90.81
501.437	103.81
501.654	91.81
501.871	106.81
502.088	91.81
502.305	91.81
502.522	89.81
502.739	83.81
502.956	85.81
503.172	92.81
503.389	107.81
503.606	100.81
503.823	98.81
504.04	89.81
504.256	79.81
504.473	74.81
504.69	86.81
504.907	79.81
505.123	88.81
505.34	81.81
505.557	97.81
505.773	88.81
505.99	75.81
506.207	85.81
506.423	94.81
506.64	83.81
506.856	81.81
507.073	81.81
507.289	81.81
507.506	97.81
507.722	104.81
507.939	108.81
508.155	96.81
508.372	100.81
508.588	93.81
508.805	101.81
509.021	107.81
509.238	100.81
509.454	95.81
509.67	101.81
509.887	97.81
510.103	111.81
510.319	205.81
510.536	690.81
510.752	2124.81
510.968	591.81
511.184	151.81
511.401	107.81
511.617	96.81
511.833	81.81
512.049	95.81
512.265	93.81
512.481	95.81
512.698	89.81
512.914	95.81
513.13	91.81
513.346	100.81
513.562	82.81
513.778	98.81
513.994	89.81
514.21	101.81
514.426	97.81
514.642	127.81
514.858	117.81
515.074	151.81
515.29	410.81
515.506	1238.81
515.721	455.81
515.937	151.81
516.153	114.81
516.369	97.81
