Data from Uncirc_1994_H10_HRD10591_00041.txt Node
Date: Wed Jan 03 11:39:29 EST 2024
User: Yrep
Spectrometer: HR+D1059
Trigger mode: 1
Integration Time (sec): 1.000000E-1
Scans to average: 1
Electric dark correction enabled: true
Nonlinearity correction enabled: false
Boxcar width: 0
XAxis mode: Wavelengths
Number of Pixels in Spectrum: 2048
>>>>>Begin Spectral Data<<<<<
223.165	-9.81
223.4	-9.81
223.635	-9.81
223.869	-17.81
224.104	-25.81
224.338	-28.81
224.573	-27.81
224.808	-12.81
225.042	-9.81
225.277	-5.81
225.511	-1.81
225.746	7.19
225.98	13.19
226.215	18.19
226.449	17.19
226.683	14.19
226.918	38.19
227.152	32.19
227.387	19.19
227.621	33.19
227.856	49.19
228.09	43.19
228.324	34.19
228.559	46.19
228.793	51.19
229.027	53.19
229.262	65.19
229.496	69.19
229.73	74.19
229.964	74.19
230.199	81.19
230.433	90.19
230.667	94.19
230.901	91.19
231.136	79.19
231.37	85.19
231.604	63.19
231.838	56.19
232.072	83.19
232.306	75.19
232.541	76.19
232.775	82.19
233.009	75.19
233.243	81.19
233.477	72.19
233.711	83.19
233.945	74.19
234.179	89.19
234.413	94.19
234.647	74.19
234.881	85.19
235.115	91.19
235.349	86.19
235.583	83.19
235.817	70.19
236.051	83.19
236.285	77.19
236.519	68.19
236.753	73.19
236.987	75.19
237.221	62.19
237.455	87.19
237.689	91.19
237.922	61.19
238.156	70.19
238.39	73.19
238.624	73.19
238.858	80.19
239.091	72.19
239.325	85.19
239.559	87.19
239.793	83.19
240.027	71.19
240.26	69.19
240.494	77.19
240.728	64.19
240.961	75.19
241.195	81.19
241.429	75.19
241.662	87.19
241.896	86.19
242.13	66.19
242.363	72.19
242.597	73.19
242.83	86.19
243.064	70.19
243.298	77.19
243.531	99.19
243.765	74.19
243.998	82.19
244.232	79.19
244.465	93.19
244.699	87.19
244.932	87.19
245.166	74.19
245.399	83.19
245.633	72.19
245.866	70.19
246.099	76.19
246.333	62.19
246.566	79.19
246.8	76.19
247.033	75.19
247.266	71.19
247.5	70.19
247.733	74.19
247.966	67.19
248.2	79.19
248.433	82.19
248.666	81.19
248.899	67.19
249.133	96.19
249.366	93.19
249.599	98.19
249.832	80.19
250.066	87.19
250.299	87.19
250.532	70.19
250.765	77.19
250.998	65.19
251.231	76.19
251.465	76.19
251.698	76.19
251.931	71.19
252.164	69.19
252.397	82.19
252.63	77.19
252.863	79.19
253.096	83.19
253.329	72.19
253.562	85.19
253.795	79.19
254.028	82.19
254.261	77.19
254.494	86.19
254.727	79.19
254.96	95.19
255.193	82.19
255.426	85.19
255.659	75.19
255.892	98.19
256.124	88.19
256.357	102.19
256.59	80.19
256.823	75.19
257.056	91.19
257.289	63.19
257.521	67.19
257.754	74.19
257.987	89.19
258.22	77.19
258.452	86.19
258.685	72.19
258.918	87.19
259.151	69.19
259.383	83.19
259.616	77.19
259.849	80.19
260.081	86.19
260.314	81.19
260.547	89.19
260.779	78.19
261.012	81.19
261.244	74.19
261.477	74.19
261.71	90.19
261.942	101.19
262.175	96.19
262.407	90.19
262.64	62.19
262.872	79.19
263.105	79.19
263.337	82.19
263.57	80.19
263.802	79.19
264.035	75.19
264.267	79.19
264.499	89.19
264.732	65.19
264.964	84.19
265.197	76.19
265.429	82.19
265.661	89.19
265.894	77.19
266.126	95.19
266.358	90.19
266.591	86.19
266.823	76.19
267.055	83.19
267.287	77.19
267.52	84.19
267.752	93.19
267.984	85.19
268.216	64.19
268.448	77.19
268.681	75.19
268.913	87.19
269.145	81.19
269.377	78.19
269.609	71.19
269.841	83.19
270.073	85.19
270.306	82.19
270.538	71.19
270.77	67.19
271.002	82.19
271.234	92.19
271.466	83.19
271.698	79.19
271.93	91.19
272.162	86.19
272.394	77.19
272.626	87.19
272.858	86.19
273.09	87.19
273.322	90.19
273.553	78.19
273.785	77.19
274.017	89.19
274.249	66.19
274.481	87.19
274.713	88.19
274.945	101.19
275.176	80.19
275.408	87.19
275.64	72.19
275.872	94.19
276.104	76.19
276.335	87.19
276.567	87.19
276.799	103.19
277.031	90.19
277.262	80.19
277.494	89.19
277.726	98.19
277.957	83.19
278.189	89.19
278.421	89.19
278.652	88.19
278.884	76.19
279.115	86.19
279.347	89.19
279.579	91.19
279.81	70.19
280.042	90.19
280.273	87.19
280.505	78.19
280.736	77.19
280.968	95.19
281.199	99.19
281.431	74.19
281.662	89.19
281.894	99.19
282.125	89.19
282.356	99.19
282.588	144.19
282.819	112.19
283.051	73.19
283.282	75.19
283.513	78.19
283.745	74.19
283.976	77.19
284.207	87.19
284.439	89.19
284.67	87.19
284.901	81.19
285.132	81.19
285.364	93.19
285.595	77.19
285.826	80.19
286.057	92.19
286.288	86.19
286.52	84.19
286.751	70.19
286.982	90.19
287.213	95.19
287.444	76.19
287.675	85.19
287.906	90.19
288.138	86.19
288.369	88.19
288.6	83.19
288.831	86.19
289.062	83.19
289.293	85.19
289.524	79.19
289.755	81.19
289.986	76.19
290.217	81.19
290.448	81.19
290.679	89.19
290.91	91.19
291.141	86.19
291.371	93.19
291.602	86.19
291.833	88.19
292.064	89.19
292.295	89.19
292.526	90.19
292.757	95.19
292.987	97.19
293.218	75.19
293.449	78.19
293.68	94.19
293.91	78.19
294.141	79.19
294.372	92.19
294.603	94.19
294.833	85.19
295.064	91.19
295.295	87.19
295.525	94.19
295.756	88.19
295.987	106.19
296.217	128.19
296.448	122.19
296.679	84.19
296.909	96.19
297.14	90.19
297.37	94.19
297.601	74.19
297.831	88.19
298.062	85.19
298.292	96.19
298.523	102.19
298.753	96.19
298.984	90.19
299.214	81.19
299.445	96.19
299.675	96.19
299.905	96.19
300.136	79.19
300.366	81.19
300.597	81.19
300.827	91.19
301.057	99.19
301.288	99.19
301.518	77.19
301.748	83.19
301.979	109.19
302.209	95.19
302.439	95.19
302.669	90.19
302.9	91.19
303.13	83.19
303.36	88.19
303.59	104.19
303.82	98.19
304.051	88.19
304.281	95.19
304.511	89.19
304.741	80.19
304.971	79.19
305.201	92.19
305.431	77.19
305.661	84.19
305.891	75.19
306.121	83.19
306.352	103.19
306.582	99.19
306.812	89.19
307.042	91.19
307.272	91.19
307.502	90.19
307.731	89.19
307.961	86.19
308.191	87.19
308.421	97.19
308.651	78.19
308.881	92.19
309.111	99.19
309.341	110.19
309.571	105.19
309.8	92.19
310.03	98.19
310.26	83.19
310.49	90.19
310.72	80.19
310.949	105.19
311.179	99.19
311.409	96.19
311.639	86.19
311.868	103.19
312.098	95.19
312.328	88.19
312.557	90.19
312.787	110.19
313.017	110.19
313.246	93.19
313.476	102.19
313.706	78.19
313.935	98.19
314.165	88.19
314.394	109.19
314.624	94.19
314.853	103.19
315.083	95.19
315.312	73.19
315.542	81.19
315.771	86.19
316.001	82.19
316.23	88.19
316.46	97.19
316.689	72.19
316.919	98.19
317.148	100.19
317.377	87.19
317.607	103.19
317.836	82.19
318.065	97.19
318.295	82.19
318.524	91.19
318.753	83.19
318.983	83.19
319.212	91.19
319.441	109.19
319.67	99.19
319.9	91.19
320.129	79.19
320.358	86.19
320.587	85.19
320.816	102.19
321.046	101.19
321.275	80.19
321.504	97.19
321.733	90.19
321.962	97.19
322.191	99.19
322.42	98.19
322.649	110.19
322.878	99.19
323.108	111.19
323.337	136.19
323.566	128.19
323.795	151.19
324.024	181.19
324.253	361.19
324.482	783.19
324.71	1623.19
324.939	2049.19
325.168	767.19
325.397	223.19
325.626	138.19
325.855	121.19
326.084	114.19
326.313	138.19
326.542	151.19
326.77	213.19
326.999	447.19
327.228	883.19
327.457	1622.19
327.686	1277.19
327.914	346.19
328.143	181.19
328.372	117.19
328.6	117.19
328.829	113.19
329.058	123.19
329.287	113.19
329.515	109.19
329.744	91.19
329.972	87.19
330.201	92.19
330.43	99.19
330.658	117.19
330.887	119.19
331.115	109.19
331.344	82.19
331.572	81.19
331.801	98.19
332.03	113.19
332.258	87.19
332.486	83.19
332.715	92.19
332.943	86.19
333.172	91.19
333.4	85.19
333.629	99.19
333.857	108.19
334.085	95.19
334.314	117.19
334.542	89.19
334.771	99.19
334.999	88.19
335.227	105.19
335.455	82.19
335.684	93.19
335.912	91.19
336.14	84.19
336.369	98.19
336.597	98.19
336.825	93.19
337.053	96.19
337.281	99.19
337.51	77.19
337.738	83.19
337.966	86.19
338.194	83.19
338.422	91.19
338.65	79.19
338.878	91.19
339.106	94.19
339.334	84.19
339.562	79.19
339.79	102.19
340.018	100.19
340.246	82.19
340.474	89.19
340.702	80.19
340.93	90.19
341.158	101.19
341.386	77.19
341.614	70.19
341.842	106.19
342.07	88.19
342.298	98.19
342.526	81.19
342.754	100.19
342.981	87.19
343.209	93.19
343.437	81.19
343.665	69.19
343.893	81.19
344.12	77.19
344.348	84.19
344.576	92.19
344.804	88.19
345.031	104.19
345.259	87.19
345.487	75.19
345.714	88.19
345.942	90.19
346.17	96.19
346.397	93.19
346.625	93.19
346.853	88.19
347.08	90.19
347.308	95.19
347.535	106.19
347.763	89.19
347.99	99.19
348.218	97.19
348.445	105.19
348.673	104.19
348.9	100.19
349.128	92.19
349.355	83.19
349.583	88.19
349.81	84.19
350.037	86.19
350.265	96.19
350.492	93.19
350.72	108.19
350.947	107.19
351.174	108.19
351.402	101.19
351.629	107.19
351.856	98.19
352.083	103.19
352.311	83.19
352.538	99.19
352.765	101.19
352.992	118.19
353.22	110.19
353.447	94.19
353.674	91.19
353.901	102.19
354.128	101.19
354.355	101.19
354.583	94.19
354.81	91.19
355.037	107.19
355.264	103.19
355.491	68.19
355.718	91.19
355.945	91.19
356.172	85.19
356.399	100.19
356.626	96.19
356.853	103.19
357.08	95.19
357.307	105.19
357.534	87.19
357.761	78.19
357.988	85.19
358.215	85.19
358.441	89.19
358.668	95.19
358.895	90.19
359.122	92.19
359.349	84.19
359.576	95.19
359.802	113.19
360.029	112.19
360.256	88.19
360.483	88.19
360.709	95.19
360.936	90.19
361.163	87.19
361.39	78.19
361.616	98.19
361.843	99.19
362.07	102.19
362.296	91.19
362.523	76.19
362.749	96.19
362.976	86.19
363.203	87.19
363.429	89.19
363.656	95.19
363.882	81.19
364.109	96.19
364.335	89.19
364.562	92.19
364.788	88.19
365.015	77.19
365.241	95.19
365.468	106.19
365.694	85.19
365.92	93.19
366.147	86.19
366.373	81.19
366.599	95.19
366.826	86.19
367.052	78.19
367.278	98.19
367.505	80.19
367.731	87.19
367.957	93.19
368.184	82.19
368.41	104.19
368.636	107.19
368.862	117.19
369.089	102.19
369.315	91.19
369.541	86.19
369.767	80.19
369.993	74.19
370.219	86.19
370.445	87.19
370.672	98.19
370.898	87.19
371.124	82.19
371.35	86.19
371.576	84.19
371.802	90.19
372.028	88.19
372.254	80.19
372.48	77.19
372.706	106.19
372.932	97.19
373.158	86.19
373.384	88.19
373.61	86.19
373.835	85.19
374.061	82.19
374.287	93.19
374.513	89.19
374.739	78.19
374.965	93.19
375.191	98.19
375.416	75.19
375.642	84.19
375.868	93.19
376.094	95.19
376.319	77.19
376.545	82.19
376.771	81.19
376.997	80.19
377.222	99.19
377.448	105.19
377.674	88.19
377.899	100.19
378.125	81.19
378.35	86.19
378.576	110.19
378.802	89.19
379.027	102.19
379.253	99.19
379.478	86.19
379.704	80.19
379.929	85.19
380.155	94.19
380.38	88.19
380.606	97.19
380.831	74.19
381.057	91.19
381.282	90.19
381.507	89.19
381.733	100.19
381.958	76.19
382.184	97.19
382.409	92.19
382.634	104.19
382.86	101.19
383.085	93.19
383.31	99.19
383.535	98.19
383.761	80.19
383.986	96.19
384.211	87.19
384.436	93.19
384.662	97.19
384.887	96.19
385.112	89.19
385.337	103.19
385.562	80.19
385.787	118.19
386.013	98.19
386.238	107.19
386.463	104.19
386.688	117.19
386.913	96.19
387.138	101.19
387.363	82.19
387.588	87.19
387.813	80.19
388.038	91.19
388.263	97.19
388.488	99.19
388.713	92.19
388.938	87.19
389.163	88.19
389.387	87.19
389.612	83.19
389.837	95.19
390.062	89.19
390.287	88.19
390.512	105.19
390.736	84.19
390.961	75.19
391.186	70.19
391.411	103.19
391.636	95.19
391.86	90.19
392.085	71.19
392.31	82.19
392.534	89.19
392.759	96.19
392.984	85.19
393.208	88.19
393.433	89.19
393.658	97.19
393.882	93.19
394.107	79.19
394.331	91.19
394.556	72.19
394.78	85.19
395.005	89.19
395.229	80.19
395.454	92.19
395.678	79.19
395.903	77.19
396.127	82.19
396.352	94.19
396.576	76.19
396.801	89.19
397.025	83.19
397.249	86.19
397.474	84.19
397.698	82.19
397.922	93.19
398.147	71.19
398.371	93.19
398.595	93.19
398.82	73.19
399.044	85.19
399.268	85.19
399.492	77.19
399.717	90.19
399.941	79.19
400.165	89.19
400.389	97.19
400.613	85.19
400.837	95.19
401.062	92.19
401.286	91.19
401.51	96.19
401.734	98.19
401.958	103.19
402.182	118.19
402.406	153.19
402.63	118.19
402.854	83.19
403.078	79.19
403.302	75.19
403.526	74.19
403.75	85.19
403.974	77.19
404.198	93.19
404.422	102.19
404.645	77.19
404.869	99.19
405.093	96.19
405.317	95.19
405.541	94.19
405.765	88.19
405.988	115.19
406.212	155.19
406.436	226.19
406.66	127.19
406.883	94.19
407.107	89.19
407.331	92.19
407.555	107.19
407.778	103.19
408.002	94.19
408.226	80.19
408.449	73.19
408.673	77.19
408.896	88.19
409.12	91.19
409.344	100.19
409.567	81.19
409.791	96.19
410.014	90.19
410.238	96.19
410.461	90.19
410.685	98.19
410.908	88.19
411.132	110.19
411.355	85.19
411.578	91.19
411.802	88.19
412.025	85.19
412.249	69.19
412.472	91.19
412.695	79.19
412.919	94.19
413.142	88.19
413.365	79.19
413.589	92.19
413.812	85.19
414.035	82.19
414.258	74.19
414.482	104.19
414.705	76.19
414.928	95.19
415.151	88.19
415.374	98.19
415.597	74.19
415.821	83.19
416.044	88.19
416.267	75.19
416.49	84.19
416.713	79.19
416.936	85.19
417.159	84.19
417.382	81.19
417.605	87.19
417.828	93.19
418.051	86.19
418.274	86.19
418.497	72.19
418.72	87.19
418.943	85.19
419.166	94.19
419.389	82.19
419.611	83.19
419.834	95.19
420.057	100.19
420.28	91.19
420.503	82.19
420.726	78.19
420.948	90.19
421.171	94.19
421.394	94.19
421.617	87.19
421.839	87.19
422.062	81.19
422.285	105.19
422.507	103.19
422.73	114.19
422.953	102.19
423.175	88.19
423.398	75.19
423.621	82.19
423.843	88.19
424.066	85.19
424.288	82.19
424.511	72.19
424.733	81.19
424.956	109.19
425.178	97.19
425.401	104.19
425.623	105.19
425.846	88.19
426.068	89.19
426.291	77.19
426.513	91.19
426.735	81.19
426.958	98.19
427.18	109.19
427.402	114.19
427.625	133.19
427.847	123.19
428.069	95.19
428.292	97.19
428.514	84.19
428.736	93.19
428.958	94.19
429.181	90.19
429.403	83.19
429.625	85.19
429.847	88.19
430.069	102.19
430.292	79.19
430.514	86.19
430.736	89.19
430.958	91.19
431.18	72.19
431.402	80.19
431.624	93.19
431.846	79.19
432.068	66.19
432.29	93.19
432.512	92.19
432.734	91.19
432.956	93.19
433.178	107.19
433.4	92.19
433.622	98.19
433.844	82.19
434.066	78.19
434.287	97.19
434.509	94.19
434.731	92.19
434.953	86.19
435.175	86.19
435.397	82.19
435.618	91.19
435.84	96.19
436.062	105.19
436.284	121.19
436.505	89.19
436.727	96.19
436.949	97.19
437.17	94.19
437.392	90.19
437.614	87.19
437.835	85.19
438.057	108.19
438.278	109.19
438.5	98.19
438.721	111.19
438.943	98.19
439.165	85.19
439.386	84.19
439.608	79.19
439.829	102.19
440.05	115.19
440.272	136.19
440.493	90.19
440.715	103.19
440.936	71.19
441.158	82.19
441.379	92.19
441.6	89.19
441.822	91.19
442.043	85.19
442.264	88.19
442.486	103.19
442.707	95.19
442.928	99.19
443.149	136.19
443.371	120.19
443.592	107.19
443.813	119.19
444.034	99.19
444.255	99.19
444.476	89.19
444.698	92.19
444.919	83.19
445.14	130.19
445.361	119.19
445.582	107.19
445.803	108.19
446.024	112.19
446.245	122.19
446.466	115.19
446.687	85.19
446.908	104.19
447.129	95.19
447.35	72.19
447.571	87.19
447.792	94.19
448.013	95.19
448.234	89.19
448.455	99.19
448.675	104.19
448.896	108.19
449.117	102.19
449.338	108.19
449.559	122.19
449.779	119.19
450	97.19
450.221	89.19
450.442	94.19
450.662	96.19
450.883	99.19
451.104	102.19
451.324	98.19
451.545	79.19
451.766	88.19
451.986	95.19
452.207	83.19
452.428	93.19
452.648	97.19
452.869	102.19
453.089	107.19
453.31	111.19
453.53	81.19
453.751	101.19
453.971	102.19
454.192	99.19
454.412	95.19
454.633	73.19
454.853	92.19
455.073	88.19
455.294	84.19
455.514	93.19
455.734	90.19
455.955	76.19
456.175	82.19
456.395	86.19
456.616	99.19
456.836	82.19
457.056	89.19
457.276	66.19
457.497	81.19
457.717	95.19
457.937	88.19
458.157	75.19
458.377	89.19
458.598	95.19
458.818	144.19
459.038	160.19
459.258	109.19
459.478	90.19
459.698	83.19
459.918	83.19
460.138	94.19
460.358	90.19
460.578	87.19
460.798	83.19
461.018	94.19
461.238	82.19
461.458	89.19
461.678	65.19
461.898	83.19
462.118	89.19
462.338	95.19
462.558	83.19
462.777	74.19
462.997	81.19
463.217	85.19
463.437	80.19
463.657	70.19
463.876	96.19
464.096	82.19
464.316	77.19
464.536	73.19
464.755	99.19
464.975	90.19
465.195	153.19
465.414	154.19
465.634	86.19
465.854	87.19
466.073	99.19
466.293	76.19
466.512	101.19
466.732	78.19
466.951	82.19
467.171	93.19
467.391	93.19
467.61	101.19
467.829	103.19
468.049	75.19
468.268	93.19
468.488	94.19
468.707	88.19
468.927	59.19
469.146	86.19
469.365	83.19
469.585	94.19
469.804	81.19
470.023	91.19
470.243	92.19
470.462	103.19
470.681	105.19
470.901	81.19
471.12	71.19
471.339	90.19
471.558	79.19
471.777	83.19
471.997	87.19
472.216	85.19
472.435	81.19
472.654	89.19
472.873	79.19
473.092	90.19
473.311	85.19
473.53	81.19
473.749	81.19
473.968	95.19
474.187	106.19
474.406	90.19
474.625	90.19
474.844	74.19
475.063	93.19
475.282	77.19
475.501	90.19
475.72	86.19
475.939	79.19
476.158	79.19
476.377	103.19
476.596	80.19
476.814	80.19
477.033	74.19
477.252	78.19
477.471	78.19
477.69	75.19
477.908	99.19
478.127	86.19
478.346	91.19
478.564	88.19
478.783	98.19
479.002	97.19
479.22	92.19
479.439	117.19
479.658	91.19
479.876	90.19
480.095	103.19
480.313	110.19
480.532	62.19
480.751	89.19
480.969	85.19
481.188	92.19
481.406	97.19
481.624	82.19
481.843	71.19
482.061	85.19
482.28	96.19
482.498	86.19
482.717	107.19
482.935	85.19
483.153	104.19
483.372	88.19
483.59	85.19
483.808	105.19
484.027	98.19
484.245	88.19
484.463	87.19
484.681	92.19
484.9	87.19
485.118	94.19
485.336	92.19
485.554	99.19
485.772	101.19
485.99	94.19
486.209	104.19
486.427	110.19
486.645	98.19
486.863	109.19
487.081	105.19
487.299	91.19
487.517	105.19
487.735	101.19
487.953	105.19
488.171	84.19
488.389	94.19
488.607	98.19
488.825	93.19
489.043	95.19
489.261	92.19
489.479	90.19
489.696	76.19
489.914	90.19
490.132	85.19
490.35	87.19
490.568	105.19
490.786	88.19
491.003	82.19
491.221	92.19
491.439	95.19
491.657	79.19
491.874	97.19
492.092	91.19
492.31	95.19
492.527	89.19
492.745	88.19
492.963	76.19
493.18	94.19
493.398	93.19
493.615	95.19
493.833	117.19
494.05	81.19
494.268	94.19
494.485	79.19
494.703	93.19
494.92	94.19
495.138	104.19
495.355	86.19
495.573	82.19
495.79	90.19
496.008	108.19
496.225	99.19
496.442	82.19
496.66	94.19
496.877	77.19
497.094	98.19
497.312	94.19
497.529	79.19
497.746	106.19
497.963	75.19
498.181	101.19
498.398	107.19
498.615	105.19
498.832	98.19
499.049	104.19
499.267	75.19
499.484	85.19
499.701	84.19
499.918	80.19
500.135	91.19
500.352	76.19
500.569	103.19
500.786	83.19
501.003	93.19
501.22	93.19
501.437	81.19
501.654	94.19
501.871	98.19
502.088	89.19
502.305	86.19
502.522	88.19
502.739	96.19
502.956	85.19
503.172	87.19
503.389	90.19
503.606	106.19
503.823	93.19
504.04	94.19
504.256	90.19
504.473	85.19
504.69	84.19
504.907	93.19
505.123	83.19
505.34	86.19
505.557	87.19
505.773	91.19
505.99	76.19
506.207	78.19
506.423	91.19
506.64	88.19
506.856	93.19
507.073	99.19
507.289	84.19
507.506	98.19
507.722	109.19
507.939	102.19
508.155	102.19
508.372	101.19
508.588	81.19
508.805	102.19
509.021	97.19
509.238	103.19
509.454	101.19
509.67	110.19
509.887	95.19
510.103	134.19
510.319	194.19
510.536	734.19
510.752	2215.19
510.968	610.19
511.184	155.19
511.401	107.19
511.617	93.19
511.833	89.19
512.049	99.19
512.265	105.19
512.481	85.19
512.698	86.19
512.914	72.19
513.13	102.19
513.346	111.19
513.562	86.19
513.778	89.19
513.994	92.19
514.21	85.19
514.426	109.19
514.642	116.19
514.858	117.19
515.074	162.19
515.29	425.19
515.506	1334.19
515.721	477.19
515.937	153.19
516.153	93.19
516.369	85.19
516.585	85.19
