Data from Uncirc_1994_H10_HRD10591_00056.txt Node
Date: Wed Jan 03 11:39:32 EST 2024
User: Yrep
Spectrometer: HR+D1059
Trigger mode: 1
Integration Time (sec): 1.000000E-1
Scans to average: 1
Electric dark correction enabled: true
Nonlinearity correction enabled: false
Boxcar width: 0
XAxis mode: Wavelengths
Number of Pixels in Spectrum: 2048
>>>>>Begin Spectral Data<<<<<
223.165	-23.5
223.4	-23.5
223.635	-23.5
223.869	-19.5
224.104	-12.5
224.338	-14.5
224.573	-12.5
224.808	-20.5
225.042	-16.5
225.277	-20.5
225.511	-1.5
225.746	6.5
225.98	14.5
226.215	16.5
226.449	14.5
226.683	20.5
226.918	22.5
227.152	46.5
227.387	21.5
227.621	40.5
227.856	35.5
228.09	46.5
228.324	67.5
228.559	57.5
228.793	67.5
229.027	64.5
229.262	79.5
229.496	80.5
229.73	69.5
229.964	82.5
230.199	70.5
230.433	79.5
230.667	65.5
230.901	80.5
231.136	79.5
231.37	87.5
231.604	70.5
231.838	91.5
232.072	72.5
232.306	79.5
232.541	76.5
232.775	76.5
233.009	89.5
233.243	79.5
233.477	83.5
233.711	87.5
233.945	83.5
234.179	84.5
234.413	73.5
234.647	80.5
234.881	77.5
235.115	82.5
235.349	75.5
235.583	91.5
235.817	72.5
236.051	73.5
236.285	78.5
236.519	87.5
236.753	79.5
236.987	77.5
237.221	70.5
237.455	73.5
237.689	79.5
237.922	76.5
238.156	65.5
238.39	79.5
238.624	63.5
238.858	82.5
239.091	79.5
239.325	79.5
239.559	77.5
239.793	62.5
240.027	74.5
240.26	60.5
240.494	85.5
240.728	87.5
240.961	78.5
241.195	73.5
241.429	74.5
241.662	68.5
241.896	92.5
242.13	84.5
242.363	71.5
242.597	82.5
242.83	78.5
243.064	71.5
243.298	75.5
243.531	94.5
243.765	74.5
243.998	67.5
244.232	74.5
244.465	72.5
244.699	76.5
244.932	71.5
245.166	70.5
245.399	83.5
245.633	85.5
245.866	43.5
246.099	80.5
246.333	67.5
246.566	65.5
246.8	79.5
247.033	63.5
247.266	73.5
247.5	63.5
247.733	72.5
247.966	81.5
248.2	80.5
248.433	76.5
248.666	80.5
248.899	73.5
249.133	89.5
249.366	96.5
249.599	92.5
249.832	86.5
250.066	82.5
250.299	79.5
250.532	82.5
250.765	78.5
250.998	83.5
251.231	67.5
251.465	78.5
251.698	78.5
251.931	80.5
252.164	80.5
252.397	72.5
252.63	80.5
252.863	78.5
253.096	89.5
253.329	88.5
253.562	81.5
253.795	89.5
254.028	75.5
254.261	91.5
254.494	75.5
254.727	77.5
254.96	75.5
255.193	79.5
255.426	90.5
255.659	95.5
255.892	80.5
256.124	75.5
256.357	86.5
256.59	91.5
256.823	82.5
257.056	69.5
257.289	71.5
257.521	95.5
257.754	92.5
257.987	77.5
258.22	76.5
258.452	86.5
258.685	91.5
258.918	84.5
259.151	73.5
259.383	91.5
259.616	66.5
259.849	70.5
260.081	74.5
260.314	75.5
260.547	90.5
260.779	78.5
261.012	89.5
261.244	88.5
261.477	83.5
261.71	83.5
261.942	108.5
262.175	111.5
262.407	84.5
262.64	102.5
262.872	80.5
263.105	87.5
263.337	87.5
263.57	75.5
263.802	84.5
264.035	81.5
264.267	85.5
264.499	85.5
264.732	81.5
264.964	83.5
265.197	75.5
265.429	62.5
265.661	72.5
265.894	86.5
266.126	93.5
266.358	77.5
266.591	88.5
266.823	79.5
267.055	74.5
267.287	83.5
267.52	87.5
267.752	89.5
267.984	83.5
268.216	87.5
268.448	82.5
268.681	63.5
268.913	82.5
269.145	79.5
269.377	66.5
269.609	86.5
269.841	87.5
270.073	76.5
270.306	81.5
270.538	83.5
270.77	97.5
271.002	87.5
271.234	77.5
271.466	82.5
271.698	93.5
271.93	72.5
272.162	86.5
272.394	89.5
272.626	86.5
272.858	94.5
273.09	83.5
273.322	79.5
273.553	91.5
273.785	95.5
274.017	69.5
274.249	75.5
274.481	90.5
274.713	78.5
274.945	87.5
275.176	82.5
275.408	82.5
275.64	84.5
275.872	75.5
276.104	89.5
276.335	88.5
276.567	95.5
276.799	113.5
277.031	95.5
277.262	97.5
277.494	88.5
277.726	96.5
277.957	82.5
278.189	77.5
278.421	79.5
278.652	88.5
278.884	74.5
279.115	86.5
279.347	86.5
279.579	78.5
279.81	80.5
280.042	75.5
280.273	102.5
280.505	87.5
280.736	84.5
280.968	91.5
281.199	75.5
281.431	84.5
281.662	90.5
281.894	94.5
282.125	104.5
282.356	101.5
282.588	127.5
282.819	120.5
283.051	89.5
283.282	91.5
283.513	83.5
283.745	99.5
283.976	92.5
284.207	87.5
284.439	83.5
284.67	79.5
284.901	96.5
285.132	81.5
285.364	80.5
285.595	96.5
285.826	92.5
286.057	82.5
286.288	91.5
286.52	96.5
286.751	79.5
286.982	85.5
287.213	71.5
287.444	78.5
287.675	90.5
287.906	87.5
288.138	87.5
288.369	81.5
288.6	84.5
288.831	76.5
289.062	89.5
289.293	76.5
289.524	89.5
289.755	84.5
289.986	80.5
290.217	75.5
290.448	83.5
290.679	87.5
290.91	77.5
291.141	98.5
291.371	87.5
291.602	78.5
291.833	88.5
292.064	79.5
292.295	85.5
292.526	71.5
292.757	97.5
292.987	94.5
293.218	94.5
293.449	97.5
293.68	91.5
293.91	87.5
294.141	82.5
294.372	96.5
294.603	94.5
294.833	88.5
295.064	94.5
295.295	79.5
295.525	70.5
295.756	117.5
295.987	121.5
296.217	123.5
296.448	110.5
296.679	96.5
296.909	96.5
297.14	94.5
297.37	88.5
297.601	82.5
297.831	82.5
298.062	92.5
298.292	84.5
298.523	89.5
298.753	79.5
298.984	84.5
299.214	78.5
299.445	92.5
299.675	91.5
299.905	102.5
300.136	92.5
300.366	102.5
300.597	84.5
300.827	103.5
301.057	95.5
301.288	99.5
301.518	98.5
301.748	99.5
301.979	82.5
302.209	95.5
302.439	78.5
302.669	80.5
302.9	85.5
303.13	94.5
303.36	93.5
303.59	106.5
303.82	103.5
304.051	100.5
304.281	74.5
304.511	81.5
304.741	97.5
304.971	94.5
305.201	93.5
305.431	84.5
305.661	94.5
305.891	89.5
306.121	87.5
306.352	104.5
306.582	92.5
306.812	97.5
307.042	95.5
307.272	90.5
307.502	91.5
307.731	90.5
307.961	83.5
308.191	70.5
308.421	79.5
308.651	82.5
308.881	96.5
309.111	95.5
309.341	106.5
309.571	100.5
309.8	98.5
310.03	90.5
310.26	93.5
310.49	87.5
310.72	101.5
310.949	105.5
311.179	82.5
311.409	92.5
311.639	83.5
311.868	98.5
312.098	89.5
312.328	87.5
312.557	95.5
312.787	96.5
313.017	102.5
313.246	93.5
313.476	88.5
313.706	91.5
313.935	84.5
314.165	102.5
314.394	98.5
314.624	80.5
314.853	94.5
315.083	89.5
315.312	89.5
315.542	92.5
315.771	106.5
316.001	89.5
316.23	81.5
316.46	86.5
316.689	97.5
316.919	95.5
317.148	82.5
317.377	100.5
317.607	97.5
317.836	82.5
318.065	85.5
318.295	85.5
318.524	77.5
318.753	98.5
318.983	103.5
319.212	98.5
319.441	104.5
319.67	94.5
319.9	102.5
320.129	87.5
320.358	84.5
320.587	80.5
320.816	113.5
321.046	105.5
321.275	107.5
321.504	96.5
321.733	83.5
321.962	86.5
322.191	110.5
322.42	110.5
322.649	105.5
322.878	105.5
323.108	104.5
323.337	105.5
323.566	123.5
323.795	150.5
324.024	181.5
324.253	341.5
324.482	728.5
324.71	1470.5
324.939	1944.5
325.168	718.5
325.397	223.5
325.626	154.5
325.855	122.5
326.084	114.5
326.313	119.5
326.542	152.5
326.77	216.5
326.999	406.5
327.228	842.5
327.457	1538.5
327.686	1211.5
327.914	334.5
328.143	202.5
328.372	136.5
328.6	123.5
328.829	99.5
329.058	104.5
329.287	126.5
329.515	107.5
329.744	114.5
329.972	110.5
330.201	110.5
330.43	108.5
330.658	108.5
330.887	135.5
331.115	111.5
331.344	101.5
331.572	111.5
331.801	100.5
332.03	106.5
332.258	98.5
332.486	89.5
332.715	87.5
332.943	102.5
333.172	91.5
333.4	93.5
333.629	87.5
333.857	109.5
334.085	101.5
334.314	95.5
334.542	100.5
334.771	91.5
334.999	83.5
335.227	100.5
335.455	90.5
335.684	102.5
335.912	95.5
336.14	95.5
336.369	99.5
336.597	95.5
336.825	91.5
337.053	96.5
337.281	95.5
337.51	77.5
337.738	87.5
337.966	89.5
338.194	90.5
338.422	87.5
338.65	90.5
338.878	81.5
339.106	104.5
339.334	79.5
339.562	81.5
339.79	96.5
340.018	91.5
340.246	94.5
340.474	94.5
340.702	95.5
340.93	86.5
341.158	89.5
341.386	88.5
341.614	84.5
341.842	90.5
342.07	101.5
342.298	92.5
342.526	89.5
342.754	91.5
342.981	82.5
343.209	99.5
343.437	87.5
343.665	99.5
343.893	86.5
344.12	104.5
344.348	105.5
344.576	78.5
344.804	103.5
345.031	87.5
345.259	86.5
345.487	88.5
345.714	92.5
345.942	89.5
346.17	79.5
346.397	76.5
346.625	82.5
346.853	91.5
347.08	85.5
347.308	97.5
347.535	97.5
347.763	96.5
347.99	96.5
348.218	98.5
348.445	92.5
348.673	89.5
348.9	90.5
349.128	96.5
349.355	96.5
349.583	92.5
349.81	91.5
350.037	85.5
350.265	91.5
350.492	89.5
350.72	99.5
350.947	96.5
351.174	111.5
351.402	97.5
351.629	83.5
351.856	99.5
352.083	98.5
352.311	102.5
352.538	80.5
352.765	100.5
352.992	110.5
353.22	99.5
353.447	95.5
353.674	110.5
353.901	93.5
354.128	85.5
354.355	108.5
354.583	102.5
354.81	86.5
355.037	94.5
355.264	97.5
355.491	98.5
355.718	97.5
355.945	89.5
356.172	88.5
356.399	97.5
356.626	88.5
356.853	89.5
357.08	101.5
357.307	93.5
357.534	83.5
357.761	99.5
357.988	89.5
358.215	111.5
358.441	102.5
358.668	99.5
358.895	80.5
359.122	100.5
359.349	87.5
359.576	97.5
359.802	95.5
360.029	115.5
360.256	92.5
360.483	98.5
360.709	85.5
360.936	91.5
361.163	105.5
361.39	94.5
361.616	91.5
361.843	90.5
362.07	87.5
362.296	92.5
362.523	93.5
362.749	97.5
362.976	98.5
363.203	90.5
363.429	73.5
363.656	90.5
363.882	99.5
364.109	91.5
364.335	86.5
364.562	97.5
364.788	91.5
365.015	104.5
365.241	97.5
365.468	99.5
365.694	97.5
365.92	83.5
366.147	83.5
366.373	73.5
366.599	91.5
366.826	91.5
367.052	92.5
367.278	93.5
367.505	77.5
367.731	85.5
367.957	82.5
368.184	89.5
368.41	96.5
368.636	99.5
368.862	112.5
369.089	97.5
369.315	91.5
369.541	108.5
369.767	94.5
369.993	68.5
370.219	87.5
370.445	76.5
370.672	78.5
370.898	94.5
371.124	90.5
371.35	91.5
371.576	91.5
371.802	88.5
372.028	79.5
372.254	92.5
372.48	80.5
372.706	86.5
372.932	90.5
373.158	94.5
373.384	73.5
373.61	92.5
373.835	79.5
374.061	87.5
374.287	92.5
374.513	78.5
374.739	86.5
374.965	92.5
375.191	101.5
375.416	84.5
375.642	92.5
375.868	83.5
376.094	81.5
376.319	83.5
376.545	82.5
376.771	89.5
376.997	92.5
377.222	76.5
377.448	98.5
377.674	95.5
377.899	82.5
378.125	99.5
378.35	89.5
378.576	87.5
378.802	102.5
379.027	90.5
379.253	94.5
379.478	87.5
379.704	91.5
379.929	92.5
380.155	82.5
380.38	92.5
380.606	91.5
380.831	95.5
381.057	84.5
381.282	85.5
381.507	85.5
381.733	96.5
381.958	88.5
382.184	90.5
382.409	110.5
382.634	81.5
382.86	86.5
383.085	95.5
383.31	91.5
383.535	95.5
383.761	91.5
383.986	112.5
384.211	86.5
384.436	86.5
384.662	103.5
384.887	99.5
385.112	94.5
385.337	86.5
385.562	97.5
385.787	96.5
386.013	99.5
386.238	103.5
386.463	110.5
386.688	108.5
386.913	99.5
387.138	99.5
387.363	102.5
387.588	105.5
387.813	94.5
388.038	89.5
388.263	92.5
388.488	85.5
388.713	75.5
388.938	87.5
389.163	86.5
389.387	87.5
389.612	82.5
389.837	98.5
390.062	95.5
390.287	102.5
390.512	84.5
390.736	80.5
390.961	91.5
391.186	88.5
391.411	105.5
391.636	93.5
391.86	75.5
392.085	91.5
392.31	89.5
392.534	95.5
392.759	96.5
392.984	98.5
393.208	97.5
393.433	79.5
393.658	81.5
393.882	97.5
394.107	86.5
394.331	85.5
394.556	88.5
394.78	97.5
395.005	86.5
395.229	92.5
395.454	74.5
395.678	85.5
395.903	91.5
396.127	94.5
396.352	91.5
396.576	95.5
396.801	90.5
397.025	91.5
397.249	75.5
397.474	87.5
397.698	92.5
397.922	86.5
398.147	84.5
398.371	77.5
398.595	75.5
398.82	79.5
399.044	93.5
399.268	76.5
399.492	83.5
399.717	94.5
399.941	73.5
400.165	96.5
400.389	91.5
400.613	92.5
400.837	91.5
401.062	88.5
401.286	89.5
401.51	108.5
401.734	84.5
401.958	84.5
402.182	115.5
402.406	141.5
402.63	108.5
402.854	96.5
403.078	94.5
403.302	90.5
403.526	91.5
403.75	96.5
403.974	83.5
404.198	87.5
404.422	79.5
404.645	83.5
404.869	83.5
405.093	82.5
405.317	79.5
405.541	84.5
405.765	101.5
405.988	113.5
406.212	158.5
406.436	188.5
406.66	126.5
406.883	92.5
407.107	93.5
407.331	86.5
407.555	75.5
407.778	87.5
408.002	79.5
408.226	90.5
408.449	80.5
408.673	92.5
408.896	88.5
409.12	106.5
409.344	96.5
409.567	74.5
409.791	94.5
410.014	92.5
410.238	91.5
410.461	105.5
410.685	90.5
410.908	108.5
411.132	104.5
411.355	106.5
411.578	104.5
411.802	85.5
412.025	105.5
412.249	99.5
412.472	95.5
412.695	85.5
412.919	80.5
413.142	92.5
413.365	91.5
413.589	86.5
413.812	94.5
414.035	91.5
414.258	86.5
414.482	88.5
414.705	85.5
414.928	92.5
415.151	95.5
415.374	94.5
415.597	96.5
415.821	80.5
416.044	92.5
416.267	104.5
416.49	104.5
416.713	90.5
416.936	98.5
417.159	92.5
417.382	90.5
417.605	91.5
417.828	95.5
418.051	93.5
418.274	95.5
418.497	91.5
418.72	99.5
418.943	90.5
419.166	87.5
419.389	91.5
419.611	75.5
419.834	90.5
420.057	89.5
420.28	88.5
420.503	85.5
420.726	90.5
420.948	78.5
421.171	103.5
421.394	98.5
421.617	87.5
421.839	98.5
422.062	94.5
422.285	94.5
422.507	97.5
422.73	107.5
422.953	104.5
423.175	90.5
423.398	97.5
423.621	96.5
423.843	77.5
424.066	93.5
424.288	78.5
424.511	97.5
424.733	100.5
424.956	95.5
425.178	109.5
425.401	86.5
425.623	90.5
425.846	84.5
426.068	95.5
426.291	87.5
426.513	97.5
426.735	85.5
426.958	94.5
427.18	97.5
427.402	129.5
427.625	155.5
427.847	115.5
428.069	102.5
428.292	83.5
428.514	97.5
428.736	86.5
428.958	87.5
429.181	79.5
429.403	83.5
429.625	100.5
429.847	87.5
430.069	96.5
430.292	93.5
430.514	94.5
430.736	90.5
430.958	89.5
431.18	86.5
431.402	82.5
431.624	89.5
431.846	93.5
432.068	89.5
432.29	76.5
432.512	89.5
432.734	90.5
432.956	81.5
433.178	97.5
433.4	108.5
433.622	88.5
433.844	88.5
434.066	98.5
434.287	98.5
434.509	78.5
434.731	80.5
434.953	81.5
435.175	87.5
435.397	95.5
435.618	105.5
435.84	97.5
436.062	114.5
436.284	99.5
436.505	92.5
436.727	100.5
436.949	97.5
437.17	84.5
437.392	80.5
437.614	72.5
437.835	111.5
438.057	111.5
438.278	87.5
438.5	101.5
438.721	108.5
438.943	108.5
439.165	90.5
439.386	70.5
439.608	98.5
439.829	82.5
440.05	110.5
440.272	118.5
440.493	87.5
440.715	92.5
440.936	87.5
441.158	90.5
441.379	97.5
441.6	93.5
441.822	89.5
442.043	88.5
442.264	91.5
442.486	98.5
442.707	89.5
442.928	98.5
443.149	106.5
443.371	129.5
443.592	105.5
443.813	113.5
444.034	103.5
444.255	90.5
444.476	78.5
444.698	89.5
444.919	92.5
445.14	134.5
445.361	122.5
445.582	103.5
445.803	118.5
446.024	124.5
446.245	113.5
446.466	112.5
446.687	87.5
446.908	82.5
447.129	91.5
447.35	84.5
447.571	88.5
447.792	99.5
448.013	100.5
448.234	119.5
448.455	81.5
448.675	99.5
448.896	118.5
449.117	109.5
449.338	95.5
449.559	119.5
449.779	131.5
450	99.5
450.221	84.5
450.442	89.5
450.662	91.5
450.883	94.5
451.104	97.5
451.324	80.5
451.545	78.5
451.766	78.5
451.986	71.5
452.207	95.5
452.428	90.5
452.648	101.5
452.869	108.5
453.089	114.5
453.31	97.5
453.53	75.5
453.751	89.5
453.971	90.5
454.192	107.5
454.412	91.5
454.633	77.5
454.853	87.5
455.073	96.5
455.294	101.5
455.514	93.5
455.734	82.5
455.955	81.5
456.175	88.5
456.395	81.5
456.616	79.5
456.836	86.5
457.056	81.5
457.276	88.5
457.497	88.5
457.717	83.5
457.937	91.5
458.157	91.5
458.377	84.5
458.598	92.5
458.818	121.5
459.038	152.5
459.258	118.5
459.478	90.5
459.698	81.5
459.918	79.5
460.138	81.5
460.358	86.5
460.578	78.5
460.798	87.5
461.018	93.5
461.238	83.5
461.458	79.5
461.678	96.5
461.898	84.5
462.118	91.5
462.338	98.5
462.558	88.5
462.777	79.5
462.997	74.5
463.217	88.5
463.437	89.5
463.657	78.5
463.876	80.5
464.096	98.5
464.316	94.5
464.536	96.5
464.755	96.5
464.975	91.5
465.195	144.5
465.414	134.5
465.634	89.5
465.854	81.5
466.073	80.5
466.293	83.5
466.512	68.5
466.732	79.5
466.951	77.5
467.171	84.5
467.391	94.5
467.61	98.5
467.829	105.5
468.049	77.5
468.268	88.5
468.488	81.5
468.707	90.5
468.927	85.5
469.146	75.5
469.365	72.5
469.585	84.5
469.804	77.5
470.023	96.5
470.243	98.5
470.462	98.5
470.681	100.5
470.901	87.5
471.12	89.5
471.339	80.5
471.558	98.5
471.777	88.5
471.997	84.5
472.216	91.5
472.435	89.5
472.654	88.5
472.873	95.5
473.092	81.5
473.311	75.5
473.53	93.5
473.749	83.5
473.968	83.5
474.187	94.5
474.406	97.5
474.625	79.5
474.844	93.5
475.063	103.5
475.282	88.5
475.501	87.5
475.72	90.5
475.939	98.5
476.158	79.5
476.377	84.5
476.596	86.5
476.814	68.5
477.033	76.5
477.252	86.5
477.471	76.5
477.69	82.5
477.908	73.5
478.127	78.5
478.346	89.5
478.564	79.5
478.783	92.5
479.002	93.5
479.22	83.5
479.439	92.5
479.658	95.5
479.876	94.5
480.095	66.5
480.313	85.5
480.532	89.5
480.751	89.5
480.969	90.5
481.188	79.5
481.406	82.5
481.624	82.5
481.843	70.5
482.061	87.5
482.28	89.5
482.498	90.5
482.717	92.5
482.935	81.5
483.153	78.5
483.372	76.5
483.59	89.5
483.808	83.5
484.027	83.5
484.245	96.5
484.463	88.5
484.681	100.5
484.9	87.5
485.118	97.5
485.336	82.5
485.554	103.5
485.772	98.5
485.99	84.5
486.209	97.5
486.427	112.5
486.645	107.5
486.863	97.5
487.081	112.5
487.299	90.5
487.517	95.5
487.735	90.5
487.953	86.5
488.171	94.5
488.389	95.5
488.607	90.5
488.825	98.5
489.043	78.5
489.261	104.5
489.479	90.5
489.696	97.5
489.914	94.5
490.132	97.5
490.35	92.5
490.568	84.5
490.786	81.5
491.003	77.5
491.221	96.5
491.439	90.5
491.657	100.5
491.874	88.5
492.092	96.5
492.31	89.5
492.527	89.5
492.745	84.5
492.963	97.5
493.18	105.5
493.398	95.5
493.615	91.5
493.833	89.5
494.05	94.5
494.268	98.5
494.485	92.5
494.703	63.5
494.92	73.5
495.138	88.5
495.355	89.5
495.573	94.5
495.79	92.5
496.008	85.5
496.225	86.5
496.442	93.5
496.66	91.5
496.877	86.5
497.094	89.5
497.312	83.5
497.529	84.5
497.746	87.5
497.963	92.5
498.181	100.5
498.398	108.5
498.615	95.5
498.832	102.5
499.049	81.5
499.267	94.5
499.484	66.5
499.701	96.5
499.918	82.5
500.135	97.5
500.352	98.5
500.569	74.5
500.786	97.5
501.003	78.5
501.22	82.5
501.437	87.5
501.654	99.5
501.871	94.5
502.088	91.5
502.305	79.5
502.522	85.5
502.739	80.5
502.956	93.5
503.172	95.5
503.389	103.5
503.606	106.5
503.823	88.5
504.04	78.5
504.256	84.5
504.473	91.5
504.69	84.5
504.907	96.5
505.123	87.5
505.34	90.5
505.557	79.5
505.773	81.5
505.99	87.5
506.207	96.5
506.423	88.5
506.64	97.5
506.856	94.5
507.073	102.5
507.289	88.5
507.506	88.5
507.722	105.5
507.939	93.5
508.155	99.5
508.372	94.5
508.588	96.5
508.805	89.5
509.021	104.5
509.238	100.5
509.454	98.5
509.67	93.5
509.887	99.5
510.103	132.5
510.319	204.5
510.536	678.5
510.752	2056.5
510.968	565.5
511.184	158.5
511.401	102.5
511.617	98.5
511.833	81.5
512.049	88.5
512.265	93.5
512.481	85.5
512.698	93.5
512.914	88.5
513.13	83.5
513.346	81.5
513.562	96.5
513.778	97.5
513.994	97.5
514.21	96.5
514.426	111.5
514.642	110.5
514.858	111.5
515.074	148.5
515.29	396.5
515.506	1258.5
515.721	461.5
515.937	136.5
516.153	111.5
516.369	101.5
516.585	91.5
516.801	95.5
517.016	100.5
517.232	100.5
517.448	91.5
517.664	97.5
517.879	94.5
518.095	94.5
518.311	105.5
518.527	92.5
518.742	95.5
518.958	92.5
519.173	111.5
519.389	95.5
519.605	98.5
519.82	87.5
520.036	93.5
520.251	112.5
520.467	117.5
520.682	102.5
520.898	92.5
521.113	89.5
521.329	121.5
521.544	181.5
521.76	496.5
521.975	2070.5
522.19	1202.5
522.406	274.5
522.621	124.5
522.836	90.5
523.052	93.5
523.267	105.5
523.482	88.5
523.698	99.5
523.913	105.5
524.128	105.5
524.343	95.5
524.559	84.5
524.774	79.5
524.989	90.5
525.204	99.5
525.419	83.5
525.634	90.5
525.849	99.5
526.064	92.5
526.28	98.5
526.495	101.5
526.71	84.5
526.925	95.5
527.14	87.5
527.355	79.5
527.57	76.5
527.785	85.5
527.999	72.5
528.214	87.5
528.429	96.5
528.644	78.5
528.859	97.5
529.074	81.5
529.289	110.5
529.503	158.5
529.718	103.5
529.933	99.5
530.148	83.5
530.363	84.5
530.577	93.5
530.792	80.5
531.007	86.5
531.221	102.5
531.436	93.5
531.651	91.5
531.865	86.5
532.08	100.5
532.295	82.5
532.509	96.5
532.724	73.5
532.938	99.5
533.153	104.5
533.367	87.5
533.582	90.5
533.796	87.5
534.011	91.5
534.225	82.5
534.44	87.5
534.654	95.5
534.868	75.5
535.083	88.5
535.297	92.5
535.511	89.5
535.726	105.5
535.94	86.5
536.154	90.5
536.369	87.5
536.583	91.5
