Data from Uncirc_1994_H10_HRD10591_00032.txt Node
Date: Wed Jan 03 11:39:27 EST 2024
User: Yrep
Spectrometer: HR+D1059
Trigger mode: 1
Integration Time (sec): 1.000000E-1
Scans to average: 1
Electric dark correction enabled: true
Nonlinearity correction enabled: false
Boxcar width: 0
XAxis mode: Wavelengths
Number of Pixels in Spectrum: 2048
>>>>>Begin Spectral Data<<<<<
223.165	-25.44
223.4	-25.44
223.635	-25.44
223.869	-15.44
224.104	-20.44
224.338	-9.44
224.573	-9.44
224.808	-9.44
225.042	-16.44
225.277	1.56
225.511	-5.44
225.746	-13.44
225.98	7.56
226.215	12.56
226.449	20.56
226.683	19.56
226.918	31.56
227.152	31.56
227.387	36.56
227.621	47.56
227.856	61.56
228.09	41.56
228.324	61.56
228.559	60.56
228.793	72.56
229.027	63.56
229.262	64.56
229.496	67.56
229.73	81.56
229.964	94.56
230.199	83.56
230.433	81.56
230.667	79.56
230.901	94.56
231.136	74.56
231.37	92.56
231.604	80.56
231.838	93.56
232.072	87.56
232.306	81.56
232.541	83.56
232.775	91.56
233.009	82.56
233.243	88.56
233.477	82.56
233.711	99.56
233.945	95.56
234.179	74.56
234.413	88.56
234.647	83.56
234.881	83.56
235.115	82.56
235.349	98.56
235.583	89.56
235.817	73.56
236.051	87.56
236.285	73.56
236.519	85.56
236.753	85.56
236.987	100.56
237.221	96.56
237.455	103.56
237.689	83.56
237.922	80.56
238.156	72.56
238.39	71.56
238.624	92.56
238.858	79.56
239.091	85.56
239.325	84.56
239.559	79.56
239.793	100.56
240.027	73.56
240.26	78.56
240.494	75.56
240.728	85.56
240.961	80.56
241.195	96.56
241.429	69.56
241.662	80.56
241.896	69.56
242.13	80.56
242.363	81.56
242.597	64.56
242.83	69.56
243.064	81.56
243.298	71.56
243.531	91.56
243.765	83.56
243.998	82.56
244.232	94.56
244.465	81.56
244.699	85.56
244.932	80.56
245.166	80.56
245.399	81.56
245.633	90.56
245.866	97.56
246.099	83.56
246.333	79.56
246.566	78.56
246.8	87.56
247.033	91.56
247.266	82.56
247.5	89.56
247.733	85.56
247.966	80.56
248.2	86.56
248.433	84.56
248.666	81.56
248.899	81.56
249.133	84.56
249.366	96.56
249.599	108.56
249.832	87.56
250.066	102.56
250.299	82.56
250.532	72.56
250.765	89.56
250.998	86.56
251.231	92.56
251.465	100.56
251.698	78.56
251.931	65.56
252.164	84.56
252.397	81.56
252.63	86.56
252.863	85.56
253.096	68.56
253.329	78.56
253.562	75.56
253.795	79.56
254.028	89.56
254.261	72.56
254.494	80.56
254.727	85.56
254.96	90.56
255.193	87.56
255.426	96.56
255.659	87.56
255.892	78.56
256.124	86.56
256.357	86.56
256.59	82.56
256.823	89.56
257.056	82.56
257.289	80.56
257.521	83.56
257.754	74.56
257.987	87.56
258.22	83.56
258.452	79.56
258.685	88.56
258.918	83.56
259.151	95.56
259.383	86.56
259.616	92.56
259.849	85.56
260.081	79.56
260.314	78.56
260.547	75.56
260.779	84.56
261.012	107.56
261.244	90.56
261.477	81.56
261.71	91.56
261.942	115.56
262.175	100.56
262.407	97.56
262.64	94.56
262.872	89.56
263.105	89.56
263.337	81.56
263.57	91.56
263.802	93.56
264.035	87.56
264.267	87.56
264.499	88.56
264.732	92.56
264.964	87.56
265.197	88.56
265.429	88.56
265.661	98.56
265.894	100.56
266.126	90.56
266.358	103.56
266.591	90.56
266.823	87.56
267.055	88.56
267.287	84.56
267.52	92.56
267.752	87.56
267.984	110.56
268.216	90.56
268.448	73.56
268.681	105.56
268.913	89.56
269.145	82.56
269.377	80.56
269.609	83.56
269.841	79.56
270.073	90.56
270.306	96.56
270.538	79.56
270.77	84.56
271.002	96.56
271.234	88.56
271.466	85.56
271.698	77.56
271.93	89.56
272.162	78.56
272.394	89.56
272.626	89.56
272.858	82.56
273.09	79.56
273.322	84.56
273.553	94.56
273.785	105.56
274.017	93.56
274.249	109.56
274.481	94.56
274.713	106.56
274.945	86.56
275.176	89.56
275.408	90.56
275.64	91.56
275.872	101.56
276.104	99.56
276.335	91.56
276.567	107.56
276.799	121.56
277.031	95.56
277.262	101.56
277.494	96.56
277.726	101.56
277.957	83.56
278.189	86.56
278.421	84.56
278.652	83.56
278.884	93.56
279.115	101.56
279.347	89.56
279.579	81.56
279.81	90.56
280.042	93.56
280.273	95.56
280.505	95.56
280.736	96.56
280.968	93.56
281.199	91.56
281.431	105.56
281.662	90.56
281.894	91.56
282.125	102.56
282.356	111.56
282.588	136.56
282.819	110.56
283.051	96.56
283.282	99.56
283.513	102.56
283.745	102.56
283.976	91.56
284.207	85.56
284.439	93.56
284.67	102.56
284.901	97.56
285.132	83.56
285.364	80.56
285.595	84.56
285.826	86.56
286.057	86.56
286.288	95.56
286.52	94.56
286.751	79.56
286.982	93.56
287.213	83.56
287.444	84.56
287.675	99.56
287.906	81.56
288.138	85.56
288.369	103.56
288.6	81.56
288.831	105.56
289.062	110.56
289.293	104.56
289.524	98.56
289.755	102.56
289.986	97.56
290.217	99.56
290.448	82.56
290.679	109.56
290.91	90.56
291.141	94.56
291.371	97.56
291.602	98.56
291.833	96.56
292.064	99.56
292.295	83.56
292.526	105.56
292.757	95.56
292.987	96.56
293.218	91.56
293.449	115.56
293.68	103.56
293.91	93.56
294.141	92.56
294.372	91.56
294.603	90.56
294.833	103.56
295.064	86.56
295.295	102.56
295.525	103.56
295.756	111.56
295.987	105.56
296.217	142.56
296.448	129.56
296.679	102.56
296.909	93.56
297.14	90.56
297.37	91.56
297.601	81.56
297.831	83.56
298.062	87.56
298.292	100.56
298.523	105.56
298.753	102.56
298.984	98.56
299.214	81.56
299.445	91.56
299.675	99.56
299.905	98.56
300.136	90.56
300.366	105.56
300.597	96.56
300.827	82.56
301.057	102.56
301.288	109.56
301.518	101.56
301.748	98.56
301.979	112.56
302.209	94.56
302.439	92.56
302.669	92.56
302.9	87.56
303.13	100.56
303.36	96.56
303.59	103.56
303.82	99.56
304.051	103.56
304.281	89.56
304.511	85.56
304.741	97.56
304.971	96.56
305.201	93.56
305.431	103.56
305.661	94.56
305.891	94.56
306.121	103.56
306.352	106.56
306.582	100.56
306.812	88.56
307.042	102.56
307.272	93.56
307.502	99.56
307.731	97.56
307.961	98.56
308.191	98.56
308.421	102.56
308.651	96.56
308.881	93.56
309.111	106.56
309.341	97.56
309.571	118.56
309.8	95.56
310.03	114.56
310.26	99.56
310.49	105.56
310.72	96.56
310.949	91.56
311.179	107.56
311.409	104.56
311.639	110.56
311.868	107.56
312.098	98.56
312.328	116.56
312.557	90.56
312.787	111.56
313.017	92.56
313.246	107.56
313.476	93.56
313.706	99.56
313.935	94.56
314.165	96.56
314.394	101.56
314.624	102.56
314.853	90.56
315.083	99.56
315.312	80.56
315.542	95.56
315.771	107.56
316.001	120.56
316.23	92.56
316.46	101.56
316.689	97.56
316.919	75.56
317.148	109.56
317.377	107.56
317.607	112.56
317.836	102.56
318.065	94.56
318.295	98.56
318.524	102.56
318.753	101.56
318.983	108.56
319.212	106.56
319.441	114.56
319.67	108.56
319.9	100.56
320.129	94.56
320.358	96.56
320.587	106.56
320.816	96.56
321.046	102.56
321.275	113.56
321.504	95.56
321.733	88.56
321.962	108.56
322.191	119.56
322.42	109.56
322.649	99.56
322.878	114.56
323.108	111.56
323.337	127.56
323.566	129.56
323.795	142.56
324.024	201.56
324.253	363.56
324.482	759.56
324.71	1537.56
324.939	2016.56
325.168	768.56
325.397	227.56
325.626	137.56
325.855	138.56
326.084	126.56
326.313	142.56
326.542	160.56
326.77	240.56
326.999	424.56
327.228	845.56
327.457	1541.56
327.686	1224.56
327.914	341.56
328.143	200.56
328.372	156.56
328.6	131.56
328.829	119.56
329.058	133.56
329.287	120.56
329.515	122.56
329.744	116.56
329.972	109.56
330.201	103.56
330.43	98.56
330.658	111.56
330.887	133.56
331.115	115.56
331.344	106.56
331.572	117.56
331.801	106.56
332.03	105.56
332.258	94.56
332.486	90.56
332.715	93.56
332.943	98.56
333.172	111.56
333.4	120.56
333.629	106.56
333.857	123.56
334.085	115.56
334.314	96.56
334.542	104.56
334.771	82.56
334.999	93.56
335.227	97.56
335.455	89.56
335.684	108.56
335.912	107.56
336.14	103.56
336.369	105.56
336.597	103.56
336.825	107.56
337.053	88.56
337.281	87.56
337.51	81.56
337.738	99.56
337.966	107.56
338.194	99.56
338.422	90.56
338.65	100.56
338.878	95.56
339.106	99.56
339.334	101.56
339.562	80.56
339.79	98.56
340.018	112.56
340.246	94.56
340.474	100.56
340.702	91.56
340.93	107.56
341.158	104.56
341.386	106.56
341.614	93.56
341.842	102.56
342.07	91.56
342.298	98.56
342.526	95.56
342.754	92.56
342.981	97.56
343.209	105.56
343.437	104.56
343.665	94.56
343.893	95.56
344.12	96.56
344.348	107.56
344.576	102.56
344.804	93.56
345.031	114.56
345.259	101.56
345.487	99.56
345.714	99.56
345.942	97.56
346.17	83.56
346.397	94.56
346.625	97.56
346.853	90.56
347.08	98.56
347.308	100.56
347.535	105.56
347.763	100.56
347.99	116.56
348.218	91.56
348.445	105.56
348.673	104.56
348.9	92.56
349.128	106.56
349.355	101.56
349.583	101.56
349.81	115.56
350.037	96.56
350.265	92.56
350.492	110.56
350.72	104.56
350.947	99.56
351.174	118.56
351.402	118.56
351.629	108.56
351.856	118.56
352.083	116.56
352.311	115.56
352.538	90.56
352.765	115.56
352.992	116.56
353.22	107.56
353.447	120.56
353.674	113.56
353.901	93.56
354.128	112.56
354.355	106.56
354.583	106.56
354.81	101.56
355.037	118.56
355.264	96.56
355.491	97.56
355.718	105.56
355.945	108.56
356.172	104.56
356.399	90.56
356.626	101.56
356.853	93.56
357.08	114.56
357.307	105.56
357.534	94.56
357.761	89.56
357.988	95.56
358.215	90.56
358.441	111.56
358.668	95.56
358.895	91.56
359.122	95.56
359.349	98.56
359.576	111.56
359.802	99.56
360.029	107.56
360.256	115.56
360.483	99.56
360.709	74.56
360.936	92.56
361.163	99.56
361.39	100.56
361.616	103.56
361.843	79.56
362.07	91.56
362.296	105.56
362.523	104.56
362.749	90.56
362.976	111.56
363.203	112.56
363.429	98.56
363.656	87.56
363.882	92.56
364.109	99.56
364.335	92.56
364.562	90.56
364.788	89.56
365.015	97.56
365.241	108.56
365.468	117.56
365.694	105.56
365.92	98.56
366.147	98.56
366.373	98.56
366.599	101.56
366.826	113.56
367.052	83.56
367.278	96.56
367.505	97.56
367.731	87.56
367.957	105.56
368.184	98.56
368.41	118.56
368.636	118.56
368.862	124.56
369.089	118.56
369.315	88.56
369.541	96.56
369.767	94.56
369.993	92.56
370.219	98.56
370.445	89.56
370.672	97.56
370.898	93.56
371.124	105.56
371.35	110.56
371.576	95.56
371.802	96.56
372.028	103.56
372.254	96.56
372.48	80.56
372.706	103.56
372.932	94.56
373.158	106.56
373.384	115.56
373.61	111.56
373.835	102.56
374.061	98.56
374.287	100.56
374.513	89.56
374.739	100.56
374.965	112.56
375.191	103.56
375.416	94.56
375.642	107.56
375.868	105.56
376.094	94.56
376.319	105.56
376.545	93.56
376.771	104.56
376.997	103.56
377.222	90.56
377.448	89.56
377.674	104.56
377.899	101.56
378.125	111.56
378.35	101.56
378.576	78.56
378.802	89.56
379.027	105.56
379.253	93.56
379.478	101.56
379.704	93.56
379.929	95.56
380.155	101.56
380.38	98.56
380.606	90.56
380.831	102.56
381.057	89.56
381.282	94.56
381.507	94.56
381.733	105.56
381.958	101.56
382.184	107.56
382.409	104.56
382.634	123.56
382.86	96.56
383.085	101.56
383.31	107.56
383.535	101.56
383.761	102.56
383.986	87.56
384.211	97.56
384.436	101.56
384.662	101.56
384.887	101.56
385.112	116.56
385.337	101.56
385.562	104.56
385.787	107.56
386.013	107.56
386.238	110.56
386.463	118.56
386.688	122.56
386.913	109.56
387.138	115.56
387.363	112.56
387.588	109.56
387.813	101.56
388.038	97.56
388.263	115.56
388.488	104.56
388.713	98.56
388.938	102.56
389.163	125.56
389.387	105.56
389.612	93.56
389.837	115.56
390.062	106.56
390.287	106.56
390.512	95.56
390.736	80.56
390.961	97.56
391.186	110.56
391.411	91.56
391.636	96.56
391.86	104.56
392.085	98.56
392.31	87.56
392.534	93.56
392.759	94.56
392.984	105.56
393.208	97.56
393.433	99.56
393.658	99.56
393.882	107.56
394.107	84.56
394.331	79.56
394.556	92.56
394.78	87.56
395.005	95.56
395.229	83.56
395.454	98.56
395.678	97.56
395.903	93.56
396.127	88.56
396.352	90.56
396.576	105.56
396.801	93.56
397.025	102.56
397.249	103.56
397.474	95.56
397.698	89.56
397.922	92.56
398.147	86.56
398.371	93.56
398.595	86.56
398.82	91.56
399.044	104.56
399.268	87.56
399.492	102.56
399.717	103.56
399.941	93.56
400.165	100.56
400.389	110.56
400.613	93.56
400.837	90.56
401.062	104.56
401.286	112.56
401.51	107.56
401.734	89.56
401.958	110.56
402.182	129.56
402.406	154.56
402.63	117.56
402.854	117.56
403.078	97.56
403.302	93.56
403.526	102.56
403.75	90.56
403.974	102.56
404.198	88.56
404.422	103.56
404.645	92.56
404.869	106.56
405.093	97.56
405.317	90.56
405.541	89.56
405.765	107.56
405.988	114.56
406.212	155.56
406.436	227.56
406.66	150.56
406.883	89.56
407.107	91.56
407.331	80.56
407.555	114.56
407.778	97.56
408.002	101.56
408.226	82.56
408.449	100.56
408.673	85.56
408.896	101.56
409.12	105.56
409.344	90.56
409.567	101.56
409.791	95.56
410.014	70.56
410.238	99.56
410.461	100.56
410.685	102.56
410.908	96.56
411.132	126.56
411.355	99.56
411.578	94.56
411.802	102.56
412.025	107.56
412.249	93.56
412.472	100.56
412.695	96.56
412.919	86.56
413.142	84.56
413.365	105.56
413.589	100.56
413.812	84.56
414.035	107.56
414.258	90.56
414.482	102.56
414.705	105.56
414.928	105.56
415.151	86.56
415.374	92.56
415.597	88.56
415.821	99.56
416.044	89.56
416.267	99.56
416.49	96.56
416.713	85.56
416.936	92.56
417.159	96.56
417.382	119.56
417.605	95.56
417.828	91.56
418.051	105.56
418.274	90.56
418.497	98.56
418.72	91.56
418.943	97.56
419.166	107.56
419.389	95.56
419.611	84.56
419.834	89.56
420.057	98.56
420.28	82.56
420.503	90.56
420.726	94.56
420.948	92.56
421.171	110.56
421.394	96.56
421.617	96.56
421.839	98.56
422.062	104.56
422.285	89.56
422.507	114.56
422.73	104.56
422.953	117.56
423.175	94.56
423.398	93.56
423.621	90.56
423.843	98.56
424.066	83.56
424.288	97.56
424.511	88.56
424.733	97.56
424.956	98.56
425.178	102.56
425.401	107.56
425.623	105.56
425.846	100.56
426.068	98.56
426.291	95.56
426.513	89.56
426.735	95.56
426.958	103.56
427.18	109.56
427.402	130.56
427.625	155.56
427.847	139.56
428.069	100.56
428.292	87.56
428.514	94.56
428.736	97.56
428.958	89.56
429.181	74.56
429.403	100.56
429.625	83.56
429.847	100.56
430.069	111.56
430.292	100.56
430.514	87.56
430.736	93.56
430.958	106.56
431.18	83.56
431.402	98.56
431.624	92.56
431.846	86.56
432.068	91.56
432.29	86.56
432.512	91.56
432.734	100.56
432.956	95.56
433.178	102.56
433.4	111.56
433.622	102.56
433.844	94.56
434.066	103.56
434.287	101.56
434.509	108.56
434.731	101.56
434.953	102.56
435.175	92.56
435.397	102.56
435.618	90.56
435.84	102.56
436.062	123.56
436.284	109.56
436.505	115.56
436.727	109.56
436.949	97.56
437.17	97.56
437.392	98.56
437.614	88.56
437.835	104.56
438.057	128.56
438.278	104.56
438.5	97.56
438.721	130.56
438.943	102.56
439.165	93.56
439.386	80.56
439.608	111.56
439.829	103.56
440.05	125.56
440.272	133.56
440.493	109.56
440.715	100.56
440.936	106.56
441.158	87.56
441.379	106.56
441.6	84.56
441.822	102.56
442.043	100.56
442.264	125.56
442.486	101.56
442.707	95.56
442.928	113.56
443.149	125.56
443.371	128.56
443.592	118.56
443.813	116.56
444.034	105.56
444.255	105.56
444.476	98.56
444.698	104.56
444.919	102.56
445.14	126.56
445.361	142.56
445.582	112.56
445.803	125.56
446.024	135.56
446.245	126.56
446.466	98.56
446.687	95.56
446.908	108.56
447.129	86.56
447.35	96.56
447.571	106.56
447.792	102.56
448.013	98.56
448.234	97.56
448.455	93.56
448.675	100.56
448.896	137.56
449.117	93.56
449.338	99.56
449.559	120.56
449.779	133.56
450	102.56
450.221	95.56
450.442	89.56
450.662	97.56
450.883	102.56
451.104	106.56
451.324	90.56
451.545	98.56
451.766	99.56
451.986	98.56
452.207	93.56
452.428	97.56
452.648	91.56
452.869	93.56
453.089	114.56
453.31	119.56
453.53	125.56
453.751	97.56
453.971	102.56
454.192	113.56
454.412	81.56
454.633	89.56
454.853	93.56
455.073	93.56
455.294	88.56
455.514	97.56
455.734	88.56
455.955	75.56
456.175	90.56
456.395	88.56
456.616	89.56
456.836	100.56
457.056	94.56
457.276	92.56
457.497	89.56
457.717	102.56
457.937	87.56
458.157	91.56
458.377	103.56
458.598	109.56
458.818	139.56
459.038	143.56
459.258	114.56
459.478	101.56
459.698	90.56
459.918	96.56
460.138	85.56
460.358	100.56
460.578	74.56
460.798	92.56
461.018	100.56
461.238	89.56
461.458	88.56
461.678	86.56
461.898	99.56
462.118	68.56
462.338	91.56
462.558	95.56
462.777	95.56
462.997	85.56
463.217	90.56
463.437	80.56
463.657	74.56
463.876	82.56
464.096	89.56
464.316	102.56
464.536	99.56
464.755	97.56
464.975	113.56
465.195	174.56
465.414	147.56
465.634	104.56
465.854	94.56
466.073	104.56
466.293	90.56
466.512	92.56
466.732	93.56
466.951	93.56
467.171	98.56
467.391	101.56
467.61	111.56
467.829	108.56
468.049	82.56
468.268	84.56
468.488	72.56
468.707	104.56
468.927	94.56
469.146	98.56
469.365	86.56
469.585	110.56
469.804	101.56
470.023	97.56
470.243	85.56
470.462	92.56
470.681	113.56
470.901	102.56
471.12	81.56
471.339	101.56
471.558	91.56
471.777	93.56
471.997	63.56
472.216	92.56
472.435	86.56
472.654	95.56
472.873	86.56
473.092	97.56
473.311	85.56
473.53	86.56
473.749	104.56
473.968	88.56
474.187	110.56
474.406	109.56
474.625	98.56
474.844	102.56
475.063	88.56
475.282	98.56
475.501	93.56
475.72	102.56
475.939	87.56
476.158	78.56
476.377	88.56
476.596	91.56
476.814	104.56
477.033	90.56
477.252	88.56
477.471	89.56
477.69	114.56
477.908	98.56
478.127	105.56
478.346	89.56
478.564	100.56
478.783	99.56
479.002	96.56
479.22	116.56
479.439	105.56
479.658	115.56
479.876	108.56
480.095	94.56
480.313	107.56
480.532	112.56
480.751	97.56
480.969	102.56
481.188	94.56
481.406	102.56
481.624	93.56
481.843	88.56
482.061	93.56
482.28	87.56
482.498	93.56
482.717	87.56
482.935	109.56
483.153	100.56
483.372	79.56
483.59	109.56
483.808	114.56
484.027	112.56
484.245	111.56
484.463	96.56
484.681	102.56
484.9	96.56
485.118	105.56
485.336	89.56
485.554	99.56
485.772	101.56
485.99	106.56
486.209	103.56
486.427	110.56
486.645	94.56
486.863	107.56
487.081	114.56
487.299	93.56
487.517	97.56
487.735	81.56
487.953	94.56
488.171	112.56
488.389	95.56
488.607	114.56
488.825	101.56
489.043	94.56
489.261	93.56
489.479	102.56
489.696	90.56
489.914	94.56
490.132	98.56
490.35	104.56
490.568	74.56
490.786	89.56
491.003	104.56
491.221	103.56
491.439	111.56
491.657	103.56
491.874	99.56
492.092	98.56
492.31	102.56
492.527	107.56
492.745	106.56
492.963	93.56
493.18	105.56
493.398	97.56
493.615	98.56
493.833	109.56
494.05	99.56
494.268	101.56
494.485	94.56
494.703	98.56
494.92	93.56
495.138	86.56
495.355	101.56
495.573	116.56
495.79	99.56
496.008	97.56
496.225	90.56
496.442	98.56
496.66	95.56
496.877	97.56
497.094	106.56
497.312	104.56
497.529	103.56
497.746	101.56
497.963	93.56
498.181	100.56
498.398	103.56
498.615	102.56
498.832	116.56
499.049	93.56
499.267	99.56
499.484	104.56
499.701	107.56
499.918	83.56
500.135	100.56
500.352	102.56
500.569	97.56
500.786	94.56
501.003	92.56
501.22	89.56
501.437	97.56
501.654	92.56
501.871	105.56
502.088	90.56
502.305	94.56
502.522	93.56
502.739	79.56
502.956	92.56
503.172	94.56
503.389	95.56
503.606	119.56
503.823	103.56
504.04	104.56
504.256	90.56
504.473	105.56
504.69	90.56
504.907	102.56
505.123	94.56
505.34	93.56
505.557	96.56
505.773	107.56
505.99	89.56
506.207	86.56
506.423	80.56
506.64	97.56
506.856	103.56
507.073	101.56
507.289	112.56
507.506	110.56
507.722	126.56
507.939	115.56
508.155	98.56
508.372	89.56
508.588	94.56
508.805	111.56
509.021	106.56
509.238	112.56
509.454	114.56
509.67	105.56
509.887	110.56
510.103	130.56
510.319	229.56
510.536	742.56
510.752	2288.56
510.968	629.56
511.184	161.56
511.401	129.56
511.617	109.56
511.833	89.56
512.049	92.56
512.265	95.56
512.481	103.56
