Data from Uncirc_1994_H10_HRD10591_00074.txt Node
Date: Wed Jan 03 11:39:35 EST 2024
User: Yrep
Spectrometer: HR+D1059
Trigger mode: 1
Integration Time (sec): 1.000000E-1
Scans to average: 1
Electric dark correction enabled: true
Nonlinearity correction enabled: false
Boxcar width: 0
XAxis mode: Wavelengths
Number of Pixels in Spectrum: 2048
>>>>>Begin Spectral Data<<<<<
223.165	-27.5
223.4	-27.5
223.635	-27.5
223.869	-3.5
224.104	-21.5
224.338	-21.5
224.573	-24.5
224.808	-14.5
225.042	-5.5
225.277	1.5
225.511	-1.5
225.746	9.5
225.98	17.5
226.215	17.5
226.449	8.5
226.683	19.5
226.918	22.5
227.152	23.5
227.387	30.5
227.621	47.5
227.856	50.5
228.09	45.5
228.324	47.5
228.559	46.5
228.793	46.5
229.027	54.5
229.262	61.5
229.496	82.5
229.73	77.5
229.964	67.5
230.199	65.5
230.433	79.5
230.667	78.5
230.901	69.5
231.136	71.5
231.37	83.5
231.604	90.5
231.838	83.5
232.072	76.5
232.306	71.5
232.541	90.5
232.775	87.5
233.009	80.5
233.243	66.5
233.477	77.5
233.711	85.5
233.945	77.5
234.179	75.5
234.413	75.5
234.647	78.5
234.881	83.5
235.115	71.5
235.349	82.5
235.583	90.5
235.817	90.5
236.051	77.5
236.285	77.5
236.519	64.5
236.753	81.5
236.987	89.5
237.221	75.5
237.455	85.5
237.689	72.5
237.922	70.5
238.156	79.5
238.39	75.5
238.624	72.5
238.858	83.5
239.091	84.5
239.325	84.5
239.559	84.5
239.793	71.5
240.027	65.5
240.26	64.5
240.494	85.5
240.728	74.5
240.961	87.5
241.195	74.5
241.429	82.5
241.662	89.5
241.896	71.5
242.13	91.5
242.363	85.5
242.597	73.5
242.83	72.5
243.064	86.5
243.298	78.5
243.531	69.5
243.765	74.5
243.998	88.5
244.232	88.5
244.465	78.5
244.699	74.5
244.932	75.5
245.166	87.5
245.399	76.5
245.633	67.5
245.866	64.5
246.099	77.5
246.333	85.5
246.566	86.5
246.8	72.5
247.033	79.5
247.266	73.5
247.5	77.5
247.733	75.5
247.966	91.5
248.2	86.5
248.433	81.5
248.666	74.5
248.899	91.5
249.133	88.5
249.366	77.5
249.599	92.5
249.832	73.5
250.066	87.5
250.299	78.5
250.532	71.5
250.765	73.5
250.998	86.5
251.231	70.5
251.465	73.5
251.698	67.5
251.931	69.5
252.164	73.5
252.397	87.5
252.63	70.5
252.863	80.5
253.096	73.5
253.329	87.5
253.562	61.5
253.795	95.5
254.028	75.5
254.261	74.5
254.494	82.5
254.727	78.5
254.96	65.5
255.193	77.5
255.426	78.5
255.659	74.5
255.892	81.5
256.124	75.5
256.357	80.5
256.59	88.5
256.823	70.5
257.056	71.5
257.289	70.5
257.521	76.5
257.754	70.5
257.987	82.5
258.22	70.5
258.452	69.5
258.685	94.5
258.918	85.5
259.151	91.5
259.383	67.5
259.616	81.5
259.849	71.5
260.081	74.5
260.314	83.5
260.547	71.5
260.779	82.5
261.012	85.5
261.244	84.5
261.477	87.5
261.71	104.5
261.942	104.5
262.175	94.5
262.407	83.5
262.64	81.5
262.872	78.5
263.105	86.5
263.337	88.5
263.57	89.5
263.802	82.5
264.035	75.5
264.267	68.5
264.499	89.5
264.732	73.5
264.964	91.5
265.197	81.5
265.429	76.5
265.661	77.5
265.894	76.5
266.126	67.5
266.358	80.5
266.591	85.5
266.823	85.5
267.055	74.5
267.287	81.5
267.52	82.5
267.752	79.5
267.984	73.5
268.216	72.5
268.448	74.5
268.681	93.5
268.913	89.5
269.145	85.5
269.377	62.5
269.609	74.5
269.841	65.5
270.073	83.5
270.306	97.5
270.538	84.5
270.77	87.5
271.002	86.5
271.234	74.5
271.466	93.5
271.698	93.5
271.93	78.5
272.162	78.5
272.394	100.5
272.626	75.5
272.858	86.5
273.09	79.5
273.322	93.5
273.553	80.5
273.785	79.5
274.017	88.5
274.249	80.5
274.481	86.5
274.713	64.5
274.945	77.5
275.176	92.5
275.408	88.5
275.64	86.5
275.872	98.5
276.104	97.5
276.335	85.5
276.567	110.5
276.799	99.5
277.031	108.5
277.262	91.5
277.494	87.5
277.726	86.5
277.957	91.5
278.189	93.5
278.421	66.5
278.652	78.5
278.884	73.5
279.115	78.5
279.347	91.5
279.579	81.5
279.81	79.5
280.042	78.5
280.273	88.5
280.505	75.5
280.736	86.5
280.968	84.5
281.199	71.5
281.431	100.5
281.662	89.5
281.894	96.5
282.125	89.5
282.356	121.5
282.588	142.5
282.819	111.5
283.051	81.5
283.282	77.5
283.513	75.5
283.745	89.5
283.976	77.5
284.207	96.5
284.439	82.5
284.67	87.5
284.901	99.5
285.132	76.5
285.364	89.5
285.595	91.5
285.826	77.5
286.057	89.5
286.288	82.5
286.52	73.5
286.751	94.5
286.982	79.5
287.213	95.5
287.444	81.5
287.675	88.5
287.906	88.5
288.138	74.5
288.369	102.5
288.6	83.5
288.831	82.5
289.062	97.5
289.293	89.5
289.524	95.5
289.755	79.5
289.986	71.5
290.217	75.5
290.448	83.5
290.679	85.5
290.91	91.5
291.141	74.5
291.371	85.5
291.602	91.5
291.833	97.5
292.064	78.5
292.295	83.5
292.526	74.5
292.757	66.5
292.987	92.5
293.218	74.5
293.449	94.5
293.68	87.5
293.91	90.5
294.141	93.5
294.372	87.5
294.603	79.5
294.833	100.5
295.064	89.5
295.295	85.5
295.525	103.5
295.756	107.5
295.987	102.5
296.217	121.5
296.448	108.5
296.679	87.5
296.909	88.5
297.14	87.5
297.37	87.5
297.601	89.5
297.831	86.5
298.062	95.5
298.292	83.5
298.523	74.5
298.753	85.5
298.984	95.5
299.214	75.5
299.445	81.5
299.675	98.5
299.905	75.5
300.136	79.5
300.366	91.5
300.597	90.5
300.827	79.5
301.057	97.5
301.288	98.5
301.518	97.5
301.748	79.5
301.979	93.5
302.209	82.5
302.439	84.5
302.669	80.5
302.9	85.5
303.13	88.5
303.36	117.5
303.59	90.5
303.82	112.5
304.051	89.5
304.281	82.5
304.511	91.5
304.741	93.5
304.971	78.5
305.201	86.5
305.431	90.5
305.661	78.5
305.891	83.5
306.121	94.5
306.352	94.5
306.582	96.5
306.812	86.5
307.042	96.5
307.272	93.5
307.502	99.5
307.731	86.5
307.961	103.5
308.191	103.5
308.421	82.5
308.651	94.5
308.881	88.5
309.111	86.5
309.341	94.5
309.571	93.5
309.8	85.5
310.03	98.5
310.26	89.5
310.49	104.5
310.72	96.5
310.949	93.5
311.179	91.5
311.409	97.5
311.639	93.5
311.868	92.5
312.098	95.5
312.328	94.5
312.557	89.5
312.787	109.5
313.017	94.5
313.246	103.5
313.476	95.5
313.706	85.5
313.935	109.5
314.165	90.5
314.394	84.5
314.624	95.5
314.853	99.5
315.083	92.5
315.312	98.5
315.542	105.5
315.771	78.5
316.001	94.5
316.23	75.5
316.46	94.5
316.689	93.5
316.919	74.5
317.148	97.5
317.377	85.5
317.607	88.5
317.836	96.5
318.065	97.5
318.295	67.5
318.524	82.5
318.753	89.5
318.983	92.5
319.212	98.5
319.441	103.5
319.67	104.5
319.9	91.5
320.129	86.5
320.358	71.5
320.587	85.5
320.816	79.5
321.046	89.5
321.275	85.5
321.504	104.5
321.733	91.5
321.962	103.5
322.191	92.5
322.42	88.5
322.649	99.5
322.878	89.5
323.108	116.5
323.337	118.5
323.566	142.5
323.795	134.5
324.024	194.5
324.253	378.5
324.482	783.5
324.71	1597.5
324.939	2064.5
325.168	740.5
325.397	231.5
325.626	156.5
325.855	119.5
326.084	123.5
326.313	123.5
326.542	155.5
326.77	215.5
326.999	415.5
327.228	903.5
327.457	1586.5
327.686	1262.5
327.914	332.5
328.143	189.5
328.372	149.5
328.6	124.5
328.829	106.5
329.058	120.5
329.287	118.5
329.515	113.5
329.744	103.5
329.972	90.5
330.201	94.5
330.43	114.5
330.658	121.5
330.887	127.5
331.115	117.5
331.344	107.5
331.572	118.5
331.801	114.5
332.03	99.5
332.258	93.5
332.486	88.5
332.715	93.5
332.943	93.5
333.172	94.5
333.4	99.5
333.629	106.5
333.857	108.5
334.085	90.5
334.314	85.5
334.542	89.5
334.771	87.5
334.999	90.5
335.227	103.5
335.455	98.5
335.684	103.5
335.912	99.5
336.14	86.5
336.369	95.5
336.597	90.5
336.825	95.5
337.053	92.5
337.281	89.5
337.51	77.5
337.738	94.5
337.966	73.5
338.194	99.5
338.422	89.5
338.65	99.5
338.878	93.5
339.106	99.5
339.334	88.5
339.562	82.5
339.79	96.5
340.018	84.5
340.246	94.5
340.474	95.5
340.702	89.5
340.93	95.5
341.158	94.5
341.386	99.5
341.614	93.5
341.842	91.5
342.07	91.5
342.298	97.5
342.526	86.5
342.754	71.5
342.981	94.5
343.209	80.5
343.437	99.5
343.665	82.5
343.893	80.5
344.12	90.5
344.348	85.5
344.576	88.5
344.804	96.5
345.031	108.5
345.259	111.5
345.487	96.5
345.714	89.5
345.942	92.5
346.17	103.5
346.397	77.5
346.625	85.5
346.853	98.5
347.08	85.5
347.308	84.5
347.535	100.5
347.763	103.5
347.99	86.5
348.218	97.5
348.445	103.5
348.673	93.5
348.9	82.5
349.128	94.5
349.355	92.5
349.583	80.5
349.81	103.5
350.037	89.5
350.265	86.5
350.492	97.5
350.72	90.5
350.947	90.5
351.174	90.5
351.402	103.5
351.629	96.5
351.856	101.5
352.083	96.5
352.311	104.5
352.538	98.5
352.765	105.5
352.992	107.5
353.22	109.5
353.447	102.5
353.674	104.5
353.901	105.5
354.128	77.5
354.355	86.5
354.583	82.5
354.81	92.5
355.037	101.5
355.264	85.5
355.491	90.5
355.718	75.5
355.945	84.5
356.172	93.5
356.399	106.5
356.626	89.5
356.853	75.5
357.08	95.5
357.307	102.5
357.534	82.5
357.761	95.5
357.988	96.5
358.215	97.5
358.441	98.5
358.668	77.5
358.895	82.5
359.122	96.5
359.349	94.5
359.576	90.5
359.802	96.5
360.029	112.5
360.256	109.5
360.483	99.5
360.709	82.5
360.936	77.5
361.163	90.5
361.39	90.5
361.616	90.5
361.843	81.5
362.07	85.5
362.296	82.5
362.523	92.5
362.749	94.5
362.976	92.5
363.203	82.5
363.429	86.5
363.656	96.5
363.882	87.5
364.109	78.5
364.335	92.5
364.562	86.5
364.788	87.5
365.015	79.5
365.241	94.5
365.468	109.5
365.694	96.5
365.92	86.5
366.147	81.5
366.373	76.5
366.599	86.5
366.826	81.5
367.052	90.5
367.278	90.5
367.505	88.5
367.731	90.5
367.957	74.5
368.184	89.5
368.41	99.5
368.636	112.5
368.862	115.5
369.089	99.5
369.315	95.5
369.541	82.5
369.767	94.5
369.993	85.5
370.219	75.5
370.445	82.5
370.672	85.5
370.898	82.5
371.124	74.5
371.35	81.5
371.576	61.5
371.802	79.5
372.028	93.5
372.254	104.5
372.48	83.5
372.706	73.5
372.932	83.5
373.158	80.5
373.384	97.5
373.61	91.5
373.835	98.5
374.061	80.5
374.287	85.5
374.513	80.5
374.739	85.5
374.965	105.5
375.191	98.5
375.416	95.5
375.642	76.5
375.868	97.5
376.094	85.5
376.319	80.5
376.545	81.5
376.771	88.5
376.997	86.5
377.222	81.5
377.448	104.5
377.674	74.5
377.899	80.5
378.125	93.5
378.35	85.5
378.576	88.5
378.802	78.5
379.027	89.5
379.253	107.5
379.478	82.5
379.704	88.5
379.929	86.5
380.155	110.5
380.38	92.5
380.606	86.5
380.831	89.5
381.057	98.5
381.282	86.5
381.507	90.5
381.733	95.5
381.958	100.5
382.184	92.5
382.409	90.5
382.634	95.5
382.86	103.5
383.085	96.5
383.31	97.5
383.535	107.5
383.761	105.5
383.986	76.5
384.211	88.5
384.436	96.5
384.662	97.5
384.887	89.5
385.112	111.5
385.337	99.5
385.562	111.5
385.787	104.5
386.013	95.5
386.238	107.5
386.463	108.5
386.688	103.5
386.913	96.5
387.138	105.5
387.363	106.5
387.588	100.5
387.813	82.5
388.038	87.5
388.263	105.5
388.488	91.5
388.713	105.5
388.938	83.5
389.163	87.5
389.387	97.5
389.612	91.5
389.837	97.5
390.062	93.5
390.287	81.5
390.512	90.5
390.736	95.5
390.961	94.5
391.186	101.5
391.411	92.5
391.636	90.5
391.86	89.5
392.085	81.5
392.31	79.5
392.534	90.5
392.759	76.5
392.984	94.5
393.208	94.5
393.433	73.5
393.658	81.5
393.882	96.5
394.107	86.5
394.331	88.5
394.556	86.5
394.78	81.5
395.005	91.5
395.229	86.5
395.454	82.5
395.678	79.5
395.903	90.5
396.127	82.5
396.352	75.5
396.576	89.5
396.801	95.5
397.025	95.5
397.249	88.5
397.474	89.5
397.698	76.5
397.922	88.5
398.147	93.5
398.371	88.5
398.595	83.5
398.82	81.5
399.044	80.5
399.268	95.5
399.492	86.5
399.717	87.5
399.941	85.5
400.165	86.5
400.389	90.5
400.613	87.5
400.837	78.5
401.062	97.5
401.286	80.5
401.51	90.5
401.734	91.5
401.958	97.5
402.182	118.5
402.406	159.5
402.63	130.5
402.854	82.5
403.078	84.5
403.302	78.5
403.526	80.5
403.75	79.5
403.974	79.5
404.198	88.5
404.422	80.5
404.645	89.5
404.869	74.5
405.093	86.5
405.317	82.5
405.541	94.5
405.765	74.5
405.988	95.5
406.212	166.5
406.436	202.5
406.66	133.5
406.883	103.5
407.107	83.5
407.331	95.5
407.555	102.5
407.778	90.5
408.002	118.5
408.226	97.5
408.449	88.5
408.673	97.5
408.896	95.5
409.12	96.5
409.344	91.5
409.567	79.5
409.791	73.5
410.014	86.5
410.238	82.5
410.461	91.5
410.685	103.5
410.908	91.5
411.132	105.5
411.355	90.5
411.578	92.5
411.802	86.5
412.025	99.5
412.249	92.5
412.472	82.5
412.695	85.5
412.919	86.5
413.142	88.5
413.365	94.5
413.589	86.5
413.812	80.5
414.035	94.5
414.258	87.5
414.482	82.5
414.705	83.5
414.928	93.5
415.151	96.5
415.374	94.5
415.597	94.5
415.821	91.5
416.044	92.5
416.267	78.5
416.49	78.5
416.713	81.5
416.936	77.5
417.159	99.5
417.382	95.5
417.605	83.5
417.828	90.5
418.051	88.5
418.274	94.5
418.497	77.5
418.72	69.5
418.943	93.5
419.166	86.5
419.389	80.5
419.611	86.5
419.834	109.5
420.057	83.5
420.28	73.5
420.503	85.5
420.726	99.5
420.948	81.5
421.171	90.5
421.394	99.5
421.617	87.5
421.839	105.5
422.062	94.5
422.285	75.5
422.507	102.5
422.73	105.5
422.953	87.5
423.175	80.5
423.398	81.5
423.621	98.5
423.843	75.5
424.066	93.5
424.288	86.5
424.511	78.5
424.733	88.5
424.956	105.5
425.178	74.5
425.401	89.5
425.623	102.5
425.846	96.5
426.068	79.5
426.291	90.5
426.513	101.5
426.735	97.5
426.958	89.5
427.18	98.5
427.402	116.5
427.625	146.5
427.847	105.5
428.069	99.5
428.292	88.5
428.514	87.5
428.736	83.5
428.958	78.5
429.181	95.5
429.403	74.5
429.625	85.5
429.847	80.5
430.069	105.5
430.292	82.5
430.514	85.5
430.736	76.5
430.958	83.5
431.18	99.5
431.402	78.5
431.624	81.5
431.846	95.5
432.068	85.5
432.29	90.5
432.512	84.5
432.734	82.5
432.956	71.5
433.178	95.5
433.4	82.5
433.622	82.5
433.844	83.5
434.066	84.5
434.287	83.5
434.509	79.5
434.731	101.5
434.953	90.5
435.175	71.5
435.397	74.5
435.618	82.5
435.84	96.5
436.062	120.5
436.284	113.5
436.505	101.5
436.727	88.5
436.949	85.5
437.17	86.5
437.392	77.5
437.614	74.5
437.835	85.5
438.057	111.5
438.278	111.5
438.5	88.5
438.721	113.5
438.943	99.5
439.165	85.5
439.386	90.5
439.608	86.5
439.829	81.5
440.05	121.5
440.272	132.5
440.493	88.5
440.715	83.5
440.936	80.5
441.158	80.5
441.379	92.5
441.6	87.5
441.822	82.5
442.043	102.5
442.264	97.5
442.486	107.5
442.707	91.5
442.928	118.5
443.149	126.5
443.371	124.5
443.592	89.5
443.813	117.5
444.034	108.5
444.255	98.5
444.476	90.5
444.698	91.5
444.919	91.5
445.14	137.5
445.361	134.5
445.582	105.5
445.803	138.5
446.024	137.5
446.245	108.5
446.466	105.5
446.687	83.5
446.908	82.5
447.129	93.5
447.35	81.5
447.571	93.5
447.792	88.5
448.013	89.5
448.234	119.5
448.455	85.5
448.675	112.5
448.896	117.5
449.117	97.5
449.338	87.5
449.559	129.5
449.779	137.5
450	101.5
450.221	102.5
450.442	78.5
450.662	80.5
450.883	89.5
451.104	120.5
451.324	86.5
451.545	75.5
451.766	81.5
451.986	81.5
452.207	93.5
452.428	83.5
452.648	96.5
452.869	97.5
453.089	110.5
453.31	104.5
453.53	99.5
453.751	90.5
453.971	93.5
454.192	95.5
454.412	73.5
454.633	94.5
454.853	88.5
455.073	87.5
455.294	90.5
455.514	93.5
455.734	88.5
455.955	80.5
456.175	71.5
456.395	86.5
456.616	96.5
456.836	93.5
457.056	81.5
457.276	74.5
457.497	71.5
457.717	73.5
457.937	71.5
458.157	81.5
458.377	90.5
458.598	101.5
458.818	119.5
459.038	142.5
459.258	108.5
459.478	92.5
459.698	91.5
459.918	97.5
460.138	97.5
460.358	86.5
460.578	92.5
460.798	88.5
461.018	96.5
461.238	70.5
461.458	88.5
461.678	78.5
461.898	88.5
462.118	82.5
462.338	86.5
462.558	95.5
462.777	90.5
462.997	79.5
463.217	87.5
463.437	91.5
463.657	88.5
463.876	85.5
464.096	86.5
464.316	90.5
464.536	88.5
464.755	93.5
464.975	101.5
465.195	148.5
465.414	149.5
465.634	99.5
465.854	73.5
466.073	80.5
466.293	87.5
466.512	85.5
466.732	93.5
466.951	85.5
467.171	89.5
467.391	91.5
467.61	87.5
467.829	70.5
468.049	80.5
468.268	74.5
468.488	86.5
468.707	86.5
468.927	99.5
469.146	84.5
469.365	76.5
469.585	79.5
469.804	99.5
470.023	73.5
470.243	78.5
470.462	89.5
470.681	100.5
470.901	99.5
471.12	85.5
471.339	99.5
471.558	85.5
471.777	89.5
471.997	89.5
472.216	80.5
472.435	97.5
472.654	66.5
472.873	97.5
473.092	96.5
473.311	86.5
473.53	81.5
473.749	89.5
473.968	92.5
474.187	106.5
474.406	82.5
474.625	83.5
474.844	107.5
475.063	87.5
475.282	75.5
475.501	79.5
475.72	85.5
475.939	75.5
476.158	83.5
476.377	81.5
476.596	93.5
476.814	104.5
477.033	88.5
477.252	76.5
477.471	85.5
477.69	83.5
477.908	80.5
478.127	81.5
478.346	81.5
478.564	87.5
478.783	101.5
479.002	94.5
479.22	79.5
479.439	86.5
479.658	92.5
479.876	86.5
480.095	79.5
480.313	83.5
480.532	89.5
480.751	95.5
480.969	91.5
481.188	83.5
481.406	87.5
481.624	99.5
481.843	99.5
482.061	70.5
482.28	69.5
482.498	96.5
482.717	85.5
482.935	81.5
483.153	78.5
483.372	87.5
483.59	97.5
483.808	94.5
484.027	84.5
484.245	85.5
484.463	99.5
484.681	87.5
484.9	93.5
485.118	89.5
485.336	99.5
485.554	93.5
485.772	97.5
485.99	99.5
486.209	95.5
486.427	103.5
486.645	112.5
486.863	111.5
487.081	115.5
487.299	90.5
487.517	76.5
487.735	82.5
487.953	91.5
488.171	96.5
488.389	93.5
488.607	84.5
488.825	89.5
489.043	86.5
489.261	91.5
489.479	86.5
489.696	86.5
489.914	91.5
490.132	95.5
490.35	97.5
490.568	88.5
490.786	85.5
491.003	78.5
491.221	98.5
491.439	82.5
491.657	96.5
491.874	85.5
492.092	89.5
492.31	97.5
492.527	86.5
492.745	94.5
492.963	88.5
493.18	91.5
493.398	93.5
493.615	96.5
493.833	103.5
494.05	91.5
494.268	84.5
494.485	88.5
494.703	94.5
494.92	76.5
495.138	89.5
495.355	80.5
495.573	75.5
495.79	79.5
496.008	98.5
496.225	89.5
496.442	85.5
496.66	93.5
496.877	87.5
497.094	90.5
497.312	90.5
497.529	87.5
497.746	88.5
497.963	107.5
498.181	106.5
498.398	80.5
498.615	91.5
498.832	99.5
499.049	93.5
499.267	98.5
499.484	96.5
499.701	76.5
499.918	90.5
500.135	96.5
500.352	86.5
500.569	91.5
500.786	88.5
501.003	79.5
501.22	82.5
501.437	92.5
501.654	90.5
501.871	101.5
502.088	81.5
502.305	82.5
502.522	72.5
502.739	77.5
502.956	94.5
503.172	86.5
503.389	99.5
503.606	94.5
503.823	87.5
504.04	91.5
504.256	85.5
504.473	90.5
504.69	102.5
504.907	85.5
505.123	74.5
505.34	81.5
505.557	80.5
505.773	88.5
505.99	71.5
506.207	101.5
506.423	88.5
506.64	90.5
506.856	87.5
507.073	94.5
507.289	94.5
507.506	104.5
507.722	97.5
507.939	93.5
508.155	101.5
508.372	101.5
508.588	96.5
508.805	103.5
509.021	82.5
509.238	80.5
509.454	94.5
509.67	90.5
509.887	110.5
510.103	127.5
510.319	201.5
510.536	754.5
510.752	2197.5
510.968	601.5
511.184	135.5
511.401	99.5
511.617	80.5
511.833	94.5
512.049	76.5
512.265	80.5
512.481	83.5
512.698	94.5
512.914	81.5
513.13	91.5
513.346	79.5
513.562	87.5
513.778	95.5
513.994	95.5
514.21	98.5
514.426	121.5
514.642	146.5
514.858	120.5
515.074	151.5
515.29	424.5
515.506	1337.5
515.721	492.5
515.937	147.5
516.153	105.5
516.369	77.5
516.585	105.5
516.801	89.5
517.016	96.5
517.232	86.5
517.448	92.5
517.664	77.5
517.879	91.5
518.095	88.5
518.311	103.5
518.527	87.5
518.742	97.5
518.958	94.5
519.173	112.5
519.389	90.5
519.605	102.5
519.82	89.5
520.036	113.5
520.251	96.5
520.467	106.5
520.682	104.5
520.898	101.5
521.113	120.5
521.329	120.5
521.544	182.5
521.76	532.5
521.975	2226.5
522.19	1321.5
522.406	297.5
522.621	110.5
522.836	95.5
523.052	103.5
523.267	93.5
523.482	86.5
523.698	104.5
523.913	108.5
524.128	99.5
524.343	81.5
524.559	89.5
524.774	98.5
524.989	103.5
525.204	95.5
525.419	92.5
525.634	93.5
525.849	97.5
526.064	90.5
526.28	96.5
526.495	91.5
526.71	81.5
526.925	93.5
527.14	93.5
527.355	88.5
527.57	87.5
527.785	91.5
527.999	83.5
528.214	92.5
528.429	76.5
528.644	85.5
528.859	85.5
529.074	79.5
529.289	116.5
529.503	172.5
529.718	110.5
529.933	86.5
530.148	80.5
530.363	94.5
530.577	81.5
530.792	91.5
531.007	89.5
531.221	79.5
531.436	82.5
531.651	104.5
531.865	96.5
532.08	73.5
532.295	109.5
532.509	90.5
532.724	81.5
532.938	83.5
533.153	78.5
533.367	90.5
533.582	82.5
533.796	79.5
534.011	96.5
534.225	78.5
534.44	84.5
534.654	84.5
534.868	97.5
535.083	93.5
535.297	90.5
535.511	93.5
535.726	87.5
535.94	99.5
536.154	110.5
536.369	85.5
536.583	86.5
536.797	85.5
