Data from Uncirc_1994_H10_HRD10591_00062.txt Node
Date: Wed Jan 03 11:39:33 EST 2024
User: Yrep
Spectrometer: HR+D1059
Trigger mode: 1
Integration Time (sec): 1.000000E-1
Scans to average: 1
Electric dark correction enabled: true
Nonlinearity correction enabled: false
Boxcar width: 0
XAxis mode: Wavelengths
Number of Pixels in Spectrum: 2048
>>>>>Begin Spectral Data<<<<<
223.165	-30.94
223.4	-30.94
223.635	-30.94
223.869	-20.94
224.104	-16.94
224.338	-3.94
224.573	-17.94
224.808	-13.94
225.042	-6.94
225.277	-11.94
225.511	0.06
225.746	3.06
225.98	22.06
226.215	18.06
226.449	7.06
226.683	7.06
226.918	31.06
227.152	35.06
227.387	32.06
227.621	41.06
227.856	47.06
228.09	57.06
228.324	55.06
228.559	66.06
228.793	51.06
229.027	73.06
229.262	69.06
229.496	67.06
229.73	93.06
229.964	86.06
230.199	78.06
230.433	85.06
230.667	69.06
230.901	89.06
231.136	87.06
231.37	90.06
231.604	84.06
231.838	90.06
232.072	76.06
232.306	80.06
232.541	91.06
232.775	76.06
233.009	81.06
233.243	84.06
233.477	90.06
233.711	77.06
233.945	88.06
234.179	86.06
234.413	86.06
234.647	87.06
234.881	87.06
235.115	79.06
235.349	81.06
235.583	81.06
235.817	78.06
236.051	62.06
236.285	80.06
236.519	81.06
236.753	92.06
236.987	98.06
237.221	87.06
237.455	83.06
237.689	81.06
237.922	76.06
238.156	76.06
238.39	80.06
238.624	67.06
238.858	74.06
239.091	71.06
239.325	55.06
239.559	93.06
239.793	75.06
240.027	102.06
240.26	82.06
240.494	81.06
240.728	75.06
240.961	79.06
241.195	76.06
241.429	73.06
241.662	81.06
241.896	71.06
242.13	89.06
242.363	82.06
242.597	77.06
242.83	84.06
243.064	81.06
243.298	83.06
243.531	87.06
243.765	84.06
243.998	81.06
244.232	82.06
244.465	85.06
244.699	73.06
244.932	59.06
245.166	79.06
245.399	84.06
245.633	70.06
245.866	81.06
246.099	81.06
246.333	87.06
246.566	70.06
246.8	76.06
247.033	75.06
247.266	78.06
247.5	93.06
247.733	78.06
247.966	90.06
248.2	78.06
248.433	84.06
248.666	70.06
248.899	86.06
249.133	71.06
249.366	89.06
249.599	93.06
249.832	100.06
250.066	88.06
250.299	73.06
250.532	86.06
250.765	59.06
250.998	77.06
251.231	89.06
251.465	74.06
251.698	84.06
251.931	83.06
252.164	74.06
252.397	86.06
252.63	88.06
252.863	81.06
253.096	79.06
253.329	84.06
253.562	74.06
253.795	78.06
254.028	85.06
254.261	101.06
254.494	71.06
254.727	80.06
254.96	80.06
255.193	84.06
255.426	85.06
255.659	77.06
255.892	91.06
256.124	92.06
256.357	85.06
256.59	77.06
256.823	74.06
257.056	69.06
257.289	75.06
257.521	73.06
257.754	92.06
257.987	91.06
258.22	95.06
258.452	85.06
258.685	83.06
258.918	91.06
259.151	87.06
259.383	76.06
259.616	100.06
259.849	83.06
260.081	76.06
260.314	83.06
260.547	96.06
260.779	85.06
261.012	77.06
261.244	85.06
261.477	95.06
261.71	94.06
261.942	110.06
262.175	109.06
262.407	97.06
262.64	86.06
262.872	97.06
263.105	56.06
263.337	79.06
263.57	75.06
263.802	94.06
264.035	100.06
264.267	86.06
264.499	92.06
264.732	91.06
264.964	89.06
265.197	79.06
265.429	83.06
265.661	74.06
265.894	85.06
266.126	94.06
266.358	87.06
266.591	82.06
266.823	82.06
267.055	89.06
267.287	91.06
267.52	88.06
267.752	82.06
267.984	79.06
268.216	74.06
268.448	86.06
268.681	97.06
268.913	92.06
269.145	89.06
269.377	104.06
269.609	89.06
269.841	81.06
270.073	82.06
270.306	81.06
270.538	94.06
270.77	87.06
271.002	84.06
271.234	71.06
271.466	89.06
271.698	86.06
271.93	86.06
272.162	101.06
272.394	103.06
272.626	89.06
272.858	82.06
273.09	85.06
273.322	84.06
273.553	86.06
273.785	83.06
274.017	88.06
274.249	110.06
274.481	84.06
274.713	101.06
274.945	78.06
275.176	90.06
275.408	74.06
275.64	67.06
275.872	109.06
276.104	97.06
276.335	85.06
276.567	98.06
276.799	92.06
277.031	92.06
277.262	95.06
277.494	71.06
277.726	82.06
277.957	94.06
278.189	95.06
278.421	101.06
278.652	100.06
278.884	80.06
279.115	85.06
279.347	95.06
279.579	90.06
279.81	85.06
280.042	80.06
280.273	95.06
280.505	90.06
280.736	93.06
280.968	82.06
281.199	93.06
281.431	89.06
281.662	77.06
281.894	95.06
282.125	87.06
282.356	107.06
282.588	135.06
282.819	104.06
283.051	106.06
283.282	92.06
283.513	89.06
283.745	70.06
283.976	87.06
284.207	93.06
284.439	78.06
284.67	98.06
284.901	92.06
285.132	107.06
285.364	91.06
285.595	75.06
285.826	88.06
286.057	96.06
286.288	86.06
286.52	94.06
286.751	83.06
286.982	93.06
287.213	81.06
287.444	91.06
287.675	92.06
287.906	88.06
288.138	81.06
288.369	95.06
288.6	85.06
288.831	82.06
289.062	92.06
289.293	95.06
289.524	89.06
289.755	101.06
289.986	89.06
290.217	94.06
290.448	90.06
290.679	90.06
290.91	100.06
291.141	94.06
291.371	90.06
291.602	79.06
291.833	85.06
292.064	83.06
292.295	99.06
292.526	80.06
292.757	90.06
292.987	94.06
293.218	97.06
293.449	92.06
293.68	90.06
293.91	96.06
294.141	92.06
294.372	86.06
294.603	91.06
294.833	97.06
295.064	78.06
295.295	89.06
295.525	83.06
295.756	99.06
295.987	103.06
296.217	136.06
296.448	121.06
296.679	93.06
296.909	79.06
297.14	98.06
297.37	95.06
297.601	89.06
297.831	89.06
298.062	92.06
298.292	89.06
298.523	97.06
298.753	94.06
298.984	78.06
299.214	88.06
299.445	98.06
299.675	93.06
299.905	94.06
300.136	89.06
300.366	102.06
300.597	92.06
300.827	84.06
301.057	97.06
301.288	86.06
301.518	91.06
301.748	111.06
301.979	105.06
302.209	96.06
302.439	91.06
302.669	91.06
302.9	93.06
303.13	97.06
303.36	90.06
303.59	109.06
303.82	93.06
304.051	95.06
304.281	93.06
304.511	94.06
304.741	103.06
304.971	100.06
305.201	78.06
305.431	85.06
305.661	84.06
305.891	85.06
306.121	90.06
306.352	97.06
306.582	92.06
306.812	91.06
307.042	92.06
307.272	87.06
307.502	82.06
307.731	83.06
307.961	85.06
308.191	90.06
308.421	100.06
308.651	99.06
308.881	92.06
309.111	98.06
309.341	95.06
309.571	93.06
309.8	87.06
310.03	101.06
310.26	94.06
310.49	98.06
310.72	95.06
310.949	102.06
311.179	87.06
311.409	98.06
311.639	91.06
311.868	112.06
312.098	90.06
312.328	91.06
312.557	96.06
312.787	100.06
313.017	105.06
313.246	94.06
313.476	84.06
313.706	97.06
313.935	110.06
314.165	98.06
314.394	92.06
314.624	92.06
314.853	106.06
315.083	87.06
315.312	80.06
315.542	76.06
315.771	99.06
316.001	98.06
316.23	97.06
316.46	81.06
316.689	81.06
316.919	92.06
317.148	91.06
317.377	98.06
317.607	108.06
317.836	98.06
318.065	80.06
318.295	95.06
318.524	95.06
318.753	97.06
318.983	110.06
319.212	105.06
319.441	107.06
319.67	93.06
319.9	99.06
320.129	93.06
320.358	95.06
320.587	93.06
320.816	99.06
321.046	112.06
321.275	98.06
321.504	95.06
321.733	81.06
321.962	89.06
322.191	105.06
322.42	107.06
322.649	107.06
322.878	111.06
323.108	107.06
323.337	131.06
323.566	122.06
323.795	154.06
324.024	195.06
324.253	375.06
324.482	777.06
324.71	1583.06
324.939	2094.06
325.168	765.06
325.397	239.06
325.626	147.06
325.855	116.06
326.084	103.06
326.313	116.06
326.542	149.06
326.77	228.06
326.999	427.06
327.228	891.06
327.457	1620.06
327.686	1271.06
327.914	364.06
328.143	183.06
328.372	155.06
328.6	125.06
328.829	114.06
329.058	126.06
329.287	138.06
329.515	121.06
329.744	91.06
329.972	90.06
330.201	108.06
330.43	101.06
330.658	110.06
330.887	142.06
331.115	103.06
331.344	107.06
331.572	102.06
331.801	89.06
332.03	109.06
332.258	106.06
332.486	89.06
332.715	99.06
332.943	98.06
333.172	103.06
333.4	103.06
333.629	107.06
333.857	106.06
334.085	101.06
334.314	95.06
334.542	98.06
334.771	91.06
334.999	94.06
335.227	93.06
335.455	73.06
335.684	83.06
335.912	100.06
336.14	96.06
336.369	90.06
336.597	89.06
336.825	101.06
337.053	94.06
337.281	87.06
337.51	96.06
337.738	88.06
337.966	83.06
338.194	95.06
338.422	102.06
338.65	99.06
338.878	93.06
339.106	86.06
339.334	98.06
339.562	88.06
339.79	89.06
340.018	75.06
340.246	100.06
340.474	85.06
340.702	96.06
340.93	106.06
341.158	92.06
341.386	93.06
341.614	70.06
341.842	90.06
342.07	92.06
342.298	93.06
342.526	89.06
342.754	110.06
342.981	78.06
343.209	108.06
343.437	103.06
343.665	82.06
343.893	98.06
344.12	89.06
344.348	92.06
344.576	99.06
344.804	73.06
345.031	107.06
345.259	93.06
345.487	98.06
345.714	95.06
345.942	106.06
346.17	89.06
346.397	103.06
346.625	107.06
346.853	96.06
347.08	87.06
347.308	86.06
347.535	104.06
347.763	91.06
347.99	102.06
348.218	101.06
348.445	93.06
348.673	99.06
348.9	101.06
349.128	106.06
349.355	89.06
349.583	96.06
349.81	88.06
350.037	92.06
350.265	97.06
350.492	105.06
350.72	99.06
350.947	96.06
351.174	92.06
351.402	123.06
351.629	105.06
351.856	104.06
352.083	101.06
352.311	114.06
352.538	119.06
352.765	114.06
352.992	112.06
353.22	120.06
353.447	102.06
353.674	109.06
353.901	99.06
354.128	106.06
354.355	123.06
354.583	103.06
354.81	99.06
355.037	86.06
355.264	89.06
355.491	79.06
355.718	101.06
355.945	103.06
356.172	103.06
356.399	105.06
356.626	93.06
356.853	100.06
357.08	102.06
357.307	96.06
357.534	96.06
357.761	94.06
357.988	108.06
358.215	98.06
358.441	89.06
358.668	97.06
358.895	90.06
359.122	91.06
359.349	67.06
359.576	70.06
359.802	83.06
360.029	102.06
360.256	104.06
360.483	100.06
360.709	105.06
360.936	99.06
361.163	95.06
361.39	100.06
361.616	93.06
361.843	101.06
362.07	91.06
362.296	90.06
362.523	97.06
362.749	99.06
362.976	93.06
363.203	100.06
363.429	86.06
363.656	91.06
363.882	81.06
364.109	95.06
364.335	90.06
364.562	83.06
364.788	88.06
365.015	85.06
365.241	91.06
365.468	114.06
365.694	116.06
365.92	95.06
366.147	103.06
366.373	91.06
366.599	85.06
366.826	95.06
367.052	107.06
367.278	85.06
367.505	94.06
367.731	101.06
367.957	80.06
368.184	100.06
368.41	104.06
368.636	116.06
368.862	126.06
369.089	114.06
369.315	103.06
369.541	96.06
369.767	105.06
369.993	89.06
370.219	78.06
370.445	83.06
370.672	92.06
370.898	84.06
371.124	99.06
371.35	98.06
371.576	98.06
371.802	97.06
372.028	93.06
372.254	85.06
372.48	90.06
372.706	93.06
372.932	92.06
373.158	95.06
373.384	107.06
373.61	95.06
373.835	97.06
374.061	97.06
374.287	92.06
374.513	91.06
374.739	84.06
374.965	92.06
375.191	82.06
375.416	90.06
375.642	95.06
375.868	90.06
376.094	89.06
376.319	96.06
376.545	92.06
376.771	102.06
376.997	87.06
377.222	98.06
377.448	93.06
377.674	87.06
377.899	99.06
378.125	96.06
378.35	93.06
378.576	88.06
378.802	81.06
379.027	84.06
379.253	92.06
379.478	99.06
379.704	96.06
379.929	75.06
380.155	94.06
380.38	84.06
380.606	96.06
380.831	98.06
381.057	103.06
381.282	89.06
381.507	104.06
381.733	86.06
381.958	97.06
382.184	98.06
382.409	102.06
382.634	97.06
382.86	93.06
383.085	107.06
383.31	99.06
383.535	102.06
383.761	86.06
383.986	91.06
384.211	105.06
384.436	96.06
384.662	108.06
384.887	107.06
385.112	111.06
385.337	104.06
385.562	113.06
385.787	112.06
386.013	103.06
386.238	113.06
386.463	110.06
386.688	106.06
386.913	91.06
387.138	94.06
387.363	111.06
387.588	98.06
387.813	99.06
388.038	95.06
388.263	95.06
388.488	108.06
388.713	100.06
388.938	104.06
389.163	102.06
389.387	87.06
389.612	103.06
389.837	103.06
390.062	98.06
390.287	83.06
390.512	106.06
390.736	98.06
390.961	87.06
391.186	92.06
391.411	116.06
391.636	97.06
391.86	97.06
392.085	100.06
392.31	85.06
392.534	86.06
392.759	84.06
392.984	96.06
393.208	82.06
393.433	92.06
393.658	84.06
393.882	99.06
394.107	83.06
394.331	95.06
394.556	78.06
394.78	95.06
395.005	86.06
395.229	82.06
395.454	86.06
395.678	94.06
395.903	102.06
396.127	88.06
396.352	81.06
396.576	97.06
396.801	86.06
397.025	102.06
397.249	87.06
397.474	97.06
397.698	93.06
397.922	100.06
398.147	87.06
398.371	109.06
398.595	88.06
398.82	84.06
399.044	97.06
399.268	89.06
399.492	83.06
399.717	96.06
399.941	110.06
400.165	99.06
400.389	97.06
400.613	96.06
400.837	81.06
401.062	84.06
401.286	84.06
401.51	106.06
401.734	100.06
401.958	115.06
402.182	117.06
402.406	173.06
402.63	108.06
402.854	93.06
403.078	77.06
403.302	80.06
403.526	98.06
403.75	100.06
403.974	85.06
404.198	85.06
404.422	101.06
404.645	88.06
404.869	84.06
405.093	106.06
405.317	85.06
405.541	104.06
405.765	102.06
405.988	123.06
406.212	177.06
406.436	218.06
406.66	149.06
406.883	96.06
407.107	90.06
407.331	107.06
407.555	106.06
407.778	94.06
408.002	100.06
408.226	86.06
408.449	89.06
408.673	81.06
408.896	98.06
409.12	102.06
409.344	92.06
409.567	83.06
409.791	89.06
410.014	89.06
410.238	98.06
410.461	82.06
410.685	95.06
410.908	87.06
411.132	107.06
411.355	116.06
411.578	98.06
411.802	78.06
412.025	84.06
412.249	94.06
412.472	98.06
412.695	90.06
412.919	69.06
413.142	90.06
413.365	107.06
413.589	94.06
413.812	85.06
414.035	92.06
414.258	95.06
414.482	91.06
414.705	91.06
414.928	101.06
415.151	100.06
415.374	99.06
415.597	111.06
415.821	95.06
416.044	107.06
416.267	85.06
416.49	86.06
416.713	86.06
416.936	91.06
417.159	79.06
417.382	77.06
417.605	87.06
417.828	103.06
418.051	100.06
418.274	99.06
418.497	96.06
418.72	90.06
418.943	94.06
419.166	90.06
419.389	98.06
419.611	99.06
419.834	86.06
420.057	88.06
420.28	88.06
420.503	81.06
420.726	98.06
420.948	75.06
421.171	106.06
421.394	86.06
421.617	87.06
421.839	90.06
422.062	91.06
422.285	96.06
422.507	98.06
422.73	115.06
422.953	91.06
423.175	108.06
423.398	75.06
423.621	92.06
423.843	89.06
424.066	83.06
424.288	95.06
424.511	82.06
424.733	103.06
424.956	107.06
425.178	100.06
425.401	109.06
425.623	95.06
425.846	101.06
426.068	89.06
426.291	81.06
426.513	96.06
426.735	91.06
426.958	95.06
427.18	92.06
427.402	136.06
427.625	153.06
427.847	128.06
428.069	71.06
428.292	106.06
428.514	77.06
428.736	85.06
428.958	68.06
429.181	79.06
429.403	73.06
429.625	89.06
429.847	85.06
430.069	111.06
430.292	89.06
430.514	96.06
430.736	83.06
430.958	91.06
431.18	98.06
431.402	100.06
431.624	86.06
431.846	90.06
432.068	88.06
432.29	96.06
432.512	94.06
432.734	92.06
432.956	103.06
433.178	89.06
433.4	102.06
433.622	85.06
433.844	85.06
434.066	77.06
434.287	101.06
434.509	82.06
434.731	89.06
434.953	94.06
435.175	91.06
435.397	107.06
435.618	90.06
435.84	104.06
436.062	124.06
436.284	118.06
436.505	103.06
436.727	100.06
436.949	89.06
437.17	95.06
437.392	80.06
437.614	89.06
437.835	107.06
438.057	113.06
438.278	106.06
438.5	102.06
438.721	124.06
438.943	112.06
439.165	100.06
439.386	89.06
439.608	92.06
439.829	103.06
440.05	124.06
440.272	127.06
440.493	89.06
440.715	87.06
440.936	105.06
441.158	85.06
441.379	91.06
441.6	84.06
441.822	91.06
442.043	81.06
442.264	90.06
442.486	98.06
442.707	105.06
442.928	102.06
443.149	153.06
443.371	130.06
443.592	121.06
443.813	129.06
444.034	113.06
444.255	87.06
444.476	84.06
444.698	89.06
444.919	93.06
445.14	127.06
445.361	124.06
445.582	99.06
445.803	133.06
446.024	129.06
446.245	132.06
446.466	111.06
446.687	97.06
446.908	86.06
447.129	90.06
447.35	93.06
447.571	92.06
447.792	106.06
448.013	98.06
448.234	107.06
448.455	93.06
448.675	120.06
448.896	121.06
449.117	98.06
449.338	114.06
449.559	106.06
449.779	118.06
450	100.06
450.221	98.06
450.442	100.06
450.662	96.06
450.883	86.06
451.104	118.06
451.324	95.06
451.545	92.06
451.766	91.06
451.986	83.06
452.207	86.06
452.428	100.06
452.648	91.06
452.869	105.06
453.089	108.06
453.31	108.06
453.53	88.06
453.751	93.06
453.971	105.06
454.192	107.06
454.412	103.06
454.633	106.06
454.853	84.06
455.073	92.06
455.294	93.06
455.514	100.06
455.734	94.06
455.955	86.06
456.175	97.06
456.395	68.06
456.616	89.06
456.836	97.06
457.056	101.06
457.276	86.06
457.497	96.06
457.717	93.06
457.937	93.06
458.157	90.06
458.377	103.06
458.598	102.06
458.818	144.06
459.038	134.06
459.258	102.06
459.478	81.06
459.698	89.06
459.918	93.06
460.138	89.06
460.358	77.06
460.578	74.06
460.798	87.06
461.018	81.06
461.238	79.06
461.458	89.06
461.678	94.06
461.898	102.06
462.118	91.06
462.338	92.06
462.558	77.06
462.777	89.06
462.997	86.06
463.217	85.06
463.437	93.06
463.657	76.06
463.876	77.06
464.096	88.06
464.316	101.06
464.536	82.06
464.755	93.06
464.975	100.06
465.195	155.06
465.414	146.06
465.634	97.06
465.854	90.06
466.073	99.06
466.293	93.06
466.512	77.06
466.732	88.06
466.951	97.06
467.171	83.06
467.391	104.06
467.61	99.06
467.829	93.06
468.049	89.06
468.268	78.06
468.488	82.06
468.707	89.06
468.927	87.06
469.146	77.06
469.365	87.06
469.585	102.06
469.804	111.06
470.023	105.06
470.243	100.06
470.462	102.06
470.681	99.06
470.901	98.06
471.12	90.06
471.339	91.06
471.558	99.06
471.777	95.06
471.997	92.06
472.216	99.06
472.435	86.06
472.654	84.06
472.873	98.06
473.092	97.06
473.311	95.06
473.53	97.06
473.749	83.06
473.968	91.06
474.187	106.06
474.406	96.06
474.625	82.06
474.844	104.06
475.063	85.06
475.282	105.06
475.501	84.06
475.72	95.06
475.939	101.06
476.158	81.06
476.377	100.06
476.596	90.06
476.814	92.06
477.033	97.06
477.252	96.06
477.471	103.06
477.69	83.06
477.908	85.06
478.127	102.06
478.346	82.06
478.564	89.06
478.783	88.06
479.002	77.06
479.22	89.06
479.439	113.06
479.658	117.06
479.876	99.06
480.095	86.06
480.313	87.06
480.532	89.06
480.751	93.06
480.969	89.06
481.188	103.06
481.406	94.06
481.624	90.06
481.843	82.06
482.061	80.06
482.28	90.06
482.498	91.06
482.717	84.06
482.935	79.06
483.153	99.06
483.372	109.06
483.59	98.06
483.808	98.06
484.027	83.06
484.245	86.06
484.463	86.06
484.681	95.06
484.9	94.06
485.118	89.06
485.336	94.06
485.554	87.06
485.772	98.06
485.99	99.06
486.209	110.06
486.427	102.06
486.645	102.06
486.863	111.06
487.081	98.06
487.299	90.06
487.517	111.06
487.735	91.06
487.953	112.06
488.171	94.06
488.389	94.06
488.607	96.06
488.825	94.06
489.043	95.06
489.261	104.06
489.479	85.06
489.696	87.06
489.914	96.06
490.132	90.06
490.35	108.06
490.568	93.06
490.786	86.06
491.003	90.06
491.221	91.06
491.439	97.06
491.657	89.06
491.874	98.06
492.092	98.06
492.31	89.06
492.527	108.06
492.745	100.06
492.963	100.06
493.18	101.06
493.398	86.06
493.615	90.06
493.833	81.06
494.05	103.06
494.268	95.06
494.485	95.06
494.703	92.06
494.92	92.06
495.138	87.06
495.355	98.06
495.573	97.06
495.79	90.06
496.008	90.06
496.225	100.06
496.442	92.06
496.66	101.06
496.877	99.06
497.094	86.06
497.312	91.06
497.529	81.06
497.746	104.06
497.963	89.06
498.181	100.06
498.398	90.06
498.615	114.06
498.832	98.06
499.049	91.06
499.267	85.06
499.484	89.06
499.701	86.06
499.918	85.06
500.135	87.06
500.352	80.06
500.569	89.06
500.786	96.06
501.003	93.06
501.22	106.06
501.437	93.06
501.654	91.06
501.871	102.06
502.088	87.06
502.305	90.06
502.522	95.06
502.739	85.06
502.956	90.06
503.172	104.06
503.389	97.06
503.606	93.06
503.823	99.06
504.04	97.06
504.256	99.06
504.473	93.06
504.69	90.06
504.907	83.06
505.123	91.06
505.34	80.06
505.557	83.06
505.773	93.06
505.99	87.06
506.207	96.06
506.423	88.06
506.64	95.06
506.856	83.06
507.073	85.06
507.289	90.06
507.506	107.06
507.722	115.06
507.939	112.06
508.155	89.06
508.372	98.06
508.588	102.06
508.805	94.06
509.021	98.06
509.238	89.06
509.454	108.06
509.67	109.06
509.887	107.06
510.103	146.06
510.319	211.06
510.536	753.06
510.752	2308.06
510.968	630.06
511.184	163.06
511.401	119.06
511.617	106.06
511.833	101.06
512.049	90.06
512.265	100.06
512.481	97.06
512.698	77.06
512.914	97.06
513.13	92.06
513.346	102.06
513.562	87.06
513.778	90.06
513.994	103.06
514.21	98.06
514.426	118.06
514.642	126.06
514.858	129.06
515.074	153.06
