Data from Uncirc_1994_H10_HRD10591_00002.txt Node
Date: Wed Jan 03 11:39:21 EST 2024
User: Yrep
Spectrometer: HR+D1059
Trigger mode: 1
Integration Time (sec): 1.000000E-1
Scans to average: 1
Electric dark correction enabled: true
Nonlinearity correction enabled: false
Boxcar width: 0
XAxis mode: Wavelengths
Number of Pixels in Spectrum: 2048
>>>>>Begin Spectral Data<<<<<
223.165	-17.25
223.4	-17.25
223.635	-17.25
223.869	-13.25
224.104	-22.25
224.338	-17.25
224.573	-20.25
224.808	-21.25
225.042	4.75
225.277	3.75
225.511	-7.25
225.746	-7.25
225.98	4.75
226.215	23.75
226.449	9.75
226.683	17.75
226.918	24.75
227.152	36.75
227.387	35.75
227.621	41.75
227.856	40.75
228.09	44.75
228.324	42.75
228.559	53.75
228.793	59.75
229.027	56.75
229.262	74.75
229.496	59.75
229.73	72.75
229.964	74.75
230.199	61.75
230.433	71.75
230.667	80.75
230.901	86.75
231.136	86.75
231.37	71.75
231.604	74.75
231.838	71.75
232.072	75.75
232.306	81.75
232.541	74.75
232.775	71.75
233.009	72.75
233.243	81.75
233.477	77.75
233.711	85.75
233.945	86.75
234.179	77.75
234.413	68.75
234.647	72.75
234.881	80.75
235.115	81.75
235.349	86.75
235.583	72.75
235.817	78.75
236.051	88.75
236.285	82.75
236.519	80.75
236.753	92.75
236.987	72.75
237.221	90.75
237.455	78.75
237.689	86.75
237.922	73.75
238.156	77.75
238.39	69.75
238.624	71.75
238.858	71.75
239.091	72.75
239.325	78.75
239.559	82.75
239.793	95.75
240.027	78.75
240.26	78.75
240.494	69.75
240.728	85.75
240.961	74.75
241.195	74.75
241.429	66.75
241.662	85.75
241.896	70.75
242.13	81.75
242.363	72.75
242.597	75.75
242.83	80.75
243.064	85.75
243.298	78.75
243.531	73.75
243.765	63.75
243.998	72.75
244.232	71.75
244.465	91.75
244.699	70.75
244.932	84.75
245.166	71.75
245.399	91.75
245.633	77.75
245.866	72.75
246.099	69.75
246.333	68.75
246.566	82.75
246.8	98.75
247.033	69.75
247.266	70.75
247.5	65.75
247.733	78.75
247.966	90.75
248.2	66.75
248.433	72.75
248.666	75.75
248.899	84.75
249.133	79.75
249.366	101.75
249.599	86.75
249.832	80.75
250.066	97.75
250.299	69.75
250.532	79.75
250.765	68.75
250.998	73.75
251.231	76.75
251.465	72.75
251.698	94.75
251.931	75.75
252.164	58.75
252.397	86.75
252.63	75.75
252.863	76.75
253.096	80.75
253.329	72.75
253.562	69.75
253.795	76.75
254.028	62.75
254.261	80.75
254.494	75.75
254.727	77.75
254.96	95.75
255.193	85.75
255.426	80.75
255.659	72.75
255.892	73.75
256.124	86.75
256.357	69.75
256.59	83.75
256.823	73.75
257.056	74.75
257.289	89.75
257.521	82.75
257.754	93.75
257.987	84.75
258.22	86.75
258.452	73.75
258.685	77.75
258.918	76.75
259.151	73.75
259.383	78.75
259.616	80.75
259.849	74.75
260.081	92.75
260.314	83.75
260.547	76.75
260.779	95.75
261.012	76.75
261.244	80.75
261.477	86.75
261.71	87.75
261.942	103.75
262.175	95.75
262.407	93.75
262.64	67.75
262.872	88.75
263.105	75.75
263.337	73.75
263.57	91.75
263.802	72.75
264.035	81.75
264.267	82.75
264.499	87.75
264.732	81.75
264.964	88.75
265.197	82.75
265.429	71.75
265.661	68.75
265.894	66.75
266.126	90.75
266.358	81.75
266.591	76.75
266.823	76.75
267.055	70.75
267.287	76.75
267.52	74.75
267.752	88.75
267.984	88.75
268.216	83.75
268.448	81.75
268.681	96.75
268.913	84.75
269.145	79.75
269.377	78.75
269.609	88.75
269.841	96.75
270.073	94.75
270.306	85.75
270.538	84.75
270.77	89.75
271.002	74.75
271.234	79.75
271.466	80.75
271.698	90.75
271.93	65.75
272.162	79.75
272.394	81.75
272.626	83.75
272.858	70.75
273.09	82.75
273.322	62.75
273.553	87.75
273.785	90.75
274.017	70.75
274.249	83.75
274.481	83.75
274.713	74.75
274.945	81.75
275.176	78.75
275.408	90.75
275.64	76.75
275.872	84.75
276.104	94.75
276.335	89.75
276.567	85.75
276.799	95.75
277.031	85.75
277.262	84.75
277.494	91.75
277.726	75.75
277.957	90.75
278.189	92.75
278.421	82.75
278.652	92.75
278.884	80.75
279.115	74.75
279.347	94.75
279.579	93.75
279.81	88.75
280.042	86.75
280.273	90.75
280.505	79.75
280.736	77.75
280.968	72.75
281.199	83.75
281.431	86.75
281.662	84.75
281.894	81.75
282.125	93.75
282.356	101.75
282.588	113.75
282.819	97.75
283.051	82.75
283.282	91.75
283.513	88.75
283.745	80.75
283.976	94.75
284.207	80.75
284.439	94.75
284.67	72.75
284.901	76.75
285.132	59.75
285.364	79.75
285.595	84.75
285.826	90.75
286.057	79.75
286.288	76.75
286.52	79.75
286.751	79.75
286.982	71.75
287.213	79.75
287.444	79.75
287.675	79.75
287.906	84.75
288.138	75.75
288.369	96.75
288.6	90.75
288.831	87.75
289.062	86.75
289.293	82.75
289.524	88.75
289.755	86.75
289.986	89.75
290.217	85.75
290.448	86.75
290.679	74.75
290.91	86.75
291.141	90.75
291.371	86.75
291.602	89.75
291.833	95.75
292.064	77.75
292.295	87.75
292.526	85.75
292.757	92.75
292.987	81.75
293.218	78.75
293.449	86.75
293.68	101.75
293.91	86.75
294.141	81.75
294.372	81.75
294.603	97.75
294.833	89.75
295.064	95.75
295.295	88.75
295.525	76.75
295.756	90.75
295.987	106.75
296.217	128.75
296.448	107.75
296.679	88.75
296.909	88.75
297.14	85.75
297.37	86.75
297.601	78.75
297.831	92.75
298.062	85.75
298.292	85.75
298.523	76.75
298.753	88.75
298.984	94.75
299.214	81.75
299.445	100.75
299.675	88.75
299.905	96.75
300.136	89.75
300.366	92.75
300.597	86.75
300.827	90.75
301.057	90.75
301.288	88.75
301.518	80.75
301.748	72.75
301.979	98.75
302.209	84.75
302.439	100.75
302.669	82.75
302.9	87.75
303.13	84.75
303.36	78.75
303.59	97.75
303.82	96.75
304.051	94.75
304.281	87.75
304.511	95.75
304.741	72.75
304.971	85.75
305.201	93.75
305.431	79.75
305.661	98.75
305.891	74.75
306.121	85.75
306.352	82.75
306.582	92.75
306.812	88.75
307.042	102.75
307.272	90.75
307.502	93.75
307.731	88.75
307.961	99.75
308.191	84.75
308.421	91.75
308.651	99.75
308.881	94.75
309.111	96.75
309.341	93.75
309.571	97.75
309.8	98.75
310.03	77.75
310.26	99.75
310.49	96.75
310.72	87.75
310.949	86.75
311.179	89.75
311.409	84.75
311.639	96.75
311.868	92.75
312.098	93.75
312.328	88.75
312.557	104.75
312.787	95.75
313.017	101.75
313.246	76.75
313.476	85.75
313.706	95.75
313.935	94.75
314.165	104.75
314.394	83.75
314.624	90.75
314.853	91.75
315.083	88.75
315.312	91.75
315.542	96.75
315.771	80.75
316.001	89.75
316.23	90.75
316.46	87.75
316.689	82.75
316.919	96.75
317.148	91.75
317.377	97.75
317.607	92.75
317.836	101.75
318.065	74.75
318.295	78.75
318.524	87.75
318.753	86.75
318.983	88.75
319.212	91.75
319.441	95.75
319.67	104.75
319.9	87.75
320.129	88.75
320.358	92.75
320.587	92.75
320.816	89.75
321.046	104.75
321.275	90.75
321.504	85.75
321.733	89.75
321.962	82.75
322.191	100.75
322.42	94.75
322.649	110.75
322.878	114.75
323.108	101.75
323.337	98.75
323.566	102.75
323.795	120.75
324.024	173.75
324.253	291.75
324.482	647.75
324.71	1325.75
324.939	1756.75
325.168	638.75
325.397	207.75
325.626	118.75
325.855	121.75
326.084	117.75
326.313	120.75
326.542	132.75
326.77	210.75
326.999	381.75
327.228	739.75
327.457	1328.75
327.686	1050.75
327.914	280.75
328.143	167.75
328.372	120.75
328.6	94.75
328.829	94.75
329.058	102.75
329.287	110.75
329.515	105.75
329.744	79.75
329.972	94.75
330.201	93.75
330.43	110.75
330.658	109.75
330.887	112.75
331.115	101.75
331.344	81.75
331.572	102.75
331.801	109.75
332.03	92.75
332.258	94.75
332.486	90.75
332.715	95.75
332.943	79.75
333.172	97.75
333.4	101.75
333.629	89.75
333.857	98.75
334.085	85.75
334.314	81.75
334.542	99.75
334.771	86.75
334.999	90.75
335.227	86.75
335.455	76.75
335.684	104.75
335.912	104.75
336.14	97.75
336.369	89.75
336.597	98.75
336.825	90.75
337.053	84.75
337.281	92.75
337.51	77.75
337.738	87.75
337.966	82.75
338.194	92.75
338.422	94.75
338.65	103.75
338.878	91.75
339.106	98.75
339.334	89.75
339.562	89.75
339.79	90.75
340.018	76.75
340.246	88.75
340.474	96.75
340.702	93.75
340.93	88.75
341.158	84.75
341.386	96.75
341.614	80.75
341.842	88.75
342.07	95.75
342.298	83.75
342.526	94.75
342.754	83.75
342.981	88.75
343.209	84.75
343.437	108.75
343.665	88.75
343.893	70.75
344.12	89.75
344.348	87.75
344.576	86.75
344.804	85.75
345.031	108.75
345.259	101.75
345.487	85.75
345.714	88.75
345.942	86.75
346.17	87.75
346.397	91.75
346.625	93.75
346.853	83.75
347.08	88.75
347.308	88.75
347.535	87.75
347.763	85.75
347.99	95.75
348.218	105.75
348.445	103.75
348.673	97.75
348.9	93.75
349.128	116.75
349.355	99.75
349.583	86.75
349.81	102.75
350.037	93.75
350.265	95.75
350.492	90.75
350.72	85.75
350.947	105.75
351.174	93.75
351.402	107.75
351.629	96.75
351.856	84.75
352.083	88.75
352.311	104.75
352.538	91.75
352.765	89.75
352.992	89.75
353.22	112.75
353.447	106.75
353.674	100.75
353.901	76.75
354.128	79.75
354.355	98.75
354.583	100.75
354.81	102.75
355.037	89.75
355.264	100.75
355.491	65.75
355.718	78.75
355.945	101.75
356.172	90.75
356.399	88.75
356.626	92.75
356.853	106.75
357.08	89.75
357.307	93.75
357.534	98.75
357.761	109.75
357.988	92.75
358.215	89.75
358.441	82.75
358.668	102.75
358.895	93.75
359.122	93.75
359.349	88.75
359.576	86.75
359.802	91.75
360.029	101.75
360.256	99.75
360.483	95.75
360.709	82.75
360.936	90.75
361.163	91.75
361.39	103.75
361.616	78.75
361.843	90.75
362.07	95.75
362.296	77.75
362.523	101.75
362.749	91.75
362.976	96.75
363.203	85.75
363.429	85.75
363.656	81.75
363.882	86.75
364.109	89.75
364.335	102.75
364.562	95.75
364.788	82.75
365.015	104.75
365.241	100.75
365.468	102.75
365.694	85.75
365.92	83.75
366.147	80.75
366.373	91.75
366.599	89.75
366.826	86.75
367.052	88.75
367.278	89.75
367.505	86.75
367.731	90.75
367.957	94.75
368.184	98.75
368.41	102.75
368.636	103.75
368.862	117.75
369.089	111.75
369.315	91.75
369.541	89.75
369.767	89.75
369.993	86.75
370.219	83.75
370.445	85.75
370.672	81.75
370.898	85.75
371.124	77.75
371.35	81.75
371.576	90.75
371.802	86.75
372.028	83.75
372.254	91.75
372.48	82.75
372.706	80.75
372.932	76.75
373.158	93.75
373.384	93.75
373.61	92.75
373.835	88.75
374.061	106.75
374.287	79.75
374.513	79.75
374.739	92.75
374.965	82.75
375.191	92.75
375.416	89.75
375.642	101.75
375.868	89.75
376.094	97.75
376.319	91.75
376.545	79.75
376.771	94.75
376.997	88.75
377.222	108.75
377.448	84.75
377.674	89.75
377.899	108.75
378.125	100.75
378.35	94.75
378.576	91.75
378.802	89.75
379.027	103.75
379.253	89.75
379.478	99.75
379.704	74.75
379.929	92.75
380.155	82.75
380.38	84.75
380.606	99.75
380.831	94.75
381.057	71.75
381.282	93.75
381.507	86.75
381.733	102.75
381.958	93.75
382.184	87.75
382.409	92.75
382.634	86.75
382.86	96.75
383.085	102.75
383.31	89.75
383.535	103.75
383.761	98.75
383.986	90.75
384.211	99.75
384.436	86.75
384.662	102.75
384.887	88.75
385.112	105.75
385.337	92.75
385.562	100.75
385.787	118.75
386.013	116.75
386.238	113.75
386.463	89.75
386.688	101.75
386.913	93.75
387.138	96.75
387.363	109.75
387.588	98.75
387.813	102.75
388.038	106.75
388.263	117.75
388.488	104.75
388.713	98.75
388.938	90.75
389.163	78.75
389.387	87.75
389.612	103.75
389.837	87.75
390.062	91.75
390.287	80.75
390.512	88.75
390.736	92.75
390.961	90.75
391.186	90.75
391.411	94.75
391.636	85.75
391.86	79.75
392.085	79.75
392.31	81.75
392.534	96.75
392.759	76.75
392.984	83.75
393.208	82.75
393.433	118.75
393.658	94.75
393.882	97.75
394.107	83.75
394.331	85.75
394.556	86.75
394.78	85.75
395.005	85.75
395.229	85.75
395.454	88.75
395.678	79.75
395.903	82.75
396.127	85.75
396.352	88.75
396.576	93.75
396.801	97.75
397.025	96.75
397.249	87.75
397.474	82.75
397.698	90.75
397.922	85.75
398.147	89.75
398.371	79.75
398.595	87.75
398.82	79.75
399.044	95.75
399.268	89.75
399.492	84.75
399.717	92.75
399.941	78.75
400.165	91.75
400.389	86.75
400.613	82.75
400.837	78.75
401.062	87.75
401.286	84.75
401.51	77.75
401.734	93.75
401.958	104.75
402.182	113.75
402.406	134.75
402.63	104.75
402.854	81.75
403.078	84.75
403.302	74.75
403.526	89.75
403.75	90.75
403.974	91.75
404.198	64.75
404.422	89.75
404.645	86.75
404.869	94.75
405.093	105.75
405.317	99.75
405.541	96.75
405.765	84.75
405.988	114.75
406.212	151.75
406.436	169.75
406.66	121.75
406.883	81.75
407.107	79.75
407.331	95.75
407.555	91.75
407.778	101.75
408.002	94.75
408.226	83.75
408.449	68.75
408.673	78.75
408.896	89.75
409.12	91.75
409.344	98.75
409.567	102.75
409.791	104.75
410.014	97.75
410.238	95.75
410.461	101.75
410.685	92.75
410.908	88.75
411.132	81.75
411.355	87.75
411.578	93.75
411.802	90.75
412.025	89.75
412.249	88.75
412.472	90.75
412.695	90.75
412.919	89.75
413.142	97.75
413.365	83.75
413.589	84.75
413.812	95.75
414.035	73.75
414.258	86.75
414.482	87.75
414.705	102.75
414.928	93.75
415.151	92.75
415.374	84.75
415.597	86.75
415.821	82.75
416.044	82.75
416.267	64.75
416.49	88.75
416.713	93.75
416.936	79.75
417.159	86.75
417.382	88.75
417.605	88.75
417.828	91.75
418.051	98.75
418.274	92.75
418.497	98.75
418.72	89.75
418.943	89.75
419.166	79.75
419.389	89.75
419.611	82.75
419.834	92.75
420.057	76.75
420.28	73.75
420.503	94.75
420.726	100.75
420.948	101.75
421.171	79.75
421.394	99.75
421.617	99.75
421.839	98.75
422.062	77.75
422.285	75.75
422.507	101.75
422.73	96.75
422.953	95.75
423.175	80.75
423.398	68.75
423.621	85.75
423.843	76.75
424.066	78.75
424.288	89.75
424.511	84.75
424.733	92.75
424.956	98.75
425.178	97.75
425.401	86.75
425.623	106.75
425.846	80.75
426.068	79.75
426.291	77.75
426.513	89.75
426.735	88.75
426.958	102.75
427.18	102.75
427.402	101.75
427.625	126.75
427.847	114.75
428.069	88.75
428.292	78.75
428.514	72.75
428.736	75.75
428.958	75.75
429.181	86.75
429.403	86.75
429.625	93.75
429.847	86.75
430.069	89.75
430.292	82.75
430.514	78.75
430.736	73.75
430.958	73.75
431.18	78.75
431.402	86.75
431.624	84.75
431.846	86.75
432.068	81.75
432.29	78.75
432.512	90.75
432.734	87.75
432.956	90.75
433.178	96.75
433.4	85.75
433.622	81.75
433.844	93.75
434.066	97.75
434.287	89.75
434.509	93.75
434.731	87.75
434.953	86.75
435.175	88.75
435.397	97.75
435.618	85.75
435.84	91.75
436.062	103.75
436.284	108.75
436.505	88.75
436.727	91.75
436.949	90.75
437.17	81.75
437.392	84.75
437.614	83.75
437.835	99.75
438.057	112.75
438.278	94.75
438.5	96.75
438.721	98.75
438.943	105.75
439.165	86.75
439.386	83.75
439.608	80.75
439.829	94.75
440.05	102.75
440.272	111.75
440.493	88.75
440.715	94.75
440.936	85.75
441.158	80.75
441.379	96.75
441.6	81.75
441.822	82.75
442.043	84.75
442.264	88.75
442.486	101.75
442.707	94.75
442.928	99.75
443.149	109.75
443.371	99.75
443.592	85.75
443.813	103.75
444.034	105.75
444.255	82.75
444.476	91.75
444.698	80.75
444.919	79.75
445.14	121.75
445.361	110.75
445.582	100.75
445.803	117.75
446.024	108.75
446.245	111.75
446.466	108.75
446.687	82.75
446.908	107.75
447.129	79.75
447.35	88.75
447.571	75.75
447.792	66.75
448.013	82.75
448.234	89.75
448.455	91.75
448.675	114.75
448.896	103.75
449.117	84.75
449.338	92.75
449.559	109.75
449.779	117.75
450	90.75
450.221	81.75
450.442	91.75
450.662	84.75
450.883	84.75
451.104	101.75
451.324	85.75
451.545	84.75
451.766	85.75
451.986	90.75
452.207	82.75
452.428	70.75
452.648	94.75
452.869	87.75
453.089	92.75
453.31	102.75
453.53	89.75
453.751	101.75
453.971	88.75
454.192	105.75
454.412	88.75
454.633	91.75
454.853	88.75
455.073	72.75
455.294	92.75
455.514	110.75
455.734	91.75
455.955	88.75
456.175	92.75
456.395	85.75
456.616	81.75
456.836	86.75
457.056	66.75
457.276	90.75
457.497	92.75
457.717	87.75
457.937	76.75
458.157	90.75
458.377	91.75
458.598	103.75
458.818	109.75
459.038	135.75
459.258	110.75
459.478	81.75
459.698	93.75
459.918	86.75
460.138	100.75
460.358	64.75
460.578	84.75
460.798	94.75
461.018	91.75
461.238	83.75
461.458	75.75
461.678	82.75
461.898	88.75
462.118	80.75
462.338	87.75
462.558	73.75
462.777	98.75
462.997	71.75
463.217	96.75
463.437	84.75
463.657	90.75
463.876	65.75
464.096	91.75
464.316	98.75
464.536	100.75
464.755	102.75
464.975	94.75
465.195	153.75
465.414	126.75
465.634	75.75
465.854	82.75
466.073	92.75
466.293	81.75
466.512	65.75
466.732	84.75
466.951	95.75
467.171	82.75
467.391	103.75
467.61	100.75
467.829	87.75
468.049	76.75
468.268	76.75
468.488	78.75
468.707	66.75
468.927	74.75
469.146	71.75
469.365	84.75
469.585	79.75
469.804	92.75
470.023	106.75
470.243	90.75
470.462	89.75
470.681	84.75
470.901	88.75
471.12	77.75
471.339	93.75
471.558	79.75
471.777	78.75
471.997	79.75
472.216	80.75
472.435	91.75
472.654	92.75
472.873	97.75
473.092	73.75
473.311	72.75
473.53	81.75
473.749	103.75
473.968	89.75
474.187	117.75
474.406	88.75
474.625	72.75
474.844	88.75
475.063	90.75
475.282	79.75
475.501	83.75
475.72	94.75
475.939	83.75
476.158	74.75
476.377	84.75
476.596	95.75
476.814	93.75
477.033	83.75
477.252	93.75
477.471	83.75
477.69	81.75
477.908	97.75
478.127	102.75
478.346	80.75
478.564	78.75
478.783	74.75
479.002	90.75
479.22	75.75
479.439	93.75
479.658	78.75
479.876	90.75
480.095	83.75
480.313	75.75
480.532	94.75
480.751	73.75
480.969	86.75
481.188	85.75
481.406	85.75
481.624	88.75
481.843	89.75
482.061	80.75
482.28	96.75
482.498	91.75
482.717	84.75
482.935	101.75
483.153	77.75
483.372	91.75
483.59	96.75
483.808	89.75
484.027	96.75
484.245	79.75
484.463	90.75
484.681	98.75
484.9	92.75
485.118	94.75
485.336	98.75
485.554	94.75
485.772	92.75
485.99	95.75
486.209	98.75
486.427	95.75
486.645	95.75
486.863	111.75
487.081	100.75
487.299	97.75
487.517	89.75
487.735	98.75
487.953	87.75
488.171	92.75
488.389	96.75
488.607	95.75
488.825	99.75
489.043	78.75
489.261	77.75
489.479	77.75
489.696	85.75
489.914	92.75
490.132	102.75
490.35	87.75
490.568	79.75
490.786	81.75
491.003	76.75
491.221	85.75
491.439	81.75
491.657	74.75
491.874	92.75
492.092	92.75
492.31	88.75
492.527	90.75
492.745	73.75
492.963	76.75
493.18	69.75
493.398	94.75
493.615	82.75
493.833	97.75
494.05	97.75
494.268	81.75
494.485	92.75
494.703	92.75
494.92	88.75
495.138	88.75
495.355	89.75
495.573	84.75
495.79	85.75
496.008	92.75
496.225	94.75
496.442	90.75
496.66	94.75
496.877	93.75
497.094	85.75
497.312	85.75
497.529	69.75
497.746	90.75
497.963	97.75
498.181	85.75
498.398	86.75
498.615	108.75
498.832	95.75
499.049	79.75
499.267	87.75
499.484	86.75
499.701	79.75
499.918	88.75
500.135	91.75
500.352	95.75
500.569	81.75
500.786	79.75
501.003	91.75
501.22	86.75
501.437	98.75
501.654	103.75
501.871	106.75
502.088	92.75
502.305	92.75
502.522	88.75
502.739	93.75
502.956	94.75
503.172	80.75
503.389	102.75
503.606	96.75
503.823	98.75
504.04	90.75
504.256	94.75
504.473	94.75
504.69	92.75
504.907	82.75
505.123	87.75
505.34	88.75
505.557	80.75
505.773	90.75
505.99	86.75
506.207	81.75
506.423	89.75
506.64	81.75
506.856	79.75
507.073	89.75
507.289	94.75
507.506	91.75
507.722	114.75
507.939	102.75
508.155	99.75
508.372	98.75
508.588	86.75
508.805	86.75
509.021	79.75
509.238	94.75
509.454	93.75
509.67	89.75
509.887	113.75
510.103	113.75
510.319	182.75
510.536	638.75
510.752	1897.75
510.968	532.75
511.184	144.75
511.401	106.75
511.617	90.75
511.833	85.75
512.049	85.75
512.265	93.75
512.481	93.75
512.698	95.75
512.914	91.75
513.13	91.75
513.346	86.75
513.562	96.75
513.778	91.75
513.994	103.75
514.21	72.75
514.426	105.75
514.642	103.75
514.858	131.75
515.074	154.75
515.29	375.75
515.506	1113.75
515.721	382.75
515.937	132.75
516.153	90.75
516.369	102.75
516.585	90.75
516.801	98.75
517.016	95.75
517.232	104.75
