Data from Uncirc_1994_H10_HRD10591_00022.txt Node
Date: Wed Jan 03 11:39:25 EST 2024
User: Yrep
Spectrometer: HR+D1059
Trigger mode: 1
Integration Time (sec): 1.000000E-1
Scans to average: 1
Electric dark correction enabled: true
Nonlinearity correction enabled: false
Boxcar width: 0
XAxis mode: Wavelengths
Number of Pixels in Spectrum: 2048
>>>>>Begin Spectral Data<<<<<
223.165	-14.38
223.4	-14.38
223.635	-14.38
223.869	-14.38
224.104	-32.38
224.338	-16.38
224.573	-12.38
224.808	-8.38
225.042	-10.38
225.277	-16.38
225.511	6.62
225.746	0.62
225.98	15.62
226.215	17.62
226.449	14.62
226.683	18.62
226.918	28.62
227.152	22.62
227.387	38.62
227.621	44.62
227.856	46.62
228.09	58.62
228.324	52.62
228.559	62.62
228.793	52.62
229.027	63.62
229.262	74.62
229.496	73.62
229.73	85.62
229.964	98.62
230.199	68.62
230.433	74.62
230.667	78.62
230.901	81.62
231.136	76.62
231.37	93.62
231.604	85.62
231.838	76.62
232.072	86.62
232.306	95.62
232.541	71.62
232.775	77.62
233.009	98.62
233.243	88.62
233.477	78.62
233.711	75.62
233.945	74.62
234.179	76.62
234.413	80.62
234.647	85.62
234.881	83.62
235.115	80.62
235.349	87.62
235.583	92.62
235.817	78.62
236.051	78.62
236.285	80.62
236.519	69.62
236.753	78.62
236.987	93.62
237.221	71.62
237.455	74.62
237.689	83.62
237.922	95.62
238.156	71.62
238.39	86.62
238.624	89.62
238.858	91.62
239.091	76.62
239.325	71.62
239.559	66.62
239.793	95.62
240.027	84.62
240.26	82.62
240.494	70.62
240.728	91.62
240.961	84.62
241.195	77.62
241.429	95.62
241.662	82.62
241.896	79.62
242.13	69.62
242.363	67.62
242.597	77.62
242.83	76.62
243.064	86.62
243.298	85.62
243.531	90.62
243.765	74.62
243.998	96.62
244.232	74.62
244.465	86.62
244.699	93.62
244.932	82.62
245.166	87.62
245.399	93.62
245.633	67.62
245.866	70.62
246.099	91.62
246.333	84.62
246.566	82.62
246.8	64.62
247.033	78.62
247.266	90.62
247.5	74.62
247.733	83.62
247.966	86.62
248.2	70.62
248.433	83.62
248.666	94.62
248.899	96.62
249.133	90.62
249.366	88.62
249.599	98.62
249.832	81.62
250.066	87.62
250.299	86.62
250.532	92.62
250.765	54.62
250.998	78.62
251.231	70.62
251.465	68.62
251.698	89.62
251.931	76.62
252.164	83.62
252.397	84.62
252.63	94.62
252.863	76.62
253.096	81.62
253.329	74.62
253.562	81.62
253.795	76.62
254.028	94.62
254.261	83.62
254.494	87.62
254.727	95.62
254.96	93.62
255.193	88.62
255.426	85.62
255.659	74.62
255.892	81.62
256.124	82.62
256.357	57.62
256.59	80.62
256.823	74.62
257.056	93.62
257.289	94.62
257.521	84.62
257.754	79.62
257.987	86.62
258.22	83.62
258.452	94.62
258.685	85.62
258.918	101.62
259.151	72.62
259.383	80.62
259.616	92.62
259.849	70.62
260.081	80.62
260.314	76.62
260.547	82.62
260.779	74.62
261.012	88.62
261.244	74.62
261.477	84.62
261.71	104.62
261.942	99.62
262.175	96.62
262.407	98.62
262.64	94.62
262.872	100.62
263.105	92.62
263.337	97.62
263.57	93.62
263.802	98.62
264.035	88.62
264.267	74.62
264.499	94.62
264.732	84.62
264.964	65.62
265.197	80.62
265.429	82.62
265.661	88.62
265.894	83.62
266.126	81.62
266.358	81.62
266.591	93.62
266.823	101.62
267.055	76.62
267.287	81.62
267.52	92.62
267.752	69.62
267.984	90.62
268.216	80.62
268.448	104.62
268.681	80.62
268.913	78.62
269.145	81.62
269.377	76.62
269.609	96.62
269.841	98.62
270.073	93.62
270.306	96.62
270.538	86.62
270.77	94.62
271.002	92.62
271.234	92.62
271.466	86.62
271.698	76.62
271.93	110.62
272.162	82.62
272.394	98.62
272.626	90.62
272.858	89.62
273.09	79.62
273.322	80.62
273.553	102.62
273.785	86.62
274.017	97.62
274.249	78.62
274.481	76.62
274.713	71.62
274.945	82.62
275.176	92.62
275.408	82.62
275.64	87.62
275.872	103.62
276.104	79.62
276.335	89.62
276.567	111.62
276.799	108.62
277.031	100.62
277.262	93.62
277.494	87.62
277.726	86.62
277.957	81.62
278.189	100.62
278.421	85.62
278.652	99.62
278.884	74.62
279.115	85.62
279.347	80.62
279.579	76.62
279.81	92.62
280.042	85.62
280.273	90.62
280.505	90.62
280.736	93.62
280.968	97.62
281.199	97.62
281.431	84.62
281.662	95.62
281.894	87.62
282.125	92.62
282.356	120.62
282.588	136.62
282.819	107.62
283.051	91.62
283.282	86.62
283.513	83.62
283.745	90.62
283.976	97.62
284.207	92.62
284.439	94.62
284.67	84.62
284.901	84.62
285.132	84.62
285.364	95.62
285.595	100.62
285.826	91.62
286.057	98.62
286.288	89.62
286.52	87.62
286.751	78.62
286.982	87.62
287.213	84.62
287.444	91.62
287.675	96.62
287.906	94.62
288.138	108.62
288.369	90.62
288.6	94.62
288.831	88.62
289.062	78.62
289.293	82.62
289.524	90.62
289.755	90.62
289.986	99.62
290.217	96.62
290.448	90.62
290.679	81.62
290.91	81.62
291.141	94.62
291.371	88.62
291.602	97.62
291.833	92.62
292.064	86.62
292.295	76.62
292.526	98.62
292.757	87.62
292.987	90.62
293.218	80.62
293.449	80.62
293.68	98.62
293.91	87.62
294.141	100.62
294.372	81.62
294.603	86.62
294.833	88.62
295.064	101.62
295.295	80.62
295.525	106.62
295.756	102.62
295.987	104.62
296.217	121.62
296.448	121.62
296.679	86.62
296.909	90.62
297.14	93.62
297.37	82.62
297.601	85.62
297.831	100.62
298.062	101.62
298.292	87.62
298.523	96.62
298.753	90.62
298.984	86.62
299.214	85.62
299.445	90.62
299.675	102.62
299.905	92.62
300.136	103.62
300.366	96.62
300.597	92.62
300.827	99.62
301.057	98.62
301.288	99.62
301.518	86.62
301.748	87.62
301.979	105.62
302.209	84.62
302.439	67.62
302.669	94.62
302.9	85.62
303.13	94.62
303.36	96.62
303.59	85.62
303.82	100.62
304.051	81.62
304.281	94.62
304.511	99.62
304.741	87.62
304.971	104.62
305.201	109.62
305.431	89.62
305.661	90.62
305.891	86.62
306.121	87.62
306.352	101.62
306.582	117.62
306.812	98.62
307.042	103.62
307.272	86.62
307.502	83.62
307.731	88.62
307.961	82.62
308.191	92.62
308.421	100.62
308.651	80.62
308.881	86.62
309.111	86.62
309.341	99.62
309.571	113.62
309.8	99.62
310.03	105.62
310.26	101.62
310.49	92.62
310.72	99.62
310.949	116.62
311.179	95.62
311.409	83.62
311.639	108.62
311.868	97.62
312.098	101.62
312.328	106.62
312.557	109.62
312.787	98.62
313.017	112.62
313.246	104.62
313.476	91.62
313.706	99.62
313.935	96.62
314.165	103.62
314.394	110.62
314.624	112.62
314.853	102.62
315.083	105.62
315.312	85.62
315.542	91.62
315.771	100.62
316.001	94.62
316.23	95.62
316.46	86.62
316.689	107.62
316.919	86.62
317.148	106.62
317.377	105.62
317.607	90.62
317.836	107.62
318.065	102.62
318.295	106.62
318.524	92.62
318.753	91.62
318.983	93.62
319.212	102.62
319.441	104.62
319.67	106.62
319.9	87.62
320.129	85.62
320.358	91.62
320.587	89.62
320.816	104.62
321.046	89.62
321.275	114.62
321.504	97.62
321.733	88.62
321.962	95.62
322.191	109.62
322.42	105.62
322.649	110.62
322.878	100.62
323.108	107.62
323.337	142.62
323.566	130.62
323.795	152.62
324.024	180.62
324.253	344.62
324.482	716.62
324.71	1469.62
324.939	1920.62
325.168	688.62
325.397	219.62
325.626	133.62
325.855	114.62
326.084	126.62
326.313	136.62
326.542	145.62
326.77	212.62
326.999	434.62
327.228	834.62
327.457	1520.62
327.686	1186.62
327.914	322.62
328.143	161.62
328.372	136.62
328.6	118.62
328.829	102.62
329.058	108.62
329.287	112.62
329.515	99.62
329.744	99.62
329.972	95.62
330.201	99.62
330.43	103.62
330.658	108.62
330.887	123.62
331.115	114.62
331.344	114.62
331.572	105.62
331.801	112.62
332.03	102.62
332.258	98.62
332.486	87.62
332.715	84.62
332.943	95.62
333.172	105.62
333.4	99.62
333.629	112.62
333.857	119.62
334.085	98.62
334.314	92.62
334.542	96.62
334.771	100.62
334.999	101.62
335.227	97.62
335.455	79.62
335.684	100.62
335.912	96.62
336.14	98.62
336.369	94.62
336.597	94.62
336.825	99.62
337.053	92.62
337.281	95.62
337.51	80.62
337.738	93.62
337.966	98.62
338.194	87.62
338.422	109.62
338.65	102.62
338.878	103.62
339.106	94.62
339.334	90.62
339.562	84.62
339.79	102.62
340.018	90.62
340.246	94.62
340.474	103.62
340.702	74.62
340.93	95.62
341.158	93.62
341.386	96.62
341.614	91.62
341.842	84.62
342.07	83.62
342.298	107.62
342.526	95.62
342.754	95.62
342.981	90.62
343.209	106.62
343.437	94.62
343.665	81.62
343.893	79.62
344.12	102.62
344.348	78.62
344.576	81.62
344.804	91.62
345.031	84.62
345.259	102.62
345.487	96.62
345.714	88.62
345.942	99.62
346.17	96.62
346.397	107.62
346.625	102.62
346.853	99.62
347.08	96.62
347.308	88.62
347.535	92.62
347.763	112.62
347.99	102.62
348.218	103.62
348.445	91.62
348.673	82.62
348.9	92.62
349.128	100.62
349.355	95.62
349.583	91.62
349.81	91.62
350.037	107.62
350.265	100.62
350.492	90.62
350.72	104.62
350.947	93.62
351.174	103.62
351.402	102.62
351.629	94.62
351.856	113.62
352.083	85.62
352.311	111.62
352.538	109.62
352.765	123.62
352.992	110.62
353.22	117.62
353.447	95.62
353.674	101.62
353.901	98.62
354.128	97.62
354.355	106.62
354.583	119.62
354.81	103.62
355.037	105.62
355.264	91.62
355.491	110.62
355.718	87.62
355.945	96.62
356.172	99.62
356.399	95.62
356.626	89.62
356.853	95.62
357.08	85.62
357.307	102.62
357.534	90.62
357.761	102.62
357.988	84.62
358.215	98.62
358.441	99.62
358.668	81.62
358.895	103.62
359.122	90.62
359.349	95.62
359.576	83.62
359.802	97.62
360.029	99.62
360.256	110.62
360.483	94.62
360.709	102.62
360.936	103.62
361.163	86.62
361.39	91.62
361.616	66.62
361.843	108.62
362.07	88.62
362.296	103.62
362.523	95.62
362.749	95.62
362.976	107.62
363.203	108.62
363.429	82.62
363.656	89.62
363.882	85.62
364.109	100.62
364.335	109.62
364.562	100.62
364.788	95.62
365.015	116.62
365.241	91.62
365.468	98.62
365.694	110.62
365.92	98.62
366.147	89.62
366.373	98.62
366.599	102.62
366.826	96.62
367.052	75.62
367.278	98.62
367.505	96.62
367.731	85.62
367.957	84.62
368.184	98.62
368.41	112.62
368.636	125.62
368.862	105.62
369.089	85.62
369.315	90.62
369.541	89.62
369.767	88.62
369.993	76.62
370.219	95.62
370.445	94.62
370.672	93.62
370.898	104.62
371.124	98.62
371.35	87.62
371.576	99.62
371.802	102.62
372.028	101.62
372.254	102.62
372.48	100.62
372.706	89.62
372.932	97.62
373.158	83.62
373.384	98.62
373.61	85.62
373.835	90.62
374.061	89.62
374.287	89.62
374.513	97.62
374.739	91.62
374.965	89.62
375.191	102.62
375.416	76.62
375.642	90.62
375.868	96.62
376.094	84.62
376.319	97.62
376.545	101.62
376.771	84.62
376.997	75.62
377.222	78.62
377.448	92.62
377.674	90.62
377.899	81.62
378.125	98.62
378.35	87.62
378.576	98.62
378.802	101.62
379.027	86.62
379.253	99.62
379.478	100.62
379.704	92.62
379.929	88.62
380.155	112.62
380.38	101.62
380.606	86.62
380.831	104.62
381.057	86.62
381.282	94.62
381.507	93.62
381.733	97.62
381.958	92.62
382.184	103.62
382.409	100.62
382.634	104.62
382.86	114.62
383.085	111.62
383.31	99.62
383.535	98.62
383.761	109.62
383.986	118.62
384.211	99.62
384.436	98.62
384.662	101.62
384.887	101.62
385.112	105.62
385.337	98.62
385.562	101.62
385.787	108.62
386.013	115.62
386.238	110.62
386.463	96.62
386.688	116.62
386.913	90.62
387.138	99.62
387.363	95.62
387.588	107.62
387.813	103.62
388.038	97.62
388.263	103.62
388.488	111.62
388.713	105.62
388.938	89.62
389.163	89.62
389.387	92.62
389.612	95.62
389.837	93.62
390.062	98.62
390.287	102.62
390.512	97.62
390.736	109.62
390.961	90.62
391.186	93.62
391.411	95.62
391.636	91.62
391.86	97.62
392.085	92.62
392.31	85.62
392.534	90.62
392.759	95.62
392.984	91.62
393.208	98.62
393.433	116.62
393.658	93.62
393.882	85.62
394.107	90.62
394.331	88.62
394.556	76.62
394.78	98.62
395.005	107.62
395.229	93.62
395.454	81.62
395.678	87.62
395.903	86.62
396.127	86.62
396.352	87.62
396.576	84.62
396.801	86.62
397.025	82.62
397.249	84.62
397.474	95.62
397.698	92.62
397.922	79.62
398.147	82.62
398.371	87.62
398.595	89.62
398.82	90.62
399.044	87.62
399.268	86.62
399.492	101.62
399.717	82.62
399.941	79.62
400.165	107.62
400.389	108.62
400.613	81.62
400.837	82.62
401.062	85.62
401.286	96.62
401.51	89.62
401.734	90.62
401.958	108.62
402.182	112.62
402.406	138.62
402.63	100.62
402.854	91.62
403.078	93.62
403.302	82.62
403.526	96.62
403.75	95.62
403.974	91.62
404.198	102.62
404.422	78.62
404.645	83.62
404.869	90.62
405.093	93.62
405.317	106.62
405.541	95.62
405.765	111.62
405.988	130.62
406.212	167.62
406.436	189.62
406.66	128.62
406.883	96.62
407.107	102.62
407.331	104.62
407.555	106.62
407.778	102.62
408.002	93.62
408.226	104.62
408.449	99.62
408.673	111.62
408.896	108.62
409.12	120.62
409.344	104.62
409.567	107.62
409.791	88.62
410.014	104.62
410.238	99.62
410.461	90.62
410.685	109.62
410.908	109.62
411.132	115.62
411.355	106.62
411.578	102.62
411.802	88.62
412.025	84.62
412.249	95.62
412.472	70.62
412.695	97.62
412.919	88.62
413.142	87.62
413.365	86.62
413.589	89.62
413.812	75.62
414.035	90.62
414.258	93.62
414.482	114.62
414.705	104.62
414.928	99.62
415.151	100.62
415.374	99.62
415.597	84.62
415.821	99.62
416.044	92.62
416.267	93.62
416.49	78.62
416.713	80.62
416.936	90.62
417.159	85.62
417.382	95.62
417.605	90.62
417.828	98.62
418.051	91.62
418.274	88.62
418.497	85.62
418.72	82.62
418.943	100.62
419.166	94.62
419.389	84.62
419.611	88.62
419.834	80.62
420.057	76.62
420.28	95.62
420.503	88.62
420.726	89.62
420.948	83.62
421.171	91.62
421.394	101.62
421.617	90.62
421.839	101.62
422.062	95.62
422.285	100.62
422.507	105.62
422.73	114.62
422.953	103.62
423.175	90.62
423.398	96.62
423.621	89.62
423.843	86.62
424.066	80.62
424.288	81.62
424.511	109.62
424.733	90.62
424.956	102.62
425.178	114.62
425.401	79.62
425.623	97.62
425.846	97.62
426.068	92.62
426.291	91.62
426.513	87.62
426.735	87.62
426.958	95.62
427.18	100.62
427.402	140.62
427.625	141.62
427.847	117.62
428.069	106.62
428.292	78.62
428.514	97.62
428.736	77.62
428.958	99.62
429.181	102.62
429.403	84.62
429.625	85.62
429.847	85.62
430.069	103.62
430.292	94.62
430.514	81.62
430.736	90.62
430.958	95.62
431.18	83.62
431.402	80.62
431.624	85.62
431.846	87.62
432.068	78.62
432.29	79.62
432.512	94.62
432.734	98.62
432.956	90.62
433.178	94.62
433.4	108.62
433.622	89.62
433.844	79.62
434.066	82.62
434.287	104.62
434.509	90.62
434.731	86.62
434.953	86.62
435.175	84.62
435.397	96.62
435.618	117.62
435.84	99.62
436.062	113.62
436.284	95.62
436.505	107.62
436.727	108.62
436.949	99.62
437.17	102.62
437.392	98.62
437.614	101.62
437.835	87.62
438.057	107.62
438.278	82.62
438.5	108.62
438.721	124.62
438.943	103.62
439.165	96.62
439.386	94.62
439.608	90.62
439.829	99.62
440.05	122.62
440.272	132.62
440.493	92.62
440.715	98.62
440.936	87.62
441.158	85.62
441.379	85.62
441.6	105.62
441.822	97.62
442.043	93.62
442.264	94.62
442.486	101.62
442.707	78.62
442.928	114.62
443.149	124.62
443.371	141.62
443.592	116.62
443.813	109.62
444.034	110.62
444.255	88.62
444.476	86.62
444.698	86.62
444.919	96.62
445.14	123.62
445.361	134.62
445.582	110.62
445.803	111.62
446.024	128.62
446.245	117.62
446.466	116.62
446.687	93.62
446.908	70.62
447.129	86.62
447.35	101.62
447.571	79.62
447.792	99.62
448.013	88.62
448.234	102.62
448.455	97.62
448.675	107.62
448.896	120.62
449.117	97.62
449.338	112.62
449.559	125.62
449.779	122.62
450	99.62
450.221	87.62
450.442	103.62
450.662	98.62
450.883	94.62
451.104	104.62
451.324	99.62
451.545	87.62
451.766	79.62
451.986	82.62
452.207	107.62
452.428	90.62
452.648	108.62
452.869	120.62
453.089	109.62
453.31	101.62
453.53	99.62
453.751	94.62
453.971	115.62
454.192	114.62
454.412	99.62
454.633	95.62
454.853	76.62
455.073	85.62
455.294	86.62
455.514	101.62
455.734	88.62
455.955	87.62
456.175	99.62
456.395	94.62
456.616	84.62
456.836	86.62
457.056	97.62
457.276	83.62
457.497	104.62
457.717	100.62
457.937	77.62
458.157	90.62
458.377	109.62
458.598	98.62
458.818	124.62
459.038	131.62
459.258	99.62
459.478	92.62
459.698	85.62
459.918	100.62
460.138	87.62
460.358	86.62
460.578	93.62
460.798	106.62
461.018	105.62
461.238	93.62
461.458	94.62
461.678	90.62
461.898	88.62
462.118	91.62
462.338	95.62
462.558	91.62
462.777	84.62
462.997	88.62
463.217	75.62
463.437	79.62
463.657	71.62
463.876	87.62
464.096	100.62
464.316	109.62
464.536	90.62
464.755	101.62
464.975	93.62
465.195	129.62
465.414	157.62
465.634	102.62
465.854	84.62
466.073	95.62
466.293	113.62
466.512	81.62
466.732	93.62
466.951	86.62
467.171	95.62
467.391	103.62
467.61	100.62
467.829	94.62
468.049	84.62
468.268	92.62
468.488	74.62
468.707	94.62
468.927	100.62
469.146	94.62
469.365	81.62
469.585	89.62
469.804	84.62
470.023	88.62
470.243	103.62
470.462	96.62
470.681	103.62
470.901	102.62
471.12	101.62
471.339	101.62
471.558	88.62
471.777	102.62
471.997	93.62
472.216	96.62
472.435	94.62
472.654	76.62
472.873	80.62
473.092	93.62
473.311	88.62
473.53	79.62
473.749	96.62
473.968	99.62
474.187	100.62
474.406	100.62
474.625	79.62
474.844	91.62
475.063	91.62
475.282	87.62
475.501	91.62
475.72	92.62
475.939	85.62
476.158	83.62
476.377	79.62
476.596	84.62
476.814	104.62
477.033	95.62
477.252	78.62
477.471	91.62
477.69	95.62
477.908	94.62
478.127	117.62
478.346	108.62
478.564	99.62
478.783	106.62
479.002	91.62
479.22	83.62
479.439	96.62
479.658	96.62
479.876	93.62
480.095	94.62
480.313	97.62
480.532	83.62
480.751	88.62
480.969	95.62
481.188	96.62
481.406	100.62
481.624	107.62
481.843	95.62
482.061	98.62
482.28	92.62
482.498	87.62
482.717	91.62
482.935	98.62
483.153	90.62
483.372	98.62
483.59	81.62
483.808	88.62
484.027	103.62
484.245	98.62
484.463	78.62
484.681	80.62
484.9	94.62
485.118	82.62
485.336	80.62
485.554	90.62
485.772	97.62
485.99	109.62
486.209	103.62
486.427	92.62
486.645	113.62
486.863	119.62
487.081	99.62
487.299	103.62
487.517	102.62
487.735	104.62
487.953	95.62
488.171	104.62
488.389	103.62
488.607	101.62
488.825	110.62
489.043	85.62
489.261	96.62
489.479	100.62
489.696	93.62
489.914	69.62
490.132	87.62
490.35	104.62
490.568	85.62
490.786	100.62
491.003	86.62
491.221	88.62
491.439	88.62
491.657	90.62
491.874	94.62
492.092	102.62
492.31	87.62
492.527	86.62
492.745	86.62
492.963	96.62
493.18	98.62
493.398	97.62
493.615	98.62
493.833	94.62
494.05	82.62
494.268	85.62
494.485	91.62
494.703	87.62
494.92	95.62
495.138	94.62
495.355	104.62
495.573	87.62
495.79	77.62
496.008	95.62
496.225	92.62
496.442	95.62
496.66	92.62
496.877	93.62
497.094	89.62
497.312	82.62
497.529	104.62
497.746	89.62
497.963	99.62
498.181	85.62
498.398	90.62
498.615	110.62
498.832	93.62
499.049	97.62
499.267	92.62
499.484	76.62
499.701	96.62
499.918	87.62
500.135	99.62
500.352	90.62
500.569	95.62
500.786	97.62
501.003	93.62
501.22	104.62
501.437	103.62
501.654	97.62
501.871	104.62
502.088	82.62
502.305	91.62
502.522	93.62
502.739	87.62
502.956	100.62
503.172	86.62
503.389	98.62
503.606	109.62
503.823	78.62
504.04	94.62
504.256	104.62
504.473	100.62
504.69	95.62
504.907	96.62
505.123	101.62
505.34	91.62
505.557	93.62
505.773	95.62
505.99	78.62
506.207	85.62
506.423	101.62
506.64	88.62
506.856	77.62
507.073	78.62
507.289	92.62
507.506	95.62
507.722	109.62
507.939	108.62
508.155	108.62
508.372	101.62
508.588	91.62
508.805	105.62
509.021	117.62
509.238	103.62
509.454	94.62
509.67	96.62
509.887	111.62
510.103	124.62
510.319	197.62
510.536	708.62
510.752	2002.62
510.968	550.62
511.184	151.62
511.401	110.62
511.617	101.62
511.833	97.62
512.049	95.62
512.265	96.62
512.481	99.62
512.698	92.62
512.914	87.62
513.13	94.62
513.346	96.62
513.562	83.62
513.778	89.62
513.994	108.62
514.21	101.62
514.426	115.62
514.642	131.62
