Data from Uncirc_1994_H10_HRD10591_00051.txt Node
Date: Wed Jan 03 11:39:31 EST 2024
User: Yrep
Spectrometer: HR+D1059
Trigger mode: 1
Integration Time (sec): 1.000000E-1
Scans to average: 1
Electric dark correction enabled: true
Nonlinearity correction enabled: false
Boxcar width: 0
XAxis mode: Wavelengths
Number of Pixels in Spectrum: 2048
>>>>>Begin Spectral Data<<<<<
223.165	-19.06
223.4	-19.06
223.635	-19.06
223.869	-26.06
224.104	-13.06
224.338	-31.06
224.573	-17.06
224.808	-8.06
225.042	-3.06
225.277	-1.06
225.511	-11.06
225.746	15.94
225.98	17.94
226.215	23.94
226.449	13.94
226.683	22.94
226.918	16.94
227.152	17.94
227.387	33.94
227.621	45.94
227.856	41.94
228.09	47.94
228.324	47.94
228.559	57.94
228.793	55.94
229.027	58.94
229.262	53.94
229.496	65.94
229.73	75.94
229.964	84.94
230.199	85.94
230.433	63.94
230.667	79.94
230.901	94.94
231.136	68.94
231.37	81.94
231.604	76.94
231.838	62.94
232.072	73.94
232.306	81.94
232.541	62.94
232.775	79.94
233.009	76.94
233.243	75.94
233.477	65.94
233.711	79.94
233.945	77.94
234.179	71.94
234.413	65.94
234.647	85.94
234.881	76.94
235.115	78.94
235.349	65.94
235.583	66.94
235.817	72.94
236.051	79.94
236.285	64.94
236.519	80.94
236.753	78.94
236.987	80.94
237.221	91.94
237.455	82.94
237.689	57.94
237.922	76.94
238.156	79.94
238.39	79.94
238.624	82.94
238.858	66.94
239.091	82.94
239.325	72.94
239.559	89.94
239.793	72.94
240.027	62.94
240.26	65.94
240.494	79.94
240.728	73.94
240.961	80.94
241.195	74.94
241.429	84.94
241.662	84.94
241.896	62.94
242.13	74.94
242.363	65.94
242.597	74.94
242.83	79.94
243.064	74.94
243.298	86.94
243.531	65.94
243.765	79.94
243.998	59.94
244.232	92.94
244.465	82.94
244.699	78.94
244.932	76.94
245.166	70.94
245.399	76.94
245.633	78.94
245.866	79.94
246.099	83.94
246.333	82.94
246.566	75.94
246.8	82.94
247.033	85.94
247.266	77.94
247.5	76.94
247.733	80.94
247.966	79.94
248.2	81.94
248.433	82.94
248.666	82.94
248.899	81.94
249.133	88.94
249.366	94.94
249.599	78.94
249.832	79.94
250.066	84.94
250.299	75.94
250.532	88.94
250.765	65.94
250.998	78.94
251.231	80.94
251.465	86.94
251.698	61.94
251.931	67.94
252.164	80.94
252.397	85.94
252.63	78.94
252.863	90.94
253.096	83.94
253.329	90.94
253.562	76.94
253.795	71.94
254.028	80.94
254.261	82.94
254.494	86.94
254.727	80.94
254.96	86.94
255.193	72.94
255.426	77.94
255.659	74.94
255.892	76.94
256.124	74.94
256.357	66.94
256.59	87.94
256.823	84.94
257.056	74.94
257.289	76.94
257.521	79.94
257.754	74.94
257.987	91.94
258.22	76.94
258.452	84.94
258.685	74.94
258.918	62.94
259.151	86.94
259.383	70.94
259.616	77.94
259.849	78.94
260.081	94.94
260.314	76.94
260.547	71.94
260.779	71.94
261.012	82.94
261.244	87.94
261.477	74.94
261.71	91.94
261.942	91.94
262.175	110.94
262.407	102.94
262.64	104.94
262.872	84.94
263.105	66.94
263.337	83.94
263.57	86.94
263.802	87.94
264.035	74.94
264.267	86.94
264.499	71.94
264.732	76.94
264.964	92.94
265.197	73.94
265.429	68.94
265.661	78.94
265.894	79.94
266.126	70.94
266.358	83.94
266.591	88.94
266.823	90.94
267.055	69.94
267.287	86.94
267.52	85.94
267.752	72.94
267.984	88.94
268.216	62.94
268.448	96.94
268.681	93.94
268.913	83.94
269.145	78.94
269.377	78.94
269.609	87.94
269.841	81.94
270.073	81.94
270.306	85.94
270.538	74.94
270.77	82.94
271.002	83.94
271.234	80.94
271.466	81.94
271.698	83.94
271.93	82.94
272.162	89.94
272.394	73.94
272.626	73.94
272.858	89.94
273.09	83.94
273.322	81.94
273.553	72.94
273.785	78.94
274.017	72.94
274.249	77.94
274.481	88.94
274.713	95.94
274.945	89.94
275.176	94.94
275.408	80.94
275.64	74.94
275.872	97.94
276.104	73.94
276.335	80.94
276.567	79.94
276.799	89.94
277.031	100.94
277.262	93.94
277.494	84.94
277.726	83.94
277.957	72.94
278.189	87.94
278.421	85.94
278.652	89.94
278.884	74.94
279.115	89.94
279.347	89.94
279.579	75.94
279.81	87.94
280.042	85.94
280.273	91.94
280.505	89.94
280.736	96.94
280.968	89.94
281.199	84.94
281.431	79.94
281.662	75.94
281.894	68.94
282.125	94.94
282.356	105.94
282.588	120.94
282.819	95.94
283.051	85.94
283.282	73.94
283.513	85.94
283.745	72.94
283.976	95.94
284.207	76.94
284.439	99.94
284.67	80.94
284.901	82.94
285.132	93.94
285.364	79.94
285.595	78.94
285.826	88.94
286.057	84.94
286.288	82.94
286.52	78.94
286.751	72.94
286.982	86.94
287.213	81.94
287.444	80.94
287.675	86.94
287.906	77.94
288.138	92.94
288.369	82.94
288.6	66.94
288.831	84.94
289.062	105.94
289.293	83.94
289.524	85.94
289.755	79.94
289.986	79.94
290.217	89.94
290.448	82.94
290.679	79.94
290.91	88.94
291.141	98.94
291.371	94.94
291.602	90.94
291.833	88.94
292.064	79.94
292.295	76.94
292.526	86.94
292.757	88.94
292.987	86.94
293.218	81.94
293.449	76.94
293.68	94.94
293.91	83.94
294.141	89.94
294.372	81.94
294.603	72.94
294.833	80.94
295.064	85.94
295.295	80.94
295.525	103.94
295.756	89.94
295.987	109.94
296.217	137.94
296.448	107.94
296.679	96.94
296.909	90.94
297.14	84.94
297.37	101.94
297.601	81.94
297.831	82.94
298.062	85.94
298.292	90.94
298.523	80.94
298.753	95.94
298.984	70.94
299.214	86.94
299.445	90.94
299.675	94.94
299.905	103.94
300.136	79.94
300.366	77.94
300.597	79.94
300.827	76.94
301.057	83.94
301.288	80.94
301.518	85.94
301.748	95.94
301.979	94.94
302.209	86.94
302.439	84.94
302.669	79.94
302.9	83.94
303.13	86.94
303.36	90.94
303.59	88.94
303.82	104.94
304.051	97.94
304.281	73.94
304.511	92.94
304.741	86.94
304.971	95.94
305.201	85.94
305.431	82.94
305.661	100.94
305.891	101.94
306.121	84.94
306.352	108.94
306.582	97.94
306.812	91.94
307.042	90.94
307.272	76.94
307.502	89.94
307.731	82.94
307.961	84.94
308.191	76.94
308.421	86.94
308.651	87.94
308.881	86.94
309.111	90.94
309.341	95.94
309.571	86.94
309.8	79.94
310.03	92.94
310.26	96.94
310.49	88.94
310.72	93.94
310.949	110.94
311.179	104.94
311.409	97.94
311.639	86.94
311.868	81.94
312.098	76.94
312.328	86.94
312.557	93.94
312.787	109.94
313.017	91.94
313.246	90.94
313.476	86.94
313.706	92.94
313.935	86.94
314.165	92.94
314.394	98.94
314.624	96.94
314.853	93.94
315.083	93.94
315.312	79.94
315.542	97.94
315.771	95.94
316.001	85.94
316.23	84.94
316.46	89.94
316.689	88.94
316.919	92.94
317.148	97.94
317.377	80.94
317.607	91.94
317.836	100.94
318.065	97.94
318.295	85.94
318.524	73.94
318.753	83.94
318.983	89.94
319.212	90.94
319.441	104.94
319.67	109.94
319.9	95.94
320.129	94.94
320.358	83.94
320.587	86.94
320.816	96.94
321.046	93.94
321.275	94.94
321.504	100.94
321.733	87.94
321.962	76.94
322.191	107.94
322.42	93.94
322.649	100.94
322.878	109.94
323.108	118.94
323.337	118.94
323.566	129.94
323.795	137.94
324.024	187.94
324.253	361.94
324.482	763.94
324.71	1531.94
324.939	1993.94
325.168	734.94
325.397	214.94
325.626	127.94
325.855	106.94
326.084	111.94
326.313	126.94
326.542	126.94
326.77	223.94
326.999	424.94
327.228	861.94
327.457	1534.94
327.686	1221.94
327.914	330.94
328.143	171.94
328.372	132.94
328.6	108.94
328.829	119.94
329.058	127.94
329.287	115.94
329.515	105.94
329.744	90.94
329.972	110.94
330.201	90.94
330.43	89.94
330.658	108.94
330.887	118.94
331.115	112.94
331.344	102.94
331.572	107.94
331.801	106.94
332.03	103.94
332.258	88.94
332.486	87.94
332.715	89.94
332.943	93.94
333.172	89.94
333.4	79.94
333.629	87.94
333.857	111.94
334.085	99.94
334.314	93.94
334.542	84.94
334.771	81.94
334.999	89.94
335.227	101.94
335.455	94.94
335.684	92.94
335.912	81.94
336.14	108.94
336.369	90.94
336.597	90.94
336.825	101.94
337.053	94.94
337.281	89.94
337.51	92.94
337.738	99.94
337.966	94.94
338.194	100.94
338.422	93.94
338.65	97.94
338.878	104.94
339.106	88.94
339.334	92.94
339.562	86.94
339.79	89.94
340.018	84.94
340.246	87.94
340.474	80.94
340.702	78.94
340.93	92.94
341.158	78.94
341.386	90.94
341.614	85.94
341.842	89.94
342.07	76.94
342.298	78.94
342.526	88.94
342.754	78.94
342.981	92.94
343.209	93.94
343.437	98.94
343.665	88.94
343.893	82.94
344.12	79.94
344.348	83.94
344.576	87.94
344.804	88.94
345.031	101.94
345.259	113.94
345.487	98.94
345.714	101.94
345.942	86.94
346.17	77.94
346.397	88.94
346.625	85.94
346.853	87.94
347.08	81.94
347.308	98.94
347.535	88.94
347.763	105.94
347.99	83.94
348.218	89.94
348.445	89.94
348.673	92.94
348.9	100.94
349.128	103.94
349.355	81.94
349.583	93.94
349.81	88.94
350.037	84.94
350.265	88.94
350.492	81.94
350.72	88.94
350.947	107.94
351.174	107.94
351.402	118.94
351.629	104.94
351.856	96.94
352.083	99.94
352.311	101.94
352.538	94.94
352.765	92.94
352.992	96.94
353.22	101.94
353.447	102.94
353.674	100.94
353.901	95.94
354.128	92.94
354.355	87.94
354.583	101.94
354.81	102.94
355.037	103.94
355.264	100.94
355.491	98.94
355.718	90.94
355.945	99.94
356.172	102.94
356.399	96.94
356.626	94.94
356.853	100.94
357.08	92.94
357.307	79.94
357.534	84.94
357.761	88.94
357.988	92.94
358.215	106.94
358.441	78.94
358.668	87.94
358.895	92.94
359.122	82.94
359.349	80.94
359.576	88.94
359.802	107.94
360.029	105.94
360.256	109.94
360.483	88.94
360.709	89.94
360.936	112.94
361.163	94.94
361.39	82.94
361.616	90.94
361.843	87.94
362.07	89.94
362.296	89.94
362.523	92.94
362.749	82.94
362.976	98.94
363.203	93.94
363.429	91.94
363.656	86.94
363.882	76.94
364.109	88.94
364.335	86.94
364.562	88.94
364.788	96.94
365.015	86.94
365.241	97.94
365.468	97.94
365.694	108.94
365.92	93.94
366.147	79.94
366.373	88.94
366.599	88.94
366.826	82.94
367.052	88.94
367.278	84.94
367.505	87.94
367.731	83.94
367.957	93.94
368.184	88.94
368.41	89.94
368.636	106.94
368.862	105.94
369.089	89.94
369.315	102.94
369.541	91.94
369.767	97.94
369.993	88.94
370.219	86.94
370.445	94.94
370.672	89.94
370.898	97.94
371.124	90.94
371.35	84.94
371.576	76.94
371.802	89.94
372.028	79.94
372.254	93.94
372.48	79.94
372.706	80.94
372.932	83.94
373.158	89.94
373.384	89.94
373.61	80.94
373.835	87.94
374.061	90.94
374.287	70.94
374.513	83.94
374.739	80.94
374.965	93.94
375.191	89.94
375.416	87.94
375.642	80.94
375.868	89.94
376.094	71.94
376.319	83.94
376.545	91.94
376.771	83.94
376.997	101.94
377.222	86.94
377.448	86.94
377.674	81.94
377.899	91.94
378.125	78.94
378.35	85.94
378.576	95.94
378.802	80.94
379.027	86.94
379.253	84.94
379.478	84.94
379.704	99.94
379.929	98.94
380.155	96.94
380.38	95.94
380.606	103.94
380.831	73.94
381.057	95.94
381.282	85.94
381.507	93.94
381.733	105.94
381.958	100.94
382.184	82.94
382.409	86.94
382.634	92.94
382.86	86.94
383.085	97.94
383.31	105.94
383.535	92.94
383.761	104.94
383.986	93.94
384.211	95.94
384.436	101.94
384.662	86.94
384.887	91.94
385.112	98.94
385.337	98.94
385.562	96.94
385.787	94.94
386.013	114.94
386.238	99.94
386.463	103.94
386.688	90.94
386.913	88.94
387.138	101.94
387.363	101.94
387.588	85.94
387.813	103.94
388.038	97.94
388.263	106.94
388.488	89.94
388.713	98.94
388.938	107.94
389.163	99.94
389.387	96.94
389.612	104.94
389.837	86.94
390.062	92.94
390.287	84.94
390.512	94.94
390.736	90.94
390.961	102.94
391.186	100.94
391.411	97.94
391.636	89.94
391.86	83.94
392.085	85.94
392.31	86.94
392.534	93.94
392.759	91.94
392.984	84.94
393.208	88.94
393.433	105.94
393.658	78.94
393.882	85.94
394.107	85.94
394.331	72.94
394.556	80.94
394.78	76.94
395.005	75.94
395.229	81.94
395.454	84.94
395.678	76.94
395.903	74.94
396.127	80.94
396.352	73.94
396.576	78.94
396.801	89.94
397.025	86.94
397.249	98.94
397.474	76.94
397.698	78.94
397.922	77.94
398.147	82.94
398.371	84.94
398.595	78.94
398.82	82.94
399.044	80.94
399.268	74.94
399.492	81.94
399.717	66.94
399.941	90.94
400.165	75.94
400.389	87.94
400.613	89.94
400.837	78.94
401.062	70.94
401.286	82.94
401.51	80.94
401.734	93.94
401.958	91.94
402.182	121.94
402.406	140.94
402.63	105.94
402.854	86.94
403.078	91.94
403.302	91.94
403.526	84.94
403.75	72.94
403.974	78.94
404.198	96.94
404.422	96.94
404.645	98.94
404.869	95.94
405.093	102.94
405.317	80.94
405.541	97.94
405.765	84.94
405.988	97.94
406.212	154.94
406.436	188.94
406.66	122.94
406.883	104.94
407.107	85.94
407.331	86.94
407.555	98.94
407.778	94.94
408.002	96.94
408.226	103.94
408.449	85.94
408.673	105.94
408.896	98.94
409.12	88.94
409.344	78.94
409.567	92.94
409.791	86.94
410.014	96.94
410.238	93.94
410.461	98.94
410.685	92.94
410.908	105.94
411.132	103.94
411.355	107.94
411.578	88.94
411.802	80.94
412.025	81.94
412.249	80.94
412.472	80.94
412.695	84.94
412.919	86.94
413.142	84.94
413.365	86.94
413.589	79.94
413.812	71.94
414.035	89.94
414.258	77.94
414.482	83.94
414.705	91.94
414.928	85.94
415.151	84.94
415.374	81.94
415.597	73.94
415.821	74.94
416.044	85.94
416.267	89.94
416.49	85.94
416.713	83.94
416.936	82.94
417.159	86.94
417.382	89.94
417.605	80.94
417.828	91.94
418.051	92.94
418.274	86.94
418.497	89.94
418.72	86.94
418.943	84.94
419.166	80.94
419.389	99.94
419.611	84.94
419.834	91.94
420.057	90.94
420.28	81.94
420.503	80.94
420.726	85.94
420.948	81.94
421.171	101.94
421.394	87.94
421.617	77.94
421.839	72.94
422.062	86.94
422.285	77.94
422.507	97.94
422.73	88.94
422.953	92.94
423.175	86.94
423.398	85.94
423.621	93.94
423.843	97.94
424.066	93.94
424.288	81.94
424.511	87.94
424.733	102.94
424.956	92.94
425.178	87.94
425.401	97.94
425.623	84.94
425.846	90.94
426.068	87.94
426.291	105.94
426.513	94.94
426.735	72.94
426.958	82.94
427.18	108.94
427.402	107.94
427.625	139.94
427.847	116.94
428.069	90.94
428.292	78.94
428.514	89.94
428.736	90.94
428.958	81.94
429.181	82.94
429.403	82.94
429.625	88.94
429.847	100.94
430.069	93.94
430.292	89.94
430.514	80.94
430.736	88.94
430.958	87.94
431.18	80.94
431.402	94.94
431.624	89.94
431.846	73.94
432.068	77.94
432.29	82.94
432.512	90.94
432.734	95.94
432.956	96.94
433.178	98.94
433.4	84.94
433.622	87.94
433.844	89.94
434.066	85.94
434.287	87.94
434.509	97.94
434.731	89.94
434.953	65.94
435.175	74.94
435.397	97.94
435.618	96.94
435.84	97.94
436.062	111.94
436.284	107.94
436.505	117.94
436.727	93.94
436.949	95.94
437.17	81.94
437.392	92.94
437.614	89.94
437.835	95.94
438.057	108.94
438.278	109.94
438.5	106.94
438.721	125.94
438.943	107.94
439.165	78.94
439.386	105.94
439.608	93.94
439.829	113.94
440.05	121.94
440.272	121.94
440.493	80.94
440.715	90.94
440.936	92.94
441.158	88.94
441.379	81.94
441.6	88.94
441.822	73.94
442.043	102.94
442.264	100.94
442.486	84.94
442.707	92.94
442.928	88.94
443.149	121.94
443.371	128.94
443.592	122.94
443.813	104.94
444.034	100.94
444.255	92.94
444.476	70.94
444.698	73.94
444.919	91.94
445.14	126.94
445.361	123.94
445.582	114.94
445.803	136.94
446.024	129.94
446.245	110.94
446.466	111.94
446.687	93.94
446.908	94.94
447.129	85.94
447.35	90.94
447.571	97.94
447.792	92.94
448.013	106.94
448.234	106.94
448.455	108.94
448.675	121.94
448.896	97.94
449.117	107.94
449.338	91.94
449.559	122.94
449.779	121.94
450	90.94
450.221	69.94
450.442	93.94
450.662	94.94
450.883	93.94
451.104	104.94
451.324	92.94
451.545	85.94
451.766	88.94
451.986	93.94
452.207	92.94
452.428	95.94
452.648	109.94
452.869	109.94
453.089	118.94
453.31	113.94
453.53	95.94
453.751	79.94
453.971	97.94
454.192	93.94
454.412	76.94
454.633	88.94
454.853	92.94
455.073	88.94
455.294	98.94
455.514	113.94
455.734	82.94
455.955	84.94
456.175	82.94
456.395	74.94
456.616	85.94
456.836	86.94
457.056	77.94
457.276	61.94
457.497	74.94
457.717	84.94
457.937	75.94
458.157	86.94
458.377	90.94
458.598	102.94
458.818	137.94
459.038	140.94
459.258	102.94
459.478	83.94
459.698	80.94
459.918	80.94
460.138	76.94
460.358	76.94
460.578	82.94
460.798	96.94
461.018	85.94
461.238	84.94
461.458	83.94
461.678	76.94
461.898	73.94
462.118	92.94
462.338	79.94
462.558	78.94
462.777	85.94
462.997	74.94
463.217	68.94
463.437	81.94
463.657	82.94
463.876	77.94
464.096	78.94
464.316	94.94
464.536	90.94
464.755	77.94
464.975	98.94
465.195	157.94
465.414	145.94
465.634	105.94
465.854	85.94
466.073	94.94
466.293	79.94
466.512	77.94
466.732	81.94
466.951	69.94
467.171	83.94
467.391	81.94
467.61	105.94
467.829	96.94
468.049	78.94
468.268	87.94
468.488	90.94
468.707	73.94
468.927	91.94
469.146	76.94
469.365	84.94
469.585	81.94
469.804	77.94
470.023	93.94
470.243	93.94
470.462	94.94
470.681	92.94
470.901	80.94
471.12	82.94
471.339	73.94
471.558	101.94
471.777	89.94
471.997	79.94
472.216	86.94
472.435	79.94
472.654	76.94
472.873	90.94
473.092	89.94
473.311	76.94
473.53	87.94
473.749	90.94
473.968	94.94
474.187	95.94
474.406	85.94
474.625	84.94
474.844	88.94
475.063	95.94
475.282	72.94
475.501	79.94
475.72	103.94
475.939	80.94
476.158	84.94
476.377	89.94
476.596	80.94
476.814	84.94
477.033	83.94
477.252	83.94
477.471	93.94
477.69	77.94
477.908	85.94
478.127	89.94
478.346	73.94
478.564	85.94
478.783	86.94
479.002	93.94
479.22	82.94
479.439	92.94
479.658	95.94
479.876	77.94
480.095	82.94
480.313	72.94
480.532	84.94
480.751	80.94
480.969	82.94
481.188	77.94
481.406	78.94
481.624	88.94
481.843	80.94
482.061	91.94
482.28	86.94
482.498	84.94
482.717	83.94
482.935	87.94
483.153	89.94
483.372	84.94
483.59	80.94
483.808	79.94
484.027	86.94
484.245	101.94
484.463	110.94
484.681	97.94
484.9	92.94
485.118	71.94
485.336	97.94
485.554	92.94
485.772	90.94
485.99	93.94
486.209	83.94
486.427	102.94
486.645	104.94
486.863	98.94
487.081	92.94
487.299	101.94
487.517	87.94
487.735	89.94
487.953	90.94
488.171	84.94
488.389	90.94
488.607	99.94
488.825	93.94
489.043	74.94
489.261	76.94
489.479	76.94
489.696	92.94
489.914	88.94
490.132	88.94
490.35	88.94
490.568	88.94
490.786	93.94
491.003	71.94
491.221	70.94
491.439	95.94
491.657	88.94
491.874	93.94
492.092	82.94
492.31	83.94
492.527	77.94
492.745	90.94
492.963	90.94
493.18	81.94
493.398	87.94
493.615	104.94
493.833	87.94
494.05	92.94
494.268	97.94
494.485	79.94
494.703	81.94
494.92	87.94
495.138	82.94
495.355	78.94
495.573	105.94
495.79	90.94
496.008	87.94
496.225	96.94
496.442	84.94
496.66	100.94
496.877	96.94
497.094	100.94
497.312	80.94
497.529	81.94
497.746	88.94
497.963	89.94
498.181	87.94
498.398	89.94
498.615	103.94
498.832	116.94
499.049	80.94
499.267	82.94
499.484	91.94
499.701	84.94
499.918	85.94
500.135	89.94
500.352	87.94
500.569	93.94
500.786	86.94
501.003	84.94
501.22	80.94
501.437	94.94
501.654	85.94
501.871	95.94
502.088	93.94
502.305	91.94
502.522	75.94
502.739	96.94
502.956	86.94
503.172	93.94
503.389	84.94
503.606	110.94
503.823	86.94
504.04	87.94
504.256	92.94
504.473	88.94
504.69	85.94
504.907	85.94
505.123	93.94
505.34	93.94
505.557	111.94
505.773	76.94
505.99	76.94
506.207	84.94
506.423	89.94
506.64	92.94
506.856	71.94
507.073	90.94
507.289	92.94
507.506	86.94
507.722	92.94
507.939	105.94
508.155	85.94
508.372	73.94
508.588	104.94
508.805	93.94
509.021	98.94
509.238	89.94
509.454	93.94
509.67	87.94
509.887	117.94
510.103	123.94
510.319	203.94
510.536	743.94
510.752	2336.94
510.968	646.94
511.184	141.94
511.401	102.94
511.617	91.94
511.833	93.94
512.049	77.94
512.265	76.94
512.481	89.94
512.698	96.94
512.914	95.94
513.13	103.94
513.346	88.94
513.562	98.94
513.778	84.94
513.994	89.94
514.21	94.94
514.426	127.94
514.642	120.94
514.858	110.94
515.074	152.94
515.29	430.94
515.506	1414.94
515.721	498.94
515.937	140.94
516.153	116.94
516.369	93.94
516.585	85.94
516.801	99.94
