Data from Uncirc_1994_H10_HRD10591_00042.txt Node
Date: Wed Jan 03 11:39:29 EST 2024
User: Yrep
Spectrometer: HR+D1059
Trigger mode: 1
Integration Time (sec): 1.000000E-1
Scans to average: 1
Electric dark correction enabled: true
Nonlinearity correction enabled: false
Boxcar width: 0
XAxis mode: Wavelengths
Number of Pixels in Spectrum: 2048
>>>>>Begin Spectral Data<<<<<
223.165	-24.81
223.4	-24.81
223.635	-24.81
223.869	-30.81
224.104	-21.81
224.338	-16.81
224.573	-13.81
224.808	-4.81
225.042	-7.81
225.277	6.19
225.511	-11.81
225.746	5.19
225.98	10.19
226.215	10.19
226.449	10.19
226.683	28.19
226.918	30.19
227.152	32.19
227.387	47.19
227.621	40.19
227.856	36.19
228.09	47.19
228.324	49.19
228.559	50.19
228.793	75.19
229.027	70.19
229.262	72.19
229.496	57.19
229.73	88.19
229.964	72.19
230.199	82.19
230.433	80.19
230.667	77.19
230.901	74.19
231.136	76.19
231.37	86.19
231.604	82.19
231.838	80.19
232.072	77.19
232.306	76.19
232.541	93.19
232.775	83.19
233.009	88.19
233.243	77.19
233.477	81.19
233.711	90.19
233.945	82.19
234.179	79.19
234.413	92.19
234.647	84.19
234.881	86.19
235.115	76.19
235.349	87.19
235.583	78.19
235.817	67.19
236.051	70.19
236.285	82.19
236.519	91.19
236.753	78.19
236.987	78.19
237.221	79.19
237.455	75.19
237.689	78.19
237.922	71.19
238.156	67.19
238.39	74.19
238.624	90.19
238.858	95.19
239.091	91.19
239.325	85.19
239.559	74.19
239.793	68.19
240.027	75.19
240.26	67.19
240.494	71.19
240.728	66.19
240.961	72.19
241.195	72.19
241.429	82.19
241.662	70.19
241.896	79.19
242.13	86.19
242.363	81.19
242.597	80.19
242.83	86.19
243.064	73.19
243.298	82.19
243.531	75.19
243.765	75.19
243.998	76.19
244.232	94.19
244.465	80.19
244.699	98.19
244.932	84.19
245.166	81.19
245.399	68.19
245.633	82.19
245.866	81.19
246.099	75.19
246.333	80.19
246.566	71.19
246.8	67.19
247.033	75.19
247.266	90.19
247.5	91.19
247.733	78.19
247.966	89.19
248.2	83.19
248.433	88.19
248.666	79.19
248.899	93.19
249.133	76.19
249.366	90.19
249.599	78.19
249.832	66.19
250.066	82.19
250.299	67.19
250.532	97.19
250.765	87.19
250.998	77.19
251.231	75.19
251.465	78.19
251.698	73.19
251.931	70.19
252.164	83.19
252.397	82.19
252.63	66.19
252.863	82.19
253.096	79.19
253.329	67.19
253.562	73.19
253.795	80.19
254.028	71.19
254.261	72.19
254.494	72.19
254.727	80.19
254.96	84.19
255.193	98.19
255.426	83.19
255.659	80.19
255.892	87.19
256.124	74.19
256.357	98.19
256.59	83.19
256.823	65.19
257.056	76.19
257.289	77.19
257.521	100.19
257.754	78.19
257.987	83.19
258.22	72.19
258.452	85.19
258.685	65.19
258.918	81.19
259.151	79.19
259.383	91.19
259.616	91.19
259.849	71.19
260.081	103.19
260.314	72.19
260.547	82.19
260.779	79.19
261.012	81.19
261.244	72.19
261.477	91.19
261.71	93.19
261.942	99.19
262.175	100.19
262.407	91.19
262.64	71.19
262.872	89.19
263.105	83.19
263.337	86.19
263.57	80.19
263.802	91.19
264.035	72.19
264.267	84.19
264.499	95.19
264.732	95.19
264.964	67.19
265.197	75.19
265.429	87.19
265.661	91.19
265.894	87.19
266.126	91.19
266.358	87.19
266.591	92.19
266.823	79.19
267.055	92.19
267.287	84.19
267.52	94.19
267.752	88.19
267.984	80.19
268.216	83.19
268.448	73.19
268.681	88.19
268.913	76.19
269.145	88.19
269.377	77.19
269.609	94.19
269.841	88.19
270.073	76.19
270.306	82.19
270.538	80.19
270.77	94.19
271.002	77.19
271.234	82.19
271.466	86.19
271.698	96.19
271.93	80.19
272.162	79.19
272.394	78.19
272.626	95.19
272.858	82.19
273.09	81.19
273.322	87.19
273.553	89.19
273.785	79.19
274.017	62.19
274.249	93.19
274.481	81.19
274.713	83.19
274.945	81.19
275.176	92.19
275.408	80.19
275.64	77.19
275.872	87.19
276.104	89.19
276.335	87.19
276.567	93.19
276.799	105.19
277.031	78.19
277.262	90.19
277.494	89.19
277.726	87.19
277.957	90.19
278.189	89.19
278.421	91.19
278.652	80.19
278.884	90.19
279.115	91.19
279.347	87.19
279.579	74.19
279.81	81.19
280.042	86.19
280.273	87.19
280.505	84.19
280.736	80.19
280.968	86.19
281.199	81.19
281.431	99.19
281.662	79.19
281.894	95.19
282.125	98.19
282.356	123.19
282.588	118.19
282.819	105.19
283.051	81.19
283.282	85.19
283.513	86.19
283.745	80.19
283.976	105.19
284.207	94.19
284.439	85.19
284.67	74.19
284.901	69.19
285.132	80.19
285.364	78.19
285.595	70.19
285.826	83.19
286.057	95.19
286.288	93.19
286.52	66.19
286.751	74.19
286.982	76.19
287.213	78.19
287.444	77.19
287.675	87.19
287.906	94.19
288.138	83.19
288.369	93.19
288.6	78.19
288.831	87.19
289.062	86.19
289.293	89.19
289.524	81.19
289.755	95.19
289.986	84.19
290.217	97.19
290.448	84.19
290.679	85.19
290.91	92.19
291.141	82.19
291.371	91.19
291.602	93.19
291.833	92.19
292.064	85.19
292.295	91.19
292.526	100.19
292.757	100.19
292.987	77.19
293.218	86.19
293.449	83.19
293.68	100.19
293.91	88.19
294.141	91.19
294.372	94.19
294.603	96.19
294.833	89.19
295.064	92.19
295.295	90.19
295.525	98.19
295.756	100.19
295.987	125.19
296.217	121.19
296.448	110.19
296.679	92.19
296.909	82.19
297.14	91.19
297.37	98.19
297.601	98.19
297.831	100.19
298.062	87.19
298.292	100.19
298.523	90.19
298.753	100.19
298.984	81.19
299.214	90.19
299.445	83.19
299.675	82.19
299.905	86.19
300.136	87.19
300.366	91.19
300.597	90.19
300.827	89.19
301.057	102.19
301.288	94.19
301.518	90.19
301.748	82.19
301.979	102.19
302.209	79.19
302.439	78.19
302.669	87.19
302.9	88.19
303.13	86.19
303.36	88.19
303.59	104.19
303.82	91.19
304.051	93.19
304.281	95.19
304.511	97.19
304.741	87.19
304.971	99.19
305.201	91.19
305.431	76.19
305.661	87.19
305.891	93.19
306.121	97.19
306.352	97.19
306.582	111.19
306.812	102.19
307.042	89.19
307.272	75.19
307.502	78.19
307.731	98.19
307.961	83.19
308.191	93.19
308.421	78.19
308.651	92.19
308.881	80.19
309.111	88.19
309.341	99.19
309.571	86.19
309.8	97.19
310.03	87.19
310.26	99.19
310.49	88.19
310.72	93.19
310.949	106.19
311.179	100.19
311.409	101.19
311.639	95.19
311.868	81.19
312.098	102.19
312.328	93.19
312.557	92.19
312.787	99.19
313.017	104.19
313.246	92.19
313.476	92.19
313.706	97.19
313.935	91.19
314.165	100.19
314.394	89.19
314.624	88.19
314.853	104.19
315.083	96.19
315.312	89.19
315.542	105.19
315.771	87.19
316.001	92.19
316.23	81.19
316.46	90.19
316.689	77.19
316.919	90.19
317.148	86.19
317.377	81.19
317.607	83.19
317.836	97.19
318.065	94.19
318.295	91.19
318.524	93.19
318.753	82.19
318.983	96.19
319.212	85.19
319.441	106.19
319.67	91.19
319.9	92.19
320.129	79.19
320.358	102.19
320.587	95.19
320.816	87.19
321.046	100.19
321.275	76.19
321.504	84.19
321.733	97.19
321.962	93.19
322.191	92.19
322.42	103.19
322.649	94.19
322.878	101.19
323.108	98.19
323.337	115.19
323.566	110.19
323.795	134.19
324.024	192.19
324.253	364.19
324.482	758.19
324.71	1516.19
324.939	1920.19
325.168	746.19
325.397	218.19
325.626	140.19
325.855	126.19
326.084	119.19
326.313	136.19
326.542	135.19
326.77	191.19
326.999	413.19
327.228	864.19
327.457	1534.19
327.686	1212.19
327.914	345.19
328.143	155.19
328.372	139.19
328.6	127.19
328.829	126.19
329.058	110.19
329.287	112.19
329.515	116.19
329.744	90.19
329.972	87.19
330.201	98.19
330.43	98.19
330.658	120.19
330.887	127.19
331.115	108.19
331.344	108.19
331.572	113.19
331.801	99.19
332.03	98.19
332.258	91.19
332.486	92.19
332.715	95.19
332.943	83.19
333.172	97.19
333.4	85.19
333.629	103.19
333.857	99.19
334.085	100.19
334.314	96.19
334.542	89.19
334.771	98.19
334.999	98.19
335.227	96.19
335.455	88.19
335.684	90.19
335.912	89.19
336.14	95.19
336.369	98.19
336.597	96.19
336.825	88.19
337.053	96.19
337.281	80.19
337.51	98.19
337.738	91.19
337.966	99.19
338.194	95.19
338.422	82.19
338.65	77.19
338.878	90.19
339.106	97.19
339.334	95.19
339.562	77.19
339.79	83.19
340.018	90.19
340.246	91.19
340.474	88.19
340.702	96.19
340.93	103.19
341.158	86.19
341.386	101.19
341.614	85.19
341.842	91.19
342.07	90.19
342.298	84.19
342.526	74.19
342.754	83.19
342.981	70.19
343.209	91.19
343.437	96.19
343.665	91.19
343.893	80.19
344.12	102.19
344.348	86.19
344.576	76.19
344.804	93.19
345.031	91.19
345.259	84.19
345.487	87.19
345.714	81.19
345.942	77.19
346.17	89.19
346.397	90.19
346.625	84.19
346.853	87.19
347.08	101.19
347.308	90.19
347.535	93.19
347.763	91.19
347.99	96.19
348.218	95.19
348.445	87.19
348.673	94.19
348.9	86.19
349.128	93.19
349.355	81.19
349.583	91.19
349.81	100.19
350.037	111.19
350.265	95.19
350.492	92.19
350.72	96.19
350.947	90.19
351.174	89.19
351.402	98.19
351.629	92.19
351.856	78.19
352.083	92.19
352.311	94.19
352.538	92.19
352.765	96.19
352.992	110.19
353.22	108.19
353.447	100.19
353.674	97.19
353.901	96.19
354.128	92.19
354.355	95.19
354.583	103.19
354.81	96.19
355.037	108.19
355.264	93.19
355.491	100.19
355.718	94.19
355.945	93.19
356.172	95.19
356.399	94.19
356.626	88.19
356.853	86.19
357.08	98.19
357.307	93.19
357.534	83.19
357.761	108.19
357.988	101.19
358.215	105.19
358.441	91.19
358.668	82.19
358.895	89.19
359.122	87.19
359.349	96.19
359.576	94.19
359.802	105.19
360.029	117.19
360.256	111.19
360.483	100.19
360.709	96.19
360.936	82.19
361.163	94.19
361.39	74.19
361.616	100.19
361.843	86.19
362.07	90.19
362.296	79.19
362.523	88.19
362.749	82.19
362.976	88.19
363.203	89.19
363.429	89.19
363.656	95.19
363.882	94.19
364.109	98.19
364.335	84.19
364.562	80.19
364.788	95.19
365.015	99.19
365.241	108.19
365.468	101.19
365.694	97.19
365.92	103.19
366.147	97.19
366.373	87.19
366.599	97.19
366.826	92.19
367.052	86.19
367.278	88.19
367.505	95.19
367.731	92.19
367.957	95.19
368.184	99.19
368.41	99.19
368.636	95.19
368.862	111.19
369.089	109.19
369.315	87.19
369.541	97.19
369.767	88.19
369.993	86.19
370.219	82.19
370.445	83.19
370.672	85.19
370.898	92.19
371.124	97.19
371.35	86.19
371.576	83.19
371.802	80.19
372.028	90.19
372.254	92.19
372.48	90.19
372.706	79.19
372.932	90.19
373.158	94.19
373.384	87.19
373.61	91.19
373.835	89.19
374.061	82.19
374.287	96.19
374.513	71.19
374.739	83.19
374.965	87.19
375.191	83.19
375.416	88.19
375.642	89.19
375.868	86.19
376.094	87.19
376.319	80.19
376.545	94.19
376.771	83.19
376.997	76.19
377.222	70.19
377.448	91.19
377.674	70.19
377.899	90.19
378.125	94.19
378.35	82.19
378.576	83.19
378.802	91.19
379.027	105.19
379.253	87.19
379.478	70.19
379.704	82.19
379.929	96.19
380.155	103.19
380.38	74.19
380.606	94.19
380.831	92.19
381.057	102.19
381.282	103.19
381.507	77.19
381.733	89.19
381.958	102.19
382.184	106.19
382.409	77.19
382.634	95.19
382.86	96.19
383.085	91.19
383.31	87.19
383.535	101.19
383.761	90.19
383.986	104.19
384.211	98.19
384.436	90.19
384.662	87.19
384.887	87.19
385.112	103.19
385.337	93.19
385.562	97.19
385.787	86.19
386.013	92.19
386.238	110.19
386.463	99.19
386.688	94.19
386.913	107.19
387.138	99.19
387.363	93.19
387.588	93.19
387.813	81.19
388.038	96.19
388.263	102.19
388.488	94.19
388.713	89.19
388.938	84.19
389.163	87.19
389.387	94.19
389.612	97.19
389.837	88.19
390.062	76.19
390.287	95.19
390.512	92.19
390.736	90.19
390.961	89.19
391.186	86.19
391.411	90.19
391.636	87.19
391.86	83.19
392.085	77.19
392.31	73.19
392.534	95.19
392.759	86.19
392.984	78.19
393.208	100.19
393.433	98.19
393.658	89.19
393.882	90.19
394.107	77.19
394.331	67.19
394.556	77.19
394.78	90.19
395.005	95.19
395.229	103.19
395.454	96.19
395.678	74.19
395.903	80.19
396.127	75.19
396.352	86.19
396.576	91.19
396.801	88.19
397.025	99.19
397.249	80.19
397.474	82.19
397.698	82.19
397.922	78.19
398.147	106.19
398.371	88.19
398.595	94.19
398.82	84.19
399.044	88.19
399.268	78.19
399.492	96.19
399.717	75.19
399.941	83.19
400.165	87.19
400.389	80.19
400.613	99.19
400.837	92.19
401.062	73.19
401.286	84.19
401.51	80.19
401.734	89.19
401.958	102.19
402.182	117.19
402.406	144.19
402.63	116.19
402.854	84.19
403.078	83.19
403.302	89.19
403.526	87.19
403.75	90.19
403.974	90.19
404.198	85.19
404.422	87.19
404.645	98.19
404.869	86.19
405.093	97.19
405.317	88.19
405.541	88.19
405.765	81.19
405.988	117.19
406.212	163.19
406.436	195.19
406.66	145.19
406.883	92.19
407.107	81.19
407.331	101.19
407.555	97.19
407.778	105.19
408.002	95.19
408.226	91.19
408.449	90.19
408.673	96.19
408.896	97.19
409.12	84.19
409.344	94.19
409.567	82.19
409.791	80.19
410.014	81.19
410.238	88.19
410.461	96.19
410.685	96.19
410.908	97.19
411.132	90.19
411.355	94.19
411.578	89.19
411.802	87.19
412.025	93.19
412.249	102.19
412.472	95.19
412.695	100.19
412.919	84.19
413.142	94.19
413.365	84.19
413.589	79.19
413.812	76.19
414.035	92.19
414.258	98.19
414.482	93.19
414.705	91.19
414.928	110.19
415.151	96.19
415.374	105.19
415.597	96.19
415.821	87.19
416.044	89.19
416.267	86.19
416.49	94.19
416.713	93.19
416.936	84.19
417.159	95.19
417.382	97.19
417.605	83.19
417.828	72.19
418.051	95.19
418.274	75.19
418.497	78.19
418.72	102.19
418.943	86.19
419.166	82.19
419.389	90.19
419.611	84.19
419.834	78.19
420.057	77.19
420.28	90.19
420.503	83.19
420.726	79.19
420.948	82.19
421.171	94.19
421.394	93.19
421.617	79.19
421.839	88.19
422.062	79.19
422.285	83.19
422.507	98.19
422.73	97.19
422.953	100.19
423.175	93.19
423.398	86.19
423.621	77.19
423.843	80.19
424.066	70.19
424.288	88.19
424.511	86.19
424.733	88.19
424.956	102.19
425.178	86.19
425.401	96.19
425.623	99.19
425.846	88.19
426.068	106.19
426.291	91.19
426.513	97.19
426.735	85.19
426.958	88.19
427.18	98.19
427.402	128.19
427.625	151.19
427.847	112.19
428.069	94.19
428.292	88.19
428.514	96.19
428.736	79.19
428.958	80.19
429.181	89.19
429.403	89.19
429.625	77.19
429.847	90.19
430.069	107.19
430.292	104.19
430.514	83.19
430.736	92.19
430.958	96.19
431.18	92.19
431.402	76.19
431.624	72.19
431.846	86.19
432.068	90.19
432.29	90.19
432.512	74.19
432.734	88.19
432.956	97.19
433.178	112.19
433.4	93.19
433.622	85.19
433.844	105.19
434.066	106.19
434.287	93.19
434.509	92.19
434.731	87.19
434.953	87.19
435.175	95.19
435.397	94.19
435.618	93.19
435.84	90.19
436.062	107.19
436.284	103.19
436.505	98.19
436.727	99.19
436.949	89.19
437.17	105.19
437.392	83.19
437.614	90.19
437.835	96.19
438.057	114.19
438.278	112.19
438.5	105.19
438.721	125.19
438.943	87.19
439.165	92.19
439.386	97.19
439.608	86.19
439.829	82.19
440.05	119.19
440.272	136.19
440.493	98.19
440.715	83.19
440.936	82.19
441.158	88.19
441.379	82.19
441.6	89.19
441.822	88.19
442.043	113.19
442.264	116.19
442.486	103.19
442.707	86.19
442.928	102.19
443.149	135.19
443.371	119.19
443.592	105.19
443.813	110.19
444.034	101.19
444.255	86.19
444.476	88.19
444.698	71.19
444.919	75.19
445.14	118.19
445.361	113.19
445.582	100.19
445.803	124.19
446.024	140.19
446.245	117.19
446.466	104.19
446.687	107.19
446.908	79.19
447.129	86.19
447.35	83.19
447.571	80.19
447.792	91.19
448.013	97.19
448.234	90.19
448.455	95.19
448.675	97.19
448.896	103.19
449.117	97.19
449.338	93.19
449.559	109.19
449.779	118.19
450	87.19
450.221	81.19
450.442	84.19
450.662	85.19
450.883	97.19
451.104	112.19
451.324	101.19
451.545	96.19
451.766	83.19
451.986	97.19
452.207	90.19
452.428	99.19
452.648	88.19
452.869	88.19
453.089	92.19
453.31	96.19
453.53	100.19
453.751	87.19
453.971	104.19
454.192	102.19
454.412	77.19
454.633	81.19
454.853	91.19
455.073	87.19
455.294	97.19
455.514	92.19
455.734	90.19
455.955	68.19
456.175	77.19
456.395	87.19
456.616	94.19
456.836	91.19
457.056	98.19
457.276	92.19
457.497	74.19
457.717	87.19
457.937	87.19
458.157	73.19
458.377	90.19
458.598	91.19
458.818	137.19
459.038	127.19
459.258	100.19
459.478	89.19
459.698	84.19
459.918	92.19
460.138	80.19
460.358	88.19
460.578	82.19
460.798	103.19
461.018	82.19
461.238	88.19
461.458	80.19
461.678	74.19
461.898	96.19
462.118	83.19
462.338	60.19
462.558	74.19
462.777	80.19
462.997	80.19
463.217	94.19
463.437	89.19
463.657	87.19
463.876	83.19
464.096	86.19
464.316	88.19
464.536	92.19
464.755	83.19
464.975	91.19
465.195	148.19
465.414	149.19
465.634	86.19
465.854	87.19
466.073	92.19
466.293	65.19
466.512	92.19
466.732	78.19
466.951	87.19
467.171	98.19
467.391	88.19
467.61	89.19
467.829	90.19
468.049	79.19
468.268	78.19
468.488	80.19
468.707	98.19
468.927	96.19
469.146	81.19
469.365	75.19
469.585	88.19
469.804	96.19
470.023	94.19
470.243	87.19
470.462	92.19
470.681	101.19
470.901	102.19
471.12	84.19
471.339	95.19
471.558	96.19
471.777	70.19
471.997	94.19
472.216	83.19
472.435	90.19
472.654	91.19
472.873	98.19
473.092	75.19
473.311	88.19
473.53	86.19
473.749	94.19
473.968	86.19
474.187	115.19
474.406	90.19
474.625	83.19
474.844	78.19
475.063	95.19
475.282	88.19
475.501	78.19
475.72	86.19
475.939	91.19
476.158	76.19
476.377	75.19
476.596	98.19
476.814	91.19
477.033	90.19
477.252	91.19
477.471	99.19
477.69	94.19
477.908	90.19
478.127	84.19
478.346	76.19
478.564	95.19
478.783	91.19
479.002	87.19
479.22	86.19
479.439	81.19
479.658	96.19
479.876	79.19
480.095	97.19
480.313	80.19
480.532	93.19
480.751	80.19
480.969	75.19
481.188	95.19
481.406	79.19
481.624	82.19
481.843	100.19
482.061	79.19
482.28	79.19
482.498	91.19
482.717	91.19
482.935	95.19
483.153	82.19
483.372	98.19
483.59	72.19
483.808	93.19
484.027	87.19
484.245	92.19
484.463	96.19
484.681	101.19
484.9	98.19
485.118	100.19
485.336	100.19
485.554	92.19
485.772	89.19
485.99	107.19
486.209	104.19
486.427	89.19
486.645	94.19
486.863	102.19
487.081	108.19
487.299	90.19
487.517	96.19
487.735	94.19
487.953	95.19
488.171	85.19
488.389	95.19
488.607	107.19
488.825	92.19
489.043	83.19
489.261	82.19
489.479	91.19
489.696	87.19
489.914	88.19
490.132	95.19
490.35	97.19
490.568	87.19
490.786	97.19
491.003	88.19
491.221	101.19
491.439	90.19
491.657	90.19
491.874	87.19
492.092	100.19
492.31	100.19
492.527	91.19
492.745	91.19
492.963	78.19
493.18	92.19
493.398	113.19
493.615	109.19
493.833	106.19
494.05	99.19
494.268	78.19
494.485	97.19
494.703	83.19
494.92	94.19
495.138	89.19
495.355	87.19
495.573	87.19
495.79	77.19
496.008	105.19
496.225	92.19
496.442	86.19
496.66	91.19
496.877	91.19
497.094	99.19
497.312	80.19
497.529	88.19
497.746	83.19
497.963	75.19
498.181	97.19
498.398	87.19
498.615	99.19
498.832	95.19
499.049	87.19
499.267	100.19
499.484	85.19
499.701	86.19
499.918	97.19
500.135	89.19
500.352	80.19
500.569	96.19
500.786	80.19
501.003	97.19
501.22	81.19
501.437	99.19
501.654	100.19
501.871	96.19
502.088	95.19
502.305	83.19
502.522	73.19
502.739	89.19
502.956	86.19
503.172	99.19
503.389	82.19
503.606	90.19
503.823	88.19
504.04	104.19
504.256	87.19
504.473	86.19
504.69	92.19
504.907	97.19
505.123	87.19
505.34	101.19
505.557	87.19
505.773	92.19
505.99	103.19
506.207	90.19
506.423	95.19
506.64	107.19
506.856	97.19
507.073	95.19
507.289	94.19
507.506	92.19
507.722	103.19
507.939	106.19
508.155	95.19
508.372	89.19
508.588	97.19
508.805	97.19
509.021	104.19
509.238	91.19
509.454	98.19
509.67	94.19
509.887	108.19
510.103	130.19
510.319	209.19
510.536	700.19
510.752	2206.19
510.968	628.19
511.184	146.19
511.401	97.19
511.617	103.19
511.833	92.19
512.049	88.19
512.265	88.19
512.481	93.19
512.698	89.19
512.914	92.19
513.13	75.19
513.346	77.19
513.562	94.19
513.778	96.19
513.994	83.19
514.21	90.19
514.426	106.19
514.642	125.19
514.858	136.19
515.074	153.19
515.29	418.19
515.506	1338.19
515.721	480.19
515.937	135.19
516.153	94.19
516.369	88.19
516.585	92.19
516.801	97.19
517.016	81.19
