Data from Uncirc_1994_H10_HRD10591_00047.txt Node
Date: Wed Jan 03 11:39:30 EST 2024
User: Yrep
Spectrometer: HR+D1059
Trigger mode: 1
Integration Time (sec): 1.000000E-1
Scans to average: 1
Electric dark correction enabled: true
Nonlinearity correction enabled: false
Boxcar width: 0
XAxis mode: Wavelengths
Number of Pixels in Spectrum: 2048
>>>>>Begin Spectral Data<<<<<
223.165	-10.88
223.4	-10.88
223.635	-10.88
223.869	-16.88
224.104	-19.88
224.338	-14.88
224.573	-19.88
224.808	-19.88
225.042	-8.88
225.277	3.12
225.511	-3.88
225.746	0.12
225.98	-6.88
226.215	23.12
226.449	17.12
226.683	22.12
226.918	23.12
227.152	33.12
227.387	29.12
227.621	47.12
227.856	49.12
228.09	51.12
228.324	50.12
228.559	62.12
228.793	61.12
229.027	68.12
229.262	78.12
229.496	63.12
229.73	81.12
229.964	86.12
230.199	89.12
230.433	79.12
230.667	72.12
230.901	91.12
231.136	85.12
231.37	77.12
231.604	68.12
231.838	62.12
232.072	82.12
232.306	86.12
232.541	95.12
232.775	79.12
233.009	87.12
233.243	99.12
233.477	97.12
233.711	84.12
233.945	82.12
234.179	78.12
234.413	88.12
234.647	76.12
234.881	82.12
235.115	91.12
235.349	71.12
235.583	75.12
235.817	81.12
236.051	71.12
236.285	77.12
236.519	81.12
236.753	91.12
236.987	78.12
237.221	85.12
237.455	86.12
237.689	91.12
237.922	89.12
238.156	66.12
238.39	68.12
238.624	92.12
238.858	91.12
239.091	98.12
239.325	79.12
239.559	86.12
239.793	79.12
240.027	82.12
240.26	71.12
240.494	83.12
240.728	90.12
240.961	87.12
241.195	91.12
241.429	85.12
241.662	84.12
241.896	99.12
242.13	82.12
242.363	85.12
242.597	69.12
242.83	77.12
243.064	80.12
243.298	77.12
243.531	76.12
243.765	82.12
243.998	76.12
244.232	91.12
244.465	92.12
244.699	91.12
244.932	79.12
245.166	85.12
245.399	77.12
245.633	77.12
245.866	56.12
246.099	62.12
246.333	74.12
246.566	90.12
246.8	90.12
247.033	86.12
247.266	82.12
247.5	70.12
247.733	63.12
247.966	84.12
248.2	72.12
248.433	79.12
248.666	86.12
248.899	90.12
249.133	95.12
249.366	104.12
249.599	94.12
249.832	91.12
250.066	92.12
250.299	96.12
250.532	81.12
250.765	84.12
250.998	88.12
251.231	88.12
251.465	71.12
251.698	80.12
251.931	75.12
252.164	92.12
252.397	83.12
252.63	77.12
252.863	76.12
253.096	97.12
253.329	87.12
253.562	75.12
253.795	85.12
254.028	82.12
254.261	75.12
254.494	78.12
254.727	83.12
254.96	80.12
255.193	86.12
255.426	86.12
255.659	70.12
255.892	79.12
256.124	86.12
256.357	63.12
256.59	64.12
256.823	90.12
257.056	90.12
257.289	91.12
257.521	86.12
257.754	81.12
257.987	75.12
258.22	82.12
258.452	81.12
258.685	96.12
258.918	96.12
259.151	79.12
259.383	82.12
259.616	90.12
259.849	71.12
260.081	90.12
260.314	85.12
260.547	75.12
260.779	83.12
261.012	77.12
261.244	79.12
261.477	93.12
261.71	94.12
261.942	114.12
262.175	102.12
262.407	86.12
262.64	81.12
262.872	87.12
263.105	86.12
263.337	81.12
263.57	77.12
263.802	94.12
264.035	87.12
264.267	77.12
264.499	99.12
264.732	80.12
264.964	89.12
265.197	93.12
265.429	93.12
265.661	99.12
265.894	91.12
266.126	84.12
266.358	79.12
266.591	92.12
266.823	80.12
267.055	85.12
267.287	83.12
267.52	98.12
267.752	89.12
267.984	84.12
268.216	78.12
268.448	84.12
268.681	81.12
268.913	87.12
269.145	97.12
269.377	94.12
269.609	78.12
269.841	91.12
270.073	78.12
270.306	92.12
270.538	92.12
270.77	100.12
271.002	93.12
271.234	91.12
271.466	93.12
271.698	91.12
271.93	88.12
272.162	83.12
272.394	88.12
272.626	81.12
272.858	86.12
273.09	90.12
273.322	91.12
273.553	85.12
273.785	92.12
274.017	87.12
274.249	89.12
274.481	89.12
274.713	94.12
274.945	78.12
275.176	84.12
275.408	87.12
275.64	81.12
275.872	75.12
276.104	100.12
276.335	87.12
276.567	102.12
276.799	104.12
277.031	108.12
277.262	92.12
277.494	79.12
277.726	100.12
277.957	93.12
278.189	90.12
278.421	94.12
278.652	85.12
278.884	83.12
279.115	85.12
279.347	94.12
279.579	88.12
279.81	95.12
280.042	92.12
280.273	80.12
280.505	85.12
280.736	90.12
280.968	85.12
281.199	86.12
281.431	78.12
281.662	79.12
281.894	87.12
282.125	104.12
282.356	112.12
282.588	131.12
282.819	108.12
283.051	104.12
283.282	90.12
283.513	95.12
283.745	92.12
283.976	99.12
284.207	92.12
284.439	84.12
284.67	77.12
284.901	91.12
285.132	89.12
285.364	83.12
285.595	91.12
285.826	96.12
286.057	87.12
286.288	92.12
286.52	87.12
286.751	83.12
286.982	100.12
287.213	88.12
287.444	91.12
287.675	90.12
287.906	81.12
288.138	79.12
288.369	96.12
288.6	114.12
288.831	97.12
289.062	88.12
289.293	80.12
289.524	79.12
289.755	96.12
289.986	78.12
290.217	85.12
290.448	82.12
290.679	92.12
290.91	91.12
291.141	76.12
291.371	116.12
291.602	99.12
291.833	103.12
292.064	88.12
292.295	97.12
292.526	93.12
292.757	97.12
292.987	97.12
293.218	78.12
293.449	80.12
293.68	93.12
293.91	94.12
294.141	101.12
294.372	92.12
294.603	100.12
294.833	94.12
295.064	99.12
295.295	81.12
295.525	82.12
295.756	100.12
295.987	126.12
296.217	135.12
296.448	121.12
296.679	79.12
296.909	75.12
297.14	95.12
297.37	76.12
297.601	82.12
297.831	100.12
298.062	102.12
298.292	99.12
298.523	100.12
298.753	106.12
298.984	94.12
299.214	100.12
299.445	93.12
299.675	76.12
299.905	99.12
300.136	100.12
300.366	88.12
300.597	104.12
300.827	94.12
301.057	98.12
301.288	99.12
301.518	92.12
301.748	118.12
301.979	101.12
302.209	88.12
302.439	92.12
302.669	99.12
302.9	86.12
303.13	93.12
303.36	105.12
303.59	95.12
303.82	97.12
304.051	84.12
304.281	105.12
304.511	86.12
304.741	106.12
304.971	90.12
305.201	98.12
305.431	91.12
305.661	85.12
305.891	100.12
306.121	88.12
306.352	99.12
306.582	103.12
306.812	97.12
307.042	91.12
307.272	90.12
307.502	86.12
307.731	100.12
307.961	95.12
308.191	94.12
308.421	98.12
308.651	99.12
308.881	103.12
309.111	109.12
309.341	88.12
309.571	99.12
309.8	103.12
310.03	104.12
310.26	99.12
310.49	96.12
310.72	97.12
310.949	92.12
311.179	111.12
311.409	96.12
311.639	80.12
311.868	85.12
312.098	101.12
312.328	94.12
312.557	104.12
312.787	102.12
313.017	103.12
313.246	101.12
313.476	91.12
313.706	84.12
313.935	86.12
314.165	113.12
314.394	91.12
314.624	101.12
314.853	100.12
315.083	93.12
315.312	96.12
315.542	98.12
315.771	103.12
316.001	79.12
316.23	85.12
316.46	90.12
316.689	87.12
316.919	88.12
317.148	103.12
317.377	110.12
317.607	90.12
317.836	90.12
318.065	100.12
318.295	79.12
318.524	88.12
318.753	90.12
318.983	90.12
319.212	95.12
319.441	123.12
319.67	98.12
319.9	81.12
320.129	94.12
320.358	93.12
320.587	86.12
320.816	101.12
321.046	92.12
321.275	90.12
321.504	99.12
321.733	88.12
321.962	94.12
322.191	113.12
322.42	100.12
322.649	109.12
322.878	100.12
323.108	134.12
323.337	113.12
323.566	126.12
323.795	156.12
324.024	197.12
324.253	352.12
324.482	737.12
324.71	1471.12
324.939	1954.12
325.168	735.12
325.397	240.12
325.626	133.12
325.855	126.12
326.084	116.12
326.313	128.12
326.542	147.12
326.77	214.12
326.999	422.12
327.228	830.12
327.457	1530.12
327.686	1226.12
327.914	335.12
328.143	181.12
328.372	135.12
328.6	118.12
328.829	97.12
329.058	119.12
329.287	106.12
329.515	107.12
329.744	111.12
329.972	91.12
330.201	95.12
330.43	102.12
330.658	120.12
330.887	131.12
331.115	112.12
331.344	104.12
331.572	102.12
331.801	103.12
332.03	102.12
332.258	90.12
332.486	94.12
332.715	95.12
332.943	95.12
333.172	90.12
333.4	95.12
333.629	107.12
333.857	109.12
334.085	97.12
334.314	101.12
334.542	93.12
334.771	92.12
334.999	90.12
335.227	75.12
335.455	96.12
335.684	81.12
335.912	100.12
336.14	98.12
336.369	103.12
336.597	90.12
336.825	88.12
337.053	93.12
337.281	106.12
337.51	101.12
337.738	99.12
337.966	109.12
338.194	92.12
338.422	91.12
338.65	93.12
338.878	94.12
339.106	91.12
339.334	95.12
339.562	96.12
339.79	90.12
340.018	93.12
340.246	94.12
340.474	87.12
340.702	96.12
340.93	95.12
341.158	90.12
341.386	88.12
341.614	102.12
341.842	97.12
342.07	89.12
342.298	93.12
342.526	90.12
342.754	86.12
342.981	98.12
343.209	88.12
343.437	110.12
343.665	96.12
343.893	87.12
344.12	98.12
344.348	94.12
344.576	84.12
344.804	89.12
345.031	106.12
345.259	97.12
345.487	101.12
345.714	86.12
345.942	105.12
346.17	95.12
346.397	86.12
346.625	92.12
346.853	94.12
347.08	95.12
347.308	98.12
347.535	108.12
347.763	96.12
347.99	92.12
348.218	88.12
348.445	102.12
348.673	107.12
348.9	91.12
349.128	87.12
349.355	94.12
349.583	92.12
349.81	94.12
350.037	101.12
350.265	101.12
350.492	94.12
350.72	98.12
350.947	95.12
351.174	102.12
351.402	99.12
351.629	104.12
351.856	101.12
352.083	106.12
352.311	112.12
352.538	95.12
352.765	107.12
352.992	102.12
353.22	108.12
353.447	101.12
353.674	105.12
353.901	98.12
354.128	107.12
354.355	102.12
354.583	96.12
354.81	107.12
355.037	109.12
355.264	89.12
355.491	103.12
355.718	103.12
355.945	103.12
356.172	92.12
356.399	113.12
356.626	97.12
356.853	103.12
357.08	94.12
357.307	101.12
357.534	108.12
357.761	93.12
357.988	84.12
358.215	86.12
358.441	101.12
358.668	93.12
358.895	108.12
359.122	90.12
359.349	97.12
359.576	106.12
359.802	98.12
360.029	114.12
360.256	102.12
360.483	99.12
360.709	77.12
360.936	100.12
361.163	102.12
361.39	95.12
361.616	93.12
361.843	82.12
362.07	94.12
362.296	90.12
362.523	87.12
362.749	85.12
362.976	80.12
363.203	87.12
363.429	90.12
363.656	79.12
363.882	104.12
364.109	98.12
364.335	98.12
364.562	92.12
364.788	86.12
365.015	108.12
365.241	110.12
365.468	114.12
365.694	115.12
365.92	94.12
366.147	84.12
366.373	90.12
366.599	99.12
366.826	87.12
367.052	99.12
367.278	104.12
367.505	83.12
367.731	98.12
367.957	102.12
368.184	103.12
368.41	96.12
368.636	112.12
368.862	112.12
369.089	99.12
369.315	104.12
369.541	89.12
369.767	95.12
369.993	91.12
370.219	84.12
370.445	77.12
370.672	78.12
370.898	81.12
371.124	95.12
371.35	98.12
371.576	89.12
371.802	109.12
372.028	90.12
372.254	95.12
372.48	85.12
372.706	98.12
372.932	98.12
373.158	78.12
373.384	103.12
373.61	87.12
373.835	97.12
374.061	81.12
374.287	84.12
374.513	73.12
374.739	94.12
374.965	95.12
375.191	91.12
375.416	100.12
375.642	98.12
375.868	95.12
376.094	100.12
376.319	87.12
376.545	83.12
376.771	86.12
376.997	86.12
377.222	87.12
377.448	102.12
377.674	95.12
377.899	84.12
378.125	82.12
378.35	88.12
378.576	71.12
378.802	91.12
379.027	99.12
379.253	94.12
379.478	100.12
379.704	107.12
379.929	91.12
380.155	98.12
380.38	76.12
380.606	90.12
380.831	106.12
381.057	105.12
381.282	99.12
381.507	100.12
381.733	95.12
381.958	101.12
382.184	102.12
382.409	87.12
382.634	88.12
382.86	97.12
383.085	106.12
383.31	112.12
383.535	95.12
383.761	91.12
383.986	104.12
384.211	88.12
384.436	86.12
384.662	99.12
384.887	87.12
385.112	110.12
385.337	106.12
385.562	81.12
385.787	110.12
386.013	100.12
386.238	111.12
386.463	103.12
386.688	101.12
386.913	103.12
387.138	103.12
387.363	113.12
387.588	102.12
387.813	93.12
388.038	96.12
388.263	97.12
388.488	112.12
388.713	98.12
388.938	108.12
389.163	105.12
389.387	101.12
389.612	95.12
389.837	107.12
390.062	85.12
390.287	88.12
390.512	99.12
390.736	103.12
390.961	81.12
391.186	110.12
391.411	101.12
391.636	91.12
391.86	84.12
392.085	98.12
392.31	83.12
392.534	82.12
392.759	76.12
392.984	88.12
393.208	96.12
393.433	99.12
393.658	93.12
393.882	73.12
394.107	90.12
394.331	72.12
394.556	92.12
394.78	89.12
395.005	103.12
395.229	90.12
395.454	79.12
395.678	81.12
395.903	91.12
396.127	83.12
396.352	91.12
396.576	90.12
396.801	94.12
397.025	82.12
397.249	85.12
397.474	85.12
397.698	96.12
397.922	95.12
398.147	92.12
398.371	84.12
398.595	86.12
398.82	85.12
399.044	85.12
399.268	88.12
399.492	98.12
399.717	94.12
399.941	84.12
400.165	95.12
400.389	94.12
400.613	104.12
400.837	98.12
401.062	99.12
401.286	82.12
401.51	97.12
401.734	99.12
401.958	100.12
402.182	115.12
402.406	154.12
402.63	92.12
402.854	90.12
403.078	90.12
403.302	82.12
403.526	91.12
403.75	98.12
403.974	82.12
404.198	71.12
404.422	104.12
404.645	96.12
404.869	93.12
405.093	94.12
405.317	104.12
405.541	99.12
405.765	100.12
405.988	112.12
406.212	158.12
406.436	214.12
406.66	146.12
406.883	98.12
407.107	93.12
407.331	100.12
407.555	99.12
407.778	87.12
408.002	103.12
408.226	103.12
408.449	101.12
408.673	88.12
408.896	108.12
409.12	98.12
409.344	83.12
409.567	81.12
409.791	94.12
410.014	88.12
410.238	92.12
410.461	100.12
410.685	90.12
410.908	98.12
411.132	111.12
411.355	93.12
411.578	102.12
411.802	82.12
412.025	90.12
412.249	82.12
412.472	102.12
412.695	99.12
412.919	92.12
413.142	89.12
413.365	92.12
413.589	95.12
413.812	106.12
414.035	90.12
414.258	81.12
414.482	91.12
414.705	94.12
414.928	94.12
415.151	101.12
415.374	96.12
415.597	92.12
415.821	97.12
416.044	93.12
416.267	93.12
416.49	76.12
416.713	92.12
416.936	99.12
417.159	97.12
417.382	85.12
417.605	86.12
417.828	92.12
418.051	88.12
418.274	102.12
418.497	90.12
418.72	91.12
418.943	85.12
419.166	93.12
419.389	86.12
419.611	84.12
419.834	99.12
420.057	89.12
420.28	82.12
420.503	81.12
420.726	92.12
420.948	87.12
421.171	104.12
421.394	85.12
421.617	85.12
421.839	98.12
422.062	83.12
422.285	84.12
422.507	102.12
422.73	103.12
422.953	85.12
423.175	110.12
423.398	99.12
423.621	79.12
423.843	87.12
424.066	100.12
424.288	84.12
424.511	81.12
424.733	100.12
424.956	99.12
425.178	114.12
425.401	114.12
425.623	102.12
425.846	98.12
426.068	105.12
426.291	93.12
426.513	76.12
426.735	112.12
426.958	102.12
427.18	96.12
427.402	134.12
427.625	142.12
427.847	118.12
428.069	102.12
428.292	98.12
428.514	95.12
428.736	84.12
428.958	94.12
429.181	96.12
429.403	98.12
429.625	80.12
429.847	90.12
430.069	97.12
430.292	84.12
430.514	94.12
430.736	90.12
430.958	101.12
431.18	84.12
431.402	91.12
431.624	94.12
431.846	95.12
432.068	91.12
432.29	112.12
432.512	92.12
432.734	94.12
432.956	94.12
433.178	95.12
433.4	110.12
433.622	101.12
433.844	83.12
434.066	95.12
434.287	86.12
434.509	90.12
434.731	88.12
434.953	98.12
435.175	104.12
435.397	99.12
435.618	104.12
435.84	89.12
436.062	127.12
436.284	118.12
436.505	108.12
436.727	107.12
436.949	96.12
437.17	101.12
437.392	89.12
437.614	102.12
437.835	112.12
438.057	128.12
438.278	120.12
438.5	110.12
438.721	119.12
438.943	101.12
439.165	93.12
439.386	98.12
439.608	96.12
439.829	100.12
440.05	112.12
440.272	128.12
440.493	94.12
440.715	95.12
440.936	93.12
441.158	93.12
441.379	78.12
441.6	83.12
441.822	101.12
442.043	90.12
442.264	113.12
442.486	94.12
442.707	94.12
442.928	107.12
443.149	129.12
443.371	116.12
443.592	100.12
443.813	110.12
444.034	103.12
444.255	90.12
444.476	98.12
444.698	96.12
444.919	87.12
445.14	123.12
445.361	131.12
445.582	123.12
445.803	130.12
446.024	133.12
446.245	138.12
446.466	126.12
446.687	79.12
446.908	71.12
447.129	93.12
447.35	102.12
447.571	109.12
447.792	100.12
448.013	95.12
448.234	100.12
448.455	84.12
448.675	115.12
448.896	123.12
449.117	82.12
449.338	100.12
449.559	128.12
449.779	134.12
450	99.12
450.221	97.12
450.442	85.12
450.662	92.12
450.883	97.12
451.104	119.12
451.324	95.12
451.545	82.12
451.766	103.12
451.986	91.12
452.207	86.12
452.428	75.12
452.648	83.12
452.869	113.12
453.089	108.12
453.31	116.12
453.53	109.12
453.751	102.12
453.971	101.12
454.192	114.12
454.412	84.12
454.633	79.12
454.853	90.12
455.073	85.12
455.294	105.12
455.514	96.12
455.734	97.12
455.955	92.12
456.175	93.12
456.395	84.12
456.616	87.12
456.836	85.12
457.056	86.12
457.276	82.12
457.497	77.12
457.717	78.12
457.937	83.12
458.157	90.12
458.377	105.12
458.598	107.12
458.818	141.12
459.038	158.12
459.258	114.12
459.478	86.12
459.698	77.12
459.918	92.12
460.138	85.12
460.358	84.12
460.578	87.12
460.798	90.12
461.018	102.12
461.238	78.12
461.458	100.12
461.678	95.12
461.898	92.12
462.118	87.12
462.338	85.12
462.558	84.12
462.777	78.12
462.997	85.12
463.217	94.12
463.437	77.12
463.657	80.12
463.876	88.12
464.096	86.12
464.316	88.12
464.536	90.12
464.755	94.12
464.975	103.12
465.195	145.12
465.414	153.12
465.634	98.12
465.854	87.12
466.073	98.12
466.293	94.12
466.512	94.12
466.732	90.12
466.951	100.12
467.171	92.12
467.391	102.12
467.61	104.12
467.829	106.12
468.049	90.12
468.268	85.12
468.488	87.12
468.707	100.12
468.927	86.12
469.146	89.12
469.365	106.12
469.585	94.12
469.804	98.12
470.023	115.12
470.243	104.12
470.462	108.12
470.681	107.12
470.901	92.12
471.12	94.12
471.339	91.12
471.558	75.12
471.777	96.12
471.997	90.12
472.216	99.12
472.435	81.12
472.654	90.12
472.873	99.12
473.092	102.12
473.311	90.12
473.53	103.12
473.749	81.12
473.968	93.12
474.187	121.12
474.406	111.12
474.625	86.12
474.844	82.12
475.063	106.12
475.282	82.12
475.501	100.12
475.72	91.12
475.939	109.12
476.158	102.12
476.377	79.12
476.596	86.12
476.814	95.12
477.033	105.12
477.252	94.12
477.471	84.12
477.69	88.12
477.908	92.12
478.127	93.12
478.346	88.12
478.564	86.12
478.783	98.12
479.002	89.12
479.22	88.12
479.439	102.12
479.658	95.12
479.876	93.12
480.095	80.12
480.313	95.12
480.532	91.12
480.751	84.12
480.969	91.12
481.188	86.12
481.406	94.12
481.624	92.12
481.843	87.12
482.061	94.12
482.28	94.12
482.498	92.12
482.717	103.12
482.935	94.12
483.153	103.12
483.372	83.12
483.59	102.12
483.808	84.12
484.027	93.12
484.245	86.12
484.463	77.12
484.681	81.12
484.9	99.12
485.118	101.12
485.336	86.12
485.554	91.12
485.772	100.12
485.99	112.12
486.209	118.12
486.427	93.12
486.645	104.12
486.863	94.12
487.081	99.12
487.299	109.12
487.517	100.12
487.735	88.12
487.953	108.12
488.171	98.12
488.389	103.12
488.607	92.12
488.825	92.12
489.043	99.12
489.261	114.12
489.479	92.12
489.696	101.12
489.914	102.12
490.132	91.12
490.35	96.12
490.568	83.12
490.786	78.12
491.003	86.12
491.221	87.12
491.439	83.12
491.657	88.12
491.874	87.12
492.092	98.12
492.31	100.12
492.527	92.12
492.745	92.12
492.963	87.12
493.18	92.12
493.398	100.12
493.615	104.12
493.833	106.12
494.05	86.12
494.268	99.12
494.485	95.12
494.703	71.12
494.92	96.12
495.138	99.12
495.355	97.12
495.573	90.12
495.79	72.12
496.008	98.12
496.225	88.12
496.442	91.12
496.66	94.12
496.877	85.12
497.094	88.12
497.312	95.12
497.529	95.12
497.746	89.12
497.963	71.12
498.181	86.12
498.398	87.12
498.615	75.12
498.832	100.12
499.049	93.12
499.267	92.12
499.484	99.12
499.701	108.12
499.918	93.12
500.135	88.12
500.352	103.12
500.569	102.12
500.786	84.12
501.003	102.12
501.22	78.12
501.437	93.12
501.654	107.12
501.871	97.12
502.088	112.12
502.305	94.12
502.522	84.12
502.739	100.12
502.956	86.12
503.172	95.12
503.389	100.12
503.606	121.12
503.823	103.12
504.04	91.12
504.256	89.12
504.473	95.12
504.69	104.12
504.907	101.12
505.123	98.12
505.34	96.12
505.557	117.12
505.773	96.12
505.99	98.12
506.207	92.12
506.423	85.12
506.64	96.12
506.856	97.12
507.073	101.12
507.289	81.12
507.506	98.12
507.722	103.12
507.939	103.12
508.155	97.12
508.372	90.12
508.588	87.12
508.805	100.12
509.021	100.12
509.238	97.12
509.454	93.12
509.67	106.12
509.887	104.12
510.103	126.12
510.319	203.12
510.536	732.12
510.752	2188.12
510.968	603.12
511.184	144.12
511.401	110.12
511.617	95.12
511.833	99.12
512.049	95.12
512.265	84.12
512.481	86.12
512.698	94.12
512.914	115.12
513.13	93.12
513.346	88.12
513.562	100.12
513.778	91.12
513.994	104.12
514.21	103.12
514.426	113.12
514.642	116.12
514.858	125.12
