Data from Uncirc_1994_H10_HRD10591_00018.txt Node
Date: Wed Jan 03 11:39:24 EST 2024
User: Yrep
Spectrometer: HR+D1059
Trigger mode: 1
Integration Time (sec): 1.000000E-1
Scans to average: 1
Electric dark correction enabled: true
Nonlinearity correction enabled: false
Boxcar width: 0
XAxis mode: Wavelengths
Number of Pixels in Spectrum: 2048
>>>>>Begin Spectral Data<<<<<
223.165	-17.62
223.4	-17.62
223.635	-17.62
223.869	-24.62
224.104	-19.62
224.338	-8.62
224.573	-11.62
224.808	-7.62
225.042	-21.62
225.277	-7.62
225.511	0.38
225.746	2.38
225.98	6.38
226.215	12.38
226.449	10.38
226.683	34.38
226.918	21.38
227.152	31.38
227.387	41.38
227.621	35.38
227.856	41.38
228.09	37.38
228.324	54.38
228.559	60.38
228.793	67.38
229.027	61.38
229.262	60.38
229.496	70.38
229.73	85.38
229.964	93.38
230.199	96.38
230.433	85.38
230.667	84.38
230.901	87.38
231.136	68.38
231.37	84.38
231.604	76.38
231.838	63.38
232.072	88.38
232.306	78.38
232.541	79.38
232.775	90.38
233.009	82.38
233.243	84.38
233.477	64.38
233.711	80.38
233.945	81.38
234.179	84.38
234.413	81.38
234.647	72.38
234.881	76.38
235.115	93.38
235.349	87.38
235.583	94.38
235.817	77.38
236.051	67.38
236.285	83.38
236.519	80.38
236.753	82.38
236.987	74.38
237.221	78.38
237.455	72.38
237.689	76.38
237.922	79.38
238.156	77.38
238.39	72.38
238.624	84.38
238.858	80.38
239.091	72.38
239.325	86.38
239.559	89.38
239.793	76.38
240.027	62.38
240.26	80.38
240.494	66.38
240.728	85.38
240.961	80.38
241.195	67.38
241.429	80.38
241.662	58.38
241.896	77.38
242.13	72.38
242.363	84.38
242.597	78.38
242.83	93.38
243.064	95.38
243.298	67.38
243.531	79.38
243.765	64.38
243.998	70.38
244.232	82.38
244.465	69.38
244.699	94.38
244.932	79.38
245.166	74.38
245.399	83.38
245.633	66.38
245.866	82.38
246.099	72.38
246.333	74.38
246.566	82.38
246.8	85.38
247.033	85.38
247.266	93.38
247.5	82.38
247.733	88.38
247.966	80.38
248.2	92.38
248.433	95.38
248.666	76.38
248.899	80.38
249.133	87.38
249.366	90.38
249.599	76.38
249.832	78.38
250.066	86.38
250.299	76.38
250.532	89.38
250.765	89.38
250.998	72.38
251.231	87.38
251.465	77.38
251.698	86.38
251.931	80.38
252.164	91.38
252.397	62.38
252.63	79.38
252.863	62.38
253.096	68.38
253.329	74.38
253.562	88.38
253.795	81.38
254.028	93.38
254.261	88.38
254.494	74.38
254.727	88.38
254.96	80.38
255.193	73.38
255.426	69.38
255.659	93.38
255.892	62.38
256.124	63.38
256.357	87.38
256.59	95.38
256.823	82.38
257.056	76.38
257.289	80.38
257.521	72.38
257.754	76.38
257.987	66.38
258.22	83.38
258.452	85.38
258.685	78.38
258.918	79.38
259.151	86.38
259.383	72.38
259.616	74.38
259.849	93.38
260.081	87.38
260.314	99.38
260.547	89.38
260.779	75.38
261.012	68.38
261.244	92.38
261.477	97.38
261.71	80.38
261.942	104.38
262.175	98.38
262.407	91.38
262.64	85.38
262.872	89.38
263.105	74.38
263.337	81.38
263.57	80.38
263.802	80.38
264.035	84.38
264.267	81.38
264.499	88.38
264.732	78.38
264.964	77.38
265.197	78.38
265.429	92.38
265.661	91.38
265.894	96.38
266.126	88.38
266.358	71.38
266.591	77.38
266.823	85.38
267.055	74.38
267.287	85.38
267.52	89.38
267.752	80.38
267.984	83.38
268.216	88.38
268.448	78.38
268.681	91.38
268.913	81.38
269.145	90.38
269.377	92.38
269.609	93.38
269.841	90.38
270.073	90.38
270.306	89.38
270.538	82.38
270.77	65.38
271.002	94.38
271.234	84.38
271.466	95.38
271.698	99.38
271.93	92.38
272.162	95.38
272.394	84.38
272.626	73.38
272.858	78.38
273.09	76.38
273.322	99.38
273.553	79.38
273.785	94.38
274.017	78.38
274.249	57.38
274.481	81.38
274.713	77.38
274.945	73.38
275.176	82.38
275.408	79.38
275.64	82.38
275.872	80.38
276.104	84.38
276.335	80.38
276.567	95.38
276.799	109.38
277.031	97.38
277.262	84.38
277.494	92.38
277.726	96.38
277.957	93.38
278.189	86.38
278.421	81.38
278.652	91.38
278.884	95.38
279.115	75.38
279.347	89.38
279.579	76.38
279.81	84.38
280.042	92.38
280.273	95.38
280.505	78.38
280.736	92.38
280.968	108.38
281.199	89.38
281.431	101.38
281.662	96.38
281.894	97.38
282.125	102.38
282.356	97.38
282.588	128.38
282.819	108.38
283.051	92.38
283.282	100.38
283.513	81.38
283.745	89.38
283.976	90.38
284.207	74.38
284.439	106.38
284.67	85.38
284.901	93.38
285.132	88.38
285.364	76.38
285.595	85.38
285.826	97.38
286.057	84.38
286.288	90.38
286.52	89.38
286.751	92.38
286.982	97.38
287.213	74.38
287.444	92.38
287.675	92.38
287.906	95.38
288.138	81.38
288.369	77.38
288.6	83.38
288.831	88.38
289.062	88.38
289.293	86.38
289.524	89.38
289.755	89.38
289.986	93.38
290.217	91.38
290.448	78.38
290.679	85.38
290.91	87.38
291.141	83.38
291.371	86.38
291.602	85.38
291.833	79.38
292.064	88.38
292.295	84.38
292.526	83.38
292.757	89.38
292.987	78.38
293.218	88.38
293.449	76.38
293.68	89.38
293.91	88.38
294.141	90.38
294.372	88.38
294.603	72.38
294.833	92.38
295.064	93.38
295.295	87.38
295.525	99.38
295.756	90.38
295.987	101.38
296.217	141.38
296.448	111.38
296.679	83.38
296.909	84.38
297.14	86.38
297.37	88.38
297.601	88.38
297.831	84.38
298.062	80.38
298.292	72.38
298.523	83.38
298.753	89.38
298.984	88.38
299.214	95.38
299.445	87.38
299.675	89.38
299.905	99.38
300.136	89.38
300.366	76.38
300.597	87.38
300.827	86.38
301.057	92.38
301.288	101.38
301.518	91.38
301.748	87.38
301.979	96.38
302.209	90.38
302.439	99.38
302.669	81.38
302.9	93.38
303.13	78.38
303.36	93.38
303.59	82.38
303.82	117.38
304.051	104.38
304.281	98.38
304.511	97.38
304.741	98.38
304.971	90.38
305.201	100.38
305.431	92.38
305.661	103.38
305.891	80.38
306.121	93.38
306.352	97.38
306.582	120.38
306.812	93.38
307.042	93.38
307.272	90.38
307.502	97.38
307.731	76.38
307.961	95.38
308.191	89.38
308.421	87.38
308.651	86.38
308.881	92.38
309.111	92.38
309.341	81.38
309.571	121.38
309.8	92.38
310.03	111.38
310.26	104.38
310.49	100.38
310.72	96.38
310.949	101.38
311.179	105.38
311.409	95.38
311.639	93.38
311.868	100.38
312.098	99.38
312.328	82.38
312.557	85.38
312.787	100.38
313.017	89.38
313.246	100.38
313.476	109.38
313.706	96.38
313.935	84.38
314.165	103.38
314.394	96.38
314.624	102.38
314.853	98.38
315.083	88.38
315.312	90.38
315.542	90.38
315.771	82.38
316.001	91.38
316.23	89.38
316.46	92.38
316.689	94.38
316.919	93.38
317.148	89.38
317.377	93.38
317.607	84.38
317.836	97.38
318.065	107.38
318.295	92.38
318.524	104.38
318.753	86.38
318.983	101.38
319.212	104.38
319.441	103.38
319.67	104.38
319.9	94.38
320.129	89.38
320.358	93.38
320.587	92.38
320.816	107.38
321.046	106.38
321.275	93.38
321.504	77.38
321.733	83.38
321.962	92.38
322.191	91.38
322.42	92.38
322.649	124.38
322.878	100.38
323.108	122.38
323.337	124.38
323.566	125.38
323.795	154.38
324.024	210.38
324.253	370.38
324.482	831.38
324.71	1674.38
324.939	2151.38
325.168	789.38
325.397	237.38
325.626	146.38
325.855	117.38
326.084	121.38
326.313	124.38
326.542	166.38
326.77	240.38
326.999	465.38
327.228	959.38
327.457	1701.38
327.686	1348.38
327.914	366.38
328.143	188.38
328.372	152.38
328.6	107.38
328.829	121.38
329.058	130.38
329.287	128.38
329.515	124.38
329.744	84.38
329.972	117.38
330.201	98.38
330.43	101.38
330.658	116.38
330.887	132.38
331.115	104.38
331.344	79.38
331.572	93.38
331.801	97.38
332.03	82.38
332.258	103.38
332.486	102.38
332.715	98.38
332.943	99.38
333.172	90.38
333.4	101.38
333.629	102.38
333.857	107.38
334.085	96.38
334.314	92.38
334.542	80.38
334.771	100.38
334.999	95.38
335.227	99.38
335.455	92.38
335.684	118.38
335.912	93.38
336.14	97.38
336.369	101.38
336.597	101.38
336.825	99.38
337.053	99.38
337.281	79.38
337.51	93.38
337.738	99.38
337.966	88.38
338.194	98.38
338.422	97.38
338.65	96.38
338.878	97.38
339.106	91.38
339.334	96.38
339.562	92.38
339.79	87.38
340.018	95.38
340.246	104.38
340.474	101.38
340.702	90.38
340.93	77.38
341.158	105.38
341.386	87.38
341.614	86.38
341.842	96.38
342.07	94.38
342.298	78.38
342.526	96.38
342.754	89.38
342.981	93.38
343.209	101.38
343.437	107.38
343.665	84.38
343.893	96.38
344.12	86.38
344.348	101.38
344.576	91.38
344.804	98.38
345.031	93.38
345.259	92.38
345.487	91.38
345.714	99.38
345.942	89.38
346.17	91.38
346.397	116.38
346.625	87.38
346.853	87.38
347.08	91.38
347.308	86.38
347.535	93.38
347.763	95.38
347.99	88.38
348.218	99.38
348.445	106.38
348.673	101.38
348.9	99.38
349.128	93.38
349.355	78.38
349.583	93.38
349.81	93.38
350.037	98.38
350.265	95.38
350.492	94.38
350.72	91.38
350.947	100.38
351.174	112.38
351.402	116.38
351.629	85.38
351.856	108.38
352.083	97.38
352.311	116.38
352.538	110.38
352.765	121.38
352.992	126.38
353.22	114.38
353.447	107.38
353.674	101.38
353.901	101.38
354.128	94.38
354.355	91.38
354.583	109.38
354.81	101.38
355.037	97.38
355.264	87.38
355.491	81.38
355.718	99.38
355.945	87.38
356.172	82.38
356.399	90.38
356.626	87.38
356.853	93.38
357.08	92.38
357.307	95.38
357.534	96.38
357.761	97.38
357.988	94.38
358.215	81.38
358.441	81.38
358.668	86.38
358.895	86.38
359.122	87.38
359.349	90.38
359.576	92.38
359.802	97.38
360.029	118.38
360.256	107.38
360.483	106.38
360.709	99.38
360.936	95.38
361.163	98.38
361.39	101.38
361.616	104.38
361.843	99.38
362.07	90.38
362.296	91.38
362.523	94.38
362.749	103.38
362.976	82.38
363.203	86.38
363.429	95.38
363.656	84.38
363.882	107.38
364.109	78.38
364.335	96.38
364.562	92.38
364.788	85.38
365.015	98.38
365.241	97.38
365.468	93.38
365.694	97.38
365.92	110.38
366.147	96.38
366.373	86.38
366.599	91.38
366.826	89.38
367.052	90.38
367.278	95.38
367.505	86.38
367.731	78.38
367.957	91.38
368.184	88.38
368.41	85.38
368.636	116.38
368.862	114.38
369.089	89.38
369.315	86.38
369.541	85.38
369.767	91.38
369.993	86.38
370.219	89.38
370.445	84.38
370.672	86.38
370.898	82.38
371.124	91.38
371.35	88.38
371.576	80.38
371.802	84.38
372.028	109.38
372.254	97.38
372.48	90.38
372.706	77.38
372.932	84.38
373.158	93.38
373.384	96.38
373.61	87.38
373.835	81.38
374.061	97.38
374.287	94.38
374.513	98.38
374.739	86.38
374.965	91.38
375.191	79.38
375.416	88.38
375.642	87.38
375.868	88.38
376.094	94.38
376.319	77.38
376.545	88.38
376.771	93.38
376.997	102.38
377.222	79.38
377.448	98.38
377.674	92.38
377.899	80.38
378.125	101.38
378.35	91.38
378.576	93.38
378.802	80.38
379.027	88.38
379.253	98.38
379.478	93.38
379.704	79.38
379.929	85.38
380.155	91.38
380.38	98.38
380.606	93.38
380.831	87.38
381.057	96.38
381.282	91.38
381.507	92.38
381.733	91.38
381.958	101.38
382.184	115.38
382.409	97.38
382.634	92.38
382.86	110.38
383.085	115.38
383.31	87.38
383.535	110.38
383.761	97.38
383.986	102.38
384.211	85.38
384.436	103.38
384.662	111.38
384.887	104.38
385.112	91.38
385.337	93.38
385.562	93.38
385.787	103.38
386.013	102.38
386.238	110.38
386.463	106.38
386.688	108.38
386.913	85.38
387.138	106.38
387.363	104.38
387.588	102.38
387.813	105.38
388.038	107.38
388.263	96.38
388.488	125.38
388.713	88.38
388.938	95.38
389.163	111.38
389.387	101.38
389.612	86.38
389.837	96.38
390.062	107.38
390.287	92.38
390.512	102.38
390.736	90.38
390.961	75.38
391.186	119.38
391.411	109.38
391.636	103.38
391.86	94.38
392.085	104.38
392.31	90.38
392.534	82.38
392.759	84.38
392.984	98.38
393.208	101.38
393.433	109.38
393.658	108.38
393.882	88.38
394.107	95.38
394.331	93.38
394.556	67.38
394.78	84.38
395.005	80.38
395.229	91.38
395.454	97.38
395.678	75.38
395.903	95.38
396.127	97.38
396.352	87.38
396.576	93.38
396.801	86.38
397.025	93.38
397.249	96.38
397.474	89.38
397.698	96.38
397.922	90.38
398.147	93.38
398.371	80.38
398.595	87.38
398.82	85.38
399.044	81.38
399.268	89.38
399.492	86.38
399.717	87.38
399.941	88.38
400.165	92.38
400.389	88.38
400.613	85.38
400.837	81.38
401.062	99.38
401.286	103.38
401.51	107.38
401.734	87.38
401.958	95.38
402.182	115.38
402.406	162.38
402.63	113.38
402.854	90.38
403.078	94.38
403.302	83.38
403.526	102.38
403.75	83.38
403.974	79.38
404.198	74.38
404.422	104.38
404.645	72.38
404.869	90.38
405.093	103.38
405.317	85.38
405.541	96.38
405.765	99.38
405.988	111.38
406.212	166.38
406.436	217.38
406.66	134.38
406.883	104.38
407.107	102.38
407.331	108.38
407.555	95.38
407.778	108.38
408.002	91.38
408.226	100.38
408.449	84.38
408.673	96.38
408.896	84.38
409.12	92.38
409.344	97.38
409.567	91.38
409.791	73.38
410.014	86.38
410.238	94.38
410.461	98.38
410.685	98.38
410.908	97.38
411.132	109.38
411.355	102.38
411.578	96.38
411.802	91.38
412.025	90.38
412.249	83.38
412.472	75.38
412.695	97.38
412.919	85.38
413.142	91.38
413.365	107.38
413.589	85.38
413.812	78.38
414.035	86.38
414.258	100.38
414.482	105.38
414.705	88.38
414.928	88.38
415.151	77.38
415.374	95.38
415.597	89.38
415.821	86.38
416.044	88.38
416.267	93.38
416.49	75.38
416.713	92.38
416.936	85.38
417.159	76.38
417.382	94.38
417.605	86.38
417.828	98.38
418.051	84.38
418.274	93.38
418.497	76.38
418.72	74.38
418.943	93.38
419.166	86.38
419.389	84.38
419.611	96.38
419.834	86.38
420.057	97.38
420.28	82.38
420.503	108.38
420.726	86.38
420.948	98.38
421.171	103.38
421.394	93.38
421.617	94.38
421.839	86.38
422.062	79.38
422.285	88.38
422.507	111.38
422.73	130.38
422.953	106.38
423.175	88.38
423.398	89.38
423.621	95.38
423.843	81.38
424.066	99.38
424.288	89.38
424.511	83.38
424.733	96.38
424.956	108.38
425.178	97.38
425.401	98.38
425.623	104.38
425.846	82.38
426.068	90.38
426.291	90.38
426.513	98.38
426.735	95.38
426.958	99.38
427.18	111.38
427.402	144.38
427.625	156.38
427.847	117.38
428.069	103.38
428.292	94.38
428.514	82.38
428.736	89.38
428.958	82.38
429.181	90.38
429.403	95.38
429.625	83.38
429.847	93.38
430.069	97.38
430.292	88.38
430.514	83.38
430.736	93.38
430.958	96.38
431.18	82.38
431.402	77.38
431.624	77.38
431.846	89.38
432.068	83.38
432.29	89.38
432.512	96.38
432.734	79.38
432.956	89.38
433.178	99.38
433.4	92.38
433.622	94.38
433.844	86.38
434.066	89.38
434.287	104.38
434.509	106.38
434.731	85.38
434.953	84.38
435.175	83.38
435.397	86.38
435.618	89.38
435.84	102.38
436.062	118.38
436.284	121.38
436.505	105.38
436.727	97.38
436.949	96.38
437.17	83.38
437.392	90.38
437.614	96.38
437.835	114.38
438.057	115.38
438.278	120.38
438.5	110.38
438.721	127.38
438.943	107.38
439.165	89.38
439.386	89.38
439.608	105.38
439.829	98.38
440.05	116.38
440.272	137.38
440.493	97.38
440.715	79.38
440.936	92.38
441.158	86.38
441.379	86.38
441.6	101.38
441.822	94.38
442.043	76.38
442.264	99.38
442.486	107.38
442.707	92.38
442.928	114.38
443.149	125.38
443.371	126.38
443.592	94.38
443.813	105.38
444.034	118.38
444.255	81.38
444.476	95.38
444.698	91.38
444.919	90.38
445.14	131.38
445.361	133.38
445.582	110.38
445.803	140.38
446.024	137.38
446.245	131.38
446.466	104.38
446.687	83.38
446.908	90.38
447.129	88.38
447.35	88.38
447.571	88.38
447.792	85.38
448.013	100.38
448.234	109.38
448.455	106.38
448.675	101.38
448.896	119.38
449.117	102.38
449.338	106.38
449.559	126.38
449.779	131.38
450	96.38
450.221	85.38
450.442	96.38
450.662	96.38
450.883	109.38
451.104	109.38
451.324	84.38
451.545	94.38
451.766	90.38
451.986	77.38
452.207	99.38
452.428	95.38
452.648	97.38
452.869	117.38
453.089	112.38
453.31	120.38
453.53	94.38
453.751	99.38
453.971	99.38
454.192	109.38
454.412	76.38
454.633	76.38
454.853	83.38
455.073	92.38
455.294	87.38
455.514	91.38
455.734	98.38
455.955	85.38
456.175	93.38
456.395	90.38
456.616	93.38
456.836	73.38
457.056	85.38
457.276	84.38
457.497	91.38
457.717	98.38
457.937	95.38
458.157	91.38
458.377	98.38
458.598	107.38
458.818	139.38
459.038	152.38
459.258	118.38
459.478	96.38
459.698	102.38
459.918	96.38
460.138	86.38
460.358	80.38
460.578	90.38
460.798	84.38
461.018	85.38
461.238	84.38
461.458	86.38
461.678	96.38
461.898	89.38
462.118	95.38
462.338	77.38
462.558	87.38
462.777	87.38
462.997	92.38
463.217	97.38
463.437	79.38
463.657	95.38
463.876	97.38
464.096	95.38
464.316	87.38
464.536	100.38
464.755	102.38
464.975	91.38
465.195	156.38
465.414	167.38
465.634	107.38
465.854	90.38
466.073	92.38
466.293	86.38
466.512	99.38
466.732	84.38
466.951	91.38
467.171	78.38
467.391	85.38
467.61	92.38
467.829	88.38
468.049	78.38
468.268	81.38
468.488	99.38
468.707	87.38
468.927	83.38
469.146	93.38
469.365	88.38
469.585	99.38
469.804	92.38
470.023	101.38
470.243	92.38
470.462	116.38
470.681	97.38
470.901	100.38
471.12	76.38
471.339	82.38
471.558	78.38
471.777	89.38
471.997	81.38
472.216	99.38
472.435	88.38
472.654	89.38
472.873	69.38
473.092	86.38
473.311	96.38
473.53	78.38
473.749	92.38
473.968	96.38
474.187	96.38
474.406	96.38
474.625	84.38
474.844	79.38
475.063	91.38
475.282	93.38
475.501	88.38
475.72	90.38
475.939	91.38
476.158	93.38
476.377	81.38
476.596	81.38
476.814	108.38
477.033	92.38
477.252	84.38
477.471	100.38
477.69	92.38
477.908	89.38
478.127	84.38
478.346	91.38
478.564	90.38
478.783	99.38
479.002	91.38
479.22	94.38
479.439	93.38
479.658	100.38
479.876	101.38
480.095	92.38
480.313	98.38
480.532	99.38
480.751	93.38
480.969	83.38
481.188	96.38
481.406	92.38
481.624	86.38
481.843	74.38
482.061	87.38
482.28	88.38
482.498	90.38
482.717	78.38
482.935	107.38
483.153	68.38
483.372	104.38
483.59	105.38
483.808	96.38
484.027	88.38
484.245	86.38
484.463	96.38
484.681	88.38
484.9	94.38
485.118	96.38
485.336	96.38
485.554	92.38
485.772	109.38
485.99	108.38
486.209	120.38
486.427	103.38
486.645	102.38
486.863	108.38
487.081	95.38
487.299	105.38
487.517	89.38
487.735	88.38
487.953	97.38
488.171	90.38
488.389	92.38
488.607	98.38
488.825	94.38
489.043	88.38
489.261	101.38
489.479	91.38
489.696	87.38
489.914	84.38
490.132	85.38
490.35	80.38
490.568	75.38
490.786	100.38
491.003	89.38
491.221	80.38
491.439	85.38
491.657	99.38
491.874	88.38
492.092	92.38
492.31	103.38
492.527	96.38
492.745	78.38
492.963	76.38
493.18	90.38
493.398	87.38
493.615	99.38
493.833	85.38
494.05	88.38
494.268	84.38
494.485	90.38
494.703	78.38
494.92	86.38
495.138	92.38
495.355	97.38
495.573	88.38
495.79	91.38
496.008	107.38
496.225	92.38
496.442	104.38
496.66	78.38
496.877	98.38
497.094	92.38
497.312	94.38
497.529	98.38
497.746	102.38
497.963	99.38
498.181	82.38
498.398	90.38
498.615	97.38
498.832	111.38
499.049	84.38
499.267	94.38
499.484	85.38
499.701	97.38
499.918	86.38
500.135	97.38
500.352	108.38
500.569	92.38
500.786	94.38
501.003	92.38
501.22	88.38
501.437	83.38
501.654	89.38
501.871	102.38
502.088	94.38
502.305	95.38
502.522	102.38
502.739	90.38
502.956	87.38
503.172	85.38
503.389	101.38
503.606	110.38
503.823	111.38
504.04	88.38
504.256	97.38
504.473	95.38
504.69	85.38
504.907	100.38
505.123	86.38
505.34	84.38
505.557	94.38
505.773	102.38
505.99	93.38
506.207	88.38
506.423	90.38
506.64	95.38
506.856	98.38
507.073	88.38
507.289	93.38
507.506	109.38
507.722	111.38
507.939	108.38
508.155	110.38
508.372	96.38
508.588	91.38
508.805	105.38
509.021	105.38
509.238	97.38
509.454	102.38
509.67	102.38
509.887	111.38
510.103	118.38
510.319	205.38
510.536	785.38
510.752	2368.38
510.968	648.38
511.184	153.38
511.401	94.38
511.617	84.38
511.833	73.38
512.049	82.38
512.265	93.38
512.481	91.38
512.698	80.38
512.914	105.38
513.13	106.38
513.346	95.38
513.562	96.38
513.778	94.38
513.994	84.38
514.21	97.38
514.426	110.38
514.642	138.38
514.858	128.38
515.074	184.38
515.29	448.38
515.506	1429.38
515.721	512.38
515.937	154.38
