Data from Uncirc_1994_H10_HRD10591_00015.txt Node
Date: Wed Jan 03 11:39:23 EST 2024
User: Yrep
Spectrometer: HR+D1059
Trigger mode: 1
Integration Time (sec): 1.000000E-1
Scans to average: 1
Electric dark correction enabled: true
Nonlinearity correction enabled: false
Boxcar width: 0
XAxis mode: Wavelengths
Number of Pixels in Spectrum: 2048
>>>>>Begin Spectral Data<<<<<
223.165	-29.06
223.4	-29.06
223.635	-29.06
223.869	-3.06
224.104	-8.06
224.338	-16.06
224.573	-27.06
224.808	-21.06
225.042	-9.06
225.277	-14.06
225.511	0.94
225.746	11.94
225.98	13.94
226.215	9.94
226.449	26.94
226.683	20.94
226.918	16.94
227.152	25.94
227.387	21.94
227.621	33.94
227.856	46.94
228.09	30.94
228.324	39.94
228.559	41.94
228.793	67.94
229.027	62.94
229.262	55.94
229.496	65.94
229.73	76.94
229.964	78.94
230.199	67.94
230.433	79.94
230.667	84.94
230.901	98.94
231.136	75.94
231.37	63.94
231.604	86.94
231.838	65.94
232.072	75.94
232.306	67.94
232.541	83.94
232.775	78.94
233.009	91.94
233.243	70.94
233.477	82.94
233.711	95.94
233.945	75.94
234.179	97.94
234.413	90.94
234.647	64.94
234.881	87.94
235.115	75.94
235.349	83.94
235.583	80.94
235.817	77.94
236.051	79.94
236.285	76.94
236.519	75.94
236.753	73.94
236.987	83.94
237.221	72.94
237.455	88.94
237.689	79.94
237.922	76.94
238.156	78.94
238.39	91.94
238.624	83.94
238.858	76.94
239.091	80.94
239.325	80.94
239.559	78.94
239.793	85.94
240.027	90.94
240.26	74.94
240.494	95.94
240.728	82.94
240.961	78.94
241.195	84.94
241.429	71.94
241.662	71.94
241.896	57.94
242.13	73.94
242.363	72.94
242.597	73.94
242.83	67.94
243.064	78.94
243.298	82.94
243.531	89.94
243.765	84.94
243.998	91.94
244.232	78.94
244.465	89.94
244.699	100.94
244.932	91.94
245.166	86.94
245.399	73.94
245.633	73.94
245.866	69.94
246.099	93.94
246.333	71.94
246.566	80.94
246.8	67.94
247.033	90.94
247.266	84.94
247.5	73.94
247.733	82.94
247.966	82.94
248.2	72.94
248.433	85.94
248.666	87.94
248.899	80.94
249.133	82.94
249.366	100.94
249.599	79.94
249.832	76.94
250.066	86.94
250.299	86.94
250.532	86.94
250.765	88.94
250.998	75.94
251.231	68.94
251.465	69.94
251.698	82.94
251.931	76.94
252.164	97.94
252.397	75.94
252.63	74.94
252.863	67.94
253.096	74.94
253.329	91.94
253.562	75.94
253.795	72.94
254.028	84.94
254.261	91.94
254.494	77.94
254.727	90.94
254.96	101.94
255.193	81.94
255.426	74.94
255.659	76.94
255.892	80.94
256.124	69.94
256.357	77.94
256.59	79.94
256.823	76.94
257.056	82.94
257.289	78.94
257.521	73.94
257.754	82.94
257.987	79.94
258.22	73.94
258.452	69.94
258.685	89.94
258.918	70.94
259.151	83.94
259.383	79.94
259.616	76.94
259.849	75.94
260.081	70.94
260.314	88.94
260.547	81.94
260.779	82.94
261.012	89.94
261.244	89.94
261.477	75.94
261.71	88.94
261.942	110.94
262.175	105.94
262.407	87.94
262.64	87.94
262.872	87.94
263.105	76.94
263.337	80.94
263.57	64.94
263.802	82.94
264.035	83.94
264.267	78.94
264.499	71.94
264.732	83.94
264.964	83.94
265.197	78.94
265.429	79.94
265.661	70.94
265.894	80.94
266.126	93.94
266.358	80.94
266.591	75.94
266.823	72.94
267.055	82.94
267.287	89.94
267.52	80.94
267.752	78.94
267.984	92.94
268.216	72.94
268.448	89.94
268.681	95.94
268.913	90.94
269.145	97.94
269.377	92.94
269.609	95.94
269.841	80.94
270.073	83.94
270.306	75.94
270.538	89.94
270.77	85.94
271.002	97.94
271.234	89.94
271.466	104.94
271.698	94.94
271.93	93.94
272.162	87.94
272.394	81.94
272.626	84.94
272.858	71.94
273.09	95.94
273.322	90.94
273.553	74.94
273.785	82.94
274.017	78.94
274.249	85.94
274.481	82.94
274.713	86.94
274.945	87.94
275.176	91.94
275.408	74.94
275.64	67.94
275.872	84.94
276.104	93.94
276.335	88.94
276.567	90.94
276.799	94.94
277.031	97.94
277.262	81.94
277.494	106.94
277.726	83.94
277.957	74.94
278.189	86.94
278.421	87.94
278.652	83.94
278.884	88.94
279.115	88.94
279.347	95.94
279.579	86.94
279.81	90.94
280.042	88.94
280.273	86.94
280.505	82.94
280.736	91.94
280.968	85.94
281.199	75.94
281.431	67.94
281.662	86.94
281.894	91.94
282.125	88.94
282.356	104.94
282.588	118.94
282.819	114.94
283.051	86.94
283.282	82.94
283.513	96.94
283.745	89.94
283.976	95.94
284.207	78.94
284.439	75.94
284.67	83.94
284.901	83.94
285.132	82.94
285.364	87.94
285.595	88.94
285.826	83.94
286.057	95.94
286.288	81.94
286.52	84.94
286.751	75.94
286.982	86.94
287.213	96.94
287.444	100.94
287.675	82.94
287.906	93.94
288.138	80.94
288.369	88.94
288.6	82.94
288.831	91.94
289.062	97.94
289.293	79.94
289.524	93.94
289.755	95.94
289.986	79.94
290.217	89.94
290.448	87.94
290.679	84.94
290.91	91.94
291.141	88.94
291.371	82.94
291.602	92.94
291.833	86.94
292.064	70.94
292.295	82.94
292.526	78.94
292.757	91.94
292.987	88.94
293.218	85.94
293.449	94.94
293.68	83.94
293.91	83.94
294.141	74.94
294.372	90.94
294.603	95.94
294.833	88.94
295.064	67.94
295.295	97.94
295.525	89.94
295.756	89.94
295.987	102.94
296.217	119.94
296.448	121.94
296.679	94.94
296.909	87.94
297.14	85.94
297.37	89.94
297.601	85.94
297.831	87.94
298.062	83.94
298.292	82.94
298.523	90.94
298.753	80.94
298.984	80.94
299.214	95.94
299.445	81.94
299.675	88.94
299.905	103.94
300.136	84.94
300.366	84.94
300.597	95.94
300.827	102.94
301.057	102.94
301.288	94.94
301.518	81.94
301.748	91.94
301.979	106.94
302.209	102.94
302.439	93.94
302.669	94.94
302.9	73.94
303.13	84.94
303.36	99.94
303.59	86.94
303.82	92.94
304.051	91.94
304.281	91.94
304.511	90.94
304.741	84.94
304.971	65.94
305.201	88.94
305.431	91.94
305.661	80.94
305.891	100.94
306.121	90.94
306.352	104.94
306.582	79.94
306.812	98.94
307.042	91.94
307.272	92.94
307.502	89.94
307.731	92.94
307.961	79.94
308.191	89.94
308.421	79.94
308.651	83.94
308.881	78.94
309.111	97.94
309.341	97.94
309.571	87.94
309.8	77.94
310.03	87.94
310.26	96.94
310.49	84.94
310.72	92.94
310.949	87.94
311.179	84.94
311.409	96.94
311.639	103.94
311.868	103.94
312.098	95.94
312.328	89.94
312.557	94.94
312.787	93.94
313.017	87.94
313.246	91.94
313.476	79.94
313.706	98.94
313.935	87.94
314.165	97.94
314.394	94.94
314.624	82.94
314.853	92.94
315.083	86.94
315.312	81.94
315.542	86.94
315.771	92.94
316.001	105.94
316.23	101.94
316.46	88.94
316.689	87.94
316.919	100.94
317.148	82.94
317.377	82.94
317.607	103.94
317.836	80.94
318.065	92.94
318.295	95.94
318.524	86.94
318.753	90.94
318.983	82.94
319.212	90.94
319.441	96.94
319.67	99.94
319.9	86.94
320.129	100.94
320.358	96.94
320.587	94.94
320.816	93.94
321.046	100.94
321.275	106.94
321.504	90.94
321.733	78.94
321.962	87.94
322.191	86.94
322.42	85.94
322.649	91.94
322.878	110.94
323.108	106.94
323.337	101.94
323.566	114.94
323.795	136.94
324.024	182.94
324.253	346.94
324.482	688.94
324.71	1394.94
324.939	1811.94
325.168	678.94
325.397	206.94
325.626	134.94
325.855	117.94
326.084	122.94
326.313	128.94
326.542	131.94
326.77	202.94
326.999	392.94
327.228	785.94
327.457	1433.94
327.686	1143.94
327.914	328.94
328.143	162.94
328.372	121.94
328.6	102.94
328.829	107.94
329.058	114.94
329.287	102.94
329.515	102.94
329.744	99.94
329.972	107.94
330.201	102.94
330.43	115.94
330.658	106.94
330.887	114.94
331.115	118.94
331.344	103.94
331.572	106.94
331.801	109.94
332.03	111.94
332.258	103.94
332.486	104.94
332.715	88.94
332.943	80.94
333.172	94.94
333.4	89.94
333.629	81.94
333.857	97.94
334.085	102.94
334.314	92.94
334.542	87.94
334.771	91.94
334.999	90.94
335.227	98.94
335.455	94.94
335.684	98.94
335.912	84.94
336.14	96.94
336.369	103.94
336.597	86.94
336.825	95.94
337.053	97.94
337.281	90.94
337.51	90.94
337.738	92.94
337.966	104.94
338.194	94.94
338.422	94.94
338.65	94.94
338.878	104.94
339.106	108.94
339.334	91.94
339.562	102.94
339.79	96.94
340.018	89.94
340.246	83.94
340.474	95.94
340.702	78.94
340.93	85.94
341.158	76.94
341.386	103.94
341.614	99.94
341.842	97.94
342.07	95.94
342.298	93.94
342.526	83.94
342.754	87.94
342.981	87.94
343.209	72.94
343.437	103.94
343.665	83.94
343.893	94.94
344.12	77.94
344.348	77.94
344.576	81.94
344.804	94.94
345.031	95.94
345.259	82.94
345.487	73.94
345.714	84.94
345.942	87.94
346.17	92.94
346.397	80.94
346.625	88.94
346.853	82.94
347.08	100.94
347.308	101.94
347.535	98.94
347.763	87.94
347.99	102.94
348.218	98.94
348.445	91.94
348.673	79.94
348.9	84.94
349.128	93.94
349.355	90.94
349.583	78.94
349.81	94.94
350.037	98.94
350.265	90.94
350.492	85.94
350.72	89.94
350.947	92.94
351.174	88.94
351.402	119.94
351.629	94.94
351.856	83.94
352.083	111.94
352.311	106.94
352.538	99.94
352.765	99.94
352.992	118.94
353.22	107.94
353.447	107.94
353.674	97.94
353.901	107.94
354.128	105.94
354.355	96.94
354.583	100.94
354.81	102.94
355.037	88.94
355.264	93.94
355.491	78.94
355.718	91.94
355.945	90.94
356.172	90.94
356.399	95.94
356.626	97.94
356.853	98.94
357.08	90.94
357.307	78.94
357.534	89.94
357.761	103.94
357.988	82.94
358.215	88.94
358.441	96.94
358.668	97.94
358.895	89.94
359.122	95.94
359.349	83.94
359.576	104.94
359.802	104.94
360.029	107.94
360.256	100.94
360.483	80.94
360.709	81.94
360.936	97.94
361.163	82.94
361.39	80.94
361.616	77.94
361.843	80.94
362.07	86.94
362.296	80.94
362.523	83.94
362.749	81.94
362.976	89.94
363.203	89.94
363.429	86.94
363.656	95.94
363.882	93.94
364.109	75.94
364.335	80.94
364.562	81.94
364.788	98.94
365.015	86.94
365.241	89.94
365.468	109.94
365.694	95.94
365.92	76.94
366.147	89.94
366.373	82.94
366.599	98.94
366.826	91.94
367.052	91.94
367.278	91.94
367.505	81.94
367.731	83.94
367.957	86.94
368.184	85.94
368.41	100.94
368.636	98.94
368.862	96.94
369.089	108.94
369.315	86.94
369.541	94.94
369.767	83.94
369.993	96.94
370.219	89.94
370.445	86.94
370.672	89.94
370.898	86.94
371.124	86.94
371.35	94.94
371.576	96.94
371.802	74.94
372.028	92.94
372.254	87.94
372.48	94.94
372.706	75.94
372.932	82.94
373.158	90.94
373.384	91.94
373.61	90.94
373.835	95.94
374.061	78.94
374.287	78.94
374.513	83.94
374.739	98.94
374.965	87.94
375.191	96.94
375.416	93.94
375.642	75.94
375.868	90.94
376.094	74.94
376.319	100.94
376.545	85.94
376.771	77.94
376.997	88.94
377.222	91.94
377.448	92.94
377.674	84.94
377.899	96.94
378.125	79.94
378.35	91.94
378.576	80.94
378.802	91.94
379.027	83.94
379.253	92.94
379.478	94.94
379.704	90.94
379.929	92.94
380.155	92.94
380.38	89.94
380.606	93.94
380.831	98.94
381.057	108.94
381.282	90.94
381.507	86.94
381.733	99.94
381.958	87.94
382.184	97.94
382.409	97.94
382.634	90.94
382.86	87.94
383.085	103.94
383.31	95.94
383.535	100.94
383.761	102.94
383.986	101.94
384.211	91.94
384.436	95.94
384.662	100.94
384.887	110.94
385.112	107.94
385.337	117.94
385.562	91.94
385.787	102.94
386.013	109.94
386.238	92.94
386.463	98.94
386.688	111.94
386.913	96.94
387.138	116.94
387.363	92.94
387.588	92.94
387.813	106.94
388.038	88.94
388.263	98.94
388.488	90.94
388.713	91.94
388.938	96.94
389.163	95.94
389.387	93.94
389.612	77.94
389.837	86.94
390.062	78.94
390.287	85.94
390.512	84.94
390.736	84.94
390.961	94.94
391.186	81.94
391.411	95.94
391.636	87.94
391.86	72.94
392.085	80.94
392.31	84.94
392.534	87.94
392.759	92.94
392.984	105.94
393.208	87.94
393.433	116.94
393.658	96.94
393.882	86.94
394.107	86.94
394.331	91.94
394.556	83.94
394.78	77.94
395.005	90.94
395.229	92.94
395.454	79.94
395.678	79.94
395.903	86.94
396.127	86.94
396.352	64.94
396.576	60.94
396.801	72.94
397.025	82.94
397.249	93.94
397.474	90.94
397.698	89.94
397.922	91.94
398.147	92.94
398.371	84.94
398.595	81.94
398.82	81.94
399.044	86.94
399.268	91.94
399.492	93.94
399.717	89.94
399.941	78.94
400.165	88.94
400.389	91.94
400.613	76.94
400.837	90.94
401.062	91.94
401.286	86.94
401.51	92.94
401.734	94.94
401.958	90.94
402.182	99.94
402.406	145.94
402.63	117.94
402.854	84.94
403.078	83.94
403.302	72.94
403.526	95.94
403.75	84.94
403.974	93.94
404.198	58.94
404.422	91.94
404.645	95.94
404.869	92.94
405.093	84.94
405.317	88.94
405.541	80.94
405.765	91.94
405.988	94.94
406.212	157.94
406.436	184.94
406.66	118.94
406.883	94.94
407.107	96.94
407.331	75.94
407.555	92.94
407.778	93.94
408.002	101.94
408.226	87.94
408.449	91.94
408.673	89.94
408.896	90.94
409.12	86.94
409.344	89.94
409.567	74.94
409.791	89.94
410.014	76.94
410.238	91.94
410.461	108.94
410.685	97.94
410.908	103.94
411.132	96.94
411.355	91.94
411.578	79.94
411.802	78.94
412.025	90.94
412.249	93.94
412.472	94.94
412.695	104.94
412.919	82.94
413.142	76.94
413.365	74.94
413.589	91.94
413.812	89.94
414.035	77.94
414.258	100.94
414.482	97.94
414.705	81.94
414.928	87.94
415.151	92.94
415.374	86.94
415.597	95.94
415.821	87.94
416.044	75.94
416.267	98.94
416.49	80.94
416.713	67.94
416.936	88.94
417.159	85.94
417.382	84.94
417.605	106.94
417.828	79.94
418.051	90.94
418.274	88.94
418.497	95.94
418.72	104.94
418.943	81.94
419.166	83.94
419.389	80.94
419.611	78.94
419.834	83.94
420.057	92.94
420.28	86.94
420.503	86.94
420.726	95.94
420.948	71.94
421.171	87.94
421.394	78.94
421.617	71.94
421.839	84.94
422.062	82.94
422.285	91.94
422.507	99.94
422.73	104.94
422.953	92.94
423.175	61.94
423.398	88.94
423.621	79.94
423.843	84.94
424.066	87.94
424.288	80.94
424.511	93.94
424.733	94.94
424.956	84.94
425.178	109.94
425.401	89.94
425.623	94.94
425.846	83.94
426.068	74.94
426.291	76.94
426.513	84.94
426.735	87.94
426.958	92.94
427.18	94.94
427.402	120.94
427.625	158.94
427.847	119.94
428.069	104.94
428.292	90.94
428.514	78.94
428.736	93.94
428.958	86.94
429.181	83.94
429.403	76.94
429.625	71.94
429.847	105.94
430.069	106.94
430.292	82.94
430.514	75.94
430.736	74.94
430.958	79.94
431.18	82.94
431.402	87.94
431.624	86.94
431.846	72.94
432.068	96.94
432.29	91.94
432.512	74.94
432.734	82.94
432.956	88.94
433.178	91.94
433.4	91.94
433.622	92.94
433.844	83.94
434.066	84.94
434.287	91.94
434.509	91.94
434.731	81.94
434.953	80.94
435.175	79.94
435.397	85.94
435.618	98.94
435.84	104.94
436.062	115.94
436.284	114.94
436.505	79.94
436.727	94.94
436.949	86.94
437.17	75.94
437.392	85.94
437.614	83.94
437.835	106.94
438.057	105.94
438.278	104.94
438.5	91.94
438.721	102.94
438.943	94.94
439.165	78.94
439.386	100.94
439.608	81.94
439.829	99.94
440.05	112.94
440.272	129.94
440.493	92.94
440.715	89.94
440.936	82.94
441.158	81.94
441.379	85.94
441.6	82.94
441.822	88.94
442.043	91.94
442.264	104.94
442.486	93.94
442.707	94.94
442.928	106.94
443.149	117.94
443.371	117.94
443.592	98.94
443.813	104.94
444.034	97.94
444.255	96.94
444.476	83.94
444.698	83.94
444.919	89.94
445.14	120.94
445.361	126.94
445.582	95.94
445.803	118.94
446.024	114.94
446.245	116.94
446.466	109.94
446.687	98.94
446.908	95.94
447.129	80.94
447.35	88.94
447.571	91.94
447.792	87.94
448.013	85.94
448.234	97.94
448.455	108.94
448.675	118.94
448.896	102.94
449.117	97.94
449.338	107.94
449.559	117.94
449.779	124.94
450	86.94
450.221	91.94
450.442	98.94
450.662	83.94
450.883	99.94
451.104	102.94
451.324	94.94
451.545	76.94
451.766	87.94
451.986	85.94
452.207	99.94
452.428	75.94
452.648	84.94
452.869	117.94
453.089	104.94
453.31	112.94
453.53	89.94
453.751	92.94
453.971	94.94
454.192	90.94
454.412	106.94
454.633	86.94
454.853	92.94
455.073	82.94
455.294	99.94
455.514	101.94
455.734	76.94
455.955	81.94
456.175	91.94
456.395	81.94
456.616	76.94
456.836	91.94
457.056	90.94
457.276	75.94
457.497	83.94
457.717	81.94
457.937	91.94
458.157	84.94
458.377	78.94
458.598	93.94
458.818	130.94
459.038	143.94
459.258	89.94
459.478	91.94
459.698	88.94
459.918	76.94
460.138	96.94
460.358	86.94
460.578	72.94
460.798	84.94
461.018	87.94
461.238	82.94
461.458	82.94
461.678	88.94
461.898	67.94
462.118	90.94
462.338	67.94
462.558	76.94
462.777	76.94
462.997	89.94
463.217	92.94
463.437	81.94
463.657	94.94
463.876	81.94
464.096	73.94
464.316	92.94
464.536	90.94
464.755	91.94
464.975	96.94
465.195	138.94
465.414	124.94
465.634	91.94
465.854	92.94
466.073	81.94
466.293	93.94
466.512	83.94
466.732	79.94
466.951	89.94
467.171	89.94
467.391	92.94
467.61	75.94
467.829	97.94
468.049	76.94
468.268	91.94
468.488	79.94
468.707	76.94
468.927	99.94
469.146	87.94
469.365	78.94
469.585	96.94
469.804	90.94
470.023	88.94
470.243	96.94
470.462	95.94
470.681	93.94
470.901	107.94
471.12	82.94
471.339	82.94
471.558	80.94
471.777	76.94
471.997	78.94
472.216	95.94
472.435	88.94
472.654	79.94
472.873	89.94
473.092	106.94
473.311	78.94
473.53	81.94
473.749	98.94
473.968	89.94
474.187	97.94
474.406	107.94
474.625	84.94
474.844	83.94
475.063	89.94
475.282	80.94
475.501	85.94
475.72	91.94
475.939	94.94
476.158	80.94
476.377	89.94
476.596	99.94
476.814	74.94
477.033	88.94
477.252	80.94
477.471	80.94
477.69	78.94
477.908	82.94
478.127	81.94
478.346	98.94
478.564	81.94
478.783	105.94
479.002	89.94
479.22	88.94
479.439	93.94
479.658	101.94
479.876	92.94
480.095	91.94
480.313	100.94
480.532	100.94
480.751	83.94
480.969	87.94
481.188	91.94
481.406	95.94
481.624	82.94
481.843	73.94
482.061	72.94
482.28	81.94
482.498	84.94
482.717	84.94
482.935	84.94
483.153	88.94
483.372	82.94
483.59	86.94
483.808	96.94
484.027	81.94
484.245	86.94
484.463	87.94
484.681	104.94
484.9	95.94
485.118	97.94
485.336	82.94
485.554	96.94
485.772	105.94
485.99	88.94
486.209	106.94
486.427	94.94
486.645	102.94
486.863	92.94
487.081	88.94
487.299	73.94
487.517	89.94
487.735	84.94
487.953	93.94
488.171	92.94
488.389	109.94
488.607	93.94
488.825	86.94
489.043	88.94
489.261	80.94
489.479	83.94
489.696	95.94
489.914	98.94
490.132	96.94
490.35	94.94
490.568	87.94
490.786	91.94
491.003	77.94
491.221	80.94
491.439	77.94
491.657	93.94
491.874	97.94
492.092	89.94
492.31	82.94
492.527	80.94
492.745	86.94
492.963	90.94
493.18	96.94
493.398	85.94
493.615	104.94
493.833	87.94
494.05	78.94
494.268	94.94
494.485	97.94
494.703	78.94
494.92	88.94
495.138	83.94
495.355	78.94
495.573	94.94
495.79	91.94
496.008	91.94
496.225	102.94
496.442	106.94
496.66	82.94
496.877	90.94
497.094	94.94
497.312	85.94
497.529	95.94
497.746	98.94
497.963	76.94
498.181	78.94
498.398	100.94
498.615	95.94
498.832	100.94
499.049	104.94
499.267	106.94
499.484	87.94
499.701	90.94
499.918	82.94
500.135	89.94
500.352	90.94
500.569	100.94
500.786	105.94
501.003	88.94
501.22	90.94
501.437	86.94
501.654	97.94
501.871	111.94
502.088	83.94
502.305	93.94
502.522	111.94
502.739	100.94
502.956	76.94
503.172	87.94
503.389	107.94
503.606	105.94
503.823	90.94
504.04	92.94
504.256	87.94
504.473	72.94
504.69	80.94
504.907	97.94
505.123	80.94
505.34	75.94
505.557	84.94
505.773	88.94
505.99	83.94
506.207	86.94
506.423	99.94
506.64	83.94
506.856	80.94
507.073	93.94
507.289	98.94
507.506	87.94
507.722	93.94
507.939	87.94
508.155	80.94
508.372	86.94
508.588	97.94
508.805	94.94
509.021	99.94
509.238	107.94
509.454	91.94
509.67	102.94
509.887	99.94
510.103	123.94
510.319	196.94
510.536	631.94
510.752	1840.94
510.968	515.94
511.184	124.94
511.401	98.94
511.617	84.94
511.833	97.94
512.049	79.94
512.265	89.94
512.481	94.94
512.698	89.94
512.914	97.94
513.13	84.94
513.346	101.94
513.562	105.94
513.778	86.94
513.994	99.94
514.21	99.94
514.426	98.94
514.642	123.94
514.858	113.94
515.074	128.94
515.29	340.94
515.506	1068.94
515.721	415.94
515.937	123.94
516.153	114.94
516.369	98.94
516.585	87.94
516.801	89.94
517.016	94.94
