Data from Uncirc_1994_H10_HRD10591_00006.txt Node
Date: Wed Jan 03 11:39:22 EST 2024
User: Yrep
Spectrometer: HR+D1059
Trigger mode: 1
Integration Time (sec): 1.000000E-1
Scans to average: 1
Electric dark correction enabled: true
Nonlinearity correction enabled: false
Boxcar width: 0
XAxis mode: Wavelengths
Number of Pixels in Spectrum: 2048
>>>>>Begin Spectral Data<<<<<
223.165	-15.44
223.4	-15.44
223.635	-15.44
223.869	-30.44
224.104	-21.44
224.338	-15.44
224.573	-8.44
224.808	-19.44
225.042	-8.44
225.277	9.56
225.511	-0.44
225.746	3.56
225.98	5.56
226.215	-0.44
226.449	11.56
226.683	27.56
226.918	19.56
227.152	42.56
227.387	27.56
227.621	25.56
227.856	41.56
228.09	37.56
228.324	44.56
228.559	51.56
228.793	43.56
229.027	57.56
229.262	65.56
229.496	72.56
229.73	82.56
229.964	75.56
230.199	71.56
230.433	68.56
230.667	73.56
230.901	61.56
231.136	74.56
231.37	84.56
231.604	90.56
231.838	78.56
232.072	78.56
232.306	88.56
232.541	77.56
232.775	79.56
233.009	83.56
233.243	72.56
233.477	85.56
233.711	70.56
233.945	78.56
234.179	71.56
234.413	72.56
234.647	71.56
234.881	73.56
235.115	79.56
235.349	68.56
235.583	75.56
235.817	73.56
236.051	77.56
236.285	59.56
236.519	84.56
236.753	81.56
236.987	75.56
237.221	68.56
237.455	73.56
237.689	72.56
237.922	66.56
238.156	84.56
238.39	67.56
238.624	78.56
238.858	78.56
239.091	68.56
239.325	73.56
239.559	60.56
239.793	73.56
240.027	81.56
240.26	74.56
240.494	64.56
240.728	84.56
240.961	77.56
241.195	75.56
241.429	87.56
241.662	72.56
241.896	76.56
242.13	81.56
242.363	63.56
242.597	74.56
242.83	63.56
243.064	79.56
243.298	72.56
243.531	76.56
243.765	70.56
243.998	59.56
244.232	72.56
244.465	76.56
244.699	71.56
244.932	78.56
245.166	78.56
245.399	70.56
245.633	75.56
245.866	79.56
246.099	75.56
246.333	79.56
246.566	67.56
246.8	86.56
247.033	84.56
247.266	65.56
247.5	64.56
247.733	69.56
247.966	59.56
248.2	78.56
248.433	70.56
248.666	78.56
248.899	78.56
249.133	79.56
249.366	87.56
249.599	84.56
249.832	79.56
250.066	77.56
250.299	71.56
250.532	76.56
250.765	80.56
250.998	83.56
251.231	75.56
251.465	78.56
251.698	57.56
251.931	77.56
252.164	72.56
252.397	84.56
252.63	75.56
252.863	73.56
253.096	67.56
253.329	76.56
253.562	69.56
253.795	76.56
254.028	75.56
254.261	84.56
254.494	86.56
254.727	81.56
254.96	91.56
255.193	74.56
255.426	85.56
255.659	70.56
255.892	75.56
256.124	79.56
256.357	78.56
256.59	71.56
256.823	74.56
257.056	85.56
257.289	89.56
257.521	70.56
257.754	89.56
257.987	61.56
258.22	81.56
258.452	67.56
258.685	71.56
258.918	72.56
259.151	77.56
259.383	86.56
259.616	70.56
259.849	80.56
260.081	89.56
260.314	81.56
260.547	70.56
260.779	72.56
261.012	87.56
261.244	79.56
261.477	84.56
261.71	83.56
261.942	106.56
262.175	102.56
262.407	86.56
262.64	83.56
262.872	63.56
263.105	80.56
263.337	84.56
263.57	75.56
263.802	71.56
264.035	76.56
264.267	93.56
264.499	74.56
264.732	76.56
264.964	88.56
265.197	86.56
265.429	77.56
265.661	90.56
265.894	74.56
266.126	77.56
266.358	84.56
266.591	76.56
266.823	77.56
267.055	77.56
267.287	78.56
267.52	83.56
267.752	83.56
267.984	70.56
268.216	79.56
268.448	80.56
268.681	72.56
268.913	87.56
269.145	90.56
269.377	86.56
269.609	81.56
269.841	88.56
270.073	71.56
270.306	72.56
270.538	94.56
270.77	82.56
271.002	78.56
271.234	86.56
271.466	82.56
271.698	79.56
271.93	79.56
272.162	94.56
272.394	105.56
272.626	85.56
272.858	75.56
273.09	78.56
273.322	84.56
273.553	79.56
273.785	78.56
274.017	87.56
274.249	59.56
274.481	83.56
274.713	78.56
274.945	76.56
275.176	92.56
275.408	76.56
275.64	79.56
275.872	87.56
276.104	83.56
276.335	80.56
276.567	87.56
276.799	96.56
277.031	83.56
277.262	95.56
277.494	81.56
277.726	85.56
277.957	80.56
278.189	78.56
278.421	80.56
278.652	76.56
278.884	84.56
279.115	81.56
279.347	82.56
279.579	73.56
279.81	93.56
280.042	67.56
280.273	90.56
280.505	80.56
280.736	81.56
280.968	89.56
281.199	72.56
281.431	74.56
281.662	87.56
281.894	80.56
282.125	93.56
282.356	115.56
282.588	139.56
282.819	104.56
283.051	83.56
283.282	83.56
283.513	75.56
283.745	87.56
283.976	81.56
284.207	66.56
284.439	78.56
284.67	83.56
284.901	78.56
285.132	75.56
285.364	101.56
285.595	84.56
285.826	80.56
286.057	90.56
286.288	89.56
286.52	82.56
286.751	82.56
286.982	76.56
287.213	84.56
287.444	90.56
287.675	97.56
287.906	81.56
288.138	83.56
288.369	81.56
288.6	90.56
288.831	77.56
289.062	83.56
289.293	76.56
289.524	81.56
289.755	82.56
289.986	83.56
290.217	70.56
290.448	94.56
290.679	86.56
290.91	80.56
291.141	94.56
291.371	77.56
291.602	88.56
291.833	75.56
292.064	91.56
292.295	85.56
292.526	73.56
292.757	75.56
292.987	82.56
293.218	89.56
293.449	76.56
293.68	89.56
293.91	82.56
294.141	80.56
294.372	89.56
294.603	69.56
294.833	83.56
295.064	83.56
295.295	85.56
295.525	84.56
295.756	85.56
295.987	98.56
296.217	121.56
296.448	122.56
296.679	84.56
296.909	91.56
297.14	82.56
297.37	87.56
297.601	83.56
297.831	84.56
298.062	83.56
298.292	78.56
298.523	81.56
298.753	89.56
298.984	88.56
299.214	81.56
299.445	85.56
299.675	78.56
299.905	78.56
300.136	86.56
300.366	72.56
300.597	92.56
300.827	104.56
301.057	87.56
301.288	104.56
301.518	86.56
301.748	85.56
301.979	94.56
302.209	79.56
302.439	81.56
302.669	104.56
302.9	95.56
303.13	100.56
303.36	87.56
303.59	92.56
303.82	96.56
304.051	82.56
304.281	84.56
304.511	78.56
304.741	84.56
304.971	86.56
305.201	93.56
305.431	76.56
305.661	93.56
305.891	78.56
306.121	73.56
306.352	78.56
306.582	96.56
306.812	86.56
307.042	74.56
307.272	87.56
307.502	91.56
307.731	72.56
307.961	84.56
308.191	75.56
308.421	98.56
308.651	86.56
308.881	96.56
309.111	87.56
309.341	86.56
309.571	90.56
309.8	91.56
310.03	92.56
310.26	86.56
310.49	88.56
310.72	80.56
310.949	90.56
311.179	105.56
311.409	88.56
311.639	71.56
311.868	77.56
312.098	98.56
312.328	96.56
312.557	102.56
312.787	92.56
313.017	97.56
313.246	77.56
313.476	96.56
313.706	87.56
313.935	85.56
314.165	100.56
314.394	93.56
314.624	79.56
314.853	86.56
315.083	108.56
315.312	86.56
315.542	87.56
315.771	89.56
316.001	88.56
316.23	80.56
316.46	69.56
316.689	72.56
316.919	81.56
317.148	91.56
317.377	86.56
317.607	98.56
317.836	80.56
318.065	83.56
318.295	83.56
318.524	83.56
318.753	75.56
318.983	94.56
319.212	94.56
319.441	97.56
319.67	100.56
319.9	89.56
320.129	93.56
320.358	81.56
320.587	72.56
320.816	86.56
321.046	93.56
321.275	94.56
321.504	90.56
321.733	103.56
321.962	108.56
322.191	92.56
322.42	100.56
322.649	101.56
322.878	123.56
323.108	111.56
323.337	104.56
323.566	122.56
323.795	155.56
324.024	192.56
324.253	372.56
324.482	773.56
324.71	1579.56
324.939	2028.56
325.168	766.56
325.397	224.56
325.626	133.56
325.855	131.56
326.084	112.56
326.313	128.56
326.542	144.56
326.77	203.56
326.999	420.56
327.228	899.56
327.457	1585.56
327.686	1254.56
327.914	349.56
328.143	168.56
328.372	121.56
328.6	115.56
328.829	106.56
329.058	120.56
329.287	108.56
329.515	100.56
329.744	107.56
329.972	96.56
330.201	91.56
330.43	105.56
330.658	116.56
330.887	96.56
331.115	112.56
331.344	95.56
331.572	94.56
331.801	95.56
332.03	100.56
332.258	98.56
332.486	91.56
332.715	84.56
332.943	80.56
333.172	89.56
333.4	95.56
333.629	102.56
333.857	103.56
334.085	100.56
334.314	91.56
334.542	61.56
334.771	85.56
334.999	87.56
335.227	101.56
335.455	93.56
335.684	88.56
335.912	82.56
336.14	79.56
336.369	97.56
336.597	85.56
336.825	103.56
337.053	86.56
337.281	84.56
337.51	92.56
337.738	98.56
337.966	84.56
338.194	94.56
338.422	103.56
338.65	82.56
338.878	84.56
339.106	87.56
339.334	93.56
339.562	78.56
339.79	76.56
340.018	88.56
340.246	89.56
340.474	76.56
340.702	79.56
340.93	98.56
341.158	87.56
341.386	103.56
341.614	81.56
341.842	77.56
342.07	79.56
342.298	91.56
342.526	84.56
342.754	93.56
342.981	75.56
343.209	87.56
343.437	95.56
343.665	86.56
343.893	89.56
344.12	110.56
344.348	83.56
344.576	84.56
344.804	87.56
345.031	99.56
345.259	87.56
345.487	87.56
345.714	87.56
345.942	94.56
346.17	89.56
346.397	73.56
346.625	90.56
346.853	85.56
347.08	95.56
347.308	86.56
347.535	94.56
347.763	94.56
347.99	80.56
348.218	91.56
348.445	89.56
348.673	88.56
348.9	97.56
349.128	97.56
349.355	93.56
349.583	89.56
349.81	103.56
350.037	96.56
350.265	95.56
350.492	85.56
350.72	89.56
350.947	103.56
351.174	101.56
351.402	94.56
351.629	97.56
351.856	97.56
352.083	108.56
352.311	107.56
352.538	95.56
352.765	84.56
352.992	107.56
353.22	103.56
353.447	94.56
353.674	105.56
353.901	86.56
354.128	99.56
354.355	87.56
354.583	80.56
354.81	101.56
355.037	94.56
355.264	87.56
355.491	83.56
355.718	94.56
355.945	80.56
356.172	96.56
356.399	81.56
356.626	97.56
356.853	87.56
357.08	95.56
357.307	87.56
357.534	92.56
357.761	95.56
357.988	79.56
358.215	95.56
358.441	84.56
358.668	84.56
358.895	94.56
359.122	87.56
359.349	75.56
359.576	91.56
359.802	98.56
360.029	91.56
360.256	103.56
360.483	89.56
360.709	86.56
360.936	93.56
361.163	87.56
361.39	80.56
361.616	90.56
361.843	93.56
362.07	96.56
362.296	73.56
362.523	84.56
362.749	92.56
362.976	79.56
363.203	100.56
363.429	87.56
363.656	75.56
363.882	86.56
364.109	95.56
364.335	94.56
364.562	93.56
364.788	102.56
365.015	89.56
365.241	88.56
365.468	107.56
365.694	87.56
365.92	83.56
366.147	82.56
366.373	83.56
366.599	81.56
366.826	88.56
367.052	87.56
367.278	79.56
367.505	76.56
367.731	88.56
367.957	70.56
368.184	97.56
368.41	95.56
368.636	100.56
368.862	105.56
369.089	98.56
369.315	83.56
369.541	89.56
369.767	75.56
369.993	92.56
370.219	96.56
370.445	78.56
370.672	78.56
370.898	76.56
371.124	78.56
371.35	96.56
371.576	87.56
371.802	74.56
372.028	85.56
372.254	103.56
372.48	86.56
372.706	83.56
372.932	82.56
373.158	87.56
373.384	82.56
373.61	79.56
373.835	78.56
374.061	85.56
374.287	98.56
374.513	86.56
374.739	83.56
374.965	94.56
375.191	91.56
375.416	94.56
375.642	85.56
375.868	78.56
376.094	85.56
376.319	96.56
376.545	86.56
376.771	78.56
376.997	94.56
377.222	79.56
377.448	93.56
377.674	89.56
377.899	89.56
378.125	83.56
378.35	91.56
378.576	97.56
378.802	80.56
379.027	90.56
379.253	92.56
379.478	87.56
379.704	88.56
379.929	89.56
380.155	89.56
380.38	96.56
380.606	87.56
380.831	78.56
381.057	103.56
381.282	97.56
381.507	85.56
381.733	90.56
381.958	101.56
382.184	83.56
382.409	102.56
382.634	102.56
382.86	108.56
383.085	80.56
383.31	104.56
383.535	94.56
383.761	102.56
383.986	96.56
384.211	87.56
384.436	85.56
384.662	93.56
384.887	107.56
385.112	101.56
385.337	100.56
385.562	107.56
385.787	111.56
386.013	82.56
386.238	105.56
386.463	110.56
386.688	99.56
386.913	94.56
387.138	93.56
387.363	103.56
387.588	99.56
387.813	105.56
388.038	100.56
388.263	94.56
388.488	92.56
388.713	96.56
388.938	100.56
389.163	88.56
389.387	88.56
389.612	87.56
389.837	92.56
390.062	102.56
390.287	90.56
390.512	86.56
390.736	91.56
390.961	87.56
391.186	87.56
391.411	83.56
391.636	91.56
391.86	91.56
392.085	95.56
392.31	84.56
392.534	71.56
392.759	81.56
392.984	92.56
393.208	90.56
393.433	120.56
393.658	101.56
393.882	66.56
394.107	100.56
394.331	95.56
394.556	83.56
394.78	93.56
395.005	75.56
395.229	80.56
395.454	90.56
395.678	78.56
395.903	87.56
396.127	94.56
396.352	73.56
396.576	101.56
396.801	88.56
397.025	94.56
397.249	85.56
397.474	86.56
397.698	83.56
397.922	78.56
398.147	93.56
398.371	84.56
398.595	78.56
398.82	93.56
399.044	76.56
399.268	79.56
399.492	82.56
399.717	79.56
399.941	88.56
400.165	78.56
400.389	96.56
400.613	78.56
400.837	76.56
401.062	83.56
401.286	85.56
401.51	84.56
401.734	88.56
401.958	90.56
402.182	115.56
402.406	144.56
402.63	108.56
402.854	98.56
403.078	96.56
403.302	81.56
403.526	80.56
403.75	96.56
403.974	77.56
404.198	77.56
404.422	94.56
404.645	86.56
404.869	88.56
405.093	86.56
405.317	91.56
405.541	86.56
405.765	92.56
405.988	103.56
406.212	161.56
406.436	185.56
406.66	139.56
406.883	89.56
407.107	97.56
407.331	84.56
407.555	103.56
407.778	84.56
408.002	87.56
408.226	102.56
408.449	90.56
408.673	95.56
408.896	74.56
409.12	85.56
409.344	90.56
409.567	98.56
409.791	80.56
410.014	87.56
410.238	85.56
410.461	95.56
410.685	103.56
410.908	108.56
411.132	110.56
411.355	93.56
411.578	74.56
411.802	91.56
412.025	75.56
412.249	90.56
412.472	92.56
412.695	86.56
412.919	79.56
413.142	76.56
413.365	84.56
413.589	91.56
413.812	90.56
414.035	79.56
414.258	79.56
414.482	84.56
414.705	79.56
414.928	94.56
415.151	93.56
415.374	84.56
415.597	95.56
415.821	96.56
416.044	86.56
416.267	72.56
416.49	91.56
416.713	89.56
416.936	82.56
417.159	84.56
417.382	87.56
417.605	65.56
417.828	80.56
418.051	99.56
418.274	87.56
418.497	81.56
418.72	95.56
418.943	87.56
419.166	86.56
419.389	83.56
419.611	75.56
419.834	79.56
420.057	77.56
420.28	87.56
420.503	62.56
420.726	95.56
420.948	87.56
421.171	85.56
421.394	84.56
421.617	74.56
421.839	75.56
422.062	83.56
422.285	97.56
422.507	93.56
422.73	115.56
422.953	97.56
423.175	95.56
423.398	82.56
423.621	84.56
423.843	89.56
424.066	93.56
424.288	92.56
424.511	86.56
424.733	96.56
424.956	86.56
425.178	90.56
425.401	91.56
425.623	94.56
425.846	88.56
426.068	92.56
426.291	91.56
426.513	92.56
426.735	72.56
426.958	86.56
427.18	102.56
427.402	134.56
427.625	147.56
427.847	109.56
428.069	84.56
428.292	78.56
428.514	87.56
428.736	84.56
428.958	80.56
429.181	92.56
429.403	67.56
429.625	96.56
429.847	92.56
430.069	102.56
430.292	91.56
430.514	90.56
430.736	79.56
430.958	81.56
431.18	89.56
431.402	86.56
431.624	92.56
431.846	79.56
432.068	75.56
432.29	81.56
432.512	97.56
432.734	85.56
432.956	87.56
433.178	87.56
433.4	92.56
433.622	87.56
433.844	91.56
434.066	90.56
434.287	96.56
434.509	81.56
434.731	76.56
434.953	77.56
435.175	71.56
435.397	85.56
435.618	91.56
435.84	104.56
436.062	108.56
436.284	106.56
436.505	84.56
436.727	94.56
436.949	89.56
437.17	76.56
437.392	91.56
437.614	80.56
437.835	100.56
438.057	111.56
438.278	117.56
438.5	103.56
438.721	110.56
438.943	96.56
439.165	70.56
439.386	92.56
439.608	83.56
439.829	94.56
440.05	103.56
440.272	120.56
440.493	104.56
440.715	81.56
440.936	94.56
441.158	94.56
441.379	76.56
441.6	80.56
441.822	73.56
442.043	95.56
442.264	89.56
442.486	87.56
442.707	87.56
442.928	108.56
443.149	118.56
443.371	118.56
443.592	103.56
443.813	86.56
444.034	108.56
444.255	96.56
444.476	85.56
444.698	78.56
444.919	85.56
445.14	117.56
445.361	113.56
445.582	128.56
445.803	127.56
446.024	127.56
446.245	125.56
446.466	98.56
446.687	96.56
446.908	77.56
447.129	84.56
447.35	88.56
447.571	93.56
447.792	86.56
448.013	73.56
448.234	106.56
448.455	114.56
448.675	98.56
448.896	111.56
449.117	101.56
449.338	104.56
449.559	120.56
449.779	141.56
450	100.56
450.221	77.56
450.442	87.56
450.662	95.56
450.883	67.56
451.104	97.56
451.324	81.56
451.545	75.56
451.766	79.56
451.986	72.56
452.207	93.56
452.428	90.56
452.648	88.56
452.869	97.56
453.089	113.56
453.31	111.56
453.53	98.56
453.751	99.56
453.971	92.56
454.192	85.56
454.412	88.56
454.633	80.56
454.853	88.56
455.073	89.56
455.294	94.56
455.514	95.56
455.734	82.56
455.955	92.56
456.175	66.56
456.395	76.56
456.616	72.56
456.836	83.56
457.056	88.56
457.276	84.56
457.497	79.56
457.717	81.56
457.937	89.56
458.157	85.56
458.377	85.56
458.598	93.56
458.818	142.56
459.038	135.56
459.258	116.56
459.478	93.56
459.698	79.56
459.918	88.56
460.138	76.56
460.358	84.56
460.578	74.56
460.798	80.56
461.018	99.56
461.238	91.56
461.458	74.56
461.678	92.56
461.898	86.56
462.118	85.56
462.338	81.56
462.558	79.56
462.777	69.56
462.997	90.56
463.217	75.56
463.437	87.56
463.657	87.56
463.876	82.56
464.096	88.56
464.316	79.56
464.536	83.56
464.755	91.56
464.975	105.56
465.195	151.56
465.414	131.56
465.634	91.56
465.854	78.56
466.073	75.56
466.293	82.56
466.512	81.56
466.732	86.56
466.951	81.56
467.171	97.56
467.391	72.56
467.61	96.56
467.829	87.56
468.049	85.56
468.268	89.56
468.488	84.56
468.707	77.56
468.927	79.56
469.146	73.56
469.365	76.56
469.585	80.56
469.804	91.56
470.023	88.56
470.243	84.56
470.462	94.56
470.681	96.56
470.901	88.56
471.12	90.56
471.339	102.56
471.558	76.56
471.777	69.56
471.997	79.56
472.216	84.56
472.435	79.56
472.654	85.56
472.873	81.56
473.092	81.56
473.311	83.56
473.53	75.56
473.749	71.56
473.968	80.56
474.187	98.56
474.406	90.56
474.625	83.56
474.844	90.56
475.063	79.56
475.282	88.56
475.501	93.56
475.72	88.56
475.939	75.56
476.158	104.56
476.377	73.56
476.596	92.56
476.814	101.56
477.033	84.56
477.252	80.56
477.471	86.56
477.69	76.56
477.908	77.56
478.127	79.56
478.346	79.56
478.564	73.56
478.783	86.56
479.002	101.56
479.22	93.56
479.439	101.56
479.658	94.56
479.876	93.56
480.095	77.56
480.313	79.56
480.532	84.56
480.751	83.56
480.969	92.56
481.188	79.56
481.406	91.56
481.624	77.56
481.843	101.56
482.061	95.56
482.28	86.56
482.498	93.56
482.717	89.56
482.935	64.56
483.153	83.56
483.372	90.56
483.59	84.56
483.808	86.56
484.027	88.56
484.245	84.56
484.463	90.56
484.681	77.56
484.9	92.56
485.118	79.56
485.336	75.56
485.554	89.56
485.772	92.56
485.99	105.56
486.209	81.56
486.427	91.56
486.645	107.56
486.863	115.56
487.081	95.56
487.299	101.56
487.517	92.56
487.735	88.56
487.953	78.56
488.171	80.56
488.389	78.56
488.607	85.56
488.825	76.56
489.043	90.56
489.261	76.56
489.479	89.56
489.696	88.56
489.914	90.56
490.132	79.56
490.35	85.56
490.568	87.56
490.786	81.56
491.003	87.56
491.221	103.56
491.439	91.56
491.657	85.56
491.874	99.56
492.092	87.56
492.31	102.56
492.527	76.56
492.745	106.56
492.963	92.56
493.18	85.56
493.398	88.56
493.615	91.56
493.833	94.56
494.05	83.56
494.268	94.56
494.485	89.56
494.703	83.56
494.92	99.56
495.138	96.56
495.355	78.56
495.573	82.56
495.79	77.56
496.008	97.56
496.225	91.56
496.442	89.56
496.66	103.56
496.877	83.56
497.094	81.56
497.312	90.56
497.529	84.56
497.746	91.56
497.963	92.56
498.181	78.56
498.398	102.56
498.615	93.56
498.832	94.56
499.049	85.56
499.267	85.56
499.484	90.56
499.701	68.56
499.918	77.56
500.135	77.56
500.352	77.56
500.569	83.56
500.786	77.56
501.003	77.56
501.22	84.56
501.437	89.56
501.654	92.56
501.871	88.56
502.088	71.56
502.305	78.56
502.522	91.56
502.739	79.56
502.956	84.56
503.172	102.56
503.389	91.56
503.606	103.56
503.823	81.56
504.04	91.56
504.256	83.56
504.473	80.56
504.69	88.56
504.907	84.56
505.123	97.56
505.34	81.56
505.557	83.56
505.773	86.56
505.99	72.56
506.207	77.56
506.423	72.56
506.64	99.56
506.856	93.56
507.073	83.56
507.289	92.56
507.506	86.56
507.722	102.56
507.939	89.56
508.155	80.56
508.372	95.56
508.588	77.56
508.805	111.56
509.021	100.56
509.238	95.56
509.454	101.56
509.67	99.56
509.887	93.56
510.103	129.56
510.319	189.56
510.536	722.56
510.752	2112.56
510.968	581.56
511.184	151.56
511.401	94.56
511.617	99.56
511.833	78.56
512.049	76.56
512.265	84.56
512.481	101.56
512.698	101.56
512.914	95.56
513.13	90.56
513.346	93.56
513.562	89.56
513.778	89.56
513.994	94.56
514.21	95.56
514.426	96.56
514.642	108.56
514.858	104.56
515.074	169.56
515.29	404.56
515.506	1269.56
515.721	469.56
515.937	129.56
516.153	95.56
516.369	82.56
516.585	80.56
516.801	85.56
517.016	83.56
517.232	83.56
