Data from Uncirc_1994_H10_HRD10591_00031.txt Node
Date: Wed Jan 03 11:39:27 EST 2024
User: Yrep
Spectrometer: HR+D1059
Trigger mode: 1
Integration Time (sec): 1.000000E-1
Scans to average: 1
Electric dark correction enabled: true
Nonlinearity correction enabled: false
Boxcar width: 0
XAxis mode: Wavelengths
Number of Pixels in Spectrum: 2048
>>>>>Begin Spectral Data<<<<<
223.165	-23.25
223.4	-23.25
223.635	-23.25
223.869	-2.25
224.104	0.75
224.338	-17.25
224.573	-8.25
224.808	-15.25
225.042	-14.25
225.277	-13.25
225.511	-14.25
225.746	-9.25
225.98	-3.25
226.215	7.75
226.449	12.75
226.683	37.75
226.918	23.75
227.152	37.75
227.387	28.75
227.621	34.75
227.856	45.75
228.09	41.75
228.324	54.75
228.559	48.75
228.793	48.75
229.027	73.75
229.262	66.75
229.496	75.75
229.73	91.75
229.964	85.75
230.199	73.75
230.433	82.75
230.667	78.75
230.901	79.75
231.136	88.75
231.37	65.75
231.604	71.75
231.838	76.75
232.072	86.75
232.306	82.75
232.541	74.75
232.775	79.75
233.009	77.75
233.243	82.75
233.477	86.75
233.711	78.75
233.945	75.75
234.179	83.75
234.413	74.75
234.647	70.75
234.881	61.75
235.115	77.75
235.349	67.75
235.583	77.75
235.817	62.75
236.051	71.75
236.285	74.75
236.519	75.75
236.753	69.75
236.987	82.75
237.221	83.75
237.455	88.75
237.689	80.75
237.922	82.75
238.156	71.75
238.39	83.75
238.624	71.75
238.858	70.75
239.091	70.75
239.325	63.75
239.559	81.75
239.793	70.75
240.027	72.75
240.26	73.75
240.494	86.75
240.728	64.75
240.961	77.75
241.195	69.75
241.429	77.75
241.662	73.75
241.896	83.75
242.13	80.75
242.363	78.75
242.597	81.75
242.83	73.75
243.064	62.75
243.298	85.75
243.531	77.75
243.765	86.75
243.998	78.75
244.232	79.75
244.465	88.75
244.699	81.75
244.932	69.75
245.166	84.75
245.399	73.75
245.633	85.75
245.866	72.75
246.099	86.75
246.333	65.75
246.566	63.75
246.8	57.75
247.033	86.75
247.266	74.75
247.5	84.75
247.733	75.75
247.966	95.75
248.2	73.75
248.433	73.75
248.666	41.75
248.899	91.75
249.133	88.75
249.366	83.75
249.599	96.75
249.832	81.75
250.066	88.75
250.299	67.75
250.532	89.75
250.765	89.75
250.998	72.75
251.231	71.75
251.465	80.75
251.698	79.75
251.931	73.75
252.164	96.75
252.397	82.75
252.63	77.75
252.863	63.75
253.096	79.75
253.329	70.75
253.562	68.75
253.795	82.75
254.028	86.75
254.261	85.75
254.494	86.75
254.727	73.75
254.96	78.75
255.193	69.75
255.426	83.75
255.659	87.75
255.892	70.75
256.124	83.75
256.357	75.75
256.59	86.75
256.823	90.75
257.056	80.75
257.289	77.75
257.521	87.75
257.754	83.75
257.987	81.75
258.22	94.75
258.452	88.75
258.685	67.75
258.918	73.75
259.151	68.75
259.383	82.75
259.616	85.75
259.849	73.75
260.081	82.75
260.314	81.75
260.547	73.75
260.779	78.75
261.012	78.75
261.244	81.75
261.477	77.75
261.71	79.75
261.942	110.75
262.175	106.75
262.407	88.75
262.64	72.75
262.872	78.75
263.105	74.75
263.337	83.75
263.57	67.75
263.802	64.75
264.035	83.75
264.267	79.75
264.499	73.75
264.732	91.75
264.964	86.75
265.197	92.75
265.429	81.75
265.661	74.75
265.894	75.75
266.126	88.75
266.358	102.75
266.591	81.75
266.823	77.75
267.055	86.75
267.287	82.75
267.52	70.75
267.752	86.75
267.984	82.75
268.216	76.75
268.448	95.75
268.681	87.75
268.913	81.75
269.145	82.75
269.377	89.75
269.609	84.75
269.841	73.75
270.073	76.75
270.306	81.75
270.538	83.75
270.77	96.75
271.002	91.75
271.234	72.75
271.466	78.75
271.698	72.75
271.93	79.75
272.162	65.75
272.394	98.75
272.626	77.75
272.858	73.75
273.09	88.75
273.322	77.75
273.553	83.75
273.785	83.75
274.017	78.75
274.249	98.75
274.481	80.75
274.713	87.75
274.945	81.75
275.176	78.75
275.408	81.75
275.64	85.75
275.872	87.75
276.104	88.75
276.335	84.75
276.567	95.75
276.799	101.75
277.031	76.75
277.262	89.75
277.494	99.75
277.726	83.75
277.957	74.75
278.189	75.75
278.421	82.75
278.652	92.75
278.884	83.75
279.115	76.75
279.347	87.75
279.579	89.75
279.81	89.75
280.042	80.75
280.273	81.75
280.505	95.75
280.736	83.75
280.968	81.75
281.199	72.75
281.431	81.75
281.662	84.75
281.894	77.75
282.125	81.75
282.356	129.75
282.588	134.75
282.819	120.75
283.051	81.75
283.282	90.75
283.513	86.75
283.745	93.75
283.976	79.75
284.207	90.75
284.439	82.75
284.67	94.75
284.901	87.75
285.132	83.75
285.364	82.75
285.595	83.75
285.826	85.75
286.057	98.75
286.288	82.75
286.52	91.75
286.751	88.75
286.982	78.75
287.213	70.75
287.444	84.75
287.675	75.75
287.906	91.75
288.138	91.75
288.369	83.75
288.6	97.75
288.831	81.75
289.062	85.75
289.293	95.75
289.524	72.75
289.755	86.75
289.986	88.75
290.217	81.75
290.448	83.75
290.679	91.75
290.91	64.75
291.141	88.75
291.371	92.75
291.602	82.75
291.833	110.75
292.064	84.75
292.295	95.75
292.526	91.75
292.757	88.75
292.987	97.75
293.218	80.75
293.449	99.75
293.68	94.75
293.91	91.75
294.141	106.75
294.372	90.75
294.603	93.75
294.833	88.75
295.064	79.75
295.295	75.75
295.525	74.75
295.756	75.75
295.987	108.75
296.217	122.75
296.448	117.75
296.679	96.75
296.909	68.75
297.14	83.75
297.37	81.75
297.601	81.75
297.831	82.75
298.062	98.75
298.292	72.75
298.523	98.75
298.753	80.75
298.984	87.75
299.214	91.75
299.445	78.75
299.675	87.75
299.905	85.75
300.136	92.75
300.366	88.75
300.597	88.75
300.827	102.75
301.057	99.75
301.288	105.75
301.518	81.75
301.748	83.75
301.979	97.75
302.209	86.75
302.439	86.75
302.669	92.75
302.9	98.75
303.13	88.75
303.36	98.75
303.59	99.75
303.82	110.75
304.051	89.75
304.281	102.75
304.511	103.75
304.741	94.75
304.971	83.75
305.201	71.75
305.431	84.75
305.661	85.75
305.891	80.75
306.121	83.75
306.352	108.75
306.582	96.75
306.812	100.75
307.042	89.75
307.272	102.75
307.502	87.75
307.731	90.75
307.961	78.75
308.191	89.75
308.421	83.75
308.651	79.75
308.881	79.75
309.111	84.75
309.341	79.75
309.571	98.75
309.8	93.75
310.03	76.75
310.26	106.75
310.49	93.75
310.72	93.75
310.949	90.75
311.179	94.75
311.409	85.75
311.639	83.75
311.868	98.75
312.098	89.75
312.328	90.75
312.557	93.75
312.787	98.75
313.017	103.75
313.246	94.75
313.476	78.75
313.706	90.75
313.935	94.75
314.165	92.75
314.394	97.75
314.624	88.75
314.853	90.75
315.083	86.75
315.312	95.75
315.542	84.75
315.771	86.75
316.001	89.75
316.23	100.75
316.46	91.75
316.689	81.75
316.919	97.75
317.148	103.75
317.377	99.75
317.607	85.75
317.836	81.75
318.065	88.75
318.295	92.75
318.524	91.75
318.753	94.75
318.983	93.75
319.212	80.75
319.441	96.75
319.67	97.75
319.9	86.75
320.129	99.75
320.358	100.75
320.587	92.75
320.816	102.75
321.046	105.75
321.275	89.75
321.504	81.75
321.733	95.75
321.962	86.75
322.191	111.75
322.42	114.75
322.649	110.75
322.878	109.75
323.108	109.75
323.337	111.75
323.566	125.75
323.795	122.75
324.024	189.75
324.253	365.75
324.482	729.75
324.71	1518.75
324.939	1973.75
325.168	759.75
325.397	220.75
325.626	141.75
325.855	140.75
326.084	122.75
326.313	110.75
326.542	139.75
326.77	207.75
326.999	422.75
327.228	854.75
327.457	1547.75
327.686	1217.75
327.914	327.75
328.143	166.75
328.372	140.75
328.6	124.75
328.829	100.75
329.058	121.75
329.287	119.75
329.515	105.75
329.744	101.75
329.972	100.75
330.201	90.75
330.43	108.75
330.658	105.75
330.887	126.75
331.115	107.75
331.344	94.75
331.572	91.75
331.801	87.75
332.03	85.75
332.258	81.75
332.486	79.75
332.715	101.75
332.943	92.75
333.172	92.75
333.4	90.75
333.629	97.75
333.857	101.75
334.085	96.75
334.314	98.75
334.542	80.75
334.771	88.75
334.999	93.75
335.227	89.75
335.455	92.75
335.684	83.75
335.912	111.75
336.14	97.75
336.369	104.75
336.597	90.75
336.825	98.75
337.053	93.75
337.281	89.75
337.51	74.75
337.738	92.75
337.966	85.75
338.194	81.75
338.422	87.75
338.65	93.75
338.878	81.75
339.106	89.75
339.334	86.75
339.562	89.75
339.79	87.75
340.018	106.75
340.246	86.75
340.474	90.75
340.702	94.75
340.93	80.75
341.158	93.75
341.386	80.75
341.614	95.75
341.842	96.75
342.07	92.75
342.298	97.75
342.526	85.75
342.754	93.75
342.981	79.75
343.209	78.75
343.437	71.75
343.665	98.75
343.893	85.75
344.12	81.75
344.348	86.75
344.576	100.75
344.804	83.75
345.031	85.75
345.259	90.75
345.487	93.75
345.714	98.75
345.942	88.75
346.17	78.75
346.397	93.75
346.625	83.75
346.853	84.75
347.08	88.75
347.308	95.75
347.535	83.75
347.763	81.75
347.99	94.75
348.218	90.75
348.445	87.75
348.673	90.75
348.9	88.75
349.128	92.75
349.355	98.75
349.583	92.75
349.81	82.75
350.037	83.75
350.265	92.75
350.492	84.75
350.72	93.75
350.947	89.75
351.174	98.75
351.402	106.75
351.629	87.75
351.856	73.75
352.083	100.75
352.311	105.75
352.538	108.75
352.765	115.75
352.992	113.75
353.22	105.75
353.447	91.75
353.674	99.75
353.901	88.75
354.128	92.75
354.355	92.75
354.583	95.75
354.81	96.75
355.037	90.75
355.264	81.75
355.491	82.75
355.718	81.75
355.945	90.75
356.172	111.75
356.399	93.75
356.626	76.75
356.853	95.75
357.08	105.75
357.307	92.75
357.534	81.75
357.761	90.75
357.988	93.75
358.215	100.75
358.441	97.75
358.668	66.75
358.895	84.75
359.122	82.75
359.349	77.75
359.576	95.75
359.802	90.75
360.029	102.75
360.256	99.75
360.483	101.75
360.709	88.75
360.936	93.75
361.163	95.75
361.39	95.75
361.616	91.75
361.843	91.75
362.07	105.75
362.296	112.75
362.523	87.75
362.749	77.75
362.976	90.75
363.203	92.75
363.429	76.75
363.656	86.75
363.882	80.75
364.109	94.75
364.335	91.75
364.562	93.75
364.788	67.75
365.015	79.75
365.241	99.75
365.468	90.75
365.694	105.75
365.92	91.75
366.147	84.75
366.373	81.75
366.599	86.75
366.826	89.75
367.052	93.75
367.278	92.75
367.505	103.75
367.731	93.75
367.957	84.75
368.184	82.75
368.41	94.75
368.636	92.75
368.862	109.75
369.089	98.75
369.315	86.75
369.541	99.75
369.767	90.75
369.993	90.75
370.219	87.75
370.445	86.75
370.672	94.75
370.898	90.75
371.124	79.75
371.35	88.75
371.576	89.75
371.802	81.75
372.028	89.75
372.254	93.75
372.48	95.75
372.706	69.75
372.932	77.75
373.158	77.75
373.384	84.75
373.61	91.75
373.835	93.75
374.061	79.75
374.287	82.75
374.513	83.75
374.739	81.75
374.965	82.75
375.191	89.75
375.416	82.75
375.642	78.75
375.868	95.75
376.094	85.75
376.319	78.75
376.545	89.75
376.771	90.75
376.997	82.75
377.222	96.75
377.448	103.75
377.674	101.75
377.899	84.75
378.125	101.75
378.35	87.75
378.576	97.75
378.802	88.75
379.027	85.75
379.253	90.75
379.478	82.75
379.704	90.75
379.929	102.75
380.155	85.75
380.38	80.75
380.606	83.75
380.831	80.75
381.057	86.75
381.282	101.75
381.507	77.75
381.733	92.75
381.958	98.75
382.184	93.75
382.409	87.75
382.634	107.75
382.86	100.75
383.085	99.75
383.31	99.75
383.535	114.75
383.761	94.75
383.986	100.75
384.211	85.75
384.436	102.75
384.662	89.75
384.887	94.75
385.112	111.75
385.337	90.75
385.562	97.75
385.787	97.75
386.013	113.75
386.238	103.75
386.463	106.75
386.688	102.75
386.913	82.75
387.138	115.75
387.363	86.75
387.588	80.75
387.813	85.75
388.038	97.75
388.263	98.75
388.488	91.75
388.713	93.75
388.938	93.75
389.163	101.75
389.387	95.75
389.612	97.75
389.837	82.75
390.062	90.75
390.287	104.75
390.512	86.75
390.736	78.75
390.961	73.75
391.186	90.75
391.411	91.75
391.636	92.75
391.86	90.75
392.085	96.75
392.31	70.75
392.534	78.75
392.759	81.75
392.984	94.75
393.208	101.75
393.433	90.75
393.658	75.75
393.882	89.75
394.107	79.75
394.331	80.75
394.556	77.75
394.78	93.75
395.005	82.75
395.229	86.75
395.454	93.75
395.678	94.75
395.903	76.75
396.127	95.75
396.352	87.75
396.576	80.75
396.801	81.75
397.025	103.75
397.249	93.75
397.474	79.75
397.698	97.75
397.922	89.75
398.147	94.75
398.371	93.75
398.595	87.75
398.82	86.75
399.044	65.75
399.268	74.75
399.492	96.75
399.717	92.75
399.941	97.75
400.165	93.75
400.389	85.75
400.613	81.75
400.837	81.75
401.062	75.75
401.286	95.75
401.51	86.75
401.734	65.75
401.958	98.75
402.182	141.75
402.406	153.75
402.63	104.75
402.854	89.75
403.078	99.75
403.302	83.75
403.526	94.75
403.75	89.75
403.974	75.75
404.198	74.75
404.422	79.75
404.645	74.75
404.869	86.75
405.093	92.75
405.317	97.75
405.541	103.75
405.765	86.75
405.988	104.75
406.212	161.75
406.436	194.75
406.66	132.75
406.883	104.75
407.107	94.75
407.331	89.75
407.555	98.75
407.778	100.75
408.002	88.75
408.226	99.75
408.449	82.75
408.673	85.75
408.896	89.75
409.12	98.75
409.344	73.75
409.567	102.75
409.791	87.75
410.014	89.75
410.238	96.75
410.461	79.75
410.685	102.75
410.908	91.75
411.132	98.75
411.355	97.75
411.578	93.75
411.802	87.75
412.025	97.75
412.249	76.75
412.472	88.75
412.695	87.75
412.919	89.75
413.142	82.75
413.365	95.75
413.589	102.75
413.812	87.75
414.035	93.75
414.258	80.75
414.482	96.75
414.705	93.75
414.928	80.75
415.151	81.75
415.374	86.75
415.597	79.75
415.821	74.75
416.044	78.75
416.267	78.75
416.49	91.75
416.713	71.75
416.936	87.75
417.159	89.75
417.382	84.75
417.605	78.75
417.828	91.75
418.051	85.75
418.274	72.75
418.497	74.75
418.72	80.75
418.943	78.75
419.166	91.75
419.389	86.75
419.611	85.75
419.834	84.75
420.057	81.75
420.28	72.75
420.503	77.75
420.726	79.75
420.948	90.75
421.171	98.75
421.394	98.75
421.617	95.75
421.839	87.75
422.062	92.75
422.285	76.75
422.507	94.75
422.73	102.75
422.953	85.75
423.175	88.75
423.398	89.75
423.621	93.75
423.843	92.75
424.066	82.75
424.288	85.75
424.511	91.75
424.733	94.75
424.956	106.75
425.178	99.75
425.401	98.75
425.623	90.75
425.846	101.75
426.068	91.75
426.291	91.75
426.513	74.75
426.735	103.75
426.958	98.75
427.18	102.75
427.402	125.75
427.625	145.75
427.847	102.75
428.069	108.75
428.292	94.75
428.514	78.75
428.736	96.75
428.958	93.75
429.181	89.75
429.403	85.75
429.625	88.75
429.847	99.75
430.069	118.75
430.292	95.75
430.514	89.75
430.736	78.75
430.958	86.75
431.18	79.75
431.402	101.75
431.624	87.75
431.846	80.75
432.068	88.75
432.29	75.75
432.512	90.75
432.734	83.75
432.956	79.75
433.178	86.75
433.4	98.75
433.622	93.75
433.844	84.75
434.066	93.75
434.287	88.75
434.509	79.75
434.731	87.75
434.953	81.75
435.175	80.75
435.397	74.75
435.618	101.75
435.84	88.75
436.062	107.75
436.284	101.75
436.505	91.75
436.727	95.75
436.949	90.75
437.17	80.75
437.392	81.75
437.614	98.75
437.835	102.75
438.057	112.75
438.278	113.75
438.5	83.75
438.721	114.75
438.943	102.75
439.165	89.75
439.386	75.75
439.608	90.75
439.829	76.75
440.05	120.75
440.272	126.75
440.493	102.75
440.715	95.75
440.936	100.75
441.158	93.75
441.379	78.75
441.6	88.75
441.822	92.75
442.043	88.75
442.264	110.75
442.486	101.75
442.707	75.75
442.928	103.75
443.149	121.75
443.371	120.75
443.592	94.75
443.813	90.75
444.034	98.75
444.255	94.75
444.476	82.75
444.698	94.75
444.919	76.75
445.14	114.75
445.361	121.75
445.582	121.75
445.803	123.75
446.024	129.75
446.245	117.75
446.466	114.75
446.687	81.75
446.908	92.75
447.129	92.75
447.35	97.75
447.571	91.75
447.792	106.75
448.013	101.75
448.234	113.75
448.455	106.75
448.675	123.75
448.896	116.75
449.117	105.75
449.338	83.75
449.559	111.75
449.779	122.75
450	84.75
450.221	66.75
450.442	85.75
450.662	91.75
450.883	96.75
451.104	107.75
451.324	99.75
451.545	87.75
451.766	77.75
451.986	92.75
452.207	76.75
452.428	83.75
452.648	90.75
452.869	103.75
453.089	96.75
453.31	99.75
453.53	81.75
453.751	91.75
453.971	99.75
454.192	92.75
454.412	87.75
454.633	86.75
454.853	82.75
455.073	95.75
455.294	88.75
455.514	96.75
455.734	107.75
455.955	87.75
456.175	79.75
456.395	100.75
456.616	87.75
456.836	93.75
457.056	98.75
457.276	90.75
457.497	98.75
457.717	89.75
457.937	80.75
458.157	82.75
458.377	91.75
458.598	95.75
458.818	135.75
459.038	144.75
459.258	113.75
459.478	78.75
459.698	97.75
459.918	86.75
460.138	73.75
460.358	76.75
460.578	82.75
460.798	76.75
461.018	91.75
461.238	99.75
461.458	95.75
461.678	95.75
461.898	95.75
462.118	89.75
462.338	83.75
462.558	98.75
462.777	85.75
462.997	81.75
463.217	73.75
463.437	83.75
463.657	86.75
463.876	77.75
464.096	70.75
464.316	80.75
464.536	88.75
464.755	87.75
464.975	102.75
465.195	146.75
465.414	159.75
465.634	106.75
465.854	85.75
466.073	86.75
466.293	76.75
466.512	82.75
466.732	69.75
466.951	93.75
467.171	91.75
467.391	93.75
467.61	94.75
467.829	88.75
468.049	93.75
468.268	88.75
468.488	89.75
468.707	71.75
468.927	79.75
469.146	83.75
469.365	82.75
469.585	75.75
469.804	100.75
470.023	85.75
470.243	86.75
470.462	97.75
470.681	95.75
470.901	94.75
471.12	75.75
471.339	79.75
471.558	78.75
471.777	89.75
471.997	85.75
472.216	81.75
472.435	93.75
472.654	88.75
472.873	70.75
473.092	81.75
473.311	85.75
473.53	77.75
473.749	93.75
473.968	99.75
474.187	94.75
474.406	91.75
474.625	86.75
474.844	87.75
475.063	89.75
475.282	95.75
475.501	80.75
475.72	95.75
475.939	76.75
476.158	90.75
476.377	70.75
476.596	88.75
476.814	98.75
477.033	97.75
477.252	89.75
477.471	86.75
477.69	79.75
477.908	98.75
478.127	92.75
478.346	84.75
478.564	98.75
478.783	106.75
479.002	109.75
479.22	94.75
479.439	98.75
479.658	103.75
479.876	93.75
480.095	90.75
480.313	93.75
480.532	95.75
480.751	87.75
480.969	89.75
481.188	87.75
481.406	72.75
481.624	83.75
481.843	94.75
482.061	84.75
482.28	102.75
482.498	97.75
482.717	73.75
482.935	85.75
483.153	86.75
483.372	94.75
483.59	97.75
483.808	90.75
484.027	78.75
484.245	86.75
484.463	96.75
484.681	101.75
484.9	71.75
485.118	94.75
485.336	100.75
485.554	86.75
485.772	93.75
485.99	107.75
486.209	106.75
486.427	107.75
486.645	109.75
486.863	111.75
487.081	113.75
487.299	96.75
487.517	94.75
487.735	96.75
487.953	90.75
488.171	87.75
488.389	76.75
488.607	99.75
488.825	105.75
489.043	82.75
489.261	76.75
489.479	76.75
489.696	90.75
489.914	77.75
490.132	75.75
490.35	84.75
490.568	89.75
490.786	88.75
491.003	86.75
491.221	89.75
491.439	104.75
491.657	84.75
491.874	85.75
492.092	81.75
492.31	81.75
492.527	90.75
492.745	86.75
492.963	85.75
493.18	85.75
493.398	87.75
493.615	91.75
493.833	104.75
494.05	88.75
494.268	96.75
494.485	97.75
494.703	84.75
494.92	94.75
495.138	92.75
495.355	82.75
495.573	97.75
495.79	81.75
496.008	87.75
496.225	98.75
496.442	81.75
496.66	96.75
496.877	93.75
497.094	81.75
497.312	68.75
497.529	85.75
497.746	76.75
497.963	91.75
498.181	86.75
498.398	105.75
498.615	91.75
498.832	113.75
499.049	99.75
499.267	96.75
499.484	91.75
499.701	70.75
499.918	86.75
500.135	76.75
500.352	98.75
500.569	87.75
500.786	100.75
501.003	96.75
501.22	90.75
501.437	81.75
501.654	107.75
501.871	110.75
502.088	98.75
502.305	97.75
502.522	72.75
502.739	75.75
502.956	86.75
503.172	82.75
503.389	98.75
503.606	95.75
503.823	94.75
504.04	80.75
504.256	87.75
504.473	83.75
504.69	72.75
504.907	77.75
505.123	87.75
505.34	89.75
505.557	95.75
505.773	75.75
505.99	82.75
506.207	85.75
506.423	90.75
506.64	96.75
506.856	93.75
507.073	91.75
507.289	94.75
507.506	94.75
507.722	103.75
507.939	106.75
508.155	99.75
508.372	88.75
508.588	83.75
508.805	88.75
509.021	94.75
509.238	96.75
509.454	105.75
509.67	99.75
509.887	100.75
510.103	136.75
510.319	201.75
510.536	744.75
510.752	2260.75
510.968	630.75
511.184	159.75
511.401	109.75
511.617	98.75
511.833	87.75
512.049	85.75
512.265	91.75
512.481	88.75
512.698	95.75
512.914	94.75
513.13	86.75
513.346	90.75
513.562	94.75
513.778	94.75
513.994	104.75
514.21	87.75
514.426	110.75
514.642	130.75
514.858	127.75
515.074	180.75
515.29	433.75
515.506	1356.75
515.721	501.75
515.937	141.75
516.153	115.75
516.369	106.75
516.585	86.75
516.801	93.75
517.016	94.75
