Data from Uncirc_1994_H10_HRD10591_00027.txt Node
Date: Wed Jan 03 11:39:26 EST 2024
User: Yrep
Spectrometer: HR+D1059
Trigger mode: 1
Integration Time (sec): 1.000000E-1
Scans to average: 1
Electric dark correction enabled: true
Nonlinearity correction enabled: false
Boxcar width: 0
XAxis mode: Wavelengths
Number of Pixels in Spectrum: 2048
>>>>>Begin Spectral Data<<<<<
223.165	-11.25
223.4	-11.25
223.635	-11.25
223.869	-18.25
224.104	-12.25
224.338	-17.25
224.573	-9.25
224.808	-20.25
225.042	-13.25
225.277	-24.25
225.511	0.75
225.746	3.75
225.98	10.75
226.215	9.75
226.449	6.75
226.683	31.75
226.918	23.75
227.152	38.75
227.387	29.75
227.621	39.75
227.856	29.75
228.09	33.75
228.324	41.75
228.559	45.75
228.793	49.75
229.027	53.75
229.262	60.75
229.496	79.75
229.73	82.75
229.964	85.75
230.199	69.75
230.433	64.75
230.667	64.75
230.901	66.75
231.136	65.75
231.37	79.75
231.604	73.75
231.838	83.75
232.072	81.75
232.306	79.75
232.541	77.75
232.775	70.75
233.009	66.75
233.243	71.75
233.477	73.75
233.711	85.75
233.945	89.75
234.179	72.75
234.413	72.75
234.647	76.75
234.881	80.75
235.115	78.75
235.349	81.75
235.583	82.75
235.817	70.75
236.051	78.75
236.285	55.75
236.519	83.75
236.753	83.75
236.987	62.75
237.221	84.75
237.455	76.75
237.689	61.75
237.922	63.75
238.156	72.75
238.39	87.75
238.624	61.75
238.858	78.75
239.091	70.75
239.325	77.75
239.559	80.75
239.793	74.75
240.027	85.75
240.26	81.75
240.494	66.75
240.728	65.75
240.961	63.75
241.195	84.75
241.429	63.75
241.662	66.75
241.896	80.75
242.13	74.75
242.363	82.75
242.597	67.75
242.83	74.75
243.064	75.75
243.298	72.75
243.531	86.75
243.765	64.75
243.998	91.75
244.232	86.75
244.465	85.75
244.699	90.75
244.932	79.75
245.166	84.75
245.399	79.75
245.633	65.75
245.866	83.75
246.099	75.75
246.333	64.75
246.566	62.75
246.8	70.75
247.033	64.75
247.266	76.75
247.5	81.75
247.733	66.75
247.966	76.75
248.2	83.75
248.433	83.75
248.666	79.75
248.899	73.75
249.133	79.75
249.366	97.75
249.599	88.75
249.832	75.75
250.066	81.75
250.299	64.75
250.532	87.75
250.765	84.75
250.998	74.75
251.231	73.75
251.465	75.75
251.698	80.75
251.931	76.75
252.164	75.75
252.397	75.75
252.63	82.75
252.863	77.75
253.096	81.75
253.329	79.75
253.562	67.75
253.795	77.75
254.028	92.75
254.261	80.75
254.494	82.75
254.727	82.75
254.96	79.75
255.193	88.75
255.426	77.75
255.659	65.75
255.892	71.75
256.124	76.75
256.357	66.75
256.59	74.75
256.823	90.75
257.056	77.75
257.289	71.75
257.521	72.75
257.754	72.75
257.987	63.75
258.22	80.75
258.452	78.75
258.685	87.75
258.918	86.75
259.151	86.75
259.383	82.75
259.616	82.75
259.849	72.75
260.081	91.75
260.314	81.75
260.547	81.75
260.779	79.75
261.012	78.75
261.244	61.75
261.477	93.75
261.71	89.75
261.942	102.75
262.175	112.75
262.407	85.75
262.64	85.75
262.872	87.75
263.105	81.75
263.337	83.75
263.57	80.75
263.802	75.75
264.035	93.75
264.267	79.75
264.499	90.75
264.732	82.75
264.964	87.75
265.197	81.75
265.429	84.75
265.661	82.75
265.894	77.75
266.126	71.75
266.358	82.75
266.591	74.75
266.823	85.75
267.055	71.75
267.287	63.75
267.52	66.75
267.752	94.75
267.984	87.75
268.216	83.75
268.448	91.75
268.681	72.75
268.913	88.75
269.145	93.75
269.377	76.75
269.609	94.75
269.841	79.75
270.073	73.75
270.306	90.75
270.538	77.75
270.77	81.75
271.002	73.75
271.234	85.75
271.466	68.75
271.698	74.75
271.93	89.75
272.162	77.75
272.394	82.75
272.626	81.75
272.858	86.75
273.09	84.75
273.322	85.75
273.553	90.75
273.785	93.75
274.017	82.75
274.249	90.75
274.481	76.75
274.713	83.75
274.945	89.75
275.176	99.75
275.408	84.75
275.64	86.75
275.872	82.75
276.104	83.75
276.335	85.75
276.567	89.75
276.799	106.75
277.031	100.75
277.262	76.75
277.494	79.75
277.726	92.75
277.957	78.75
278.189	80.75
278.421	89.75
278.652	90.75
278.884	82.75
279.115	93.75
279.347	88.75
279.579	75.75
279.81	77.75
280.042	96.75
280.273	87.75
280.505	82.75
280.736	86.75
280.968	94.75
281.199	76.75
281.431	96.75
281.662	82.75
281.894	98.75
282.125	94.75
282.356	112.75
282.588	114.75
282.819	110.75
283.051	74.75
283.282	96.75
283.513	99.75
283.745	75.75
283.976	66.75
284.207	81.75
284.439	96.75
284.67	82.75
284.901	75.75
285.132	95.75
285.364	87.75
285.595	81.75
285.826	88.75
286.057	74.75
286.288	83.75
286.52	96.75
286.751	81.75
286.982	99.75
287.213	76.75
287.444	73.75
287.675	74.75
287.906	71.75
288.138	84.75
288.369	96.75
288.6	91.75
288.831	82.75
289.062	89.75
289.293	81.75
289.524	82.75
289.755	90.75
289.986	77.75
290.217	74.75
290.448	78.75
290.679	77.75
290.91	85.75
291.141	101.75
291.371	86.75
291.602	91.75
291.833	71.75
292.064	90.75
292.295	85.75
292.526	102.75
292.757	79.75
292.987	80.75
293.218	94.75
293.449	86.75
293.68	79.75
293.91	91.75
294.141	103.75
294.372	84.75
294.603	93.75
294.833	77.75
295.064	96.75
295.295	86.75
295.525	85.75
295.756	87.75
295.987	111.75
296.217	128.75
296.448	119.75
296.679	94.75
296.909	88.75
297.14	97.75
297.37	83.75
297.601	79.75
297.831	69.75
298.062	85.75
298.292	82.75
298.523	76.75
298.753	81.75
298.984	71.75
299.214	92.75
299.445	90.75
299.675	97.75
299.905	77.75
300.136	85.75
300.366	89.75
300.597	85.75
300.827	94.75
301.057	99.75
301.288	103.75
301.518	87.75
301.748	87.75
301.979	92.75
302.209	97.75
302.439	96.75
302.669	78.75
302.9	75.75
303.13	86.75
303.36	91.75
303.59	100.75
303.82	90.75
304.051	72.75
304.281	92.75
304.511	89.75
304.741	74.75
304.971	76.75
305.201	87.75
305.431	81.75
305.661	88.75
305.891	90.75
306.121	99.75
306.352	99.75
306.582	101.75
306.812	90.75
307.042	84.75
307.272	88.75
307.502	88.75
307.731	94.75
307.961	87.75
308.191	85.75
308.421	93.75
308.651	90.75
308.881	96.75
309.111	93.75
309.341	99.75
309.571	77.75
309.8	86.75
310.03	79.75
310.26	93.75
310.49	90.75
310.72	89.75
310.949	107.75
311.179	89.75
311.409	105.75
311.639	108.75
311.868	85.75
312.098	91.75
312.328	91.75
312.557	97.75
312.787	90.75
313.017	105.75
313.246	91.75
313.476	87.75
313.706	90.75
313.935	73.75
314.165	86.75
314.394	96.75
314.624	106.75
314.853	100.75
315.083	91.75
315.312	82.75
315.542	90.75
315.771	84.75
316.001	80.75
316.23	91.75
316.46	97.75
316.689	97.75
316.919	89.75
317.148	101.75
317.377	103.75
317.607	97.75
317.836	90.75
318.065	86.75
318.295	87.75
318.524	73.75
318.753	92.75
318.983	88.75
319.212	101.75
319.441	99.75
319.67	97.75
319.9	95.75
320.129	83.75
320.358	94.75
320.587	94.75
320.816	95.75
321.046	99.75
321.275	90.75
321.504	86.75
321.733	92.75
321.962	85.75
322.191	97.75
322.42	97.75
322.649	104.75
322.878	110.75
323.108	99.75
323.337	120.75
323.566	133.75
323.795	146.75
324.024	194.75
324.253	330.75
324.482	654.75
324.71	1383.75
324.939	1783.75
325.168	672.75
325.397	213.75
325.626	128.75
325.855	118.75
326.084	124.75
326.313	112.75
326.542	144.75
326.77	200.75
326.999	381.75
327.228	796.75
327.457	1351.75
327.686	1068.75
327.914	285.75
328.143	161.75
328.372	126.75
328.6	116.75
328.829	117.75
329.058	108.75
329.287	101.75
329.515	98.75
329.744	92.75
329.972	88.75
330.201	101.75
330.43	109.75
330.658	110.75
330.887	119.75
331.115	112.75
331.344	95.75
331.572	117.75
331.801	97.75
332.03	85.75
332.258	90.75
332.486	86.75
332.715	87.75
332.943	87.75
333.172	87.75
333.4	84.75
333.629	85.75
333.857	98.75
334.085	98.75
334.314	90.75
334.542	82.75
334.771	109.75
334.999	95.75
335.227	82.75
335.455	101.75
335.684	93.75
335.912	94.75
336.14	86.75
336.369	95.75
336.597	97.75
336.825	93.75
337.053	98.75
337.281	82.75
337.51	81.75
337.738	91.75
337.966	90.75
338.194	98.75
338.422	94.75
338.65	95.75
338.878	77.75
339.106	79.75
339.334	95.75
339.562	105.75
339.79	75.75
340.018	88.75
340.246	88.75
340.474	85.75
340.702	85.75
340.93	86.75
341.158	84.75
341.386	97.75
341.614	90.75
341.842	89.75
342.07	78.75
342.298	94.75
342.526	94.75
342.754	87.75
342.981	86.75
343.209	92.75
343.437	112.75
343.665	94.75
343.893	84.75
344.12	93.75
344.348	83.75
344.576	79.75
344.804	90.75
345.031	100.75
345.259	81.75
345.487	92.75
345.714	81.75
345.942	96.75
346.17	96.75
346.397	99.75
346.625	94.75
346.853	112.75
347.08	93.75
347.308	91.75
347.535	93.75
347.763	99.75
347.99	92.75
348.218	102.75
348.445	102.75
348.673	101.75
348.9	95.75
349.128	97.75
349.355	93.75
349.583	77.75
349.81	95.75
350.037	86.75
350.265	92.75
350.492	93.75
350.72	98.75
350.947	97.75
351.174	96.75
351.402	104.75
351.629	96.75
351.856	91.75
352.083	91.75
352.311	117.75
352.538	101.75
352.765	97.75
352.992	115.75
353.22	106.75
353.447	104.75
353.674	106.75
353.901	92.75
354.128	107.75
354.355	104.75
354.583	103.75
354.81	81.75
355.037	88.75
355.264	103.75
355.491	92.75
355.718	69.75
355.945	89.75
356.172	93.75
356.399	86.75
356.626	78.75
356.853	93.75
357.08	91.75
357.307	87.75
357.534	92.75
357.761	85.75
357.988	85.75
358.215	92.75
358.441	94.75
358.668	88.75
358.895	90.75
359.122	79.75
359.349	93.75
359.576	82.75
359.802	95.75
360.029	100.75
360.256	91.75
360.483	104.75
360.709	94.75
360.936	93.75
361.163	77.75
361.39	85.75
361.616	94.75
361.843	95.75
362.07	104.75
362.296	87.75
362.523	92.75
362.749	82.75
362.976	96.75
363.203	88.75
363.429	83.75
363.656	78.75
363.882	82.75
364.109	89.75
364.335	79.75
364.562	89.75
364.788	72.75
365.015	97.75
365.241	101.75
365.468	94.75
365.694	101.75
365.92	90.75
366.147	86.75
366.373	81.75
366.599	84.75
366.826	85.75
367.052	92.75
367.278	85.75
367.505	83.75
367.731	82.75
367.957	89.75
368.184	91.75
368.41	89.75
368.636	97.75
368.862	121.75
369.089	93.75
369.315	102.75
369.541	91.75
369.767	100.75
369.993	94.75
370.219	79.75
370.445	93.75
370.672	81.75
370.898	76.75
371.124	85.75
371.35	89.75
371.576	74.75
371.802	84.75
372.028	91.75
372.254	81.75
372.48	96.75
372.706	94.75
372.932	86.75
373.158	88.75
373.384	88.75
373.61	78.75
373.835	94.75
374.061	98.75
374.287	93.75
374.513	91.75
374.739	83.75
374.965	74.75
375.191	81.75
375.416	90.75
375.642	80.75
375.868	88.75
376.094	87.75
376.319	91.75
376.545	84.75
376.771	94.75
376.997	94.75
377.222	95.75
377.448	98.75
377.674	89.75
377.899	93.75
378.125	92.75
378.35	108.75
378.576	102.75
378.802	92.75
379.027	77.75
379.253	92.75
379.478	90.75
379.704	82.75
379.929	78.75
380.155	100.75
380.38	91.75
380.606	93.75
380.831	90.75
381.057	83.75
381.282	73.75
381.507	95.75
381.733	82.75
381.958	84.75
382.184	77.75
382.409	94.75
382.634	98.75
382.86	91.75
383.085	77.75
383.31	85.75
383.535	99.75
383.761	89.75
383.986	93.75
384.211	82.75
384.436	90.75
384.662	94.75
384.887	87.75
385.112	95.75
385.337	94.75
385.562	101.75
385.787	97.75
386.013	108.75
386.238	127.75
386.463	96.75
386.688	99.75
386.913	109.75
387.138	104.75
387.363	105.75
387.588	87.75
387.813	103.75
388.038	104.75
388.263	102.75
388.488	110.75
388.713	91.75
388.938	88.75
389.163	82.75
389.387	89.75
389.612	101.75
389.837	89.75
390.062	94.75
390.287	100.75
390.512	98.75
390.736	98.75
390.961	90.75
391.186	94.75
391.411	79.75
391.636	87.75
391.86	78.75
392.085	62.75
392.31	83.75
392.534	89.75
392.759	83.75
392.984	89.75
393.208	101.75
393.433	98.75
393.658	94.75
393.882	93.75
394.107	85.75
394.331	73.75
394.556	78.75
394.78	94.75
395.005	96.75
395.229	71.75
395.454	73.75
395.678	83.75
395.903	91.75
396.127	81.75
396.352	87.75
396.576	82.75
396.801	79.75
397.025	81.75
397.249	86.75
397.474	70.75
397.698	77.75
397.922	99.75
398.147	88.75
398.371	75.75
398.595	85.75
398.82	85.75
399.044	80.75
399.268	82.75
399.492	94.75
399.717	97.75
399.941	86.75
400.165	87.75
400.389	81.75
400.613	91.75
400.837	87.75
401.062	83.75
401.286	79.75
401.51	83.75
401.734	86.75
401.958	112.75
402.182	110.75
402.406	133.75
402.63	124.75
402.854	87.75
403.078	92.75
403.302	85.75
403.526	79.75
403.75	82.75
403.974	69.75
404.198	79.75
404.422	89.75
404.645	68.75
404.869	94.75
405.093	69.75
405.317	81.75
405.541	91.75
405.765	94.75
405.988	115.75
406.212	154.75
406.436	173.75
406.66	127.75
406.883	85.75
407.107	81.75
407.331	96.75
407.555	105.75
407.778	93.75
408.002	75.75
408.226	79.75
408.449	78.75
408.673	83.75
408.896	74.75
409.12	81.75
409.344	86.75
409.567	97.75
409.791	99.75
410.014	93.75
410.238	83.75
410.461	72.75
410.685	85.75
410.908	100.75
411.132	98.75
411.355	102.75
411.578	83.75
411.802	85.75
412.025	85.75
412.249	86.75
412.472	101.75
412.695	86.75
412.919	82.75
413.142	74.75
413.365	67.75
413.589	89.75
413.812	80.75
414.035	104.75
414.258	89.75
414.482	80.75
414.705	96.75
414.928	75.75
415.151	97.75
415.374	90.75
415.597	81.75
415.821	81.75
416.044	89.75
416.267	90.75
416.49	82.75
416.713	79.75
416.936	83.75
417.159	87.75
417.382	89.75
417.605	93.75
417.828	95.75
418.051	78.75
418.274	85.75
418.497	86.75
418.72	88.75
418.943	75.75
419.166	78.75
419.389	83.75
419.611	94.75
419.834	87.75
420.057	77.75
420.28	85.75
420.503	91.75
420.726	87.75
420.948	80.75
421.171	82.75
421.394	86.75
421.617	84.75
421.839	86.75
422.062	82.75
422.285	94.75
422.507	92.75
422.73	85.75
422.953	97.75
423.175	89.75
423.398	97.75
423.621	93.75
423.843	95.75
424.066	76.75
424.288	92.75
424.511	82.75
424.733	95.75
424.956	90.75
425.178	100.75
425.401	90.75
425.623	92.75
425.846	111.75
426.068	97.75
426.291	84.75
426.513	86.75
426.735	91.75
426.958	82.75
427.18	91.75
427.402	139.75
427.625	129.75
427.847	110.75
428.069	83.75
428.292	81.75
428.514	92.75
428.736	91.75
428.958	81.75
429.181	86.75
429.403	96.75
429.625	92.75
429.847	98.75
430.069	98.75
430.292	85.75
430.514	87.75
430.736	73.75
430.958	72.75
431.18	102.75
431.402	81.75
431.624	79.75
431.846	83.75
432.068	97.75
432.29	62.75
432.512	74.75
432.734	83.75
432.956	99.75
433.178	92.75
433.4	88.75
433.622	75.75
433.844	102.75
434.066	78.75
434.287	99.75
434.509	105.75
434.731	87.75
434.953	89.75
435.175	82.75
435.397	96.75
435.618	93.75
435.84	88.75
436.062	102.75
436.284	91.75
436.505	98.75
436.727	94.75
436.949	87.75
437.17	88.75
437.392	94.75
437.614	89.75
437.835	101.75
438.057	105.75
438.278	103.75
438.5	98.75
438.721	117.75
438.943	97.75
439.165	76.75
439.386	94.75
439.608	103.75
439.829	93.75
440.05	101.75
440.272	121.75
440.493	86.75
440.715	88.75
440.936	81.75
441.158	80.75
441.379	92.75
441.6	77.75
441.822	89.75
442.043	93.75
442.264	95.75
442.486	96.75
442.707	89.75
442.928	79.75
443.149	113.75
443.371	112.75
443.592	108.75
443.813	110.75
444.034	81.75
444.255	83.75
444.476	91.75
444.698	90.75
444.919	79.75
445.14	120.75
445.361	115.75
445.582	117.75
445.803	112.75
446.024	122.75
446.245	127.75
446.466	99.75
446.687	99.75
446.908	85.75
447.129	87.75
447.35	91.75
447.571	106.75
447.792	89.75
448.013	87.75
448.234	94.75
448.455	93.75
448.675	108.75
448.896	106.75
449.117	95.75
449.338	89.75
449.559	118.75
449.779	112.75
450	82.75
450.221	78.75
450.442	85.75
450.662	87.75
450.883	100.75
451.104	94.75
451.324	104.75
451.545	75.75
451.766	83.75
451.986	89.75
452.207	79.75
452.428	90.75
452.648	84.75
452.869	112.75
453.089	105.75
453.31	110.75
453.53	91.75
453.751	91.75
453.971	105.75
454.192	94.75
454.412	93.75
454.633	77.75
454.853	92.75
455.073	90.75
455.294	73.75
455.514	102.75
455.734	75.75
455.955	81.75
456.175	75.75
456.395	69.75
456.616	86.75
456.836	92.75
457.056	97.75
457.276	83.75
457.497	82.75
457.717	74.75
457.937	80.75
458.157	80.75
458.377	92.75
458.598	114.75
458.818	144.75
459.038	126.75
459.258	106.75
459.478	94.75
459.698	89.75
459.918	93.75
460.138	85.75
460.358	85.75
460.578	86.75
460.798	97.75
461.018	89.75
461.238	70.75
461.458	78.75
461.678	82.75
461.898	80.75
462.118	86.75
462.338	93.75
462.558	87.75
462.777	88.75
462.997	78.75
463.217	67.75
463.437	84.75
463.657	82.75
463.876	86.75
464.096	97.75
464.316	87.75
464.536	101.75
464.755	96.75
464.975	97.75
465.195	149.75
465.414	114.75
465.634	86.75
465.854	85.75
466.073	96.75
466.293	98.75
466.512	103.75
466.732	90.75
466.951	86.75
467.171	86.75
467.391	90.75
467.61	95.75
467.829	83.75
468.049	86.75
468.268	81.75
468.488	69.75
468.707	80.75
468.927	71.75
469.146	88.75
469.365	85.75
469.585	92.75
469.804	92.75
470.023	80.75
470.243	86.75
470.462	89.75
470.681	105.75
470.901	83.75
471.12	79.75
471.339	79.75
471.558	74.75
471.777	94.75
471.997	78.75
472.216	86.75
472.435	69.75
472.654	81.75
472.873	65.75
473.092	87.75
473.311	81.75
473.53	73.75
473.749	93.75
473.968	89.75
474.187	97.75
474.406	88.75
474.625	77.75
474.844	102.75
475.063	90.75
475.282	67.75
475.501	80.75
475.72	88.75
475.939	93.75
476.158	89.75
476.377	92.75
476.596	103.75
476.814	80.75
477.033	88.75
477.252	109.75
477.471	86.75
477.69	91.75
477.908	96.75
478.127	86.75
478.346	79.75
478.564	90.75
478.783	108.75
479.002	88.75
479.22	88.75
479.439	82.75
479.658	102.75
479.876	101.75
480.095	84.75
480.313	87.75
480.532	77.75
480.751	90.75
480.969	94.75
481.188	85.75
481.406	80.75
481.624	91.75
481.843	93.75
482.061	85.75
482.28	79.75
482.498	89.75
482.717	84.75
482.935	83.75
483.153	85.75
483.372	82.75
483.59	83.75
483.808	79.75
484.027	79.75
484.245	90.75
484.463	105.75
484.681	88.75
484.9	88.75
485.118	86.75
485.336	87.75
485.554	106.75
485.772	96.75
485.99	103.75
486.209	104.75
486.427	95.75
486.645	111.75
486.863	108.75
487.081	102.75
487.299	97.75
487.517	110.75
487.735	96.75
487.953	88.75
488.171	100.75
488.389	91.75
488.607	97.75
488.825	85.75
489.043	75.75
489.261	85.75
489.479	92.75
489.696	83.75
489.914	80.75
490.132	93.75
490.35	85.75
490.568	97.75
490.786	78.75
491.003	101.75
491.221	87.75
491.439	87.75
491.657	95.75
491.874	97.75
492.092	91.75
492.31	82.75
492.527	79.75
492.745	83.75
492.963	87.75
493.18	92.75
493.398	98.75
493.615	98.75
493.833	69.75
494.05	79.75
494.268	74.75
494.485	82.75
494.703	78.75
494.92	96.75
495.138	75.75
495.355	89.75
495.573	72.75
495.79	90.75
496.008	95.75
496.225	83.75
496.442	95.75
496.66	77.75
496.877	97.75
497.094	87.75
497.312	114.75
497.529	89.75
497.746	89.75
497.963	80.75
498.181	107.75
498.398	86.75
498.615	97.75
498.832	91.75
499.049	89.75
499.267	74.75
499.484	75.75
499.701	75.75
499.918	89.75
500.135	77.75
500.352	77.75
500.569	91.75
500.786	77.75
501.003	88.75
501.22	80.75
501.437	90.75
501.654	92.75
501.871	91.75
502.088	64.75
502.305	81.75
502.522	77.75
502.739	95.75
502.956	93.75
503.172	71.75
503.389	75.75
503.606	83.75
503.823	87.75
504.04	84.75
504.256	95.75
504.473	75.75
504.69	97.75
504.907	92.75
505.123	87.75
505.34	82.75
505.557	94.75
505.773	88.75
505.99	103.75
506.207	82.75
506.423	86.75
506.64	74.75
506.856	77.75
507.073	90.75
507.289	91.75
507.506	105.75
507.722	98.75
507.939	104.75
508.155	84.75
508.372	84.75
508.588	96.75
508.805	98.75
509.021	92.75
509.238	100.75
509.454	93.75
509.67	114.75
509.887	103.75
510.103	127.75
510.319	177.75
510.536	652.75
510.752	1947.75
510.968	539.75
511.184	134.75
511.401	94.75
511.617	95.75
511.833	90.75
512.049	98.75
512.265	82.75
512.481	101.75
512.698	93.75
512.914	85.75
513.13	90.75
513.346	98.75
513.562	90.75
513.778	86.75
513.994	98.75
514.21	106.75
514.426	109.75
514.642	109.75
514.858	106.75
515.074	145.75
515.29	376.75
515.506	1123.75
515.721	415.75
515.937	145.75
516.153	99.75
516.369	95.75
516.585	97.75
516.801	86.75
517.016	98.75
517.232	96.75
