Data from Uncirc_1994_H10_HRD10591_00060.txt Node
Date: Wed Jan 03 11:39:32 EST 2024
User: Yrep
Spectrometer: HR+D1059
Trigger mode: 1
Integration Time (sec): 1.000000E-1
Scans to average: 1
Electric dark correction enabled: true
Nonlinearity correction enabled: false
Boxcar width: 0
XAxis mode: Wavelengths
Number of Pixels in Spectrum: 2048
>>>>>Begin Spectral Data<<<<<
223.165	-13.56
223.4	-13.56
223.635	-13.56
223.869	-30.56
224.104	-29.56
224.338	-5.56
224.573	-12.56
224.808	-9.56
225.042	-5.56
225.277	2.44
225.511	-11.56
225.746	8.44
225.98	2.44
226.215	7.44
226.449	24.44
226.683	15.44
226.918	22.44
227.152	35.44
227.387	34.44
227.621	37.44
227.856	42.44
228.09	57.44
228.324	52.44
228.559	56.44
228.793	75.44
229.027	72.44
229.262	61.44
229.496	70.44
229.73	67.44
229.964	74.44
230.199	93.44
230.433	82.44
230.667	96.44
230.901	87.44
231.136	77.44
231.37	89.44
231.604	82.44
231.838	84.44
232.072	83.44
232.306	76.44
232.541	89.44
232.775	94.44
233.009	84.44
233.243	75.44
233.477	82.44
233.711	82.44
233.945	79.44
234.179	83.44
234.413	89.44
234.647	88.44
234.881	85.44
235.115	76.44
235.349	86.44
235.583	63.44
235.817	77.44
236.051	78.44
236.285	71.44
236.519	81.44
236.753	103.44
236.987	78.44
237.221	85.44
237.455	86.44
237.689	67.44
237.922	70.44
238.156	78.44
238.39	97.44
238.624	93.44
238.858	75.44
239.091	72.44
239.325	79.44
239.559	77.44
239.793	74.44
240.027	82.44
240.26	87.44
240.494	72.44
240.728	87.44
240.961	82.44
241.195	87.44
241.429	77.44
241.662	83.44
241.896	79.44
242.13	68.44
242.363	82.44
242.597	71.44
242.83	76.44
243.064	76.44
243.298	83.44
243.531	72.44
243.765	94.44
243.998	93.44
244.232	77.44
244.465	86.44
244.699	83.44
244.932	74.44
245.166	77.44
245.399	78.44
245.633	70.44
245.866	81.44
246.099	87.44
246.333	95.44
246.566	71.44
246.8	71.44
247.033	82.44
247.266	76.44
247.5	87.44
247.733	82.44
247.966	98.44
248.2	80.44
248.433	80.44
248.666	85.44
248.899	80.44
249.133	85.44
249.366	99.44
249.599	95.44
249.832	88.44
250.066	80.44
250.299	71.44
250.532	87.44
250.765	92.44
250.998	82.44
251.231	81.44
251.465	77.44
251.698	79.44
251.931	78.44
252.164	75.44
252.397	69.44
252.63	80.44
252.863	80.44
253.096	83.44
253.329	76.44
253.562	86.44
253.795	80.44
254.028	82.44
254.261	74.44
254.494	74.44
254.727	81.44
254.96	89.44
255.193	76.44
255.426	83.44
255.659	83.44
255.892	86.44
256.124	74.44
256.357	84.44
256.59	78.44
256.823	86.44
257.056	79.44
257.289	89.44
257.521	97.44
257.754	93.44
257.987	85.44
258.22	76.44
258.452	81.44
258.685	94.44
258.918	83.44
259.151	96.44
259.383	89.44
259.616	68.44
259.849	84.44
260.081	83.44
260.314	75.44
260.547	94.44
260.779	85.44
261.012	86.44
261.244	77.44
261.477	89.44
261.71	97.44
261.942	100.44
262.175	109.44
262.407	90.44
262.64	92.44
262.872	88.44
263.105	69.44
263.337	80.44
263.57	89.44
263.802	81.44
264.035	88.44
264.267	98.44
264.499	82.44
264.732	92.44
264.964	87.44
265.197	91.44
265.429	86.44
265.661	88.44
265.894	85.44
266.126	87.44
266.358	100.44
266.591	96.44
266.823	96.44
267.055	96.44
267.287	82.44
267.52	100.44
267.752	95.44
267.984	86.44
268.216	71.44
268.448	78.44
268.681	95.44
268.913	96.44
269.145	84.44
269.377	94.44
269.609	82.44
269.841	75.44
270.073	80.44
270.306	96.44
270.538	99.44
270.77	88.44
271.002	81.44
271.234	79.44
271.466	90.44
271.698	88.44
271.93	90.44
272.162	95.44
272.394	83.44
272.626	91.44
272.858	90.44
273.09	79.44
273.322	83.44
273.553	93.44
273.785	90.44
274.017	79.44
274.249	98.44
274.481	82.44
274.713	92.44
274.945	83.44
275.176	83.44
275.408	98.44
275.64	89.44
275.872	85.44
276.104	97.44
276.335	104.44
276.567	99.44
276.799	107.44
277.031	111.44
277.262	92.44
277.494	84.44
277.726	85.44
277.957	81.44
278.189	86.44
278.421	80.44
278.652	74.44
278.884	87.44
279.115	87.44
279.347	85.44
279.579	85.44
279.81	82.44
280.042	89.44
280.273	93.44
280.505	83.44
280.736	77.44
280.968	82.44
281.199	96.44
281.431	88.44
281.662	89.44
281.894	96.44
282.125	106.44
282.356	118.44
282.588	125.44
282.819	100.44
283.051	100.44
283.282	86.44
283.513	105.44
283.745	86.44
283.976	94.44
284.207	92.44
284.439	101.44
284.67	92.44
284.901	91.44
285.132	79.44
285.364	90.44
285.595	85.44
285.826	95.44
286.057	100.44
286.288	100.44
286.52	73.44
286.751	90.44
286.982	94.44
287.213	88.44
287.444	102.44
287.675	96.44
287.906	88.44
288.138	82.44
288.369	97.44
288.6	99.44
288.831	90.44
289.062	96.44
289.293	79.44
289.524	91.44
289.755	83.44
289.986	82.44
290.217	95.44
290.448	96.44
290.679	74.44
290.91	98.44
291.141	96.44
291.371	81.44
291.602	101.44
291.833	96.44
292.064	85.44
292.295	90.44
292.526	84.44
292.757	94.44
292.987	89.44
293.218	95.44
293.449	94.44
293.68	72.44
293.91	94.44
294.141	82.44
294.372	99.44
294.603	99.44
294.833	89.44
295.064	81.44
295.295	90.44
295.525	92.44
295.756	93.44
295.987	123.44
296.217	121.44
296.448	105.44
296.679	97.44
296.909	92.44
297.14	96.44
297.37	94.44
297.601	83.44
297.831	84.44
298.062	87.44
298.292	88.44
298.523	84.44
298.753	81.44
298.984	104.44
299.214	90.44
299.445	83.44
299.675	110.44
299.905	95.44
300.136	95.44
300.366	78.44
300.597	86.44
300.827	87.44
301.057	97.44
301.288	100.44
301.518	92.44
301.748	102.44
301.979	103.44
302.209	80.44
302.439	88.44
302.669	97.44
302.9	97.44
303.13	115.44
303.36	82.44
303.59	92.44
303.82	117.44
304.051	91.44
304.281	84.44
304.511	97.44
304.741	86.44
304.971	99.44
305.201	92.44
305.431	90.44
305.661	94.44
305.891	103.44
306.121	107.44
306.352	99.44
306.582	91.44
306.812	115.44
307.042	102.44
307.272	94.44
307.502	101.44
307.731	94.44
307.961	91.44
308.191	98.44
308.421	92.44
308.651	90.44
308.881	88.44
309.111	85.44
309.341	102.44
309.571	110.44
309.8	101.44
310.03	107.44
310.26	94.44
310.49	92.44
310.72	93.44
310.949	98.44
311.179	109.44
311.409	95.44
311.639	86.44
311.868	92.44
312.098	97.44
312.328	96.44
312.557	116.44
312.787	111.44
313.017	109.44
313.246	95.44
313.476	90.44
313.706	86.44
313.935	98.44
314.165	102.44
314.394	98.44
314.624	89.44
314.853	98.44
315.083	93.44
315.312	91.44
315.542	98.44
315.771	93.44
316.001	101.44
316.23	98.44
316.46	83.44
316.689	81.44
316.919	91.44
317.148	102.44
317.377	87.44
317.607	96.44
317.836	90.44
318.065	107.44
318.295	90.44
318.524	91.44
318.753	78.44
318.983	87.44
319.212	96.44
319.441	98.44
319.67	104.44
319.9	104.44
320.129	107.44
320.358	101.44
320.587	86.44
320.816	84.44
321.046	94.44
321.275	117.44
321.504	85.44
321.733	102.44
321.962	107.44
322.191	109.44
322.42	112.44
322.649	105.44
322.878	114.44
323.108	112.44
323.337	121.44
323.566	123.44
323.795	140.44
324.024	192.44
324.253	376.44
324.482	783.44
324.71	1636.44
324.939	2164.44
325.168	765.44
325.397	238.44
325.626	144.44
325.855	122.44
326.084	126.44
326.313	129.44
326.542	139.44
326.77	231.44
326.999	481.44
327.228	911.44
327.457	1658.44
327.686	1302.44
327.914	355.44
328.143	195.44
328.372	137.44
328.6	133.44
328.829	118.44
329.058	129.44
329.287	130.44
329.515	111.44
329.744	101.44
329.972	95.44
330.201	104.44
330.43	107.44
330.658	119.44
330.887	131.44
331.115	115.44
331.344	101.44
331.572	109.44
331.801	111.44
332.03	98.44
332.258	103.44
332.486	94.44
332.715	97.44
332.943	98.44
333.172	100.44
333.4	101.44
333.629	90.44
333.857	107.44
334.085	94.44
334.314	101.44
334.542	105.44
334.771	97.44
334.999	97.44
335.227	86.44
335.455	84.44
335.684	103.44
335.912	111.44
336.14	102.44
336.369	96.44
336.597	99.44
336.825	103.44
337.053	93.44
337.281	105.44
337.51	103.44
337.738	88.44
337.966	102.44
338.194	99.44
338.422	98.44
338.65	84.44
338.878	92.44
339.106	93.44
339.334	98.44
339.562	90.44
339.79	95.44
340.018	84.44
340.246	109.44
340.474	88.44
340.702	99.44
340.93	92.44
341.158	91.44
341.386	90.44
341.614	100.44
341.842	101.44
342.07	109.44
342.298	90.44
342.526	94.44
342.754	95.44
342.981	94.44
343.209	90.44
343.437	95.44
343.665	95.44
343.893	79.44
344.12	97.44
344.348	84.44
344.576	90.44
344.804	95.44
345.031	94.44
345.259	91.44
345.487	104.44
345.714	104.44
345.942	94.44
346.17	108.44
346.397	90.44
346.625	86.44
346.853	93.44
347.08	81.44
347.308	107.44
347.535	93.44
347.763	95.44
347.99	81.44
348.218	94.44
348.445	90.44
348.673	104.44
348.9	97.44
349.128	111.44
349.355	98.44
349.583	100.44
349.81	96.44
350.037	98.44
350.265	93.44
350.492	92.44
350.72	82.44
350.947	99.44
351.174	106.44
351.402	104.44
351.629	113.44
351.856	111.44
352.083	92.44
352.311	104.44
352.538	110.44
352.765	106.44
352.992	120.44
353.22	109.44
353.447	114.44
353.674	95.44
353.901	104.44
354.128	96.44
354.355	95.44
354.583	109.44
354.81	107.44
355.037	97.44
355.264	109.44
355.491	103.44
355.718	98.44
355.945	88.44
356.172	92.44
356.399	114.44
356.626	98.44
356.853	100.44
357.08	82.44
357.307	97.44
357.534	98.44
357.761	95.44
357.988	110.44
358.215	93.44
358.441	93.44
358.668	92.44
358.895	88.44
359.122	102.44
359.349	89.44
359.576	95.44
359.802	104.44
360.029	100.44
360.256	115.44
360.483	102.44
360.709	99.44
360.936	106.44
361.163	89.44
361.39	86.44
361.616	88.44
361.843	98.44
362.07	76.44
362.296	94.44
362.523	90.44
362.749	99.44
362.976	101.44
363.203	81.44
363.429	70.44
363.656	78.44
363.882	89.44
364.109	100.44
364.335	99.44
364.562	77.44
364.788	91.44
365.015	91.44
365.241	104.44
365.468	97.44
365.694	100.44
365.92	93.44
366.147	87.44
366.373	92.44
366.599	87.44
366.826	95.44
367.052	94.44
367.278	93.44
367.505	104.44
367.731	92.44
367.957	87.44
368.184	86.44
368.41	104.44
368.636	100.44
368.862	109.44
369.089	109.44
369.315	94.44
369.541	94.44
369.767	86.44
369.993	98.44
370.219	107.44
370.445	103.44
370.672	101.44
370.898	87.44
371.124	96.44
371.35	83.44
371.576	98.44
371.802	92.44
372.028	82.44
372.254	90.44
372.48	88.44
372.706	92.44
372.932	82.44
373.158	92.44
373.384	86.44
373.61	91.44
373.835	96.44
374.061	91.44
374.287	94.44
374.513	97.44
374.739	103.44
374.965	99.44
375.191	98.44
375.416	96.44
375.642	99.44
375.868	94.44
376.094	88.44
376.319	87.44
376.545	99.44
376.771	104.44
376.997	97.44
377.222	98.44
377.448	102.44
377.674	93.44
377.899	101.44
378.125	99.44
378.35	74.44
378.576	93.44
378.802	91.44
379.027	108.44
379.253	88.44
379.478	94.44
379.704	76.44
379.929	87.44
380.155	98.44
380.38	87.44
380.606	98.44
380.831	90.44
381.057	90.44
381.282	92.44
381.507	104.44
381.733	96.44
381.958	101.44
382.184	102.44
382.409	95.44
382.634	94.44
382.86	88.44
383.085	104.44
383.31	83.44
383.535	103.44
383.761	90.44
383.986	103.44
384.211	99.44
384.436	95.44
384.662	86.44
384.887	78.44
385.112	100.44
385.337	78.44
385.562	114.44
385.787	104.44
386.013	116.44
386.238	113.44
386.463	109.44
386.688	105.44
386.913	109.44
387.138	98.44
387.363	103.44
387.588	111.44
387.813	120.44
388.038	85.44
388.263	107.44
388.488	108.44
388.713	110.44
388.938	91.44
389.163	107.44
389.387	90.44
389.612	93.44
389.837	90.44
390.062	102.44
390.287	95.44
390.512	90.44
390.736	103.44
390.961	91.44
391.186	112.44
391.411	90.44
391.636	101.44
391.86	90.44
392.085	85.44
392.31	82.44
392.534	77.44
392.759	107.44
392.984	95.44
393.208	94.44
393.433	94.44
393.658	95.44
393.882	83.44
394.107	87.44
394.331	90.44
394.556	94.44
394.78	98.44
395.005	82.44
395.229	99.44
395.454	104.44
395.678	101.44
395.903	73.44
396.127	82.44
396.352	87.44
396.576	85.44
396.801	105.44
397.025	96.44
397.249	99.44
397.474	79.44
397.698	87.44
397.922	76.44
398.147	94.44
398.371	93.44
398.595	95.44
398.82	88.44
399.044	93.44
399.268	99.44
399.492	88.44
399.717	77.44
399.941	94.44
400.165	97.44
400.389	85.44
400.613	95.44
400.837	107.44
401.062	102.44
401.286	84.44
401.51	77.44
401.734	101.44
401.958	103.44
402.182	123.44
402.406	150.44
402.63	116.44
402.854	89.44
403.078	97.44
403.302	90.44
403.526	85.44
403.75	94.44
403.974	99.44
404.198	92.44
404.422	79.44
404.645	101.44
404.869	88.44
405.093	101.44
405.317	119.44
405.541	103.44
405.765	97.44
405.988	99.44
406.212	165.44
406.436	213.44
406.66	147.44
406.883	103.44
407.107	79.44
407.331	95.44
407.555	93.44
407.778	100.44
408.002	96.44
408.226	78.44
408.449	101.44
408.673	111.44
408.896	92.44
409.12	96.44
409.344	96.44
409.567	102.44
409.791	76.44
410.014	106.44
410.238	88.44
410.461	96.44
410.685	90.44
410.908	102.44
411.132	110.44
411.355	88.44
411.578	91.44
411.802	70.44
412.025	95.44
412.249	95.44
412.472	87.44
412.695	84.44
412.919	96.44
413.142	90.44
413.365	85.44
413.589	88.44
413.812	86.44
414.035	79.44
414.258	100.44
414.482	99.44
414.705	92.44
414.928	94.44
415.151	80.44
415.374	93.44
415.597	81.44
415.821	80.44
416.044	88.44
416.267	94.44
416.49	83.44
416.713	84.44
416.936	97.44
417.159	94.44
417.382	109.44
417.605	96.44
417.828	76.44
418.051	78.44
418.274	89.44
418.497	88.44
418.72	103.44
418.943	95.44
419.166	92.44
419.389	92.44
419.611	102.44
419.834	96.44
420.057	99.44
420.28	98.44
420.503	104.44
420.726	84.44
420.948	93.44
421.171	92.44
421.394	78.44
421.617	97.44
421.839	94.44
422.062	88.44
422.285	97.44
422.507	82.44
422.73	110.44
422.953	90.44
423.175	93.44
423.398	92.44
423.621	84.44
423.843	85.44
424.066	98.44
424.288	98.44
424.511	108.44
424.733	90.44
424.956	113.44
425.178	107.44
425.401	98.44
425.623	98.44
425.846	88.44
426.068	101.44
426.291	85.44
426.513	79.44
426.735	96.44
426.958	111.44
427.18	120.44
427.402	124.44
427.625	156.44
427.847	123.44
428.069	103.44
428.292	85.44
428.514	87.44
428.736	87.44
428.958	93.44
429.181	87.44
429.403	94.44
429.625	82.44
429.847	101.44
430.069	102.44
430.292	100.44
430.514	94.44
430.736	88.44
430.958	86.44
431.18	78.44
431.402	91.44
431.624	79.44
431.846	80.44
432.068	85.44
432.29	85.44
432.512	71.44
432.734	88.44
432.956	87.44
433.178	99.44
433.4	96.44
433.622	100.44
433.844	97.44
434.066	103.44
434.287	80.44
434.509	103.44
434.731	85.44
434.953	92.44
435.175	86.44
435.397	84.44
435.618	90.44
435.84	106.44
436.062	119.44
436.284	106.44
436.505	101.44
436.727	115.44
436.949	91.44
437.17	87.44
437.392	103.44
437.614	96.44
437.835	115.44
438.057	126.44
438.278	111.44
438.5	111.44
438.721	115.44
438.943	94.44
439.165	96.44
439.386	86.44
439.608	90.44
439.829	99.44
440.05	119.44
440.272	127.44
440.493	108.44
440.715	87.44
440.936	92.44
441.158	90.44
441.379	91.44
441.6	107.44
441.822	93.44
442.043	101.44
442.264	100.44
442.486	100.44
442.707	94.44
442.928	106.44
443.149	134.44
443.371	131.44
443.592	100.44
443.813	107.44
444.034	109.44
444.255	91.44
444.476	96.44
444.698	87.44
444.919	80.44
445.14	143.44
445.361	120.44
445.582	109.44
445.803	126.44
446.024	134.44
446.245	131.44
446.466	111.44
446.687	94.44
446.908	82.44
447.129	78.44
447.35	85.44
447.571	106.44
447.792	96.44
448.013	88.44
448.234	106.44
448.455	102.44
448.675	109.44
448.896	114.44
449.117	91.44
449.338	102.44
449.559	124.44
449.779	130.44
450	114.44
450.221	87.44
450.442	90.44
450.662	98.44
450.883	107.44
451.104	107.44
451.324	99.44
451.545	98.44
451.766	80.44
451.986	91.44
452.207	83.44
452.428	92.44
452.648	105.44
452.869	105.44
453.089	106.44
453.31	106.44
453.53	97.44
453.751	95.44
453.971	109.44
454.192	107.44
454.412	101.44
454.633	101.44
454.853	89.44
455.073	93.44
455.294	87.44
455.514	98.44
455.734	105.44
455.955	91.44
456.175	103.44
456.395	78.44
456.616	101.44
456.836	87.44
457.056	92.44
457.276	98.44
457.497	81.44
457.717	85.44
457.937	92.44
458.157	100.44
458.377	79.44
458.598	100.44
458.818	143.44
459.038	135.44
459.258	114.44
459.478	92.44
459.698	87.44
459.918	85.44
460.138	82.44
460.358	100.44
460.578	85.44
460.798	82.44
461.018	79.44
461.238	84.44
461.458	83.44
461.678	92.44
461.898	83.44
462.118	85.44
462.338	89.44
462.558	99.44
462.777	80.44
462.997	85.44
463.217	97.44
463.437	83.44
463.657	84.44
463.876	85.44
464.096	100.44
464.316	79.44
464.536	78.44
464.755	102.44
464.975	105.44
465.195	147.44
465.414	152.44
465.634	94.44
465.854	95.44
466.073	82.44
466.293	91.44
466.512	83.44
466.732	87.44
466.951	98.44
467.171	87.44
467.391	93.44
467.61	79.44
467.829	92.44
468.049	94.44
468.268	98.44
468.488	77.44
468.707	74.44
468.927	91.44
469.146	84.44
469.365	104.44
469.585	88.44
469.804	99.44
470.023	95.44
470.243	103.44
470.462	95.44
470.681	101.44
470.901	94.44
471.12	85.44
471.339	92.44
471.558	76.44
471.777	83.44
471.997	82.44
472.216	91.44
472.435	63.44
472.654	101.44
472.873	90.44
473.092	89.44
473.311	84.44
473.53	97.44
473.749	94.44
473.968	104.44
474.187	116.44
474.406	94.44
474.625	103.44
474.844	98.44
475.063	77.44
475.282	91.44
475.501	95.44
475.72	96.44
475.939	87.44
476.158	87.44
476.377	91.44
476.596	103.44
476.814	90.44
477.033	90.44
477.252	97.44
477.471	83.44
477.69	98.44
477.908	92.44
478.127	91.44
478.346	89.44
478.564	93.44
478.783	106.44
479.002	84.44
479.22	88.44
479.439	112.44
479.658	83.44
479.876	103.44
480.095	87.44
480.313	106.44
480.532	89.44
480.751	90.44
480.969	96.44
481.188	103.44
481.406	102.44
481.624	85.44
481.843	87.44
482.061	95.44
482.28	98.44
482.498	103.44
482.717	82.44
482.935	86.44
483.153	89.44
483.372	96.44
483.59	91.44
483.808	82.44
484.027	91.44
484.245	98.44
484.463	92.44
484.681	101.44
484.9	91.44
485.118	92.44
485.336	102.44
485.554	98.44
485.772	92.44
485.99	99.44
486.209	98.44
486.427	101.44
486.645	127.44
486.863	118.44
487.081	104.44
487.299	79.44
487.517	99.44
487.735	84.44
487.953	93.44
488.171	97.44
488.389	96.44
488.607	103.44
488.825	94.44
489.043	81.44
489.261	103.44
489.479	94.44
489.696	120.44
489.914	71.44
490.132	103.44
490.35	87.44
490.568	95.44
490.786	78.44
491.003	96.44
491.221	91.44
491.439	95.44
491.657	91.44
491.874	94.44
492.092	90.44
492.31	87.44
492.527	94.44
492.745	79.44
492.963	75.44
493.18	83.44
493.398	80.44
493.615	99.44
493.833	104.44
494.05	90.44
494.268	91.44
494.485	93.44
494.703	76.44
494.92	90.44
495.138	95.44
495.355	90.44
495.573	86.44
495.79	92.44
496.008	87.44
496.225	102.44
496.442	97.44
496.66	86.44
496.877	84.44
497.094	78.44
497.312	79.44
497.529	92.44
497.746	94.44
497.963	95.44
498.181	86.44
498.398	88.44
498.615	100.44
498.832	100.44
499.049	97.44
499.267	91.44
499.484	86.44
499.701	101.44
499.918	97.44
500.135	114.44
500.352	113.44
500.569	82.44
500.786	88.44
501.003	91.44
501.22	91.44
501.437	98.44
501.654	82.44
501.871	99.44
502.088	98.44
502.305	90.44
502.522	91.44
502.739	101.44
502.956	98.44
503.172	94.44
503.389	96.44
503.606	103.44
503.823	105.44
504.04	102.44
504.256	91.44
504.473	87.44
504.69	91.44
504.907	95.44
505.123	96.44
505.34	88.44
505.557	90.44
505.773	92.44
505.99	89.44
506.207	85.44
506.423	88.44
506.64	85.44
506.856	97.44
507.073	90.44
507.289	99.44
507.506	99.44
507.722	106.44
507.939	107.44
508.155	88.44
508.372	98.44
508.588	94.44
508.805	92.44
509.021	98.44
509.238	103.44
509.454	98.44
509.67	90.44
509.887	100.44
510.103	114.44
510.319	224.44
510.536	737.44
510.752	2289.44
510.968	616.44
511.184	141.44
511.401	102.44
511.617	91.44
511.833	90.44
512.049	104.44
512.265	97.44
512.481	101.44
512.698	105.44
512.914	101.44
513.13	88.44
513.346	105.44
513.562	98.44
513.778	103.44
513.994	99.44
514.21	96.44
514.426	109.44
514.642	116.44
514.858	111.44
515.074	158.44
