Data from Uncirc_1994_H10_HRD10591_00082.txt Node
Date: Wed Jan 03 11:39:37 EST 2024
User: Yrep
Spectrometer: HR+D1059
Trigger mode: 1
Integration Time (sec): 1.000000E-1
Scans to average: 1
Electric dark correction enabled: true
Nonlinearity correction enabled: false
Boxcar width: 0
XAxis mode: Wavelengths
Number of Pixels in Spectrum: 2048
>>>>>Begin Spectral Data<<<<<
223.165	-15.94
223.4	-15.94
223.635	-15.94
223.869	-9.94
224.104	-12.94
224.338	-20.94
224.573	-15.94
224.808	-11.94
225.042	-11.94
225.277	-8.94
225.511	4.06
225.746	2.06
225.98	1.06
226.215	7.06
226.449	18.06
226.683	13.06
226.918	20.06
227.152	43.06
227.387	22.06
227.621	41.06
227.856	44.06
228.09	48.06
228.324	49.06
228.559	55.06
228.793	61.06
229.027	65.06
229.262	77.06
229.496	73.06
229.73	86.06
229.964	75.06
230.199	81.06
230.433	77.06
230.667	77.06
230.901	65.06
231.136	82.06
231.37	83.06
231.604	80.06
231.838	84.06
232.072	96.06
232.306	75.06
232.541	85.06
232.775	73.06
233.009	82.06
233.243	73.06
233.477	82.06
233.711	84.06
233.945	87.06
234.179	73.06
234.413	68.06
234.647	85.06
234.881	68.06
235.115	70.06
235.349	74.06
235.583	83.06
235.817	73.06
236.051	81.06
236.285	81.06
236.519	90.06
236.753	78.06
236.987	95.06
237.221	70.06
237.455	87.06
237.689	91.06
237.922	87.06
238.156	75.06
238.39	68.06
238.624	83.06
238.858	71.06
239.091	71.06
239.325	79.06
239.559	68.06
239.793	63.06
240.027	75.06
240.26	70.06
240.494	65.06
240.728	81.06
240.961	84.06
241.195	76.06
241.429	66.06
241.662	85.06
241.896	89.06
242.13	74.06
242.363	84.06
242.597	80.06
242.83	81.06
243.064	71.06
243.298	69.06
243.531	89.06
243.765	73.06
243.998	82.06
244.232	93.06
244.465	84.06
244.699	75.06
244.932	88.06
245.166	70.06
245.399	77.06
245.633	78.06
245.866	88.06
246.099	82.06
246.333	91.06
246.566	82.06
246.8	74.06
247.033	82.06
247.266	84.06
247.5	73.06
247.733	85.06
247.966	72.06
248.2	78.06
248.433	84.06
248.666	76.06
248.899	64.06
249.133	83.06
249.366	96.06
249.599	90.06
249.832	89.06
250.066	82.06
250.299	85.06
250.532	86.06
250.765	81.06
250.998	87.06
251.231	87.06
251.465	80.06
251.698	85.06
251.931	79.06
252.164	74.06
252.397	86.06
252.63	80.06
252.863	73.06
253.096	76.06
253.329	93.06
253.562	90.06
253.795	65.06
254.028	83.06
254.261	96.06
254.494	75.06
254.727	85.06
254.96	88.06
255.193	83.06
255.426	60.06
255.659	72.06
255.892	83.06
256.124	68.06
256.357	83.06
256.59	73.06
256.823	76.06
257.056	87.06
257.289	67.06
257.521	79.06
257.754	84.06
257.987	79.06
258.22	83.06
258.452	73.06
258.685	89.06
258.918	81.06
259.151	80.06
259.383	87.06
259.616	75.06
259.849	72.06
260.081	81.06
260.314	88.06
260.547	90.06
260.779	87.06
261.012	68.06
261.244	74.06
261.477	83.06
261.71	103.06
261.942	112.06
262.175	94.06
262.407	97.06
262.64	85.06
262.872	81.06
263.105	86.06
263.337	87.06
263.57	72.06
263.802	98.06
264.035	91.06
264.267	80.06
264.499	85.06
264.732	75.06
264.964	70.06
265.197	78.06
265.429	91.06
265.661	87.06
265.894	74.06
266.126	84.06
266.358	81.06
266.591	87.06
266.823	76.06
267.055	84.06
267.287	86.06
267.52	68.06
267.752	92.06
267.984	94.06
268.216	83.06
268.448	90.06
268.681	79.06
268.913	77.06
269.145	82.06
269.377	86.06
269.609	89.06
269.841	84.06
270.073	85.06
270.306	82.06
270.538	79.06
270.77	81.06
271.002	93.06
271.234	100.06
271.466	85.06
271.698	83.06
271.93	73.06
272.162	81.06
272.394	85.06
272.626	91.06
272.858	77.06
273.09	80.06
273.322	87.06
273.553	91.06
273.785	94.06
274.017	77.06
274.249	81.06
274.481	91.06
274.713	84.06
274.945	83.06
275.176	91.06
275.408	88.06
275.64	99.06
275.872	77.06
276.104	90.06
276.335	83.06
276.567	101.06
276.799	103.06
277.031	103.06
277.262	92.06
277.494	96.06
277.726	75.06
277.957	89.06
278.189	87.06
278.421	99.06
278.652	91.06
278.884	100.06
279.115	93.06
279.347	94.06
279.579	83.06
279.81	68.06
280.042	97.06
280.273	71.06
280.505	81.06
280.736	79.06
280.968	94.06
281.199	84.06
281.431	86.06
281.662	84.06
281.894	79.06
282.125	88.06
282.356	115.06
282.588	131.06
282.819	117.06
283.051	100.06
283.282	96.06
283.513	101.06
283.745	101.06
283.976	86.06
284.207	86.06
284.439	97.06
284.67	92.06
284.901	76.06
285.132	84.06
285.364	92.06
285.595	79.06
285.826	89.06
286.057	103.06
286.288	93.06
286.52	97.06
286.751	91.06
286.982	88.06
287.213	96.06
287.444	102.06
287.675	84.06
287.906	88.06
288.138	93.06
288.369	82.06
288.6	76.06
288.831	92.06
289.062	92.06
289.293	82.06
289.524	88.06
289.755	85.06
289.986	96.06
290.217	90.06
290.448	98.06
290.679	100.06
290.91	84.06
291.141	85.06
291.371	69.06
291.602	80.06
291.833	89.06
292.064	90.06
292.295	81.06
292.526	87.06
292.757	86.06
292.987	89.06
293.218	96.06
293.449	77.06
293.68	79.06
293.91	73.06
294.141	89.06
294.372	87.06
294.603	85.06
294.833	88.06
295.064	88.06
295.295	87.06
295.525	88.06
295.756	93.06
295.987	119.06
296.217	139.06
296.448	114.06
296.679	95.06
296.909	83.06
297.14	108.06
297.37	98.06
297.601	96.06
297.831	91.06
298.062	100.06
298.292	89.06
298.523	95.06
298.753	71.06
298.984	102.06
299.214	98.06
299.445	84.06
299.675	91.06
299.905	101.06
300.136	88.06
300.366	97.06
300.597	90.06
300.827	95.06
301.057	95.06
301.288	105.06
301.518	89.06
301.748	108.06
301.979	109.06
302.209	96.06
302.439	101.06
302.669	89.06
302.9	77.06
303.13	88.06
303.36	105.06
303.59	104.06
303.82	123.06
304.051	89.06
304.281	85.06
304.511	85.06
304.741	77.06
304.971	84.06
305.201	83.06
305.431	97.06
305.661	109.06
305.891	96.06
306.121	94.06
306.352	107.06
306.582	93.06
306.812	80.06
307.042	92.06
307.272	97.06
307.502	86.06
307.731	91.06
307.961	95.06
308.191	90.06
308.421	83.06
308.651	73.06
308.881	83.06
309.111	83.06
309.341	85.06
309.571	98.06
309.8	93.06
310.03	93.06
310.26	101.06
310.49	82.06
310.72	96.06
310.949	100.06
311.179	91.06
311.409	75.06
311.639	98.06
311.868	89.06
312.098	97.06
312.328	96.06
312.557	99.06
312.787	95.06
313.017	93.06
313.246	111.06
313.476	96.06
313.706	103.06
313.935	95.06
314.165	90.06
314.394	87.06
314.624	104.06
314.853	101.06
315.083	93.06
315.312	100.06
315.542	104.06
315.771	90.06
316.001	91.06
316.23	82.06
316.46	89.06
316.689	101.06
316.919	88.06
317.148	97.06
317.377	101.06
317.607	89.06
317.836	83.06
318.065	100.06
318.295	82.06
318.524	93.06
318.753	104.06
318.983	95.06
319.212	98.06
319.441	105.06
319.67	115.06
319.9	94.06
320.129	100.06
320.358	82.06
320.587	87.06
320.816	98.06
321.046	98.06
321.275	99.06
321.504	96.06
321.733	98.06
321.962	96.06
322.191	112.06
322.42	90.06
322.649	97.06
322.878	108.06
323.108	121.06
323.337	123.06
323.566	137.06
323.795	146.06
324.024	203.06
324.253	385.06
324.482	820.06
324.71	1686.06
324.939	2270.06
325.168	802.06
325.397	236.06
325.626	137.06
325.855	124.06
326.084	136.06
326.313	135.06
326.542	146.06
326.77	235.06
326.999	461.06
327.228	954.06
327.457	1772.06
327.686	1372.06
327.914	379.06
328.143	179.06
328.372	148.06
328.6	129.06
328.829	111.06
329.058	104.06
329.287	122.06
329.515	105.06
329.744	93.06
329.972	100.06
330.201	112.06
330.43	111.06
330.658	124.06
330.887	135.06
331.115	109.06
331.344	89.06
331.572	103.06
331.801	97.06
332.03	108.06
332.258	94.06
332.486	99.06
332.715	93.06
332.943	97.06
333.172	86.06
333.4	88.06
333.629	109.06
333.857	106.06
334.085	99.06
334.314	98.06
334.542	97.06
334.771	96.06
334.999	101.06
335.227	90.06
335.455	89.06
335.684	90.06
335.912	90.06
336.14	84.06
336.369	93.06
336.597	96.06
336.825	99.06
337.053	98.06
337.281	82.06
337.51	81.06
337.738	86.06
337.966	100.06
338.194	88.06
338.422	100.06
338.65	82.06
338.878	85.06
339.106	98.06
339.334	93.06
339.562	88.06
339.79	86.06
340.018	79.06
340.246	99.06
340.474	97.06
340.702	85.06
340.93	102.06
341.158	92.06
341.386	92.06
341.614	98.06
341.842	96.06
342.07	93.06
342.298	89.06
342.526	78.06
342.754	82.06
342.981	95.06
343.209	95.06
343.437	91.06
343.665	89.06
343.893	96.06
344.12	95.06
344.348	90.06
344.576	99.06
344.804	96.06
345.031	108.06
345.259	107.06
345.487	91.06
345.714	92.06
345.942	91.06
346.17	84.06
346.397	85.06
346.625	101.06
346.853	104.06
347.08	95.06
347.308	103.06
347.535	97.06
347.763	86.06
347.99	90.06
348.218	95.06
348.445	89.06
348.673	103.06
348.9	108.06
349.128	87.06
349.355	96.06
349.583	88.06
349.81	83.06
350.037	83.06
350.265	87.06
350.492	93.06
350.72	105.06
350.947	89.06
351.174	89.06
351.402	104.06
351.629	100.06
351.856	92.06
352.083	79.06
352.311	110.06
352.538	120.06
352.765	119.06
352.992	125.06
353.22	103.06
353.447	104.06
353.674	105.06
353.901	99.06
354.128	84.06
354.355	98.06
354.583	92.06
354.81	85.06
355.037	101.06
355.264	92.06
355.491	91.06
355.718	93.06
355.945	98.06
356.172	85.06
356.399	111.06
356.626	105.06
356.853	94.06
357.08	91.06
357.307	96.06
357.534	87.06
357.761	77.06
357.988	89.06
358.215	85.06
358.441	83.06
358.668	84.06
358.895	88.06
359.122	94.06
359.349	93.06
359.576	84.06
359.802	101.06
360.029	112.06
360.256	109.06
360.483	95.06
360.709	87.06
360.936	99.06
361.163	94.06
361.39	88.06
361.616	89.06
361.843	86.06
362.07	93.06
362.296	88.06
362.523	100.06
362.749	93.06
362.976	96.06
363.203	98.06
363.429	85.06
363.656	85.06
363.882	78.06
364.109	90.06
364.335	88.06
364.562	83.06
364.788	95.06
365.015	97.06
365.241	95.06
365.468	95.06
365.694	107.06
365.92	101.06
366.147	100.06
366.373	80.06
366.599	91.06
366.826	97.06
367.052	80.06
367.278	91.06
367.505	86.06
367.731	72.06
367.957	70.06
368.184	87.06
368.41	94.06
368.636	109.06
368.862	93.06
369.089	105.06
369.315	78.06
369.541	93.06
369.767	94.06
369.993	87.06
370.219	103.06
370.445	81.06
370.672	87.06
370.898	87.06
371.124	94.06
371.35	93.06
371.576	88.06
371.802	83.06
372.028	79.06
372.254	89.06
372.48	105.06
372.706	91.06
372.932	77.06
373.158	84.06
373.384	84.06
373.61	90.06
373.835	100.06
374.061	90.06
374.287	103.06
374.513	85.06
374.739	99.06
374.965	93.06
375.191	95.06
375.416	92.06
375.642	91.06
375.868	103.06
376.094	94.06
376.319	64.06
376.545	94.06
376.771	87.06
376.997	88.06
377.222	91.06
377.448	85.06
377.674	83.06
377.899	95.06
378.125	87.06
378.35	92.06
378.576	107.06
378.802	91.06
379.027	92.06
379.253	89.06
379.478	80.06
379.704	92.06
379.929	114.06
380.155	90.06
380.38	92.06
380.606	85.06
380.831	90.06
381.057	100.06
381.282	87.06
381.507	84.06
381.733	93.06
381.958	97.06
382.184	89.06
382.409	98.06
382.634	115.06
382.86	94.06
383.085	94.06
383.31	104.06
383.535	98.06
383.761	105.06
383.986	93.06
384.211	103.06
384.436	91.06
384.662	91.06
384.887	104.06
385.112	78.06
385.337	95.06
385.562	78.06
385.787	93.06
386.013	93.06
386.238	106.06
386.463	104.06
386.688	117.06
386.913	87.06
387.138	103.06
387.363	108.06
387.588	91.06
387.813	107.06
388.038	102.06
388.263	97.06
388.488	100.06
388.713	102.06
388.938	105.06
389.163	90.06
389.387	96.06
389.612	98.06
389.837	89.06
390.062	88.06
390.287	91.06
390.512	96.06
390.736	92.06
390.961	75.06
391.186	89.06
391.411	95.06
391.636	94.06
391.86	88.06
392.085	92.06
392.31	96.06
392.534	85.06
392.759	83.06
392.984	82.06
393.208	93.06
393.433	83.06
393.658	90.06
393.882	73.06
394.107	91.06
394.331	95.06
394.556	84.06
394.78	96.06
395.005	75.06
395.229	82.06
395.454	91.06
395.678	77.06
395.903	92.06
396.127	79.06
396.352	91.06
396.576	92.06
396.801	95.06
397.025	87.06
397.249	92.06
397.474	87.06
397.698	81.06
397.922	83.06
398.147	82.06
398.371	95.06
398.595	93.06
398.82	91.06
399.044	89.06
399.268	88.06
399.492	91.06
399.717	90.06
399.941	87.06
400.165	91.06
400.389	80.06
400.613	77.06
400.837	96.06
401.062	90.06
401.286	85.06
401.51	85.06
401.734	93.06
401.958	99.06
402.182	120.06
402.406	144.06
402.63	115.06
402.854	95.06
403.078	81.06
403.302	92.06
403.526	94.06
403.75	94.06
403.974	101.06
404.198	95.06
404.422	100.06
404.645	103.06
404.869	87.06
405.093	81.06
405.317	92.06
405.541	84.06
405.765	94.06
405.988	121.06
406.212	158.06
406.436	219.06
406.66	146.06
406.883	94.06
407.107	90.06
407.331	87.06
407.555	107.06
407.778	91.06
408.002	83.06
408.226	92.06
408.449	77.06
408.673	97.06
408.896	91.06
409.12	89.06
409.344	98.06
409.567	77.06
409.791	105.06
410.014	93.06
410.238	98.06
410.461	89.06
410.685	91.06
410.908	97.06
411.132	101.06
411.355	97.06
411.578	95.06
411.802	97.06
412.025	99.06
412.249	82.06
412.472	79.06
412.695	84.06
412.919	89.06
413.142	76.06
413.365	80.06
413.589	82.06
413.812	87.06
414.035	93.06
414.258	73.06
414.482	82.06
414.705	84.06
414.928	78.06
415.151	78.06
415.374	89.06
415.597	87.06
415.821	80.06
416.044	81.06
416.267	87.06
416.49	90.06
416.713	100.06
416.936	87.06
417.159	92.06
417.382	92.06
417.605	89.06
417.828	83.06
418.051	87.06
418.274	82.06
418.497	96.06
418.72	87.06
418.943	81.06
419.166	94.06
419.389	82.06
419.611	73.06
419.834	97.06
420.057	87.06
420.28	94.06
420.503	97.06
420.726	79.06
420.948	95.06
421.171	96.06
421.394	104.06
421.617	75.06
421.839	84.06
422.062	97.06
422.285	90.06
422.507	105.06
422.73	110.06
422.953	97.06
423.175	91.06
423.398	81.06
423.621	79.06
423.843	89.06
424.066	96.06
424.288	83.06
424.511	89.06
424.733	100.06
424.956	96.06
425.178	91.06
425.401	83.06
425.623	103.06
425.846	83.06
426.068	104.06
426.291	80.06
426.513	94.06
426.735	98.06
426.958	89.06
427.18	90.06
427.402	124.06
427.625	138.06
427.847	116.06
428.069	94.06
428.292	85.06
428.514	88.06
428.736	69.06
428.958	87.06
429.181	81.06
429.403	74.06
429.625	87.06
429.847	83.06
430.069	98.06
430.292	87.06
430.514	78.06
430.736	87.06
430.958	91.06
431.18	81.06
431.402	87.06
431.624	92.06
431.846	97.06
432.068	81.06
432.29	85.06
432.512	92.06
432.734	89.06
432.956	106.06
433.178	92.06
433.4	92.06
433.622	103.06
433.844	92.06
434.066	76.06
434.287	96.06
434.509	90.06
434.731	89.06
434.953	75.06
435.175	79.06
435.397	88.06
435.618	97.06
435.84	93.06
436.062	109.06
436.284	108.06
436.505	101.06
436.727	90.06
436.949	94.06
437.17	86.06
437.392	88.06
437.614	84.06
437.835	111.06
438.057	123.06
438.278	97.06
438.5	91.06
438.721	125.06
438.943	93.06
439.165	85.06
439.386	88.06
439.608	84.06
439.829	100.06
440.05	106.06
440.272	136.06
440.493	104.06
440.715	89.06
440.936	95.06
441.158	97.06
441.379	91.06
441.6	81.06
441.822	76.06
442.043	97.06
442.264	108.06
442.486	87.06
442.707	91.06
442.928	109.06
443.149	129.06
443.371	125.06
443.592	105.06
443.813	96.06
444.034	105.06
444.255	97.06
444.476	82.06
444.698	84.06
444.919	92.06
445.14	121.06
445.361	110.06
445.582	113.06
445.803	140.06
446.024	116.06
446.245	121.06
446.466	111.06
446.687	79.06
446.908	76.06
447.129	95.06
447.35	88.06
447.571	101.06
447.792	88.06
448.013	99.06
448.234	104.06
448.455	98.06
448.675	123.06
448.896	137.06
449.117	98.06
449.338	91.06
449.559	116.06
449.779	124.06
450	95.06
450.221	89.06
450.442	107.06
450.662	84.06
450.883	95.06
451.104	111.06
451.324	94.06
451.545	84.06
451.766	80.06
451.986	83.06
452.207	87.06
452.428	103.06
452.648	88.06
452.869	112.06
453.089	104.06
453.31	114.06
453.53	87.06
453.751	86.06
453.971	96.06
454.192	113.06
454.412	92.06
454.633	92.06
454.853	81.06
455.073	83.06
455.294	90.06
455.514	94.06
455.734	86.06
455.955	80.06
456.175	88.06
456.395	98.06
456.616	85.06
456.836	79.06
457.056	85.06
457.276	97.06
457.497	87.06
457.717	95.06
457.937	93.06
458.157	87.06
458.377	91.06
458.598	108.06
458.818	143.06
459.038	155.06
459.258	108.06
459.478	89.06
459.698	84.06
459.918	91.06
460.138	87.06
460.358	76.06
460.578	88.06
460.798	92.06
461.018	88.06
461.238	90.06
461.458	71.06
461.678	91.06
461.898	97.06
462.118	102.06
462.338	89.06
462.558	90.06
462.777	78.06
462.997	90.06
463.217	77.06
463.437	77.06
463.657	85.06
463.876	80.06
464.096	86.06
464.316	85.06
464.536	77.06
464.755	86.06
464.975	103.06
465.195	147.06
465.414	140.06
465.634	89.06
465.854	67.06
466.073	101.06
466.293	94.06
466.512	84.06
466.732	85.06
466.951	85.06
467.171	88.06
467.391	87.06
467.61	109.06
467.829	98.06
468.049	83.06
468.268	80.06
468.488	96.06
468.707	74.06
468.927	67.06
469.146	69.06
469.365	87.06
469.585	96.06
469.804	100.06
470.023	94.06
470.243	96.06
470.462	102.06
470.681	96.06
470.901	111.06
471.12	92.06
471.339	100.06
471.558	83.06
471.777	72.06
471.997	80.06
472.216	77.06
472.435	87.06
472.654	79.06
472.873	83.06
473.092	98.06
473.311	96.06
473.53	73.06
473.749	95.06
473.968	95.06
474.187	88.06
474.406	95.06
474.625	89.06
474.844	75.06
475.063	87.06
475.282	99.06
475.501	86.06
475.72	102.06
475.939	82.06
476.158	74.06
476.377	100.06
476.596	93.06
476.814	79.06
477.033	76.06
477.252	99.06
477.471	92.06
477.69	79.06
477.908	83.06
478.127	106.06
478.346	91.06
478.564	104.06
478.783	87.06
479.002	88.06
479.22	91.06
479.439	81.06
479.658	90.06
479.876	111.06
480.095	77.06
480.313	93.06
480.532	90.06
480.751	77.06
480.969	91.06
481.188	80.06
481.406	90.06
481.624	87.06
481.843	86.06
482.061	89.06
482.28	84.06
482.498	94.06
482.717	84.06
482.935	87.06
483.153	89.06
483.372	79.06
483.59	87.06
483.808	90.06
484.027	106.06
484.245	92.06
484.463	91.06
484.681	83.06
484.9	109.06
485.118	91.06
485.336	96.06
485.554	77.06
485.772	105.06
485.99	105.06
486.209	84.06
486.427	106.06
486.645	107.06
486.863	104.06
487.081	114.06
487.299	91.06
487.517	106.06
487.735	89.06
487.953	97.06
488.171	83.06
488.389	86.06
488.607	86.06
488.825	100.06
489.043	89.06
489.261	101.06
489.479	92.06
489.696	100.06
489.914	84.06
490.132	81.06
490.35	88.06
490.568	79.06
490.786	96.06
491.003	93.06
491.221	91.06
491.439	93.06
491.657	96.06
491.874	91.06
492.092	69.06
492.31	93.06
492.527	79.06
492.745	89.06
492.963	93.06
493.18	79.06
493.398	96.06
493.615	101.06
493.833	91.06
494.05	94.06
494.268	98.06
494.485	101.06
494.703	101.06
494.92	80.06
495.138	88.06
495.355	81.06
495.573	105.06
495.79	98.06
496.008	80.06
496.225	75.06
496.442	87.06
496.66	76.06
496.877	91.06
497.094	92.06
497.312	75.06
497.529	86.06
497.746	100.06
497.963	87.06
498.181	93.06
498.398	86.06
498.615	111.06
498.832	97.06
499.049	86.06
499.267	92.06
499.484	85.06
499.701	79.06
499.918	88.06
500.135	101.06
500.352	80.06
500.569	92.06
500.786	87.06
501.003	94.06
501.22	101.06
501.437	94.06
501.654	85.06
501.871	95.06
502.088	102.06
502.305	82.06
502.522	89.06
502.739	68.06
502.956	75.06
503.172	97.06
503.389	91.06
503.606	94.06
503.823	100.06
504.04	83.06
504.256	94.06
504.473	97.06
504.69	91.06
504.907	89.06
505.123	98.06
505.34	85.06
505.557	83.06
505.773	91.06
505.99	95.06
506.207	92.06
506.423	91.06
506.64	84.06
506.856	95.06
507.073	93.06
507.289	85.06
507.506	94.06
507.722	107.06
507.939	104.06
508.155	85.06
508.372	82.06
508.588	93.06
508.805	87.06
509.021	101.06
509.238	99.06
509.454	109.06
509.67	103.06
509.887	112.06
510.103	117.06
510.319	227.06
510.536	761.06
510.752	2361.06
510.968	663.06
511.184	145.06
511.401	108.06
511.617	113.06
511.833	101.06
512.049	98.06
512.265	90.06
512.481	75.06
512.698	91.06
512.914	90.06
513.13	102.06
513.346	91.06
513.562	96.06
513.778	99.06
513.994	90.06
514.21	114.06
514.426	112.06
514.642	137.06
514.858	110.06
515.074	146.06
515.29	460.06
515.506	1387.06
515.721	491.06
515.937	144.06
516.153	119.06
