Data from Uncirc_1994_H10_HRD10591_00063.txt Node
Date: Wed Jan 03 11:39:33 EST 2024
User: Yrep
Spectrometer: HR+D1059
Trigger mode: 1
Integration Time (sec): 1.000000E-1
Scans to average: 1
Electric dark correction enabled: true
Nonlinearity correction enabled: false
Boxcar width: 0
XAxis mode: Wavelengths
Number of Pixels in Spectrum: 2048
>>>>>Begin Spectral Data<<<<<
223.165	-30.12
223.4	-30.12
223.635	-30.12
223.869	-23.12
224.104	-20.12
224.338	-17.12
224.573	-2.12
224.808	-18.12
225.042	6.88
225.277	-21.12
225.511	6.88
225.746	16.88
225.98	-8.12
226.215	19.88
226.449	18.88
226.683	30.88
226.918	24.88
227.152	14.88
227.387	36.88
227.621	34.88
227.856	31.88
228.09	46.88
228.324	31.88
228.559	52.88
228.793	70.88
229.027	63.88
229.262	66.88
229.496	69.88
229.73	65.88
229.964	71.88
230.199	48.88
230.433	58.88
230.667	74.88
230.901	62.88
231.136	71.88
231.37	73.88
231.604	63.88
231.838	76.88
232.072	76.88
232.306	86.88
232.541	83.88
232.775	80.88
233.009	74.88
233.243	73.88
233.477	81.88
233.711	74.88
233.945	81.88
234.179	75.88
234.413	70.88
234.647	87.88
234.881	67.88
235.115	84.88
235.349	70.88
235.583	79.88
235.817	72.88
236.051	88.88
236.285	72.88
236.519	75.88
236.753	85.88
236.987	85.88
237.221	79.88
237.455	70.88
237.689	70.88
237.922	84.88
238.156	63.88
238.39	60.88
238.624	78.88
238.858	63.88
239.091	72.88
239.325	82.88
239.559	84.88
239.793	85.88
240.027	75.88
240.26	70.88
240.494	72.88
240.728	69.88
240.961	68.88
241.195	74.88
241.429	78.88
241.662	78.88
241.896	66.88
242.13	81.88
242.363	77.88
242.597	70.88
242.83	61.88
243.064	76.88
243.298	59.88
243.531	70.88
243.765	58.88
243.998	68.88
244.232	92.88
244.465	91.88
244.699	72.88
244.932	80.88
245.166	75.88
245.399	71.88
245.633	71.88
245.866	78.88
246.099	73.88
246.333	78.88
246.566	79.88
246.8	83.88
247.033	78.88
247.266	81.88
247.5	77.88
247.733	78.88
247.966	66.88
248.2	64.88
248.433	80.88
248.666	94.88
248.899	93.88
249.133	78.88
249.366	95.88
249.599	87.88
249.832	67.88
250.066	81.88
250.299	72.88
250.532	81.88
250.765	87.88
250.998	73.88
251.231	84.88
251.465	73.88
251.698	89.88
251.931	89.88
252.164	76.88
252.397	82.88
252.63	69.88
252.863	71.88
253.096	74.88
253.329	85.88
253.562	72.88
253.795	78.88
254.028	68.88
254.261	73.88
254.494	81.88
254.727	86.88
254.96	83.88
255.193	84.88
255.426	76.88
255.659	62.88
255.892	82.88
256.124	93.88
256.357	68.88
256.59	87.88
256.823	71.88
257.056	73.88
257.289	84.88
257.521	72.88
257.754	82.88
257.987	73.88
258.22	79.88
258.452	84.88
258.685	90.88
258.918	84.88
259.151	74.88
259.383	75.88
259.616	68.88
259.849	85.88
260.081	79.88
260.314	78.88
260.547	82.88
260.779	98.88
261.012	72.88
261.244	76.88
261.477	82.88
261.71	104.88
261.942	103.88
262.175	100.88
262.407	84.88
262.64	80.88
262.872	82.88
263.105	93.88
263.337	80.88
263.57	77.88
263.802	82.88
264.035	80.88
264.267	66.88
264.499	72.88
264.732	76.88
264.964	89.88
265.197	72.88
265.429	65.88
265.661	90.88
265.894	82.88
266.126	73.88
266.358	90.88
266.591	74.88
266.823	80.88
267.055	73.88
267.287	86.88
267.52	81.88
267.752	93.88
267.984	81.88
268.216	92.88
268.448	94.88
268.681	90.88
268.913	74.88
269.145	77.88
269.377	82.88
269.609	84.88
269.841	69.88
270.073	79.88
270.306	76.88
270.538	85.88
270.77	68.88
271.002	74.88
271.234	75.88
271.466	82.88
271.698	65.88
271.93	64.88
272.162	78.88
272.394	87.88
272.626	73.88
272.858	81.88
273.09	90.88
273.322	92.88
273.553	79.88
273.785	72.88
274.017	94.88
274.249	74.88
274.481	78.88
274.713	78.88
274.945	94.88
275.176	87.88
275.408	89.88
275.64	88.88
275.872	68.88
276.104	65.88
276.335	73.88
276.567	103.88
276.799	103.88
277.031	83.88
277.262	86.88
277.494	79.88
277.726	74.88
277.957	84.88
278.189	71.88
278.421	77.88
278.652	88.88
278.884	90.88
279.115	101.88
279.347	87.88
279.579	66.88
279.81	89.88
280.042	81.88
280.273	84.88
280.505	79.88
280.736	86.88
280.968	93.88
281.199	86.88
281.431	85.88
281.662	78.88
281.894	82.88
282.125	91.88
282.356	116.88
282.588	134.88
282.819	104.88
283.051	91.88
283.282	73.88
283.513	80.88
283.745	90.88
283.976	80.88
284.207	76.88
284.439	83.88
284.67	76.88
284.901	75.88
285.132	77.88
285.364	78.88
285.595	72.88
285.826	76.88
286.057	74.88
286.288	86.88
286.52	94.88
286.751	72.88
286.982	80.88
287.213	76.88
287.444	80.88
287.675	80.88
287.906	92.88
288.138	96.88
288.369	83.88
288.6	86.88
288.831	79.88
289.062	72.88
289.293	90.88
289.524	80.88
289.755	88.88
289.986	90.88
290.217	91.88
290.448	76.88
290.679	88.88
290.91	80.88
291.141	68.88
291.371	74.88
291.602	81.88
291.833	80.88
292.064	90.88
292.295	84.88
292.526	93.88
292.757	84.88
292.987	86.88
293.218	82.88
293.449	79.88
293.68	76.88
293.91	91.88
294.141	80.88
294.372	86.88
294.603	93.88
294.833	90.88
295.064	62.88
295.295	90.88
295.525	104.88
295.756	111.88
295.987	108.88
296.217	142.88
296.448	111.88
296.679	82.88
296.909	91.88
297.14	80.88
297.37	89.88
297.601	84.88
297.831	85.88
298.062	83.88
298.292	94.88
298.523	88.88
298.753	84.88
298.984	85.88
299.214	95.88
299.445	79.88
299.675	94.88
299.905	99.88
300.136	82.88
300.366	82.88
300.597	88.88
300.827	107.88
301.057	104.88
301.288	95.88
301.518	79.88
301.748	81.88
301.979	109.88
302.209	82.88
302.439	89.88
302.669	85.88
302.9	87.88
303.13	94.88
303.36	93.88
303.59	97.88
303.82	90.88
304.051	87.88
304.281	98.88
304.511	91.88
304.741	88.88
304.971	81.88
305.201	81.88
305.431	83.88
305.661	83.88
305.891	77.88
306.121	100.88
306.352	88.88
306.582	98.88
306.812	98.88
307.042	92.88
307.272	82.88
307.502	88.88
307.731	89.88
307.961	82.88
308.191	85.88
308.421	88.88
308.651	82.88
308.881	91.88
309.111	89.88
309.341	106.88
309.571	104.88
309.8	95.88
310.03	88.88
310.26	94.88
310.49	98.88
310.72	90.88
310.949	86.88
311.179	100.88
311.409	94.88
311.639	85.88
311.868	101.88
312.098	98.88
312.328	89.88
312.557	100.88
312.787	89.88
313.017	98.88
313.246	88.88
313.476	96.88
313.706	86.88
313.935	91.88
314.165	89.88
314.394	94.88
314.624	78.88
314.853	93.88
315.083	78.88
315.312	89.88
315.542	83.88
315.771	97.88
316.001	81.88
316.23	85.88
316.46	91.88
316.689	83.88
316.919	92.88
317.148	96.88
317.377	81.88
317.607	91.88
317.836	88.88
318.065	72.88
318.295	83.88
318.524	87.88
318.753	84.88
318.983	93.88
319.212	93.88
319.441	103.88
319.67	115.88
319.9	93.88
320.129	88.88
320.358	80.88
320.587	106.88
320.816	86.88
321.046	82.88
321.275	92.88
321.504	103.88
321.733	104.88
321.962	88.88
322.191	84.88
322.42	101.88
322.649	86.88
322.878	102.88
323.108	105.88
323.337	106.88
323.566	139.88
323.795	156.88
324.024	193.88
324.253	385.88
324.482	803.88
324.71	1645.88
324.939	2146.88
325.168	772.88
325.397	240.88
325.626	140.88
325.855	125.88
326.084	135.88
326.313	130.88
326.542	140.88
326.77	225.88
326.999	436.88
327.228	918.88
327.457	1656.88
327.686	1343.88
327.914	349.88
328.143	168.88
328.372	146.88
328.6	111.88
328.829	121.88
329.058	129.88
329.287	125.88
329.515	106.88
329.744	100.88
329.972	79.88
330.201	90.88
330.43	109.88
330.658	102.88
330.887	113.88
331.115	132.88
331.344	110.88
331.572	87.88
331.801	106.88
332.03	102.88
332.258	87.88
332.486	82.88
332.715	98.88
332.943	93.88
333.172	94.88
333.4	108.88
333.629	102.88
333.857	104.88
334.085	108.88
334.314	101.88
334.542	94.88
334.771	92.88
334.999	91.88
335.227	88.88
335.455	105.88
335.684	100.88
335.912	93.88
336.14	89.88
336.369	94.88
336.597	100.88
336.825	93.88
337.053	95.88
337.281	86.88
337.51	84.88
337.738	92.88
337.966	76.88
338.194	102.88
338.422	102.88
338.65	87.88
338.878	84.88
339.106	97.88
339.334	83.88
339.562	79.88
339.79	105.88
340.018	100.88
340.246	89.88
340.474	80.88
340.702	88.88
340.93	78.88
341.158	89.88
341.386	94.88
341.614	73.88
341.842	92.88
342.07	96.88
342.298	90.88
342.526	82.88
342.754	89.88
342.981	87.88
343.209	81.88
343.437	84.88
343.665	84.88
343.893	83.88
344.12	104.88
344.348	80.88
344.576	81.88
344.804	98.88
345.031	98.88
345.259	84.88
345.487	91.88
345.714	96.88
345.942	92.88
346.17	97.88
346.397	72.88
346.625	96.88
346.853	97.88
347.08	83.88
347.308	97.88
347.535	96.88
347.763	97.88
347.99	107.88
348.218	112.88
348.445	95.88
348.673	94.88
348.9	95.88
349.128	90.88
349.355	94.88
349.583	100.88
349.81	87.88
350.037	95.88
350.265	104.88
350.492	83.88
350.72	99.88
350.947	109.88
351.174	103.88
351.402	105.88
351.629	89.88
351.856	84.88
352.083	95.88
352.311	101.88
352.538	91.88
352.765	109.88
352.992	103.88
353.22	107.88
353.447	117.88
353.674	92.88
353.901	90.88
354.128	82.88
354.355	88.88
354.583	90.88
354.81	103.88
355.037	84.88
355.264	91.88
355.491	93.88
355.718	80.88
355.945	102.88
356.172	91.88
356.399	77.88
356.626	94.88
356.853	91.88
357.08	94.88
357.307	90.88
357.534	93.88
357.761	93.88
357.988	101.88
358.215	89.88
358.441	88.88
358.668	83.88
358.895	92.88
359.122	79.88
359.349	87.88
359.576	96.88
359.802	108.88
360.029	117.88
360.256	94.88
360.483	77.88
360.709	76.88
360.936	80.88
361.163	97.88
361.39	91.88
361.616	79.88
361.843	94.88
362.07	91.88
362.296	82.88
362.523	93.88
362.749	87.88
362.976	90.88
363.203	98.88
363.429	82.88
363.656	87.88
363.882	97.88
364.109	79.88
364.335	70.88
364.562	86.88
364.788	79.88
365.015	98.88
365.241	98.88
365.468	94.88
365.694	97.88
365.92	90.88
366.147	87.88
366.373	80.88
366.599	89.88
366.826	88.88
367.052	93.88
367.278	78.88
367.505	83.88
367.731	87.88
367.957	92.88
368.184	86.88
368.41	74.88
368.636	111.88
368.862	111.88
369.089	101.88
369.315	87.88
369.541	95.88
369.767	76.88
369.993	95.88
370.219	80.88
370.445	89.88
370.672	84.88
370.898	86.88
371.124	87.88
371.35	80.88
371.576	76.88
371.802	80.88
372.028	82.88
372.254	76.88
372.48	82.88
372.706	83.88
372.932	77.88
373.158	78.88
373.384	90.88
373.61	94.88
373.835	89.88
374.061	82.88
374.287	96.88
374.513	97.88
374.739	79.88
374.965	93.88
375.191	84.88
375.416	86.88
375.642	83.88
375.868	84.88
376.094	96.88
376.319	102.88
376.545	81.88
376.771	102.88
376.997	96.88
377.222	91.88
377.448	87.88
377.674	82.88
377.899	87.88
378.125	89.88
378.35	86.88
378.576	92.88
378.802	88.88
379.027	95.88
379.253	89.88
379.478	81.88
379.704	93.88
379.929	95.88
380.155	90.88
380.38	100.88
380.606	76.88
380.831	83.88
381.057	85.88
381.282	103.88
381.507	82.88
381.733	92.88
381.958	81.88
382.184	90.88
382.409	78.88
382.634	96.88
382.86	87.88
383.085	86.88
383.31	112.88
383.535	88.88
383.761	100.88
383.986	97.88
384.211	86.88
384.436	95.88
384.662	90.88
384.887	94.88
385.112	90.88
385.337	91.88
385.562	85.88
385.787	107.88
386.013	98.88
386.238	92.88
386.463	93.88
386.688	107.88
386.913	105.88
387.138	95.88
387.363	92.88
387.588	114.88
387.813	88.88
388.038	88.88
388.263	96.88
388.488	109.88
388.713	102.88
388.938	96.88
389.163	90.88
389.387	99.88
389.612	98.88
389.837	79.88
390.062	88.88
390.287	75.88
390.512	86.88
390.736	90.88
390.961	97.88
391.186	88.88
391.411	102.88
391.636	95.88
391.86	90.88
392.085	77.88
392.31	88.88
392.534	90.88
392.759	103.88
392.984	88.88
393.208	96.88
393.433	86.88
393.658	95.88
393.882	88.88
394.107	97.88
394.331	92.88
394.556	76.88
394.78	96.88
395.005	61.88
395.229	84.88
395.454	84.88
395.678	82.88
395.903	95.88
396.127	79.88
396.352	82.88
396.576	93.88
396.801	88.88
397.025	95.88
397.249	82.88
397.474	80.88
397.698	80.88
397.922	77.88
398.147	82.88
398.371	69.88
398.595	77.88
398.82	81.88
399.044	91.88
399.268	97.88
399.492	93.88
399.717	87.88
399.941	70.88
400.165	87.88
400.389	93.88
400.613	93.88
400.837	95.88
401.062	94.88
401.286	81.88
401.51	97.88
401.734	94.88
401.958	99.88
402.182	125.88
402.406	138.88
402.63	113.88
402.854	98.88
403.078	96.88
403.302	85.88
403.526	84.88
403.75	81.88
403.974	93.88
404.198	80.88
404.422	87.88
404.645	93.88
404.869	80.88
405.093	100.88
405.317	92.88
405.541	101.88
405.765	95.88
405.988	107.88
406.212	155.88
406.436	212.88
406.66	142.88
406.883	84.88
407.107	102.88
407.331	88.88
407.555	89.88
407.778	96.88
408.002	89.88
408.226	84.88
408.449	78.88
408.673	75.88
408.896	98.88
409.12	98.88
409.344	84.88
409.567	77.88
409.791	88.88
410.014	95.88
410.238	110.88
410.461	84.88
410.685	111.88
410.908	94.88
411.132	96.88
411.355	93.88
411.578	82.88
411.802	88.88
412.025	89.88
412.249	77.88
412.472	93.88
412.695	87.88
412.919	86.88
413.142	84.88
413.365	81.88
413.589	70.88
413.812	90.88
414.035	87.88
414.258	84.88
414.482	96.88
414.705	76.88
414.928	95.88
415.151	101.88
415.374	98.88
415.597	81.88
415.821	101.88
416.044	74.88
416.267	92.88
416.49	89.88
416.713	88.88
416.936	98.88
417.159	86.88
417.382	92.88
417.605	79.88
417.828	90.88
418.051	79.88
418.274	76.88
418.497	84.88
418.72	95.88
418.943	81.88
419.166	74.88
419.389	88.88
419.611	80.88
419.834	79.88
420.057	78.88
420.28	78.88
420.503	84.88
420.726	69.88
420.948	88.88
421.171	84.88
421.394	88.88
421.617	81.88
421.839	83.88
422.062	82.88
422.285	89.88
422.507	109.88
422.73	106.88
422.953	102.88
423.175	88.88
423.398	89.88
423.621	81.88
423.843	85.88
424.066	87.88
424.288	92.88
424.511	88.88
424.733	96.88
424.956	104.88
425.178	92.88
425.401	101.88
425.623	86.88
425.846	79.88
426.068	80.88
426.291	82.88
426.513	85.88
426.735	84.88
426.958	87.88
427.18	114.88
427.402	119.88
427.625	142.88
427.847	113.88
428.069	106.88
428.292	98.88
428.514	85.88
428.736	93.88
428.958	62.88
429.181	86.88
429.403	79.88
429.625	94.88
429.847	92.88
430.069	94.88
430.292	84.88
430.514	80.88
430.736	75.88
430.958	81.88
431.18	70.88
431.402	85.88
431.624	87.88
431.846	91.88
432.068	93.88
432.29	84.88
432.512	103.88
432.734	75.88
432.956	105.88
433.178	90.88
433.4	104.88
433.622	90.88
433.844	88.88
434.066	93.88
434.287	94.88
434.509	74.88
434.731	94.88
434.953	89.88
435.175	96.88
435.397	90.88
435.618	89.88
435.84	83.88
436.062	110.88
436.284	104.88
436.505	100.88
436.727	93.88
436.949	97.88
437.17	98.88
437.392	81.88
437.614	78.88
437.835	103.88
438.057	100.88
438.278	113.88
438.5	102.88
438.721	108.88
438.943	101.88
439.165	78.88
439.386	82.88
439.608	96.88
439.829	96.88
440.05	105.88
440.272	130.88
440.493	93.88
440.715	91.88
440.936	76.88
441.158	76.88
441.379	86.88
441.6	81.88
441.822	82.88
442.043	105.88
442.264	113.88
442.486	90.88
442.707	95.88
442.928	107.88
443.149	111.88
443.371	104.88
443.592	120.88
443.813	110.88
444.034	100.88
444.255	95.88
444.476	89.88
444.698	78.88
444.919	84.88
445.14	114.88
445.361	124.88
445.582	125.88
445.803	129.88
446.024	133.88
446.245	132.88
446.466	96.88
446.687	86.88
446.908	99.88
447.129	93.88
447.35	94.88
447.571	96.88
447.792	98.88
448.013	95.88
448.234	112.88
448.455	88.88
448.675	90.88
448.896	101.88
449.117	78.88
449.338	111.88
449.559	137.88
449.779	128.88
450	91.88
450.221	92.88
450.442	86.88
450.662	90.88
450.883	95.88
451.104	112.88
451.324	100.88
451.545	97.88
451.766	95.88
451.986	96.88
452.207	91.88
452.428	78.88
452.648	101.88
452.869	89.88
453.089	95.88
453.31	120.88
453.53	94.88
453.751	94.88
453.971	99.88
454.192	103.88
454.412	80.88
454.633	70.88
454.853	102.88
455.073	86.88
455.294	79.88
455.514	82.88
455.734	73.88
455.955	78.88
456.175	73.88
456.395	77.88
456.616	84.88
456.836	78.88
457.056	80.88
457.276	79.88
457.497	78.88
457.717	81.88
457.937	89.88
458.157	81.88
458.377	89.88
458.598	101.88
458.818	149.88
459.038	127.88
459.258	94.88
459.478	99.88
459.698	84.88
459.918	88.88
460.138	83.88
460.358	85.88
460.578	89.88
460.798	67.88
461.018	102.88
461.238	87.88
461.458	80.88
461.678	82.88
461.898	75.88
462.118	88.88
462.338	80.88
462.558	91.88
462.777	90.88
462.997	109.88
463.217	101.88
463.437	76.88
463.657	98.88
463.876	85.88
464.096	88.88
464.316	84.88
464.536	90.88
464.755	100.88
464.975	102.88
465.195	130.88
465.414	144.88
465.634	102.88
465.854	89.88
466.073	75.88
466.293	88.88
466.512	80.88
466.732	94.88
466.951	83.88
467.171	97.88
467.391	90.88
467.61	93.88
467.829	100.88
468.049	92.88
468.268	82.88
468.488	72.88
468.707	81.88
468.927	85.88
469.146	86.88
469.365	87.88
469.585	87.88
469.804	69.88
470.023	86.88
470.243	90.88
470.462	98.88
470.681	109.88
470.901	84.88
471.12	99.88
471.339	92.88
471.558	79.88
471.777	85.88
471.997	99.88
472.216	84.88
472.435	85.88
472.654	91.88
472.873	97.88
473.092	73.88
473.311	87.88
473.53	77.88
473.749	86.88
473.968	96.88
474.187	101.88
474.406	108.88
474.625	87.88
474.844	89.88
475.063	95.88
475.282	77.88
475.501	78.88
475.72	89.88
475.939	76.88
476.158	87.88
476.377	91.88
476.596	82.88
476.814	74.88
477.033	86.88
477.252	81.88
477.471	77.88
477.69	87.88
477.908	89.88
478.127	71.88
478.346	76.88
478.564	80.88
478.783	90.88
479.002	91.88
479.22	82.88
479.439	76.88
479.658	87.88
479.876	88.88
480.095	103.88
480.313	90.88
480.532	84.88
480.751	73.88
480.969	76.88
481.188	88.88
481.406	84.88
481.624	73.88
481.843	72.88
482.061	90.88
482.28	88.88
482.498	93.88
482.717	85.88
482.935	89.88
483.153	84.88
483.372	86.88
483.59	79.88
483.808	81.88
484.027	87.88
484.245	87.88
484.463	87.88
484.681	73.88
484.9	78.88
485.118	77.88
485.336	88.88
485.554	101.88
485.772	90.88
485.99	106.88
486.209	118.88
486.427	110.88
486.645	104.88
486.863	123.88
487.081	94.88
487.299	84.88
487.517	100.88
487.735	84.88
487.953	92.88
488.171	92.88
488.389	97.88
488.607	89.88
488.825	77.88
489.043	88.88
489.261	89.88
489.479	78.88
489.696	91.88
489.914	78.88
490.132	74.88
490.35	95.88
490.568	76.88
490.786	84.88
491.003	81.88
491.221	92.88
491.439	94.88
491.657	105.88
491.874	80.88
492.092	106.88
492.31	82.88
492.527	97.88
492.745	87.88
492.963	94.88
493.18	77.88
493.398	93.88
493.615	97.88
493.833	89.88
494.05	83.88
494.268	81.88
494.485	87.88
494.703	84.88
494.92	93.88
495.138	86.88
495.355	92.88
495.573	96.88
495.79	79.88
496.008	82.88
496.225	79.88
496.442	93.88
496.66	80.88
496.877	84.88
497.094	85.88
497.312	93.88
497.529	93.88
497.746	86.88
497.963	85.88
498.181	81.88
498.398	79.88
498.615	103.88
498.832	87.88
499.049	80.88
499.267	85.88
499.484	83.88
499.701	105.88
499.918	91.88
500.135	82.88
500.352	83.88
500.569	92.88
500.786	98.88
501.003	98.88
501.22	94.88
501.437	91.88
501.654	95.88
501.871	97.88
502.088	81.88
502.305	84.88
502.522	90.88
502.739	83.88
502.956	87.88
503.172	95.88
503.389	94.88
503.606	112.88
503.823	97.88
504.04	93.88
504.256	95.88
504.473	93.88
504.69	72.88
504.907	101.88
505.123	83.88
505.34	80.88
505.557	78.88
505.773	86.88
505.99	68.88
506.207	84.88
506.423	86.88
506.64	82.88
506.856	75.88
507.073	89.88
507.289	92.88
507.506	91.88
507.722	108.88
507.939	106.88
508.155	95.88
508.372	81.88
508.588	77.88
508.805	93.88
509.021	85.88
509.238	111.88
509.454	90.88
509.67	98.88
509.887	98.88
510.103	125.88
510.319	198.88
510.536	741.88
510.752	2361.88
510.968	618.88
511.184	149.88
511.401	104.88
511.617	95.88
511.833	90.88
512.049	103.88
512.265	100.88
512.481	91.88
512.698	96.88
512.914	88.88
513.13	93.88
513.346	80.88
513.562	88.88
513.778	94.88
513.994	91.88
514.21	100.88
514.426	116.88
514.642	120.88
514.858	127.88
515.074	157.88
515.29	458.88
515.506	1399.88
515.721	504.88
515.937	150.88
516.153	101.88
516.369	102.88
516.585	98.88
516.801	99.88
