Data from Uncirc_1994_H10_HRD10591_00007.txt Node
Date: Wed Jan 03 11:39:22 EST 2024
User: Yrep
Spectrometer: HR+D1059
Trigger mode: 1
Integration Time (sec): 1.000000E-1
Scans to average: 1
Electric dark correction enabled: true
Nonlinearity correction enabled: false
Boxcar width: 0
XAxis mode: Wavelengths
Number of Pixels in Spectrum: 2048
>>>>>Begin Spectral Data<<<<<
223.165	-26.5
223.4	-26.5
223.635	-26.5
223.869	-10.5
224.104	-16.5
224.338	-16.5
224.573	-6.5
224.808	-27.5
225.042	7.5
225.277	-8.5
225.511	-1.5
225.746	-0.5
225.98	13.5
226.215	-0.5
226.449	18.5
226.683	15.5
226.918	24.5
227.152	35.5
227.387	24.5
227.621	45.5
227.856	44.5
228.09	50.5
228.324	58.5
228.559	56.5
228.793	69.5
229.027	60.5
229.262	59.5
229.496	76.5
229.73	77.5
229.964	74.5
230.199	67.5
230.433	76.5
230.667	76.5
230.901	85.5
231.136	68.5
231.37	81.5
231.604	91.5
231.838	95.5
232.072	77.5
232.306	87.5
232.541	97.5
232.775	88.5
233.009	78.5
233.243	78.5
233.477	94.5
233.711	94.5
233.945	78.5
234.179	68.5
234.413	94.5
234.647	90.5
234.881	85.5
235.115	81.5
235.349	68.5
235.583	88.5
235.817	84.5
236.051	73.5
236.285	88.5
236.519	78.5
236.753	74.5
236.987	69.5
237.221	88.5
237.455	88.5
237.689	93.5
237.922	97.5
238.156	89.5
238.39	89.5
238.624	84.5
238.858	88.5
239.091	67.5
239.325	77.5
239.559	65.5
239.793	60.5
240.027	90.5
240.26	88.5
240.494	78.5
240.728	90.5
240.961	79.5
241.195	75.5
241.429	83.5
241.662	76.5
241.896	90.5
242.13	78.5
242.363	87.5
242.597	76.5
242.83	72.5
243.064	79.5
243.298	72.5
243.531	73.5
243.765	81.5
243.998	95.5
244.232	82.5
244.465	79.5
244.699	74.5
244.932	70.5
245.166	68.5
245.399	84.5
245.633	83.5
245.866	85.5
246.099	73.5
246.333	81.5
246.566	74.5
246.8	90.5
247.033	76.5
247.266	87.5
247.5	67.5
247.733	79.5
247.966	60.5
248.2	88.5
248.433	78.5
248.666	81.5
248.899	87.5
249.133	90.5
249.366	84.5
249.599	81.5
249.832	87.5
250.066	84.5
250.299	78.5
250.532	72.5
250.765	83.5
250.998	77.5
251.231	78.5
251.465	81.5
251.698	69.5
251.931	82.5
252.164	81.5
252.397	82.5
252.63	77.5
252.863	63.5
253.096	76.5
253.329	86.5
253.562	85.5
253.795	74.5
254.028	89.5
254.261	84.5
254.494	86.5
254.727	70.5
254.96	87.5
255.193	73.5
255.426	89.5
255.659	86.5
255.892	97.5
256.124	78.5
256.357	82.5
256.59	84.5
256.823	70.5
257.056	94.5
257.289	91.5
257.521	84.5
257.754	87.5
257.987	84.5
258.22	80.5
258.452	84.5
258.685	92.5
258.918	94.5
259.151	80.5
259.383	95.5
259.616	83.5
259.849	74.5
260.081	80.5
260.314	75.5
260.547	80.5
260.779	82.5
261.012	82.5
261.244	89.5
261.477	88.5
261.71	99.5
261.942	99.5
262.175	109.5
262.407	89.5
262.64	76.5
262.872	82.5
263.105	92.5
263.337	88.5
263.57	74.5
263.802	83.5
264.035	77.5
264.267	87.5
264.499	78.5
264.732	89.5
264.964	89.5
265.197	89.5
265.429	86.5
265.661	84.5
265.894	85.5
266.126	77.5
266.358	82.5
266.591	85.5
266.823	87.5
267.055	92.5
267.287	85.5
267.52	81.5
267.752	77.5
267.984	98.5
268.216	85.5
268.448	92.5
268.681	99.5
268.913	82.5
269.145	86.5
269.377	90.5
269.609	84.5
269.841	89.5
270.073	82.5
270.306	74.5
270.538	90.5
270.77	77.5
271.002	92.5
271.234	94.5
271.466	85.5
271.698	82.5
271.93	88.5
272.162	97.5
272.394	68.5
272.626	89.5
272.858	92.5
273.09	73.5
273.322	91.5
273.553	95.5
273.785	86.5
274.017	82.5
274.249	89.5
274.481	85.5
274.713	66.5
274.945	97.5
275.176	93.5
275.408	93.5
275.64	101.5
275.872	93.5
276.104	89.5
276.335	85.5
276.567	95.5
276.799	104.5
277.031	99.5
277.262	85.5
277.494	109.5
277.726	95.5
277.957	75.5
278.189	86.5
278.421	86.5
278.652	96.5
278.884	92.5
279.115	90.5
279.347	87.5
279.579	85.5
279.81	85.5
280.042	82.5
280.273	90.5
280.505	93.5
280.736	99.5
280.968	89.5
281.199	80.5
281.431	86.5
281.662	77.5
281.894	79.5
282.125	96.5
282.356	110.5
282.588	131.5
282.819	110.5
283.051	80.5
283.282	76.5
283.513	82.5
283.745	90.5
283.976	98.5
284.207	83.5
284.439	76.5
284.67	88.5
284.901	82.5
285.132	96.5
285.364	85.5
285.595	95.5
285.826	87.5
286.057	89.5
286.288	81.5
286.52	85.5
286.751	82.5
286.982	86.5
287.213	95.5
287.444	92.5
287.675	76.5
287.906	94.5
288.138	82.5
288.369	92.5
288.6	80.5
288.831	86.5
289.062	96.5
289.293	88.5
289.524	77.5
289.755	96.5
289.986	87.5
290.217	87.5
290.448	90.5
290.679	82.5
290.91	83.5
291.141	79.5
291.371	78.5
291.602	94.5
291.833	97.5
292.064	97.5
292.295	94.5
292.526	96.5
292.757	99.5
292.987	94.5
293.218	85.5
293.449	99.5
293.68	85.5
293.91	77.5
294.141	87.5
294.372	84.5
294.603	90.5
294.833	89.5
295.064	92.5
295.295	100.5
295.525	105.5
295.756	105.5
295.987	109.5
296.217	124.5
296.448	116.5
296.679	100.5
296.909	92.5
297.14	91.5
297.37	102.5
297.601	91.5
297.831	103.5
298.062	91.5
298.292	76.5
298.523	94.5
298.753	102.5
298.984	93.5
299.214	94.5
299.445	96.5
299.675	89.5
299.905	92.5
300.136	101.5
300.366	94.5
300.597	85.5
300.827	99.5
301.057	95.5
301.288	105.5
301.518	100.5
301.748	85.5
301.979	97.5
302.209	103.5
302.439	96.5
302.669	89.5
302.9	95.5
303.13	82.5
303.36	93.5
303.59	114.5
303.82	106.5
304.051	88.5
304.281	89.5
304.511	74.5
304.741	81.5
304.971	92.5
305.201	98.5
305.431	90.5
305.661	98.5
305.891	107.5
306.121	83.5
306.352	86.5
306.582	105.5
306.812	86.5
307.042	87.5
307.272	99.5
307.502	89.5
307.731	97.5
307.961	93.5
308.191	98.5
308.421	99.5
308.651	90.5
308.881	105.5
309.111	109.5
309.341	98.5
309.571	92.5
309.8	84.5
310.03	88.5
310.26	105.5
310.49	98.5
310.72	99.5
310.949	108.5
311.179	104.5
311.409	101.5
311.639	88.5
311.868	84.5
312.098	100.5
312.328	93.5
312.557	97.5
312.787	98.5
313.017	106.5
313.246	99.5
313.476	110.5
313.706	88.5
313.935	81.5
314.165	93.5
314.394	96.5
314.624	94.5
314.853	83.5
315.083	101.5
315.312	100.5
315.542	95.5
315.771	89.5
316.001	94.5
316.23	89.5
316.46	98.5
316.689	84.5
316.919	91.5
317.148	86.5
317.377	101.5
317.607	99.5
317.836	92.5
318.065	88.5
318.295	97.5
318.524	88.5
318.753	99.5
318.983	83.5
319.212	114.5
319.441	95.5
319.67	113.5
319.9	100.5
320.129	98.5
320.358	97.5
320.587	106.5
320.816	97.5
321.046	100.5
321.275	94.5
321.504	92.5
321.733	86.5
321.962	100.5
322.191	83.5
322.42	100.5
322.649	101.5
322.878	96.5
323.108	105.5
323.337	117.5
323.566	128.5
323.795	136.5
324.024	202.5
324.253	351.5
324.482	737.5
324.71	1492.5
324.939	1930.5
325.168	709.5
325.397	232.5
325.626	141.5
325.855	132.5
326.084	120.5
326.313	132.5
326.542	152.5
326.77	213.5
326.999	427.5
327.228	858.5
327.457	1540.5
327.686	1217.5
327.914	350.5
328.143	189.5
328.372	124.5
328.6	101.5
328.829	107.5
329.058	117.5
329.287	116.5
329.515	116.5
329.744	106.5
329.972	100.5
330.201	91.5
330.43	110.5
330.658	103.5
330.887	128.5
331.115	120.5
331.344	101.5
331.572	104.5
331.801	94.5
332.03	108.5
332.258	101.5
332.486	88.5
332.715	95.5
332.943	93.5
333.172	93.5
333.4	99.5
333.629	97.5
333.857	109.5
334.085	100.5
334.314	102.5
334.542	98.5
334.771	101.5
334.999	94.5
335.227	110.5
335.455	97.5
335.684	92.5
335.912	96.5
336.14	104.5
336.369	96.5
336.597	105.5
336.825	98.5
337.053	90.5
337.281	102.5
337.51	108.5
337.738	99.5
337.966	97.5
338.194	90.5
338.422	100.5
338.65	81.5
338.878	83.5
339.106	86.5
339.334	103.5
339.562	100.5
339.79	84.5
340.018	89.5
340.246	103.5
340.474	108.5
340.702	89.5
340.93	100.5
341.158	100.5
341.386	105.5
341.614	104.5
341.842	88.5
342.07	90.5
342.298	90.5
342.526	84.5
342.754	108.5
342.981	96.5
343.209	88.5
343.437	113.5
343.665	99.5
343.893	73.5
344.12	95.5
344.348	96.5
344.576	108.5
344.804	85.5
345.031	93.5
345.259	96.5
345.487	93.5
345.714	97.5
345.942	100.5
346.17	93.5
346.397	87.5
346.625	100.5
346.853	80.5
347.08	89.5
347.308	93.5
347.535	97.5
347.763	97.5
347.99	117.5
348.218	110.5
348.445	101.5
348.673	86.5
348.9	96.5
349.128	84.5
349.355	91.5
349.583	97.5
349.81	101.5
350.037	100.5
350.265	94.5
350.492	91.5
350.72	114.5
350.947	107.5
351.174	100.5
351.402	102.5
351.629	99.5
351.856	108.5
352.083	104.5
352.311	129.5
352.538	110.5
352.765	108.5
352.992	105.5
353.22	106.5
353.447	104.5
353.674	101.5
353.901	92.5
354.128	94.5
354.355	106.5
354.583	87.5
354.81	91.5
355.037	95.5
355.264	115.5
355.491	95.5
355.718	94.5
355.945	99.5
356.172	81.5
356.399	96.5
356.626	88.5
356.853	109.5
357.08	101.5
357.307	95.5
357.534	95.5
357.761	97.5
357.988	84.5
358.215	88.5
358.441	101.5
358.668	80.5
358.895	92.5
359.122	92.5
359.349	88.5
359.576	101.5
359.802	109.5
360.029	101.5
360.256	98.5
360.483	95.5
360.709	96.5
360.936	81.5
361.163	98.5
361.39	90.5
361.616	90.5
361.843	88.5
362.07	102.5
362.296	101.5
362.523	92.5
362.749	107.5
362.976	91.5
363.203	90.5
363.429	99.5
363.656	85.5
363.882	87.5
364.109	82.5
364.335	95.5
364.562	103.5
364.788	97.5
365.015	104.5
365.241	97.5
365.468	119.5
365.694	92.5
365.92	100.5
366.147	100.5
366.373	97.5
366.599	95.5
366.826	104.5
367.052	102.5
367.278	88.5
367.505	98.5
367.731	102.5
367.957	97.5
368.184	80.5
368.41	86.5
368.636	114.5
368.862	108.5
369.089	107.5
369.315	107.5
369.541	100.5
369.767	85.5
369.993	87.5
370.219	94.5
370.445	88.5
370.672	81.5
370.898	82.5
371.124	88.5
371.35	82.5
371.576	84.5
371.802	85.5
372.028	77.5
372.254	92.5
372.48	92.5
372.706	98.5
372.932	83.5
373.158	86.5
373.384	97.5
373.61	91.5
373.835	92.5
374.061	80.5
374.287	94.5
374.513	83.5
374.739	80.5
374.965	100.5
375.191	96.5
375.416	87.5
375.642	89.5
375.868	85.5
376.094	96.5
376.319	99.5
376.545	94.5
376.771	95.5
376.997	92.5
377.222	90.5
377.448	99.5
377.674	86.5
377.899	84.5
378.125	106.5
378.35	98.5
378.576	87.5
378.802	91.5
379.027	96.5
379.253	106.5
379.478	93.5
379.704	104.5
379.929	101.5
380.155	100.5
380.38	100.5
380.606	98.5
380.831	95.5
381.057	109.5
381.282	109.5
381.507	101.5
381.733	100.5
381.958	104.5
382.184	97.5
382.409	93.5
382.634	104.5
382.86	93.5
383.085	92.5
383.31	109.5
383.535	106.5
383.761	106.5
383.986	102.5
384.211	101.5
384.436	98.5
384.662	91.5
384.887	101.5
385.112	110.5
385.337	114.5
385.562	107.5
385.787	98.5
386.013	105.5
386.238	112.5
386.463	122.5
386.688	110.5
386.913	119.5
387.138	109.5
387.363	110.5
387.588	104.5
387.813	97.5
388.038	108.5
388.263	121.5
388.488	109.5
388.713	106.5
388.938	95.5
389.163	94.5
389.387	101.5
389.612	93.5
389.837	98.5
390.062	98.5
390.287	82.5
390.512	97.5
390.736	94.5
390.961	102.5
391.186	94.5
391.411	97.5
391.636	92.5
391.86	97.5
392.085	91.5
392.31	80.5
392.534	85.5
392.759	94.5
392.984	97.5
393.208	124.5
393.433	160.5
393.658	130.5
393.882	101.5
394.107	97.5
394.331	89.5
394.556	88.5
394.78	80.5
395.005	92.5
395.229	100.5
395.454	88.5
395.678	81.5
395.903	97.5
396.127	94.5
396.352	101.5
396.576	106.5
396.801	115.5
397.025	118.5
397.249	94.5
397.474	100.5
397.698	94.5
397.922	87.5
398.147	98.5
398.371	98.5
398.595	94.5
398.82	88.5
399.044	96.5
399.268	93.5
399.492	83.5
399.717	92.5
399.941	84.5
400.165	95.5
400.389	92.5
400.613	81.5
400.837	83.5
401.062	104.5
401.286	78.5
401.51	89.5
401.734	103.5
401.958	101.5
402.182	115.5
402.406	140.5
402.63	122.5
402.854	78.5
403.078	88.5
403.302	92.5
403.526	70.5
403.75	89.5
403.974	88.5
404.198	76.5
404.422	88.5
404.645	83.5
404.869	82.5
405.093	91.5
405.317	93.5
405.541	98.5
405.765	104.5
405.988	112.5
406.212	167.5
406.436	205.5
406.66	130.5
406.883	89.5
407.107	89.5
407.331	96.5
407.555	80.5
407.778	90.5
408.002	89.5
408.226	96.5
408.449	93.5
408.673	80.5
408.896	98.5
409.12	97.5
409.344	105.5
409.567	88.5
409.791	93.5
410.014	96.5
410.238	96.5
410.461	106.5
410.685	101.5
410.908	97.5
411.132	99.5
411.355	96.5
411.578	91.5
411.802	98.5
412.025	88.5
412.249	87.5
412.472	85.5
412.695	97.5
412.919	79.5
413.142	90.5
413.365	72.5
413.589	106.5
413.812	95.5
414.035	96.5
414.258	89.5
414.482	82.5
414.705	95.5
414.928	94.5
415.151	85.5
415.374	74.5
415.597	89.5
415.821	88.5
416.044	84.5
416.267	92.5
416.49	98.5
416.713	83.5
416.936	88.5
417.159	98.5
417.382	82.5
417.605	90.5
417.828	98.5
418.051	88.5
418.274	90.5
418.497	89.5
418.72	94.5
418.943	91.5
419.166	101.5
419.389	78.5
419.611	93.5
419.834	98.5
420.057	97.5
420.28	82.5
420.503	88.5
420.726	80.5
420.948	91.5
421.171	92.5
421.394	83.5
421.617	100.5
421.839	105.5
422.062	102.5
422.285	102.5
422.507	101.5
422.73	117.5
422.953	99.5
423.175	88.5
423.398	90.5
423.621	86.5
423.843	85.5
424.066	82.5
424.288	92.5
424.511	97.5
424.733	104.5
424.956	103.5
425.178	95.5
425.401	101.5
425.623	108.5
425.846	95.5
426.068	95.5
426.291	98.5
426.513	89.5
426.735	84.5
426.958	87.5
427.18	100.5
427.402	125.5
427.625	139.5
427.847	111.5
428.069	91.5
428.292	100.5
428.514	88.5
428.736	91.5
428.958	79.5
429.181	84.5
429.403	89.5
429.625	98.5
429.847	90.5
430.069	103.5
430.292	94.5
430.514	82.5
430.736	80.5
430.958	89.5
431.18	90.5
431.402	89.5
431.624	93.5
431.846	90.5
432.068	91.5
432.29	93.5
432.512	91.5
432.734	94.5
432.956	78.5
433.178	108.5
433.4	92.5
433.622	88.5
433.844	84.5
434.066	80.5
434.287	89.5
434.509	95.5
434.731	75.5
434.953	96.5
435.175	82.5
435.397	91.5
435.618	80.5
435.84	108.5
436.062	110.5
436.284	117.5
436.505	94.5
436.727	94.5
436.949	87.5
437.17	81.5
437.392	89.5
437.614	95.5
437.835	85.5
438.057	111.5
438.278	109.5
438.5	109.5
438.721	116.5
438.943	97.5
439.165	85.5
439.386	97.5
439.608	89.5
439.829	98.5
440.05	101.5
440.272	125.5
440.493	109.5
440.715	86.5
440.936	82.5
441.158	89.5
441.379	89.5
441.6	100.5
441.822	97.5
442.043	99.5
442.264	96.5
442.486	102.5
442.707	98.5
442.928	102.5
443.149	122.5
443.371	133.5
443.592	101.5
443.813	98.5
444.034	115.5
444.255	93.5
444.476	95.5
444.698	83.5
444.919	77.5
445.14	135.5
445.361	122.5
445.582	103.5
445.803	128.5
446.024	117.5
446.245	123.5
446.466	102.5
446.687	77.5
446.908	85.5
447.129	102.5
447.35	94.5
447.571	93.5
447.792	108.5
448.013	96.5
448.234	100.5
448.455	88.5
448.675	101.5
448.896	114.5
449.117	105.5
449.338	109.5
449.559	124.5
449.779	123.5
450	93.5
450.221	96.5
450.442	99.5
450.662	88.5
450.883	99.5
451.104	98.5
451.324	98.5
451.545	97.5
451.766	96.5
451.986	77.5
452.207	72.5
452.428	95.5
452.648	108.5
452.869	99.5
453.089	106.5
453.31	114.5
453.53	93.5
453.751	92.5
453.971	91.5
454.192	91.5
454.412	94.5
454.633	78.5
454.853	90.5
455.073	89.5
455.294	98.5
455.514	99.5
455.734	100.5
455.955	89.5
456.175	76.5
456.395	93.5
456.616	96.5
456.836	76.5
457.056	93.5
457.276	82.5
457.497	88.5
457.717	80.5
457.937	95.5
458.157	68.5
458.377	74.5
458.598	98.5
458.818	133.5
459.038	153.5
459.258	130.5
459.478	105.5
459.698	86.5
459.918	80.5
460.138	84.5
460.358	79.5
460.578	90.5
460.798	86.5
461.018	82.5
461.238	86.5
461.458	77.5
461.678	72.5
461.898	88.5
462.118	77.5
462.338	94.5
462.558	88.5
462.777	88.5
462.997	88.5
463.217	96.5
463.437	92.5
463.657	84.5
463.876	87.5
464.096	90.5
464.316	97.5
464.536	78.5
464.755	88.5
464.975	98.5
465.195	137.5
465.414	137.5
465.634	96.5
465.854	85.5
466.073	87.5
466.293	85.5
466.512	92.5
466.732	93.5
466.951	87.5
467.171	100.5
467.391	91.5
467.61	90.5
467.829	98.5
468.049	103.5
468.268	84.5
468.488	72.5
468.707	82.5
468.927	82.5
469.146	90.5
469.365	102.5
469.585	106.5
469.804	74.5
470.023	97.5
470.243	94.5
470.462	92.5
470.681	105.5
470.901	90.5
471.12	68.5
471.339	94.5
471.558	76.5
471.777	96.5
471.997	89.5
472.216	82.5
472.435	100.5
472.654	89.5
472.873	84.5
473.092	91.5
473.311	72.5
473.53	82.5
473.749	93.5
473.968	89.5
474.187	91.5
474.406	88.5
474.625	79.5
474.844	88.5
475.063	81.5
475.282	96.5
475.501	74.5
475.72	93.5
475.939	80.5
476.158	77.5
476.377	86.5
476.596	83.5
476.814	84.5
477.033	94.5
477.252	101.5
477.471	87.5
477.69	72.5
477.908	96.5
478.127	91.5
478.346	88.5
478.564	84.5
478.783	89.5
479.002	76.5
479.22	85.5
479.439	92.5
479.658	97.5
479.876	97.5
480.095	77.5
480.313	94.5
480.532	91.5
480.751	100.5
480.969	95.5
481.188	79.5
481.406	100.5
481.624	88.5
481.843	84.5
482.061	89.5
482.28	84.5
482.498	74.5
482.717	96.5
482.935	76.5
483.153	87.5
483.372	78.5
483.59	89.5
483.808	84.5
484.027	96.5
484.245	90.5
484.463	96.5
484.681	100.5
484.9	69.5
485.118	79.5
485.336	91.5
485.554	115.5
485.772	114.5
485.99	94.5
486.209	100.5
486.427	112.5
486.645	106.5
486.863	107.5
487.081	81.5
487.299	95.5
487.517	86.5
487.735	102.5
487.953	81.5
488.171	91.5
488.389	90.5
488.607	94.5
488.825	91.5
489.043	97.5
489.261	97.5
489.479	96.5
489.696	89.5
489.914	89.5
490.132	70.5
490.35	89.5
490.568	93.5
490.786	86.5
491.003	84.5
491.221	97.5
491.439	84.5
491.657	99.5
491.874	89.5
492.092	95.5
492.31	73.5
492.527	99.5
492.745	84.5
492.963	88.5
493.18	105.5
493.398	96.5
493.615	100.5
493.833	92.5
494.05	85.5
494.268	87.5
494.485	80.5
494.703	94.5
494.92	97.5
495.138	81.5
495.355	82.5
495.573	92.5
495.79	85.5
496.008	93.5
496.225	98.5
496.442	91.5
496.66	87.5
496.877	104.5
497.094	92.5
497.312	87.5
497.529	77.5
497.746	94.5
497.963	88.5
498.181	91.5
498.398	88.5
498.615	104.5
498.832	101.5
499.049	82.5
499.267	102.5
499.484	93.5
499.701	83.5
499.918	86.5
500.135	94.5
500.352	88.5
500.569	96.5
500.786	75.5
501.003	84.5
501.22	98.5
501.437	88.5
501.654	97.5
501.871	98.5
502.088	89.5
502.305	97.5
502.522	94.5
502.739	93.5
502.956	85.5
503.172	89.5
503.389	77.5
503.606	88.5
503.823	92.5
504.04	103.5
504.256	102.5
504.473	100.5
504.69	80.5
504.907	89.5
505.123	88.5
505.34	99.5
505.557	92.5
505.773	87.5
505.99	89.5
506.207	92.5
506.423	92.5
506.64	89.5
506.856	94.5
507.073	95.5
507.289	101.5
507.506	102.5
507.722	115.5
507.939	103.5
508.155	98.5
508.372	88.5
508.588	85.5
508.805	98.5
509.021	102.5
509.238	98.5
509.454	93.5
509.67	107.5
509.887	106.5
510.103	120.5
510.319	200.5
510.536	719.5
510.752	2131.5
510.968	588.5
511.184	145.5
511.401	106.5
511.617	93.5
511.833	90.5
512.049	83.5
512.265	89.5
512.481	93.5
512.698	95.5
512.914	98.5
513.13	92.5
513.346	96.5
513.562	89.5
513.778	103.5
513.994	106.5
514.21	101.5
514.426	122.5
514.642	117.5
514.858	118.5
515.074	158.5
515.29	385.5
515.506	1270.5
515.721	484.5
515.937	142.5
516.153	106.5
516.369	89.5
516.585	98.5
516.801	102.5
517.016	84.5
517.232	82.5
517.448	105.5
517.664	86.5
517.879	96.5
518.095	92.5
518.311	100.5
518.527	97.5
518.742	96.5
518.958	79.5
519.173	98.5
519.389	76.5
519.605	91.5
519.82	106.5
520.036	99.5
520.251	119.5
520.467	118.5
520.682	106.5
520.898	98.5
521.113	93.5
521.329	131.5
521.544	183.5
521.76	523.5
521.975	2073.5
522.19	1238.5
522.406	267.5
522.621	102.5
522.836	112.5
523.052	89.5
523.267	85.5
523.482	105.5
523.698	94.5
523.913	102.5
524.128	103.5
524.343	90.5
524.559	85.5
524.774	96.5
524.989	92.5
525.204	103.5
525.419	100.5
525.634	88.5
525.849	87.5
526.064	89.5
526.28	107.5
526.495	85.5
526.71	103.5
526.925	90.5
527.14	76.5
527.355	86.5
527.57	105.5
527.785	85.5
527.999	84.5
528.214	90.5
528.429	83.5
528.644	91.5
528.859	102.5
529.074	103.5
529.289	123.5
529.503	150.5
529.718	115.5
529.933	92.5
530.148	94.5
530.363	78.5
530.577	94.5
530.792	90.5
531.007	91.5
531.221	98.5
531.436	97.5
531.651	93.5
531.865	78.5
532.08	91.5
532.295	91.5
532.509	79.5
532.724	87.5
532.938	93.5
533.153	86.5
533.367	86.5
533.582	94.5
533.796	88.5
534.011	94.5
534.225	93.5
534.44	101.5
534.654	97.5
534.868	92.5
535.083	91.5
