Data from Uncirc_1994_H10_HRD10591_00052.txt Node
Date: Wed Jan 03 11:39:31 EST 2024
User: Yrep
Spectrometer: HR+D1059
Trigger mode: 1
Integration Time (sec): 1.000000E-1
Scans to average: 1
Electric dark correction enabled: true
Nonlinearity correction enabled: false
Boxcar width: 0
XAxis mode: Wavelengths
Number of Pixels in Spectrum: 2048
>>>>>Begin Spectral Data<<<<<
223.165	-4.38
223.4	-4.38
223.635	-4.38
223.869	-17.38
224.104	-18.38
224.338	-14.38
224.573	-17.38
224.808	-16.38
225.042	-4.38
225.277	-11.38
225.511	5.62
225.746	17.62
225.98	-1.38
226.215	4.62
226.449	6.62
226.683	21.62
226.918	24.62
227.152	24.62
227.387	27.62
227.621	39.62
227.856	42.62
228.09	50.62
228.324	42.62
228.559	58.62
228.793	52.62
229.027	63.62
229.262	80.62
229.496	70.62
229.73	73.62
229.964	95.62
230.199	85.62
230.433	80.62
230.667	81.62
230.901	76.62
231.136	64.62
231.37	86.62
231.604	85.62
231.838	88.62
232.072	89.62
232.306	84.62
232.541	85.62
232.775	76.62
233.009	55.62
233.243	78.62
233.477	80.62
233.711	93.62
233.945	82.62
234.179	89.62
234.413	81.62
234.647	65.62
234.881	92.62
235.115	84.62
235.349	67.62
235.583	91.62
235.817	56.62
236.051	74.62
236.285	85.62
236.519	77.62
236.753	90.62
236.987	80.62
237.221	70.62
237.455	81.62
237.689	77.62
237.922	87.62
238.156	80.62
238.39	77.62
238.624	73.62
238.858	70.62
239.091	69.62
239.325	86.62
239.559	87.62
239.793	91.62
240.027	96.62
240.26	77.62
240.494	70.62
240.728	86.62
240.961	75.62
241.195	75.62
241.429	69.62
241.662	76.62
241.896	91.62
242.13	90.62
242.363	66.62
242.597	76.62
242.83	69.62
243.064	69.62
243.298	79.62
243.531	76.62
243.765	82.62
243.998	85.62
244.232	70.62
244.465	66.62
244.699	82.62
244.932	80.62
245.166	87.62
245.399	93.62
245.633	81.62
245.866	84.62
246.099	84.62
246.333	73.62
246.566	76.62
246.8	86.62
247.033	70.62
247.266	82.62
247.5	77.62
247.733	77.62
247.966	97.62
248.2	94.62
248.433	77.62
248.666	68.62
248.899	80.62
249.133	86.62
249.366	95.62
249.599	93.62
249.832	70.62
250.066	76.62
250.299	82.62
250.532	81.62
250.765	81.62
250.998	83.62
251.231	77.62
251.465	80.62
251.698	78.62
251.931	75.62
252.164	85.62
252.397	83.62
252.63	73.62
252.863	83.62
253.096	73.62
253.329	82.62
253.562	84.62
253.795	87.62
254.028	92.62
254.261	78.62
254.494	79.62
254.727	110.62
254.96	77.62
255.193	91.62
255.426	81.62
255.659	65.62
255.892	90.62
256.124	81.62
256.357	72.62
256.59	69.62
256.823	81.62
257.056	73.62
257.289	74.62
257.521	86.62
257.754	82.62
257.987	73.62
258.22	77.62
258.452	88.62
258.685	65.62
258.918	92.62
259.151	91.62
259.383	83.62
259.616	74.62
259.849	82.62
260.081	91.62
260.314	84.62
260.547	99.62
260.779	75.62
261.012	81.62
261.244	87.62
261.477	82.62
261.71	86.62
261.942	111.62
262.175	113.62
262.407	97.62
262.64	84.62
262.872	83.62
263.105	81.62
263.337	91.62
263.57	97.62
263.802	76.62
264.035	82.62
264.267	90.62
264.499	90.62
264.732	97.62
264.964	73.62
265.197	95.62
265.429	87.62
265.661	97.62
265.894	78.62
266.126	87.62
266.358	88.62
266.591	77.62
266.823	78.62
267.055	83.62
267.287	93.62
267.52	83.62
267.752	98.62
267.984	100.62
268.216	86.62
268.448	86.62
268.681	78.62
268.913	89.62
269.145	95.62
269.377	85.62
269.609	82.62
269.841	80.62
270.073	96.62
270.306	83.62
270.538	88.62
270.77	77.62
271.002	88.62
271.234	96.62
271.466	91.62
271.698	92.62
271.93	73.62
272.162	87.62
272.394	85.62
272.626	84.62
272.858	85.62
273.09	89.62
273.322	97.62
273.553	92.62
273.785	87.62
274.017	81.62
274.249	83.62
274.481	105.62
274.713	93.62
274.945	86.62
275.176	89.62
275.408	81.62
275.64	85.62
275.872	84.62
276.104	88.62
276.335	91.62
276.567	104.62
276.799	100.62
277.031	98.62
277.262	92.62
277.494	95.62
277.726	84.62
277.957	87.62
278.189	89.62
278.421	91.62
278.652	78.62
278.884	97.62
279.115	97.62
279.347	82.62
279.579	94.62
279.81	83.62
280.042	90.62
280.273	85.62
280.505	87.62
280.736	88.62
280.968	83.62
281.199	87.62
281.431	97.62
281.662	86.62
281.894	91.62
282.125	97.62
282.356	112.62
282.588	125.62
282.819	100.62
283.051	101.62
283.282	81.62
283.513	102.62
283.745	90.62
283.976	79.62
284.207	91.62
284.439	88.62
284.67	76.62
284.901	97.62
285.132	83.62
285.364	75.62
285.595	92.62
285.826	93.62
286.057	97.62
286.288	86.62
286.52	84.62
286.751	84.62
286.982	92.62
287.213	66.62
287.444	83.62
287.675	83.62
287.906	87.62
288.138	85.62
288.369	75.62
288.6	95.62
288.831	88.62
289.062	89.62
289.293	90.62
289.524	81.62
289.755	81.62
289.986	82.62
290.217	97.62
290.448	67.62
290.679	89.62
290.91	101.62
291.141	90.62
291.371	91.62
291.602	93.62
291.833	92.62
292.064	91.62
292.295	97.62
292.526	103.62
292.757	91.62
292.987	106.62
293.218	93.62
293.449	85.62
293.68	91.62
293.91	94.62
294.141	87.62
294.372	100.62
294.603	88.62
294.833	82.62
295.064	98.62
295.295	97.62
295.525	89.62
295.756	90.62
295.987	97.62
296.217	130.62
296.448	125.62
296.679	90.62
296.909	91.62
297.14	93.62
297.37	87.62
297.601	79.62
297.831	98.62
298.062	80.62
298.292	78.62
298.523	94.62
298.753	93.62
298.984	79.62
299.214	80.62
299.445	95.62
299.675	104.62
299.905	100.62
300.136	84.62
300.366	97.62
300.597	95.62
300.827	79.62
301.057	109.62
301.288	107.62
301.518	95.62
301.748	77.62
301.979	99.62
302.209	86.62
302.439	93.62
302.669	101.62
302.9	95.62
303.13	83.62
303.36	96.62
303.59	91.62
303.82	103.62
304.051	101.62
304.281	90.62
304.511	84.62
304.741	98.62
304.971	93.62
305.201	93.62
305.431	95.62
305.661	95.62
305.891	92.62
306.121	99.62
306.352	99.62
306.582	105.62
306.812	107.62
307.042	101.62
307.272	96.62
307.502	101.62
307.731	87.62
307.961	94.62
308.191	93.62
308.421	98.62
308.651	103.62
308.881	98.62
309.111	97.62
309.341	87.62
309.571	90.62
309.8	94.62
310.03	108.62
310.26	94.62
310.49	77.62
310.72	101.62
310.949	102.62
311.179	92.62
311.409	102.62
311.639	102.62
311.868	85.62
312.098	91.62
312.328	87.62
312.557	99.62
312.787	103.62
313.017	101.62
313.246	84.62
313.476	98.62
313.706	103.62
313.935	86.62
314.165	101.62
314.394	105.62
314.624	97.62
314.853	86.62
315.083	92.62
315.312	106.62
315.542	85.62
315.771	98.62
316.001	86.62
316.23	85.62
316.46	98.62
316.689	89.62
316.919	92.62
317.148	85.62
317.377	88.62
317.607	90.62
317.836	87.62
318.065	110.62
318.295	89.62
318.524	100.62
318.753	99.62
318.983	99.62
319.212	101.62
319.441	111.62
319.67	95.62
319.9	90.62
320.129	107.62
320.358	95.62
320.587	93.62
320.816	101.62
321.046	107.62
321.275	122.62
321.504	105.62
321.733	93.62
321.962	103.62
322.191	99.62
322.42	93.62
322.649	101.62
322.878	123.62
323.108	102.62
323.337	133.62
323.566	118.62
323.795	166.62
324.024	202.62
324.253	363.62
324.482	733.62
324.71	1505.62
324.939	1985.62
325.168	710.62
325.397	219.62
325.626	137.62
325.855	125.62
326.084	118.62
326.313	132.62
326.542	136.62
326.77	205.62
326.999	411.62
327.228	877.62
327.457	1555.62
327.686	1219.62
327.914	333.62
328.143	190.62
328.372	138.62
328.6	123.62
328.829	103.62
329.058	112.62
329.287	115.62
329.515	124.62
329.744	93.62
329.972	99.62
330.201	93.62
330.43	102.62
330.658	126.62
330.887	122.62
331.115	116.62
331.344	101.62
331.572	113.62
331.801	96.62
332.03	107.62
332.258	111.62
332.486	105.62
332.715	88.62
332.943	81.62
333.172	103.62
333.4	101.62
333.629	92.62
333.857	114.62
334.085	94.62
334.314	91.62
334.542	100.62
334.771	88.62
334.999	91.62
335.227	101.62
335.455	94.62
335.684	102.62
335.912	87.62
336.14	97.62
336.369	94.62
336.597	104.62
336.825	103.62
337.053	95.62
337.281	106.62
337.51	92.62
337.738	87.62
337.966	91.62
338.194	101.62
338.422	91.62
338.65	102.62
338.878	92.62
339.106	94.62
339.334	97.62
339.562	97.62
339.79	97.62
340.018	82.62
340.246	98.62
340.474	93.62
340.702	93.62
340.93	100.62
341.158	100.62
341.386	100.62
341.614	93.62
341.842	104.62
342.07	109.62
342.298	94.62
342.526	97.62
342.754	89.62
342.981	99.62
343.209	104.62
343.437	99.62
343.665	105.62
343.893	91.62
344.12	83.62
344.348	83.62
344.576	81.62
344.804	110.62
345.031	97.62
345.259	91.62
345.487	85.62
345.714	102.62
345.942	108.62
346.17	87.62
346.397	94.62
346.625	98.62
346.853	89.62
347.08	95.62
347.308	89.62
347.535	109.62
347.763	101.62
347.99	96.62
348.218	108.62
348.445	112.62
348.673	87.62
348.9	85.62
349.128	99.62
349.355	97.62
349.583	88.62
349.81	90.62
350.037	98.62
350.265	102.62
350.492	100.62
350.72	96.62
350.947	109.62
351.174	109.62
351.402	108.62
351.629	87.62
351.856	103.62
352.083	108.62
352.311	101.62
352.538	113.62
352.765	116.62
352.992	91.62
353.22	109.62
353.447	108.62
353.674	100.62
353.901	104.62
354.128	96.62
354.355	92.62
354.583	101.62
354.81	87.62
355.037	85.62
355.264	110.62
355.491	103.62
355.718	85.62
355.945	100.62
356.172	98.62
356.399	98.62
356.626	87.62
356.853	93.62
357.08	92.62
357.307	103.62
357.534	94.62
357.761	95.62
357.988	100.62
358.215	91.62
358.441	95.62
358.668	99.62
358.895	89.62
359.122	98.62
359.349	110.62
359.576	89.62
359.802	86.62
360.029	102.62
360.256	105.62
360.483	103.62
360.709	87.62
360.936	95.62
361.163	100.62
361.39	109.62
361.616	101.62
361.843	93.62
362.07	92.62
362.296	90.62
362.523	90.62
362.749	93.62
362.976	83.62
363.203	82.62
363.429	89.62
363.656	86.62
363.882	87.62
364.109	91.62
364.335	87.62
364.562	98.62
364.788	104.62
365.015	102.62
365.241	95.62
365.468	109.62
365.694	105.62
365.92	97.62
366.147	96.62
366.373	80.62
366.599	103.62
366.826	82.62
367.052	92.62
367.278	102.62
367.505	94.62
367.731	101.62
367.957	85.62
368.184	100.62
368.41	106.62
368.636	110.62
368.862	118.62
369.089	115.62
369.315	93.62
369.541	95.62
369.767	94.62
369.993	86.62
370.219	69.62
370.445	95.62
370.672	102.62
370.898	100.62
371.124	90.62
371.35	95.62
371.576	94.62
371.802	90.62
372.028	96.62
372.254	94.62
372.48	89.62
372.706	91.62
372.932	98.62
373.158	93.62
373.384	90.62
373.61	101.62
373.835	77.62
374.061	85.62
374.287	93.62
374.513	92.62
374.739	91.62
374.965	88.62
375.191	94.62
375.416	91.62
375.642	96.62
375.868	102.62
376.094	97.62
376.319	88.62
376.545	96.62
376.771	105.62
376.997	94.62
377.222	91.62
377.448	97.62
377.674	86.62
377.899	78.62
378.125	95.62
378.35	100.62
378.576	88.62
378.802	81.62
379.027	85.62
379.253	99.62
379.478	108.62
379.704	92.62
379.929	90.62
380.155	89.62
380.38	96.62
380.606	82.62
380.831	97.62
381.057	92.62
381.282	87.62
381.507	87.62
381.733	88.62
381.958	91.62
382.184	98.62
382.409	94.62
382.634	101.62
382.86	103.62
383.085	95.62
383.31	117.62
383.535	100.62
383.761	93.62
383.986	93.62
384.211	100.62
384.436	99.62
384.662	86.62
384.887	107.62
385.112	117.62
385.337	89.62
385.562	102.62
385.787	89.62
386.013	110.62
386.238	111.62
386.463	91.62
386.688	99.62
386.913	105.62
387.138	101.62
387.363	94.62
387.588	105.62
387.813	107.62
388.038	99.62
388.263	107.62
388.488	111.62
388.713	99.62
388.938	98.62
389.163	101.62
389.387	106.62
389.612	87.62
389.837	91.62
390.062	92.62
390.287	105.62
390.512	89.62
390.736	101.62
390.961	86.62
391.186	91.62
391.411	112.62
391.636	100.62
391.86	93.62
392.085	95.62
392.31	94.62
392.534	85.62
392.759	98.62
392.984	96.62
393.208	104.62
393.433	106.62
393.658	101.62
393.882	84.62
394.107	91.62
394.331	83.62
394.556	85.62
394.78	94.62
395.005	75.62
395.229	88.62
395.454	91.62
395.678	92.62
395.903	95.62
396.127	91.62
396.352	83.62
396.576	91.62
396.801	87.62
397.025	94.62
397.249	92.62
397.474	93.62
397.698	99.62
397.922	82.62
398.147	82.62
398.371	85.62
398.595	97.62
398.82	86.62
399.044	83.62
399.268	89.62
399.492	85.62
399.717	104.62
399.941	91.62
400.165	94.62
400.389	94.62
400.613	103.62
400.837	96.62
401.062	86.62
401.286	93.62
401.51	111.62
401.734	95.62
401.958	95.62
402.182	121.62
402.406	147.62
402.63	118.62
402.854	98.62
403.078	91.62
403.302	91.62
403.526	96.62
403.75	85.62
403.974	79.62
404.198	94.62
404.422	98.62
404.645	100.62
404.869	92.62
405.093	107.62
405.317	96.62
405.541	97.62
405.765	99.62
405.988	112.62
406.212	161.62
406.436	193.62
406.66	129.62
406.883	116.62
407.107	85.62
407.331	95.62
407.555	94.62
407.778	105.62
408.002	83.62
408.226	92.62
408.449	81.62
408.673	98.62
408.896	100.62
409.12	91.62
409.344	91.62
409.567	98.62
409.791	85.62
410.014	93.62
410.238	93.62
410.461	109.62
410.685	104.62
410.908	102.62
411.132	102.62
411.355	97.62
411.578	97.62
411.802	97.62
412.025	92.62
412.249	85.62
412.472	96.62
412.695	88.62
412.919	100.62
413.142	78.62
413.365	101.62
413.589	100.62
413.812	91.62
414.035	87.62
414.258	107.62
414.482	98.62
414.705	85.62
414.928	97.62
415.151	98.62
415.374	90.62
415.597	102.62
415.821	95.62
416.044	86.62
416.267	99.62
416.49	87.62
416.713	104.62
416.936	98.62
417.159	78.62
417.382	95.62
417.605	90.62
417.828	89.62
418.051	93.62
418.274	95.62
418.497	100.62
418.72	82.62
418.943	91.62
419.166	94.62
419.389	77.62
419.611	77.62
419.834	93.62
420.057	99.62
420.28	100.62
420.503	90.62
420.726	101.62
420.948	94.62
421.171	91.62
421.394	96.62
421.617	87.62
421.839	109.62
422.062	89.62
422.285	96.62
422.507	108.62
422.73	96.62
422.953	105.62
423.175	101.62
423.398	83.62
423.621	77.62
423.843	85.62
424.066	84.62
424.288	78.62
424.511	89.62
424.733	111.62
424.956	108.62
425.178	95.62
425.401	96.62
425.623	99.62
425.846	94.62
426.068	94.62
426.291	100.62
426.513	94.62
426.735	92.62
426.958	86.62
427.18	109.62
427.402	130.62
427.625	156.62
427.847	114.62
428.069	99.62
428.292	100.62
428.514	95.62
428.736	106.62
428.958	85.62
429.181	77.62
429.403	76.62
429.625	83.62
429.847	92.62
430.069	108.62
430.292	94.62
430.514	101.62
430.736	94.62
430.958	78.62
431.18	91.62
431.402	94.62
431.624	97.62
431.846	95.62
432.068	84.62
432.29	97.62
432.512	93.62
432.734	83.62
432.956	71.62
433.178	95.62
433.4	97.62
433.622	84.62
433.844	82.62
434.066	93.62
434.287	95.62
434.509	82.62
434.731	99.62
434.953	82.62
435.175	93.62
435.397	86.62
435.618	90.62
435.84	112.62
436.062	110.62
436.284	129.62
436.505	117.62
436.727	84.62
436.949	81.62
437.17	79.62
437.392	89.62
437.614	92.62
437.835	96.62
438.057	113.62
438.278	102.62
438.5	113.62
438.721	105.62
438.943	84.62
439.165	97.62
439.386	87.62
439.608	99.62
439.829	102.62
440.05	113.62
440.272	128.62
440.493	98.62
440.715	90.62
440.936	87.62
441.158	90.62
441.379	85.62
441.6	95.62
441.822	91.62
442.043	106.62
442.264	108.62
442.486	111.62
442.707	97.62
442.928	102.62
443.149	123.62
443.371	121.62
443.592	108.62
443.813	110.62
444.034	110.62
444.255	95.62
444.476	71.62
444.698	88.62
444.919	103.62
445.14	121.62
445.361	135.62
445.582	121.62
445.803	125.62
446.024	118.62
446.245	130.62
446.466	101.62
446.687	90.62
446.908	89.62
447.129	96.62
447.35	94.62
447.571	89.62
447.792	81.62
448.013	94.62
448.234	97.62
448.455	89.62
448.675	112.62
448.896	125.62
449.117	97.62
449.338	102.62
449.559	126.62
449.779	107.62
450	95.62
450.221	83.62
450.442	62.62
450.662	86.62
450.883	100.62
451.104	103.62
451.324	98.62
451.545	100.62
451.766	86.62
451.986	97.62
452.207	93.62
452.428	93.62
452.648	86.62
452.869	117.62
453.089	111.62
453.31	126.62
453.53	100.62
453.751	95.62
453.971	115.62
454.192	100.62
454.412	97.62
454.633	108.62
454.853	87.62
455.073	85.62
455.294	86.62
455.514	105.62
455.734	109.62
455.955	97.62
456.175	84.62
456.395	79.62
456.616	85.62
456.836	84.62
457.056	85.62
457.276	84.62
457.497	93.62
457.717	70.62
457.937	87.62
458.157	100.62
458.377	99.62
458.598	97.62
458.818	133.62
459.038	162.62
459.258	102.62
459.478	98.62
459.698	86.62
459.918	81.62
460.138	92.62
460.358	67.62
460.578	99.62
460.798	81.62
461.018	108.62
461.238	98.62
461.458	77.62
461.678	70.62
461.898	84.62
462.118	93.62
462.338	87.62
462.558	85.62
462.777	85.62
462.997	97.62
463.217	104.62
463.437	81.62
463.657	93.62
463.876	90.62
464.096	92.62
464.316	81.62
464.536	83.62
464.755	93.62
464.975	102.62
465.195	134.62
465.414	118.62
465.634	94.62
465.854	78.62
466.073	92.62
466.293	107.62
466.512	92.62
466.732	89.62
466.951	88.62
467.171	97.62
467.391	93.62
467.61	102.62
467.829	103.62
468.049	92.62
468.268	87.62
468.488	95.62
468.707	109.62
468.927	96.62
469.146	81.62
469.365	68.62
469.585	98.62
469.804	98.62
470.023	89.62
470.243	113.62
470.462	82.62
470.681	103.62
470.901	89.62
471.12	74.62
471.339	75.62
471.558	89.62
471.777	83.62
471.997	81.62
472.216	92.62
472.435	85.62
472.654	97.62
472.873	99.62
473.092	82.62
473.311	82.62
473.53	82.62
473.749	87.62
473.968	89.62
474.187	111.62
474.406	90.62
474.625	77.62
474.844	82.62
475.063	91.62
475.282	97.62
475.501	97.62
475.72	93.62
475.939	91.62
476.158	103.62
476.377	92.62
476.596	73.62
476.814	94.62
477.033	96.62
477.252	79.62
477.471	97.62
477.69	77.62
477.908	94.62
478.127	82.62
478.346	80.62
478.564	102.62
478.783	113.62
479.002	101.62
479.22	97.62
479.439	103.62
479.658	95.62
479.876	99.62
480.095	94.62
480.313	100.62
480.532	87.62
480.751	99.62
480.969	95.62
481.188	86.62
481.406	93.62
481.624	89.62
481.843	95.62
482.061	88.62
482.28	98.62
482.498	77.62
482.717	107.62
482.935	95.62
483.153	79.62
483.372	97.62
483.59	81.62
483.808	77.62
484.027	89.62
484.245	96.62
484.463	108.62
484.681	103.62
484.9	100.62
485.118	92.62
485.336	97.62
485.554	83.62
485.772	92.62
485.99	99.62
486.209	106.62
486.427	94.62
486.645	117.62
486.863	122.62
487.081	98.62
487.299	90.62
487.517	96.62
487.735	86.62
487.953	94.62
488.171	83.62
488.389	107.62
488.607	99.62
488.825	89.62
489.043	93.62
489.261	95.62
489.479	84.62
489.696	87.62
489.914	91.62
490.132	89.62
490.35	93.62
490.568	92.62
490.786	75.62
491.003	75.62
491.221	96.62
491.439	83.62
491.657	101.62
491.874	95.62
492.092	90.62
492.31	79.62
492.527	96.62
492.745	96.62
492.963	100.62
493.18	85.62
493.398	88.62
493.615	93.62
493.833	76.62
494.05	103.62
494.268	101.62
494.485	93.62
494.703	95.62
494.92	91.62
495.138	89.62
495.355	92.62
495.573	77.62
495.79	100.62
496.008	104.62
496.225	93.62
496.442	81.62
496.66	89.62
496.877	89.62
497.094	85.62
497.312	92.62
497.529	88.62
497.746	96.62
497.963	86.62
498.181	87.62
498.398	106.62
498.615	91.62
498.832	94.62
499.049	89.62
499.267	96.62
499.484	88.62
499.701	90.62
499.918	86.62
500.135	96.62
500.352	83.62
500.569	102.62
500.786	93.62
501.003	90.62
501.22	77.62
501.437	100.62
501.654	95.62
501.871	91.62
502.088	84.62
502.305	93.62
502.522	73.62
502.739	94.62
502.956	72.62
503.172	94.62
503.389	99.62
503.606	110.62
503.823	99.62
504.04	85.62
504.256	98.62
504.473	82.62
504.69	86.62
504.907	95.62
505.123	92.62
505.34	87.62
505.557	85.62
505.773	89.62
505.99	79.62
506.207	97.62
506.423	94.62
506.64	93.62
506.856	94.62
507.073	107.62
507.289	93.62
507.506	102.62
507.722	100.62
507.939	109.62
508.155	95.62
508.372	98.62
508.588	113.62
508.805	90.62
509.021	82.62
509.238	98.62
509.454	106.62
509.67	111.62
509.887	109.62
510.103	130.62
510.319	205.62
510.536	701.62
510.752	2197.62
510.968	619.62
511.184	149.62
511.401	102.62
511.617	86.62
511.833	97.62
512.049	87.62
512.265	92.62
512.481	101.62
512.698	99.62
512.914	91.62
513.13	107.62
513.346	86.62
513.562	92.62
513.778	108.62
513.994	106.62
514.21	116.62
514.426	122.62
514.642	130.62
514.858	121.62
515.074	160.62
515.29	411.62
