Data from Uncirc_1994_H10_HRD10591_00086.txt Node
Date: Wed Jan 03 11:39:38 EST 2024
User: Yrep
Spectrometer: HR+D1059
Trigger mode: 1
Integration Time (sec): 1.000000E-1
Scans to average: 1
Electric dark correction enabled: true
Nonlinearity correction enabled: false
Boxcar width: 0
XAxis mode: Wavelengths
Number of Pixels in Spectrum: 2048
>>>>>Begin Spectral Data<<<<<
223.165	-11.25
223.4	-11.25
223.635	-11.25
223.869	-12.25
224.104	-15.25
224.338	-22.25
224.573	-19.25
224.808	-8.25
225.042	-18.25
225.277	0.75
225.511	-2.25
225.746	11.75
225.98	14.75
226.215	12.75
226.449	9.75
226.683	8.75
226.918	22.75
227.152	27.75
227.387	25.75
227.621	33.75
227.856	56.75
228.09	38.75
228.324	42.75
228.559	48.75
228.793	59.75
229.027	61.75
229.262	74.75
229.496	66.75
229.73	71.75
229.964	77.75
230.199	69.75
230.433	63.75
230.667	64.75
230.901	70.75
231.136	69.75
231.37	74.75
231.604	77.75
231.838	91.75
232.072	77.75
232.306	70.75
232.541	77.75
232.775	74.75
233.009	83.75
233.243	78.75
233.477	69.75
233.711	77.75
233.945	72.75
234.179	84.75
234.413	83.75
234.647	85.75
234.881	87.75
235.115	70.75
235.349	65.75
235.583	81.75
235.817	61.75
236.051	71.75
236.285	66.75
236.519	77.75
236.753	79.75
236.987	82.75
237.221	85.75
237.455	84.75
237.689	72.75
237.922	61.75
238.156	66.75
238.39	85.75
238.624	71.75
238.858	76.75
239.091	76.75
239.325	74.75
239.559	71.75
239.793	89.75
240.027	74.75
240.26	66.75
240.494	71.75
240.728	66.75
240.961	74.75
241.195	88.75
241.429	75.75
241.662	64.75
241.896	57.75
242.13	68.75
242.363	70.75
242.597	83.75
242.83	80.75
243.064	79.75
243.298	75.75
243.531	77.75
243.765	52.75
243.998	92.75
244.232	80.75
244.465	80.75
244.699	85.75
244.932	77.75
245.166	81.75
245.399	88.75
245.633	65.75
245.866	81.75
246.099	70.75
246.333	77.75
246.566	63.75
246.8	96.75
247.033	85.75
247.266	74.75
247.5	89.75
247.733	75.75
247.966	74.75
248.2	75.75
248.433	79.75
248.666	64.75
248.899	85.75
249.133	80.75
249.366	95.75
249.599	83.75
249.832	84.75
250.066	73.75
250.299	87.75
250.532	85.75
250.765	77.75
250.998	75.75
251.231	78.75
251.465	71.75
251.698	80.75
251.931	76.75
252.164	84.75
252.397	82.75
252.63	80.75
252.863	75.75
253.096	75.75
253.329	74.75
253.562	90.75
253.795	82.75
254.028	89.75
254.261	79.75
254.494	73.75
254.727	78.75
254.96	63.75
255.193	71.75
255.426	69.75
255.659	68.75
255.892	80.75
256.124	72.75
256.357	70.75
256.59	70.75
256.823	74.75
257.056	75.75
257.289	72.75
257.521	83.75
257.754	70.75
257.987	69.75
258.22	80.75
258.452	89.75
258.685	70.75
258.918	73.75
259.151	72.75
259.383	85.75
259.616	81.75
259.849	81.75
260.081	71.75
260.314	82.75
260.547	72.75
260.779	79.75
261.012	91.75
261.244	90.75
261.477	92.75
261.71	97.75
261.942	101.75
262.175	103.75
262.407	91.75
262.64	71.75
262.872	89.75
263.105	86.75
263.337	80.75
263.57	73.75
263.802	73.75
264.035	72.75
264.267	74.75
264.499	68.75
264.732	78.75
264.964	83.75
265.197	74.75
265.429	75.75
265.661	82.75
265.894	62.75
266.126	90.75
266.358	92.75
266.591	88.75
266.823	94.75
267.055	79.75
267.287	76.75
267.52	76.75
267.752	93.75
267.984	82.75
268.216	82.75
268.448	79.75
268.681	90.75
268.913	76.75
269.145	87.75
269.377	84.75
269.609	81.75
269.841	67.75
270.073	74.75
270.306	80.75
270.538	83.75
270.77	86.75
271.002	90.75
271.234	81.75
271.466	66.75
271.698	89.75
271.93	85.75
272.162	87.75
272.394	90.75
272.626	70.75
272.858	76.75
273.09	81.75
273.322	84.75
273.553	75.75
273.785	94.75
274.017	81.75
274.249	83.75
274.481	87.75
274.713	82.75
274.945	69.75
275.176	99.75
275.408	86.75
275.64	77.75
275.872	86.75
276.104	80.75
276.335	80.75
276.567	94.75
276.799	94.75
277.031	94.75
277.262	82.75
277.494	89.75
277.726	82.75
277.957	83.75
278.189	79.75
278.421	89.75
278.652	80.75
278.884	64.75
279.115	70.75
279.347	74.75
279.579	77.75
279.81	86.75
280.042	77.75
280.273	83.75
280.505	82.75
280.736	96.75
280.968	86.75
281.199	90.75
281.431	91.75
281.662	86.75
281.894	91.75
282.125	85.75
282.356	121.75
282.588	131.75
282.819	106.75
283.051	86.75
283.282	81.75
283.513	91.75
283.745	84.75
283.976	85.75
284.207	93.75
284.439	86.75
284.67	71.75
284.901	93.75
285.132	87.75
285.364	83.75
285.595	81.75
285.826	87.75
286.057	86.75
286.288	73.75
286.52	97.75
286.751	89.75
286.982	86.75
287.213	90.75
287.444	90.75
287.675	88.75
287.906	88.75
288.138	82.75
288.369	101.75
288.6	88.75
288.831	73.75
289.062	80.75
289.293	86.75
289.524	82.75
289.755	89.75
289.986	89.75
290.217	98.75
290.448	78.75
290.679	82.75
290.91	83.75
291.141	77.75
291.371	70.75
291.602	82.75
291.833	91.75
292.064	91.75
292.295	91.75
292.526	98.75
292.757	95.75
292.987	92.75
293.218	68.75
293.449	86.75
293.68	81.75
293.91	79.75
294.141	89.75
294.372	91.75
294.603	88.75
294.833	91.75
295.064	95.75
295.295	81.75
295.525	98.75
295.756	87.75
295.987	106.75
296.217	122.75
296.448	121.75
296.679	101.75
296.909	89.75
297.14	86.75
297.37	89.75
297.601	78.75
297.831	69.75
298.062	81.75
298.292	93.75
298.523	90.75
298.753	93.75
298.984	100.75
299.214	75.75
299.445	84.75
299.675	85.75
299.905	76.75
300.136	83.75
300.366	85.75
300.597	83.75
300.827	73.75
301.057	92.75
301.288	101.75
301.518	104.75
301.748	81.75
301.979	102.75
302.209	105.75
302.439	82.75
302.669	78.75
302.9	88.75
303.13	89.75
303.36	91.75
303.59	104.75
303.82	105.75
304.051	85.75
304.281	87.75
304.511	81.75
304.741	101.75
304.971	81.75
305.201	89.75
305.431	91.75
305.661	97.75
305.891	82.75
306.121	89.75
306.352	92.75
306.582	109.75
306.812	88.75
307.042	62.75
307.272	98.75
307.502	78.75
307.731	88.75
307.961	92.75
308.191	85.75
308.421	97.75
308.651	82.75
308.881	81.75
309.111	97.75
309.341	106.75
309.571	96.75
309.8	107.75
310.03	94.75
310.26	101.75
310.49	93.75
310.72	83.75
310.949	96.75
311.179	87.75
311.409	83.75
311.639	85.75
311.868	95.75
312.098	92.75
312.328	87.75
312.557	99.75
312.787	106.75
313.017	98.75
313.246	102.75
313.476	86.75
313.706	88.75
313.935	79.75
314.165	94.75
314.394	97.75
314.624	99.75
314.853	89.75
315.083	88.75
315.312	86.75
315.542	82.75
315.771	73.75
316.001	81.75
316.23	82.75
316.46	89.75
316.689	83.75
316.919	85.75
317.148	94.75
317.377	99.75
317.607	88.75
317.836	81.75
318.065	81.75
318.295	79.75
318.524	77.75
318.753	99.75
318.983	99.75
319.212	89.75
319.441	83.75
319.67	110.75
319.9	87.75
320.129	74.75
320.358	85.75
320.587	87.75
320.816	93.75
321.046	91.75
321.275	96.75
321.504	92.75
321.733	92.75
321.962	92.75
322.191	95.75
322.42	94.75
322.649	93.75
322.878	106.75
323.108	109.75
323.337	110.75
323.566	135.75
323.795	152.75
324.024	185.75
324.253	385.75
324.482	779.75
324.71	1634.75
324.939	2154.75
325.168	795.75
325.397	245.75
325.626	146.75
325.855	123.75
326.084	106.75
326.313	124.75
326.542	149.75
326.77	210.75
326.999	449.75
327.228	914.75
327.457	1655.75
327.686	1309.75
327.914	342.75
328.143	193.75
328.372	134.75
328.6	115.75
328.829	102.75
329.058	108.75
329.287	111.75
329.515	98.75
329.744	97.75
329.972	89.75
330.201	94.75
330.43	117.75
330.658	116.75
330.887	121.75
331.115	124.75
331.344	101.75
331.572	98.75
331.801	95.75
332.03	101.75
332.258	103.75
332.486	86.75
332.715	87.75
332.943	99.75
333.172	85.75
333.4	86.75
333.629	106.75
333.857	96.75
334.085	105.75
334.314	83.75
334.542	94.75
334.771	94.75
334.999	99.75
335.227	89.75
335.455	91.75
335.684	89.75
335.912	102.75
336.14	104.75
336.369	99.75
336.597	90.75
336.825	100.75
337.053	85.75
337.281	86.75
337.51	84.75
337.738	97.75
337.966	77.75
338.194	88.75
338.422	98.75
338.65	105.75
338.878	95.75
339.106	86.75
339.334	94.75
339.562	92.75
339.79	94.75
340.018	81.75
340.246	89.75
340.474	99.75
340.702	87.75
340.93	78.75
341.158	101.75
341.386	95.75
341.614	85.75
341.842	83.75
342.07	97.75
342.298	98.75
342.526	76.75
342.754	69.75
342.981	92.75
343.209	89.75
343.437	98.75
343.665	95.75
343.893	92.75
344.12	92.75
344.348	88.75
344.576	86.75
344.804	78.75
345.031	88.75
345.259	86.75
345.487	87.75
345.714	90.75
345.942	106.75
346.17	82.75
346.397	88.75
346.625	82.75
346.853	71.75
347.08	77.75
347.308	97.75
347.535	103.75
347.763	108.75
347.99	99.75
348.218	90.75
348.445	93.75
348.673	94.75
348.9	89.75
349.128	106.75
349.355	110.75
349.583	81.75
349.81	65.75
350.037	94.75
350.265	89.75
350.492	90.75
350.72	97.75
350.947	89.75
351.174	109.75
351.402	110.75
351.629	103.75
351.856	97.75
352.083	98.75
352.311	92.75
352.538	88.75
352.765	96.75
352.992	116.75
353.22	105.75
353.447	81.75
353.674	86.75
353.901	92.75
354.128	89.75
354.355	94.75
354.583	83.75
354.81	99.75
355.037	97.75
355.264	96.75
355.491	86.75
355.718	94.75
355.945	92.75
356.172	95.75
356.399	82.75
356.626	87.75
356.853	82.75
357.08	95.75
357.307	92.75
357.534	75.75
357.761	78.75
357.988	87.75
358.215	90.75
358.441	96.75
358.668	99.75
358.895	88.75
359.122	89.75
359.349	71.75
359.576	76.75
359.802	104.75
360.029	113.75
360.256	105.75
360.483	76.75
360.709	90.75
360.936	89.75
361.163	87.75
361.39	95.75
361.616	91.75
361.843	71.75
362.07	75.75
362.296	105.75
362.523	85.75
362.749	84.75
362.976	70.75
363.203	83.75
363.429	88.75
363.656	81.75
363.882	75.75
364.109	90.75
364.335	99.75
364.562	86.75
364.788	81.75
365.015	88.75
365.241	95.75
365.468	93.75
365.694	96.75
365.92	94.75
366.147	78.75
366.373	87.75
366.599	81.75
366.826	82.75
367.052	87.75
367.278	87.75
367.505	82.75
367.731	79.75
367.957	74.75
368.184	92.75
368.41	79.75
368.636	102.75
368.862	96.75
369.089	89.75
369.315	93.75
369.541	94.75
369.767	82.75
369.993	83.75
370.219	89.75
370.445	75.75
370.672	84.75
370.898	91.75
371.124	91.75
371.35	83.75
371.576	93.75
371.802	85.75
372.028	88.75
372.254	91.75
372.48	98.75
372.706	94.75
372.932	93.75
373.158	90.75
373.384	92.75
373.61	86.75
373.835	98.75
374.061	84.75
374.287	79.75
374.513	72.75
374.739	105.75
374.965	93.75
375.191	95.75
375.416	103.75
375.642	88.75
375.868	99.75
376.094	88.75
376.319	89.75
376.545	74.75
376.771	89.75
376.997	90.75
377.222	99.75
377.448	92.75
377.674	82.75
377.899	79.75
378.125	90.75
378.35	85.75
378.576	100.75
378.802	90.75
379.027	83.75
379.253	94.75
379.478	97.75
379.704	96.75
379.929	73.75
380.155	94.75
380.38	83.75
380.606	82.75
380.831	82.75
381.057	84.75
381.282	88.75
381.507	93.75
381.733	98.75
381.958	96.75
382.184	102.75
382.409	83.75
382.634	86.75
382.86	82.75
383.085	89.75
383.31	91.75
383.535	82.75
383.761	87.75
383.986	82.75
384.211	94.75
384.436	85.75
384.662	95.75
384.887	96.75
385.112	95.75
385.337	99.75
385.562	95.75
385.787	110.75
386.013	94.75
386.238	105.75
386.463	88.75
386.688	107.75
386.913	89.75
387.138	103.75
387.363	94.75
387.588	96.75
387.813	104.75
388.038	99.75
388.263	103.75
388.488	96.75
388.713	90.75
388.938	90.75
389.163	82.75
389.387	97.75
389.612	88.75
389.837	85.75
390.062	97.75
390.287	95.75
390.512	91.75
390.736	97.75
390.961	92.75
391.186	70.75
391.411	98.75
391.636	90.75
391.86	80.75
392.085	72.75
392.31	74.75
392.534	78.75
392.759	81.75
392.984	89.75
393.208	88.75
393.433	98.75
393.658	99.75
393.882	91.75
394.107	89.75
394.331	81.75
394.556	86.75
394.78	75.75
395.005	88.75
395.229	81.75
395.454	86.75
395.678	93.75
395.903	97.75
396.127	83.75
396.352	64.75
396.576	88.75
396.801	89.75
397.025	79.75
397.249	84.75
397.474	94.75
397.698	90.75
397.922	94.75
398.147	77.75
398.371	59.75
398.595	73.75
398.82	96.75
399.044	96.75
399.268	104.75
399.492	99.75
399.717	76.75
399.941	90.75
400.165	95.75
400.389	89.75
400.613	90.75
400.837	74.75
401.062	90.75
401.286	90.75
401.51	86.75
401.734	78.75
401.958	81.75
402.182	125.75
402.406	134.75
402.63	107.75
402.854	78.75
403.078	70.75
403.302	86.75
403.526	84.75
403.75	78.75
403.974	81.75
404.198	94.75
404.422	82.75
404.645	78.75
404.869	79.75
405.093	88.75
405.317	81.75
405.541	92.75
405.765	93.75
405.988	109.75
406.212	163.75
406.436	208.75
406.66	135.75
406.883	103.75
407.107	96.75
407.331	103.75
407.555	102.75
407.778	82.75
408.002	103.75
408.226	91.75
408.449	86.75
408.673	79.75
408.896	89.75
409.12	98.75
409.344	87.75
409.567	87.75
409.791	79.75
410.014	92.75
410.238	86.75
410.461	93.75
410.685	95.75
410.908	87.75
411.132	93.75
411.355	94.75
411.578	81.75
411.802	89.75
412.025	75.75
412.249	89.75
412.472	82.75
412.695	94.75
412.919	85.75
413.142	91.75
413.365	99.75
413.589	94.75
413.812	92.75
414.035	72.75
414.258	83.75
414.482	81.75
414.705	94.75
414.928	101.75
415.151	72.75
415.374	70.75
415.597	82.75
415.821	85.75
416.044	89.75
416.267	89.75
416.49	83.75
416.713	77.75
416.936	77.75
417.159	83.75
417.382	83.75
417.605	85.75
417.828	89.75
418.051	79.75
418.274	78.75
418.497	91.75
418.72	82.75
418.943	88.75
419.166	89.75
419.389	73.75
419.611	99.75
419.834	90.75
420.057	93.75
420.28	77.75
420.503	93.75
420.726	101.75
420.948	90.75
421.171	95.75
421.394	91.75
421.617	92.75
421.839	98.75
422.062	76.75
422.285	100.75
422.507	106.75
422.73	98.75
422.953	99.75
423.175	89.75
423.398	84.75
423.621	87.75
423.843	92.75
424.066	86.75
424.288	100.75
424.511	90.75
424.733	105.75
424.956	91.75
425.178	97.75
425.401	97.75
425.623	107.75
425.846	98.75
426.068	98.75
426.291	90.75
426.513	86.75
426.735	91.75
426.958	103.75
427.18	102.75
427.402	133.75
427.625	136.75
427.847	117.75
428.069	96.75
428.292	87.75
428.514	87.75
428.736	94.75
428.958	90.75
429.181	83.75
429.403	86.75
429.625	75.75
429.847	79.75
430.069	89.75
430.292	78.75
430.514	94.75
430.736	90.75
430.958	93.75
431.18	74.75
431.402	84.75
431.624	77.75
431.846	82.75
432.068	86.75
432.29	90.75
432.512	85.75
432.734	80.75
432.956	97.75
433.178	100.75
433.4	97.75
433.622	85.75
433.844	81.75
434.066	85.75
434.287	85.75
434.509	88.75
434.731	95.75
434.953	84.75
435.175	89.75
435.397	98.75
435.618	80.75
435.84	93.75
436.062	129.75
436.284	98.75
436.505	97.75
436.727	104.75
436.949	79.75
437.17	66.75
437.392	83.75
437.614	85.75
437.835	98.75
438.057	109.75
438.278	116.75
438.5	98.75
438.721	118.75
438.943	118.75
439.165	90.75
439.386	90.75
439.608	97.75
439.829	95.75
440.05	126.75
440.272	122.75
440.493	103.75
440.715	83.75
440.936	89.75
441.158	87.75
441.379	95.75
441.6	83.75
441.822	85.75
442.043	94.75
442.264	98.75
442.486	93.75
442.707	96.75
442.928	91.75
443.149	115.75
443.371	114.75
443.592	105.75
443.813	105.75
444.034	112.75
444.255	90.75
444.476	97.75
444.698	93.75
444.919	75.75
445.14	113.75
445.361	113.75
445.582	112.75
445.803	135.75
446.024	122.75
446.245	142.75
446.466	105.75
446.687	75.75
446.908	95.75
447.129	85.75
447.35	99.75
447.571	88.75
447.792	90.75
448.013	93.75
448.234	109.75
448.455	98.75
448.675	108.75
448.896	119.75
449.117	103.75
449.338	92.75
449.559	133.75
449.779	137.75
450	104.75
450.221	79.75
450.442	108.75
450.662	100.75
450.883	97.75
451.104	97.75
451.324	89.75
451.545	87.75
451.766	75.75
451.986	97.75
452.207	94.75
452.428	97.75
452.648	96.75
452.869	98.75
453.089	104.75
453.31	113.75
453.53	85.75
453.751	99.75
453.971	90.75
454.192	103.75
454.412	103.75
454.633	72.75
454.853	90.75
455.073	102.75
455.294	93.75
455.514	97.75
455.734	91.75
455.955	77.75
456.175	89.75
456.395	80.75
456.616	82.75
456.836	83.75
457.056	72.75
457.276	75.75
457.497	88.75
457.717	94.75
457.937	95.75
458.157	89.75
458.377	95.75
458.598	87.75
458.818	130.75
459.038	145.75
459.258	125.75
459.478	99.75
459.698	75.75
459.918	86.75
460.138	98.75
460.358	88.75
460.578	94.75
460.798	90.75
461.018	93.75
461.238	73.75
461.458	91.75
461.678	78.75
461.898	95.75
462.118	85.75
462.338	88.75
462.558	80.75
462.777	78.75
462.997	79.75
463.217	75.75
463.437	79.75
463.657	73.75
463.876	91.75
464.096	84.75
464.316	90.75
464.536	90.75
464.755	85.75
464.975	107.75
465.195	153.75
465.414	146.75
465.634	79.75
465.854	77.75
466.073	109.75
466.293	99.75
466.512	82.75
466.732	78.75
466.951	88.75
467.171	93.75
467.391	91.75
467.61	90.75
467.829	103.75
468.049	83.75
468.268	90.75
468.488	91.75
468.707	83.75
468.927	94.75
469.146	70.75
469.365	79.75
469.585	94.75
469.804	85.75
470.023	91.75
470.243	93.75
470.462	91.75
470.681	96.75
470.901	90.75
471.12	86.75
471.339	88.75
471.558	92.75
471.777	88.75
471.997	86.75
472.216	86.75
472.435	90.75
472.654	97.75
472.873	89.75
473.092	83.75
473.311	83.75
473.53	80.75
473.749	75.75
473.968	90.75
474.187	107.75
474.406	80.75
474.625	91.75
474.844	91.75
475.063	83.75
475.282	91.75
475.501	83.75
475.72	84.75
475.939	82.75
476.158	86.75
476.377	69.75
476.596	92.75
476.814	91.75
477.033	95.75
477.252	65.75
477.471	90.75
477.69	78.75
477.908	85.75
478.127	78.75
478.346	82.75
478.564	90.75
478.783	86.75
479.002	84.75
479.22	92.75
479.439	90.75
479.658	92.75
479.876	92.75
480.095	82.75
480.313	97.75
480.532	89.75
480.751	92.75
480.969	98.75
481.188	97.75
481.406	81.75
481.624	95.75
481.843	89.75
482.061	79.75
482.28	93.75
482.498	87.75
482.717	97.75
482.935	86.75
483.153	76.75
483.372	78.75
483.59	85.75
483.808	79.75
484.027	96.75
484.245	82.75
484.463	85.75
484.681	101.75
484.9	100.75
485.118	80.75
485.336	82.75
485.554	80.75
485.772	85.75
485.99	100.75
486.209	111.75
486.427	110.75
486.645	113.75
486.863	115.75
487.081	100.75
487.299	91.75
487.517	90.75
487.735	90.75
487.953	93.75
488.171	89.75
488.389	108.75
488.607	109.75
488.825	90.75
489.043	71.75
489.261	86.75
489.479	76.75
489.696	98.75
489.914	89.75
490.132	85.75
490.35	79.75
490.568	77.75
490.786	93.75
491.003	82.75
491.221	82.75
491.439	85.75
491.657	112.75
491.874	91.75
492.092	96.75
492.31	98.75
492.527	82.75
492.745	92.75
492.963	103.75
493.18	91.75
493.398	80.75
493.615	96.75
493.833	91.75
494.05	91.75
494.268	90.75
494.485	94.75
494.703	84.75
494.92	99.75
495.138	88.75
495.355	93.75
495.573	96.75
495.79	83.75
496.008	91.75
496.225	95.75
496.442	97.75
496.66	80.75
496.877	77.75
497.094	91.75
497.312	96.75
497.529	79.75
497.746	89.75
497.963	105.75
498.181	92.75
498.398	85.75
498.615	95.75
498.832	93.75
499.049	95.75
499.267	89.75
499.484	86.75
499.701	95.75
499.918	84.75
500.135	90.75
500.352	90.75
500.569	98.75
500.786	87.75
501.003	98.75
501.22	92.75
501.437	106.75
501.654	87.75
501.871	110.75
502.088	102.75
502.305	75.75
502.522	87.75
502.739	83.75
502.956	91.75
503.172	73.75
503.389	90.75
503.606	98.75
503.823	77.75
504.04	99.75
504.256	94.75
504.473	86.75
504.69	90.75
504.907	96.75
505.123	94.75
505.34	89.75
505.557	89.75
505.773	103.75
505.99	88.75
506.207	95.75
506.423	73.75
506.64	93.75
506.856	94.75
507.073	81.75
507.289	92.75
507.506	88.75
507.722	114.75
507.939	107.75
508.155	98.75
508.372	93.75
508.588	97.75
508.805	87.75
509.021	88.75
509.238	93.75
509.454	106.75
509.67	99.75
509.887	98.75
510.103	133.75
510.319	217.75
510.536	718.75
510.752	2315.75
510.968	651.75
511.184	151.75
511.401	105.75
511.617	109.75
511.833	90.75
512.049	92.75
512.265	84.75
512.481	86.75
512.698	92.75
512.914	98.75
513.13	100.75
513.346	89.75
513.562	90.75
513.778	93.75
513.994	94.75
514.21	94.75
514.426	119.75
514.642	128.75
514.858	125.75
515.074	147.75
515.29	443.75
515.506	1426.75
515.721	506.75
515.937	138.75
516.153	97.75
516.369	85.75
516.585	89.75
516.801	94.75
517.016	89.75
517.232	91.75
