Data from Uncirc_1994_H10_HRD10591_00075.txt Node
Date: Wed Jan 03 11:39:35 EST 2024
User: Yrep
Spectrometer: HR+D1059
Trigger mode: 1
Integration Time (sec): 1.000000E-1
Scans to average: 1
Electric dark correction enabled: true
Nonlinearity correction enabled: false
Boxcar width: 0
XAxis mode: Wavelengths
Number of Pixels in Spectrum: 2048
>>>>>Begin Spectral Data<<<<<
223.165	-16.56
223.4	-16.56
223.635	-16.56
223.869	-16.56
224.104	-11.56
224.338	-24.56
224.573	-23.56
224.808	-14.56
225.042	-3.56
225.277	1.44
225.511	-6.56
225.746	9.44
225.98	7.44
226.215	14.44
226.449	15.44
226.683	14.44
226.918	31.44
227.152	23.44
227.387	38.44
227.621	30.44
227.856	39.44
228.09	46.44
228.324	48.44
228.559	52.44
228.793	64.44
229.027	74.44
229.262	59.44
229.496	70.44
229.73	85.44
229.964	79.44
230.199	67.44
230.433	87.44
230.667	79.44
230.901	74.44
231.136	81.44
231.37	70.44
231.604	76.44
231.838	81.44
232.072	77.44
232.306	78.44
232.541	100.44
232.775	86.44
233.009	80.44
233.243	77.44
233.477	83.44
233.711	92.44
233.945	92.44
234.179	73.44
234.413	88.44
234.647	78.44
234.881	74.44
235.115	81.44
235.349	77.44
235.583	76.44
235.817	85.44
236.051	89.44
236.285	79.44
236.519	80.44
236.753	77.44
236.987	85.44
237.221	87.44
237.455	83.44
237.689	74.44
237.922	75.44
238.156	81.44
238.39	68.44
238.624	75.44
238.858	81.44
239.091	81.44
239.325	89.44
239.559	95.44
239.793	82.44
240.027	90.44
240.26	89.44
240.494	84.44
240.728	89.44
240.961	73.44
241.195	83.44
241.429	68.44
241.662	79.44
241.896	80.44
242.13	92.44
242.363	63.44
242.597	83.44
242.83	87.44
243.064	77.44
243.298	78.44
243.531	68.44
243.765	81.44
243.998	86.44
244.232	89.44
244.465	88.44
244.699	103.44
244.932	87.44
245.166	86.44
245.399	90.44
245.633	90.44
245.866	68.44
246.099	82.44
246.333	83.44
246.566	78.44
246.8	83.44
247.033	85.44
247.266	74.44
247.5	98.44
247.733	76.44
247.966	68.44
248.2	71.44
248.433	62.44
248.666	70.44
248.899	81.44
249.133	86.44
249.366	95.44
249.599	95.44
249.832	72.44
250.066	88.44
250.299	86.44
250.532	83.44
250.765	94.44
250.998	95.44
251.231	85.44
251.465	74.44
251.698	79.44
251.931	90.44
252.164	86.44
252.397	87.44
252.63	96.44
252.863	94.44
253.096	77.44
253.329	92.44
253.562	94.44
253.795	80.44
254.028	88.44
254.261	94.44
254.494	76.44
254.727	73.44
254.96	74.44
255.193	83.44
255.426	78.44
255.659	74.44
255.892	80.44
256.124	86.44
256.357	69.44
256.59	93.44
256.823	77.44
257.056	84.44
257.289	95.44
257.521	85.44
257.754	93.44
257.987	99.44
258.22	77.44
258.452	86.44
258.685	89.44
258.918	80.44
259.151	83.44
259.383	93.44
259.616	84.44
259.849	76.44
260.081	78.44
260.314	82.44
260.547	87.44
260.779	71.44
261.012	89.44
261.244	79.44
261.477	82.44
261.71	88.44
261.942	110.44
262.175	121.44
262.407	97.44
262.64	73.44
262.872	87.44
263.105	91.44
263.337	88.44
263.57	93.44
263.802	74.44
264.035	75.44
264.267	93.44
264.499	94.44
264.732	78.44
264.964	78.44
265.197	91.44
265.429	84.44
265.661	86.44
265.894	84.44
266.126	97.44
266.358	76.44
266.591	85.44
266.823	83.44
267.055	87.44
267.287	80.44
267.52	85.44
267.752	92.44
267.984	78.44
268.216	94.44
268.448	85.44
268.681	100.44
268.913	90.44
269.145	74.44
269.377	96.44
269.609	94.44
269.841	87.44
270.073	93.44
270.306	89.44
270.538	92.44
270.77	75.44
271.002	89.44
271.234	82.44
271.466	86.44
271.698	82.44
271.93	72.44
272.162	88.44
272.394	92.44
272.626	98.44
272.858	85.44
273.09	85.44
273.322	91.44
273.553	85.44
273.785	69.44
274.017	89.44
274.249	89.44
274.481	73.44
274.713	98.44
274.945	84.44
275.176	81.44
275.408	82.44
275.64	92.44
275.872	93.44
276.104	83.44
276.335	99.44
276.567	93.44
276.799	107.44
277.031	111.44
277.262	98.44
277.494	105.44
277.726	90.44
277.957	89.44
278.189	76.44
278.421	94.44
278.652	92.44
278.884	78.44
279.115	97.44
279.347	86.44
279.579	95.44
279.81	87.44
280.042	89.44
280.273	79.44
280.505	77.44
280.736	83.44
280.968	65.44
281.199	85.44
281.431	87.44
281.662	78.44
281.894	88.44
282.125	111.44
282.356	123.44
282.588	131.44
282.819	107.44
283.051	99.44
283.282	85.44
283.513	80.44
283.745	95.44
283.976	93.44
284.207	98.44
284.439	91.44
284.67	90.44
284.901	90.44
285.132	88.44
285.364	81.44
285.595	94.44
285.826	88.44
286.057	83.44
286.288	94.44
286.52	89.44
286.751	97.44
286.982	76.44
287.213	83.44
287.444	96.44
287.675	81.44
287.906	94.44
288.138	86.44
288.369	90.44
288.6	99.44
288.831	85.44
289.062	98.44
289.293	86.44
289.524	76.44
289.755	78.44
289.986	99.44
290.217	98.44
290.448	86.44
290.679	95.44
290.91	82.44
291.141	89.44
291.371	91.44
291.602	87.44
291.833	81.44
292.064	87.44
292.295	78.44
292.526	98.44
292.757	78.44
292.987	91.44
293.218	94.44
293.449	79.44
293.68	91.44
293.91	92.44
294.141	80.44
294.372	106.44
294.603	85.44
294.833	91.44
295.064	85.44
295.295	97.44
295.525	91.44
295.756	102.44
295.987	116.44
296.217	133.44
296.448	109.44
296.679	93.44
296.909	104.44
297.14	90.44
297.37	89.44
297.601	93.44
297.831	84.44
298.062	101.44
298.292	93.44
298.523	101.44
298.753	94.44
298.984	77.44
299.214	77.44
299.445	92.44
299.675	103.44
299.905	85.44
300.136	84.44
300.366	97.44
300.597	96.44
300.827	98.44
301.057	84.44
301.288	100.44
301.518	103.44
301.748	91.44
301.979	93.44
302.209	107.44
302.439	96.44
302.669	103.44
302.9	102.44
303.13	100.44
303.36	92.44
303.59	94.44
303.82	110.44
304.051	106.44
304.281	85.44
304.511	87.44
304.741	84.44
304.971	97.44
305.201	79.44
305.431	91.44
305.661	77.44
305.891	92.44
306.121	94.44
306.352	88.44
306.582	98.44
306.812	87.44
307.042	89.44
307.272	91.44
307.502	98.44
307.731	76.44
307.961	110.44
308.191	100.44
308.421	90.44
308.651	87.44
308.881	97.44
309.111	91.44
309.341	100.44
309.571	108.44
309.8	93.44
310.03	111.44
310.26	101.44
310.49	97.44
310.72	89.44
310.949	117.44
311.179	102.44
311.409	113.44
311.639	97.44
311.868	106.44
312.098	90.44
312.328	111.44
312.557	102.44
312.787	102.44
313.017	93.44
313.246	87.44
313.476	82.44
313.706	99.44
313.935	93.44
314.165	87.44
314.394	105.44
314.624	97.44
314.853	90.44
315.083	93.44
315.312	90.44
315.542	87.44
315.771	89.44
316.001	77.44
316.23	81.44
316.46	101.44
316.689	86.44
316.919	85.44
317.148	93.44
317.377	83.44
317.607	105.44
317.836	99.44
318.065	96.44
318.295	104.44
318.524	95.44
318.753	100.44
318.983	100.44
319.212	99.44
319.441	101.44
319.67	99.44
319.9	102.44
320.129	93.44
320.358	95.44
320.587	101.44
320.816	115.44
321.046	107.44
321.275	113.44
321.504	112.44
321.733	99.44
321.962	101.44
322.191	109.44
322.42	107.44
322.649	107.44
322.878	118.44
323.108	106.44
323.337	134.44
323.566	136.44
323.795	145.44
324.024	188.44
324.253	371.44
324.482	825.44
324.71	1615.44
324.939	2133.44
325.168	769.44
325.397	235.44
325.626	159.44
325.855	117.44
326.084	120.44
326.313	145.44
326.542	150.44
326.77	239.44
326.999	446.44
327.228	923.44
327.457	1638.44
327.686	1269.44
327.914	362.44
328.143	185.44
328.372	157.44
328.6	130.44
328.829	106.44
329.058	125.44
329.287	113.44
329.515	104.44
329.744	106.44
329.972	101.44
330.201	93.44
330.43	111.44
330.658	123.44
330.887	141.44
331.115	115.44
331.344	92.44
331.572	115.44
331.801	107.44
332.03	104.44
332.258	109.44
332.486	93.44
332.715	93.44
332.943	83.44
333.172	94.44
333.4	100.44
333.629	95.44
333.857	112.44
334.085	93.44
334.314	91.44
334.542	87.44
334.771	75.44
334.999	87.44
335.227	90.44
335.455	75.44
335.684	95.44
335.912	95.44
336.14	95.44
336.369	110.44
336.597	100.44
336.825	101.44
337.053	86.44
337.281	81.44
337.51	89.44
337.738	102.44
337.966	102.44
338.194	108.44
338.422	87.44
338.65	98.44
338.878	94.44
339.106	79.44
339.334	92.44
339.562	105.44
339.79	91.44
340.018	105.44
340.246	86.44
340.474	86.44
340.702	91.44
340.93	83.44
341.158	96.44
341.386	103.44
341.614	106.44
341.842	91.44
342.07	95.44
342.298	104.44
342.526	99.44
342.754	85.44
342.981	88.44
343.209	83.44
343.437	104.44
343.665	99.44
343.893	87.44
344.12	94.44
344.348	99.44
344.576	95.44
344.804	70.44
345.031	99.44
345.259	98.44
345.487	94.44
345.714	101.44
345.942	77.44
346.17	97.44
346.397	83.44
346.625	101.44
346.853	104.44
347.08	94.44
347.308	89.44
347.535	103.44
347.763	96.44
347.99	85.44
348.218	107.44
348.445	102.44
348.673	107.44
348.9	95.44
349.128	101.44
349.355	94.44
349.583	96.44
349.81	74.44
350.037	96.44
350.265	104.44
350.492	114.44
350.72	93.44
350.947	90.44
351.174	100.44
351.402	90.44
351.629	94.44
351.856	114.44
352.083	108.44
352.311	104.44
352.538	122.44
352.765	119.44
352.992	113.44
353.22	123.44
353.447	109.44
353.674	101.44
353.901	97.44
354.128	98.44
354.355	97.44
354.583	94.44
354.81	89.44
355.037	103.44
355.264	113.44
355.491	90.44
355.718	84.44
355.945	87.44
356.172	106.44
356.399	87.44
356.626	97.44
356.853	106.44
357.08	101.44
357.307	93.44
357.534	102.44
357.761	89.44
357.988	109.44
358.215	108.44
358.441	104.44
358.668	102.44
358.895	107.44
359.122	85.44
359.349	92.44
359.576	96.44
359.802	105.44
360.029	113.44
360.256	103.44
360.483	91.44
360.709	89.44
360.936	98.44
361.163	98.44
361.39	94.44
361.616	96.44
361.843	97.44
362.07	89.44
362.296	94.44
362.523	94.44
362.749	103.44
362.976	96.44
363.203	100.44
363.429	98.44
363.656	98.44
363.882	94.44
364.109	95.44
364.335	92.44
364.562	92.44
364.788	93.44
365.015	98.44
365.241	91.44
365.468	112.44
365.694	101.44
365.92	102.44
366.147	92.44
366.373	95.44
366.599	85.44
366.826	92.44
367.052	93.44
367.278	83.44
367.505	103.44
367.731	90.44
367.957	105.44
368.184	101.44
368.41	95.44
368.636	95.44
368.862	107.44
369.089	110.44
369.315	83.44
369.541	92.44
369.767	93.44
369.993	100.44
370.219	83.44
370.445	92.44
370.672	96.44
370.898	97.44
371.124	100.44
371.35	94.44
371.576	85.44
371.802	85.44
372.028	90.44
372.254	88.44
372.48	81.44
372.706	93.44
372.932	87.44
373.158	90.44
373.384	82.44
373.61	86.44
373.835	97.44
374.061	82.44
374.287	85.44
374.513	91.44
374.739	90.44
374.965	95.44
375.191	99.44
375.416	90.44
375.642	82.44
375.868	90.44
376.094	100.44
376.319	89.44
376.545	95.44
376.771	88.44
376.997	86.44
377.222	85.44
377.448	90.44
377.674	87.44
377.899	79.44
378.125	89.44
378.35	94.44
378.576	84.44
378.802	90.44
379.027	90.44
379.253	99.44
379.478	79.44
379.704	78.44
379.929	93.44
380.155	76.44
380.38	102.44
380.606	86.44
380.831	103.44
381.057	84.44
381.282	86.44
381.507	95.44
381.733	90.44
381.958	83.44
382.184	102.44
382.409	88.44
382.634	105.44
382.86	91.44
383.085	96.44
383.31	104.44
383.535	103.44
383.761	96.44
383.986	102.44
384.211	103.44
384.436	102.44
384.662	98.44
384.887	103.44
385.112	103.44
385.337	104.44
385.562	109.44
385.787	100.44
386.013	94.44
386.238	115.44
386.463	108.44
386.688	109.44
386.913	105.44
387.138	95.44
387.363	108.44
387.588	116.44
387.813	101.44
388.038	93.44
388.263	102.44
388.488	102.44
388.713	95.44
388.938	94.44
389.163	95.44
389.387	92.44
389.612	105.44
389.837	98.44
390.062	110.44
390.287	105.44
390.512	96.44
390.736	79.44
390.961	88.44
391.186	97.44
391.411	93.44
391.636	89.44
391.86	89.44
392.085	89.44
392.31	87.44
392.534	81.44
392.759	88.44
392.984	84.44
393.208	90.44
393.433	92.44
393.658	96.44
393.882	100.44
394.107	100.44
394.331	83.44
394.556	87.44
394.78	77.44
395.005	95.44
395.229	92.44
395.454	93.44
395.678	88.44
395.903	87.44
396.127	93.44
396.352	82.44
396.576	84.44
396.801	72.44
397.025	93.44
397.249	85.44
397.474	90.44
397.698	93.44
397.922	96.44
398.147	100.44
398.371	86.44
398.595	96.44
398.82	82.44
399.044	89.44
399.268	95.44
399.492	94.44
399.717	79.44
399.941	95.44
400.165	85.44
400.389	89.44
400.613	98.44
400.837	89.44
401.062	94.44
401.286	89.44
401.51	91.44
401.734	97.44
401.958	115.44
402.182	119.44
402.406	159.44
402.63	115.44
402.854	98.44
403.078	87.44
403.302	89.44
403.526	89.44
403.75	84.44
403.974	93.44
404.198	95.44
404.422	97.44
404.645	86.44
404.869	94.44
405.093	105.44
405.317	104.44
405.541	109.44
405.765	95.44
405.988	118.44
406.212	174.44
406.436	224.44
406.66	134.44
406.883	99.44
407.107	100.44
407.331	107.44
407.555	106.44
407.778	93.44
408.002	95.44
408.226	99.44
408.449	69.44
408.673	82.44
408.896	94.44
409.12	97.44
409.344	103.44
409.567	108.44
409.791	85.44
410.014	102.44
410.238	96.44
410.461	93.44
410.685	92.44
410.908	91.44
411.132	106.44
411.355	90.44
411.578	100.44
411.802	101.44
412.025	71.44
412.249	100.44
412.472	84.44
412.695	93.44
412.919	96.44
413.142	93.44
413.365	95.44
413.589	94.44
413.812	88.44
414.035	78.44
414.258	87.44
414.482	87.44
414.705	92.44
414.928	99.44
415.151	98.44
415.374	92.44
415.597	96.44
415.821	83.44
416.044	79.44
416.267	92.44
416.49	84.44
416.713	91.44
416.936	97.44
417.159	88.44
417.382	87.44
417.605	91.44
417.828	98.44
418.051	98.44
418.274	84.44
418.497	101.44
418.72	86.44
418.943	83.44
419.166	73.44
419.389	96.44
419.611	101.44
419.834	74.44
420.057	97.44
420.28	94.44
420.503	91.44
420.726	90.44
420.948	98.44
421.171	96.44
421.394	90.44
421.617	100.44
421.839	89.44
422.062	82.44
422.285	97.44
422.507	98.44
422.73	106.44
422.953	99.44
423.175	84.44
423.398	92.44
423.621	98.44
423.843	95.44
424.066	76.44
424.288	92.44
424.511	96.44
424.733	111.44
424.956	90.44
425.178	98.44
425.401	96.44
425.623	102.44
425.846	82.44
426.068	78.44
426.291	94.44
426.513	95.44
426.735	93.44
426.958	114.44
427.18	101.44
427.402	146.44
427.625	151.44
427.847	116.44
428.069	101.44
428.292	90.44
428.514	84.44
428.736	91.44
428.958	91.44
429.181	86.44
429.403	93.44
429.625	86.44
429.847	91.44
430.069	87.44
430.292	90.44
430.514	87.44
430.736	99.44
430.958	88.44
431.18	94.44
431.402	87.44
431.624	85.44
431.846	76.44
432.068	88.44
432.29	105.44
432.512	96.44
432.734	95.44
432.956	91.44
433.178	107.44
433.4	90.44
433.622	90.44
433.844	97.44
434.066	89.44
434.287	84.44
434.509	97.44
434.731	88.44
434.953	86.44
435.175	90.44
435.397	101.44
435.618	98.44
435.84	103.44
436.062	116.44
436.284	103.44
436.505	97.44
436.727	107.44
436.949	101.44
437.17	94.44
437.392	81.44
437.614	101.44
437.835	102.44
438.057	112.44
438.278	114.44
438.5	107.44
438.721	112.44
438.943	121.44
439.165	101.44
439.386	94.44
439.608	86.44
439.829	101.44
440.05	129.44
440.272	148.44
440.493	99.44
440.715	77.44
440.936	97.44
441.158	80.44
441.379	91.44
441.6	93.44
441.822	95.44
442.043	87.44
442.264	123.44
442.486	99.44
442.707	90.44
442.928	83.44
443.149	116.44
443.371	137.44
443.592	113.44
443.813	95.44
444.034	102.44
444.255	98.44
444.476	103.44
444.698	100.44
444.919	82.44
445.14	132.44
445.361	128.44
445.582	116.44
445.803	144.44
446.024	142.44
446.245	125.44
446.466	117.44
446.687	97.44
446.908	80.44
447.129	94.44
447.35	84.44
447.571	83.44
447.792	95.44
448.013	96.44
448.234	123.44
448.455	114.44
448.675	120.44
448.896	117.44
449.117	115.44
449.338	110.44
449.559	128.44
449.779	142.44
450	96.44
450.221	102.44
450.442	94.44
450.662	94.44
450.883	104.44
451.104	105.44
451.324	89.44
451.545	91.44
451.766	94.44
451.986	109.44
452.207	93.44
452.428	96.44
452.648	104.44
452.869	118.44
453.089	99.44
453.31	111.44
453.53	101.44
453.751	107.44
453.971	112.44
454.192	115.44
454.412	100.44
454.633	92.44
454.853	88.44
455.073	85.44
455.294	91.44
455.514	93.44
455.734	93.44
455.955	86.44
456.175	83.44
456.395	98.44
456.616	89.44
456.836	70.44
457.056	64.44
457.276	62.44
457.497	86.44
457.717	87.44
457.937	76.44
458.157	97.44
458.377	97.44
458.598	96.44
458.818	142.44
459.038	145.44
459.258	112.44
459.478	94.44
459.698	85.44
459.918	89.44
460.138	87.44
460.358	91.44
460.578	83.44
460.798	96.44
461.018	97.44
461.238	89.44
461.458	75.44
461.678	96.44
461.898	97.44
462.118	92.44
462.338	75.44
462.558	87.44
462.777	96.44
462.997	97.44
463.217	77.44
463.437	91.44
463.657	86.44
463.876	93.44
464.096	93.44
464.316	97.44
464.536	97.44
464.755	91.44
464.975	95.44
465.195	175.44
465.414	157.44
465.634	100.44
465.854	79.44
466.073	82.44
466.293	93.44
466.512	80.44
466.732	88.44
466.951	75.44
467.171	95.44
467.391	103.44
467.61	101.44
467.829	89.44
468.049	92.44
468.268	95.44
468.488	88.44
468.707	79.44
468.927	92.44
469.146	87.44
469.365	82.44
469.585	85.44
469.804	93.44
470.023	106.44
470.243	93.44
470.462	102.44
470.681	109.44
470.901	95.44
471.12	83.44
471.339	90.44
471.558	89.44
471.777	93.44
471.997	76.44
472.216	105.44
472.435	81.44
472.654	80.44
472.873	79.44
473.092	88.44
473.311	87.44
473.53	101.44
473.749	88.44
473.968	87.44
474.187	114.44
474.406	101.44
474.625	103.44
474.844	88.44
475.063	88.44
475.282	83.44
475.501	78.44
475.72	83.44
475.939	84.44
476.158	79.44
476.377	86.44
476.596	90.44
476.814	106.44
477.033	91.44
477.252	88.44
477.471	85.44
477.69	99.44
477.908	98.44
478.127	89.44
478.346	98.44
478.564	82.44
478.783	98.44
479.002	82.44
479.22	89.44
479.439	113.44
479.658	107.44
479.876	95.44
480.095	87.44
480.313	90.44
480.532	102.44
480.751	94.44
480.969	107.44
481.188	83.44
481.406	83.44
481.624	90.44
481.843	97.44
482.061	95.44
482.28	93.44
482.498	95.44
482.717	91.44
482.935	74.44
483.153	95.44
483.372	101.44
483.59	97.44
483.808	80.44
484.027	93.44
484.245	92.44
484.463	99.44
484.681	95.44
484.9	87.44
485.118	86.44
485.336	99.44
485.554	105.44
485.772	98.44
485.99	101.44
486.209	113.44
486.427	110.44
486.645	100.44
486.863	90.44
487.081	97.44
487.299	72.44
487.517	95.44
487.735	75.44
487.953	97.44
488.171	90.44
488.389	102.44
488.607	102.44
488.825	90.44
489.043	95.44
489.261	92.44
489.479	89.44
489.696	90.44
489.914	91.44
490.132	77.44
490.35	92.44
490.568	90.44
490.786	94.44
491.003	109.44
491.221	85.44
491.439	98.44
491.657	91.44
491.874	98.44
492.092	96.44
492.31	90.44
492.527	101.44
492.745	97.44
492.963	87.44
493.18	79.44
493.398	100.44
493.615	105.44
493.833	114.44
494.05	75.44
494.268	106.44
494.485	82.44
494.703	91.44
494.92	91.44
495.138	90.44
495.355	86.44
495.573	90.44
495.79	88.44
496.008	107.44
496.225	92.44
496.442	87.44
496.66	101.44
496.877	96.44
497.094	97.44
497.312	89.44
497.529	85.44
497.746	86.44
497.963	97.44
498.181	89.44
498.398	100.44
498.615	112.44
498.832	110.44
499.049	107.44
499.267	99.44
499.484	95.44
499.701	87.44
499.918	89.44
500.135	99.44
500.352	95.44
500.569	81.44
500.786	78.44
501.003	85.44
501.22	88.44
501.437	83.44
501.654	106.44
501.871	107.44
502.088	95.44
502.305	103.44
502.522	106.44
502.739	83.44
502.956	91.44
503.172	96.44
503.389	110.44
503.606	100.44
503.823	97.44
504.04	110.44
504.256	92.44
504.473	85.44
504.69	93.44
504.907	102.44
505.123	85.44
505.34	96.44
505.557	98.44
505.773	90.44
505.99	85.44
506.207	91.44
506.423	79.44
506.64	85.44
506.856	84.44
507.073	84.44
507.289	97.44
507.506	98.44
507.722	114.44
507.939	112.44
508.155	103.44
508.372	98.44
508.588	93.44
508.805	107.44
509.021	94.44
509.238	96.44
509.454	108.44
509.67	95.44
509.887	98.44
510.103	130.44
510.319	205.44
510.536	758.44
510.752	2378.44
510.968	652.44
511.184	163.44
511.401	117.44
511.617	91.44
511.833	89.44
512.049	92.44
512.265	98.44
512.481	92.44
512.698	93.44
512.914	95.44
513.13	93.44
513.346	91.44
513.562	81.44
513.778	81.44
513.994	97.44
514.21	94.44
514.426	131.44
514.642	123.44
514.858	119.44
515.074	175.44
515.29	438.44
