Data from Uncirc_1994_H10_HRD10591_00100.txt Node
Date: Wed Jan 03 11:39:40 EST 2024
User: Yrep
Spectrometer: HR+D1059
Trigger mode: 1
Integration Time (sec): 1.000000E-1
Scans to average: 1
Electric dark correction enabled: true
Nonlinearity correction enabled: false
Boxcar width: 0
XAxis mode: Wavelengths
Number of Pixels in Spectrum: 2048
>>>>>Begin Spectral Data<<<<<
223.165	-18.81
223.4	-18.81
223.635	-18.81
223.869	-24.81
224.104	-16.81
224.338	-15.81
224.573	-19.81
224.808	-8.81
225.042	-3.81
225.277	-0.81
225.511	-9.81
225.746	-8.81
225.98	16.19
226.215	12.19
226.449	14.19
226.683	21.19
226.918	30.19
227.152	34.19
227.387	37.19
227.621	29.19
227.856	50.19
228.09	46.19
228.324	62.19
228.559	66.19
228.793	63.19
229.027	64.19
229.262	81.19
229.496	72.19
229.73	94.19
229.964	87.19
230.199	74.19
230.433	83.19
230.667	75.19
230.901	72.19
231.136	80.19
231.37	89.19
231.604	84.19
231.838	78.19
232.072	80.19
232.306	77.19
232.541	85.19
232.775	87.19
233.009	78.19
233.243	82.19
233.477	81.19
233.711	84.19
233.945	92.19
234.179	88.19
234.413	91.19
234.647	84.19
234.881	74.19
235.115	68.19
235.349	81.19
235.583	82.19
235.817	80.19
236.051	80.19
236.285	74.19
236.519	78.19
236.753	84.19
236.987	97.19
237.221	89.19
237.455	95.19
237.689	94.19
237.922	86.19
238.156	71.19
238.39	81.19
238.624	76.19
238.858	82.19
239.091	80.19
239.325	71.19
239.559	77.19
239.793	88.19
240.027	99.19
240.26	89.19
240.494	78.19
240.728	78.19
240.961	61.19
241.195	87.19
241.429	82.19
241.662	71.19
241.896	67.19
242.13	76.19
242.363	76.19
242.597	71.19
242.83	93.19
243.064	82.19
243.298	91.19
243.531	79.19
243.765	77.19
243.998	92.19
244.232	77.19
244.465	78.19
244.699	81.19
244.932	82.19
245.166	73.19
245.399	80.19
245.633	89.19
245.866	78.19
246.099	80.19
246.333	80.19
246.566	74.19
246.8	83.19
247.033	80.19
247.266	83.19
247.5	81.19
247.733	77.19
247.966	79.19
248.2	68.19
248.433	96.19
248.666	83.19
248.899	103.19
249.133	86.19
249.366	96.19
249.599	86.19
249.832	89.19
250.066	84.19
250.299	79.19
250.532	86.19
250.765	76.19
250.998	80.19
251.231	95.19
251.465	99.19
251.698	80.19
251.931	80.19
252.164	84.19
252.397	82.19
252.63	89.19
252.863	74.19
253.096	90.19
253.329	84.19
253.562	86.19
253.795	95.19
254.028	87.19
254.261	94.19
254.494	70.19
254.727	90.19
254.96	70.19
255.193	89.19
255.426	66.19
255.659	71.19
255.892	82.19
256.124	82.19
256.357	86.19
256.59	89.19
256.823	76.19
257.056	91.19
257.289	90.19
257.521	79.19
257.754	75.19
257.987	81.19
258.22	87.19
258.452	94.19
258.685	88.19
258.918	81.19
259.151	85.19
259.383	83.19
259.616	85.19
259.849	90.19
260.081	99.19
260.314	82.19
260.547	88.19
260.779	82.19
261.012	71.19
261.244	86.19
261.477	87.19
261.71	103.19
261.942	124.19
262.175	111.19
262.407	85.19
262.64	91.19
262.872	84.19
263.105	79.19
263.337	90.19
263.57	96.19
263.802	84.19
264.035	74.19
264.267	74.19
264.499	82.19
264.732	80.19
264.964	86.19
265.197	86.19
265.429	92.19
265.661	94.19
265.894	103.19
266.126	81.19
266.358	74.19
266.591	85.19
266.823	90.19
267.055	88.19
267.287	64.19
267.52	71.19
267.752	91.19
267.984	98.19
268.216	72.19
268.448	90.19
268.681	85.19
268.913	87.19
269.145	82.19
269.377	88.19
269.609	89.19
269.841	84.19
270.073	96.19
270.306	103.19
270.538	88.19
270.77	87.19
271.002	86.19
271.234	78.19
271.466	86.19
271.698	97.19
271.93	96.19
272.162	74.19
272.394	99.19
272.626	82.19
272.858	78.19
273.09	82.19
273.322	70.19
273.553	87.19
273.785	86.19
274.017	84.19
274.249	77.19
274.481	81.19
274.713	79.19
274.945	96.19
275.176	82.19
275.408	84.19
275.64	90.19
275.872	81.19
276.104	91.19
276.335	82.19
276.567	102.19
276.799	103.19
277.031	107.19
277.262	87.19
277.494	109.19
277.726	96.19
277.957	87.19
278.189	102.19
278.421	85.19
278.652	86.19
278.884	87.19
279.115	77.19
279.347	78.19
279.579	89.19
279.81	94.19
280.042	86.19
280.273	87.19
280.505	80.19
280.736	87.19
280.968	97.19
281.199	82.19
281.431	84.19
281.662	83.19
281.894	83.19
282.125	120.19
282.356	124.19
282.588	135.19
282.819	108.19
283.051	90.19
283.282	99.19
283.513	87.19
283.745	95.19
283.976	85.19
284.207	88.19
284.439	84.19
284.67	97.19
284.901	98.19
285.132	85.19
285.364	96.19
285.595	101.19
285.826	101.19
286.057	94.19
286.288	87.19
286.52	85.19
286.751	79.19
286.982	95.19
287.213	68.19
287.444	80.19
287.675	79.19
287.906	85.19
288.138	89.19
288.369	91.19
288.6	88.19
288.831	86.19
289.062	83.19
289.293	83.19
289.524	78.19
289.755	94.19
289.986	92.19
290.217	84.19
290.448	90.19
290.679	87.19
290.91	90.19
291.141	88.19
291.371	107.19
291.602	80.19
291.833	82.19
292.064	92.19
292.295	81.19
292.526	97.19
292.757	71.19
292.987	108.19
293.218	79.19
293.449	86.19
293.68	87.19
293.91	90.19
294.141	87.19
294.372	102.19
294.603	94.19
294.833	92.19
295.064	82.19
295.295	83.19
295.525	104.19
295.756	98.19
295.987	119.19
296.217	130.19
296.448	125.19
296.679	105.19
296.909	89.19
297.14	85.19
297.37	88.19
297.601	87.19
297.831	95.19
298.062	99.19
298.292	92.19
298.523	93.19
298.753	76.19
298.984	66.19
299.214	88.19
299.445	76.19
299.675	71.19
299.905	91.19
300.136	94.19
300.366	95.19
300.597	109.19
300.827	109.19
301.057	94.19
301.288	95.19
301.518	89.19
301.748	89.19
301.979	111.19
302.209	107.19
302.439	97.19
302.669	79.19
302.9	88.19
303.13	89.19
303.36	85.19
303.59	104.19
303.82	94.19
304.051	93.19
304.281	94.19
304.511	99.19
304.741	99.19
304.971	95.19
305.201	96.19
305.431	107.19
305.661	94.19
305.891	85.19
306.121	100.19
306.352	102.19
306.582	110.19
306.812	90.19
307.042	99.19
307.272	90.19
307.502	85.19
307.731	103.19
307.961	101.19
308.191	101.19
308.421	109.19
308.651	81.19
308.881	77.19
309.111	100.19
309.341	99.19
309.571	87.19
309.8	88.19
310.03	108.19
310.26	96.19
310.49	103.19
310.72	111.19
310.949	101.19
311.179	111.19
311.409	95.19
311.639	96.19
311.868	97.19
312.098	94.19
312.328	106.19
312.557	109.19
312.787	109.19
313.017	104.19
313.246	103.19
313.476	88.19
313.706	88.19
313.935	95.19
314.165	99.19
314.394	94.19
314.624	87.19
314.853	101.19
315.083	99.19
315.312	89.19
315.542	82.19
315.771	93.19
316.001	107.19
316.23	70.19
316.46	89.19
316.689	90.19
316.919	89.19
317.148	94.19
317.377	102.19
317.607	84.19
317.836	85.19
318.065	94.19
318.295	101.19
318.524	84.19
318.753	97.19
318.983	91.19
319.212	93.19
319.441	111.19
319.67	114.19
319.9	92.19
320.129	97.19
320.358	105.19
320.587	98.19
320.816	100.19
321.046	92.19
321.275	91.19
321.504	89.19
321.733	92.19
321.962	96.19
322.191	109.19
322.42	110.19
322.649	102.19
322.878	103.19
323.108	114.19
323.337	111.19
323.566	143.19
323.795	154.19
324.024	200.19
324.253	415.19
324.482	828.19
324.71	1738.19
324.939	2248.19
325.168	827.19
325.397	268.19
325.626	163.19
325.855	129.19
326.084	123.19
326.313	130.19
326.542	178.19
326.77	230.19
326.999	465.19
327.228	958.19
327.457	1729.19
327.686	1364.19
327.914	390.19
328.143	202.19
328.372	149.19
328.6	135.19
328.829	136.19
329.058	138.19
329.287	123.19
329.515	117.19
329.744	103.19
329.972	102.19
330.201	85.19
330.43	114.19
330.658	124.19
330.887	146.19
331.115	122.19
331.344	99.19
331.572	114.19
331.801	119.19
332.03	96.19
332.258	96.19
332.486	83.19
332.715	99.19
332.943	99.19
333.172	107.19
333.4	94.19
333.629	120.19
333.857	105.19
334.085	109.19
334.314	100.19
334.542	99.19
334.771	99.19
334.999	100.19
335.227	81.19
335.455	108.19
335.684	104.19
335.912	104.19
336.14	99.19
336.369	98.19
336.597	103.19
336.825	107.19
337.053	103.19
337.281	84.19
337.51	103.19
337.738	93.19
337.966	94.19
338.194	99.19
338.422	92.19
338.65	88.19
338.878	97.19
339.106	86.19
339.334	97.19
339.562	98.19
339.79	98.19
340.018	82.19
340.246	91.19
340.474	88.19
340.702	84.19
340.93	99.19
341.158	89.19
341.386	91.19
341.614	103.19
341.842	87.19
342.07	90.19
342.298	96.19
342.526	94.19
342.754	91.19
342.981	98.19
343.209	95.19
343.437	95.19
343.665	110.19
343.893	108.19
344.12	108.19
344.348	90.19
344.576	95.19
344.804	98.19
345.031	101.19
345.259	98.19
345.487	90.19
345.714	92.19
345.942	90.19
346.17	97.19
346.397	101.19
346.625	75.19
346.853	98.19
347.08	88.19
347.308	94.19
347.535	95.19
347.763	87.19
347.99	101.19
348.218	101.19
348.445	116.19
348.673	90.19
348.9	102.19
349.128	110.19
349.355	99.19
349.583	95.19
349.81	96.19
350.037	96.19
350.265	113.19
350.492	84.19
350.72	108.19
350.947	104.19
351.174	110.19
351.402	116.19
351.629	104.19
351.856	106.19
352.083	112.19
352.311	109.19
352.538	119.19
352.765	97.19
352.992	116.19
353.22	103.19
353.447	96.19
353.674	104.19
353.901	104.19
354.128	98.19
354.355	96.19
354.583	106.19
354.81	98.19
355.037	90.19
355.264	96.19
355.491	99.19
355.718	80.19
355.945	102.19
356.172	92.19
356.399	88.19
356.626	86.19
356.853	90.19
357.08	84.19
357.307	103.19
357.534	95.19
357.761	98.19
357.988	89.19
358.215	113.19
358.441	107.19
358.668	83.19
358.895	93.19
359.122	94.19
359.349	106.19
359.576	95.19
359.802	111.19
360.029	114.19
360.256	113.19
360.483	103.19
360.709	94.19
360.936	101.19
361.163	89.19
361.39	94.19
361.616	88.19
361.843	111.19
362.07	101.19
362.296	118.19
362.523	90.19
362.749	99.19
362.976	108.19
363.203	105.19
363.429	92.19
363.656	92.19
363.882	101.19
364.109	81.19
364.335	99.19
364.562	100.19
364.788	91.19
365.015	108.19
365.241	103.19
365.468	119.19
365.694	99.19
365.92	85.19
366.147	96.19
366.373	91.19
366.599	101.19
366.826	109.19
367.052	70.19
367.278	86.19
367.505	86.19
367.731	98.19
367.957	91.19
368.184	91.19
368.41	92.19
368.636	135.19
368.862	127.19
369.089	104.19
369.315	95.19
369.541	103.19
369.767	93.19
369.993	108.19
370.219	87.19
370.445	86.19
370.672	97.19
370.898	76.19
371.124	81.19
371.35	98.19
371.576	82.19
371.802	82.19
372.028	96.19
372.254	91.19
372.48	90.19
372.706	102.19
372.932	89.19
373.158	85.19
373.384	88.19
373.61	88.19
373.835	98.19
374.061	97.19
374.287	90.19
374.513	92.19
374.739	80.19
374.965	96.19
375.191	100.19
375.416	88.19
375.642	89.19
375.868	93.19
376.094	97.19
376.319	99.19
376.545	91.19
376.771	88.19
376.997	97.19
377.222	98.19
377.448	92.19
377.674	92.19
377.899	95.19
378.125	83.19
378.35	103.19
378.576	87.19
378.802	92.19
379.027	108.19
379.253	102.19
379.478	87.19
379.704	114.19
379.929	112.19
380.155	93.19
380.38	89.19
380.606	102.19
380.831	109.19
381.057	105.19
381.282	92.19
381.507	107.19
381.733	97.19
381.958	103.19
382.184	101.19
382.409	100.19
382.634	102.19
382.86	93.19
383.085	104.19
383.31	110.19
383.535	103.19
383.761	102.19
383.986	109.19
384.211	78.19
384.436	101.19
384.662	108.19
384.887	98.19
385.112	87.19
385.337	101.19
385.562	103.19
385.787	109.19
386.013	117.19
386.238	109.19
386.463	111.19
386.688	111.19
386.913	97.19
387.138	95.19
387.363	104.19
387.588	97.19
387.813	104.19
388.038	107.19
388.263	117.19
388.488	110.19
388.713	103.19
388.938	99.19
389.163	93.19
389.387	96.19
389.612	103.19
389.837	88.19
390.062	109.19
390.287	97.19
390.512	96.19
390.736	91.19
390.961	97.19
391.186	87.19
391.411	76.19
391.636	90.19
391.86	88.19
392.085	94.19
392.31	80.19
392.534	88.19
392.759	95.19
392.984	102.19
393.208	90.19
393.433	91.19
393.658	97.19
393.882	85.19
394.107	102.19
394.331	93.19
394.556	96.19
394.78	84.19
395.005	91.19
395.229	93.19
395.454	101.19
395.678	93.19
395.903	95.19
396.127	102.19
396.352	90.19
396.576	85.19
396.801	102.19
397.025	87.19
397.249	94.19
397.474	103.19
397.698	93.19
397.922	81.19
398.147	103.19
398.371	88.19
398.595	96.19
398.82	91.19
399.044	101.19
399.268	101.19
399.492	95.19
399.717	88.19
399.941	90.19
400.165	87.19
400.389	83.19
400.613	93.19
400.837	74.19
401.062	93.19
401.286	84.19
401.51	85.19
401.734	93.19
401.958	102.19
402.182	140.19
402.406	160.19
402.63	103.19
402.854	92.19
403.078	88.19
403.302	104.19
403.526	99.19
403.75	112.19
403.974	107.19
404.198	84.19
404.422	96.19
404.645	88.19
404.869	85.19
405.093	89.19
405.317	117.19
405.541	104.19
405.765	113.19
405.988	126.19
406.212	194.19
406.436	249.19
406.66	132.19
406.883	97.19
407.107	98.19
407.331	95.19
407.555	103.19
407.778	102.19
408.002	103.19
408.226	86.19
408.449	97.19
408.673	85.19
408.896	90.19
409.12	82.19
409.344	99.19
409.567	91.19
409.791	95.19
410.014	110.19
410.238	102.19
410.461	94.19
410.685	94.19
410.908	95.19
411.132	113.19
411.355	91.19
411.578	100.19
411.802	97.19
412.025	95.19
412.249	94.19
412.472	99.19
412.695	95.19
412.919	101.19
413.142	91.19
413.365	102.19
413.589	93.19
413.812	98.19
414.035	110.19
414.258	89.19
414.482	82.19
414.705	86.19
414.928	85.19
415.151	86.19
415.374	94.19
415.597	111.19
415.821	87.19
416.044	100.19
416.267	104.19
416.49	86.19
416.713	85.19
416.936	107.19
417.159	84.19
417.382	100.19
417.605	83.19
417.828	80.19
418.051	86.19
418.274	89.19
418.497	87.19
418.72	87.19
418.943	87.19
419.166	75.19
419.389	87.19
419.611	99.19
419.834	85.19
420.057	79.19
420.28	90.19
420.503	100.19
420.726	92.19
420.948	108.19
421.171	86.19
421.394	99.19
421.617	99.19
421.839	86.19
422.062	83.19
422.285	90.19
422.507	118.19
422.73	90.19
422.953	91.19
423.175	96.19
423.398	90.19
423.621	92.19
423.843	95.19
424.066	92.19
424.288	96.19
424.511	99.19
424.733	108.19
424.956	103.19
425.178	105.19
425.401	108.19
425.623	104.19
425.846	110.19
426.068	94.19
426.291	84.19
426.513	102.19
426.735	107.19
426.958	103.19
427.18	98.19
427.402	120.19
427.625	169.19
427.847	138.19
428.069	109.19
428.292	99.19
428.514	91.19
428.736	74.19
428.958	82.19
429.181	88.19
429.403	83.19
429.625	83.19
429.847	95.19
430.069	107.19
430.292	98.19
430.514	93.19
430.736	94.19
430.958	101.19
431.18	84.19
431.402	88.19
431.624	88.19
431.846	89.19
432.068	96.19
432.29	88.19
432.512	83.19
432.734	92.19
432.956	102.19
433.178	93.19
433.4	104.19
433.622	107.19
433.844	92.19
434.066	94.19
434.287	86.19
434.509	86.19
434.731	94.19
434.953	88.19
435.175	93.19
435.397	86.19
435.618	84.19
435.84	115.19
436.062	117.19
436.284	106.19
436.505	94.19
436.727	92.19
436.949	102.19
437.17	93.19
437.392	94.19
437.614	95.19
437.835	104.19
438.057	100.19
438.278	111.19
438.5	110.19
438.721	108.19
438.943	112.19
439.165	84.19
439.386	85.19
439.608	96.19
439.829	108.19
440.05	124.19
440.272	138.19
440.493	93.19
440.715	73.19
440.936	90.19
441.158	87.19
441.379	92.19
441.6	74.19
441.822	94.19
442.043	96.19
442.264	102.19
442.486	95.19
442.707	94.19
442.928	111.19
443.149	126.19
443.371	133.19
443.592	107.19
443.813	119.19
444.034	95.19
444.255	108.19
444.476	88.19
444.698	91.19
444.919	84.19
445.14	129.19
445.361	105.19
445.582	113.19
445.803	134.19
446.024	131.19
446.245	142.19
446.466	119.19
446.687	105.19
446.908	108.19
447.129	104.19
447.35	91.19
447.571	94.19
447.792	102.19
448.013	104.19
448.234	98.19
448.455	94.19
448.675	122.19
448.896	117.19
449.117	101.19
449.338	111.19
449.559	132.19
449.779	139.19
450	98.19
450.221	84.19
450.442	95.19
450.662	90.19
450.883	105.19
451.104	113.19
451.324	92.19
451.545	90.19
451.766	85.19
451.986	96.19
452.207	87.19
452.428	103.19
452.648	103.19
452.869	126.19
453.089	116.19
453.31	124.19
453.53	101.19
453.751	88.19
453.971	104.19
454.192	112.19
454.412	101.19
454.633	85.19
454.853	90.19
455.073	96.19
455.294	94.19
455.514	90.19
455.734	103.19
455.955	79.19
456.175	104.19
456.395	98.19
456.616	89.19
456.836	78.19
457.056	85.19
457.276	70.19
457.497	96.19
457.717	100.19
457.937	92.19
458.157	91.19
458.377	97.19
458.598	122.19
458.818	147.19
459.038	156.19
459.258	103.19
459.478	112.19
459.698	98.19
459.918	95.19
460.138	90.19
460.358	98.19
460.578	88.19
460.798	80.19
461.018	93.19
461.238	90.19
461.458	94.19
461.678	71.19
461.898	84.19
462.118	81.19
462.338	92.19
462.558	102.19
462.777	95.19
462.997	90.19
463.217	110.19
463.437	92.19
463.657	77.19
463.876	93.19
464.096	82.19
464.316	96.19
464.536	96.19
464.755	102.19
464.975	111.19
465.195	175.19
465.414	155.19
465.634	110.19
465.854	98.19
466.073	84.19
466.293	85.19
466.512	94.19
466.732	88.19
466.951	89.19
467.171	99.19
467.391	103.19
467.61	111.19
467.829	106.19
468.049	96.19
468.268	97.19
468.488	108.19
468.707	90.19
468.927	91.19
469.146	97.19
469.365	84.19
469.585	100.19
469.804	108.19
470.023	79.19
470.243	93.19
470.462	103.19
470.681	110.19
470.901	95.19
471.12	90.19
471.339	96.19
471.558	76.19
471.777	87.19
471.997	92.19
472.216	100.19
472.435	105.19
472.654	86.19
472.873	84.19
473.092	87.19
473.311	86.19
473.53	90.19
473.749	83.19
473.968	99.19
474.187	92.19
474.406	100.19
474.625	88.19
474.844	87.19
475.063	84.19
475.282	100.19
475.501	78.19
475.72	80.19
475.939	90.19
476.158	104.19
476.377	88.19
476.596	98.19
476.814	111.19
477.033	89.19
477.252	84.19
477.471	84.19
477.69	80.19
477.908	82.19
478.127	98.19
478.346	78.19
478.564	85.19
478.783	105.19
479.002	87.19
479.22	99.19
479.439	94.19
479.658	112.19
479.876	93.19
480.095	106.19
480.313	89.19
480.532	98.19
480.751	91.19
480.969	94.19
481.188	100.19
481.406	102.19
481.624	85.19
481.843	87.19
482.061	92.19
482.28	97.19
482.498	90.19
482.717	88.19
482.935	88.19
483.153	77.19
483.372	93.19
483.59	83.19
483.808	86.19
484.027	97.19
484.245	90.19
484.463	95.19
484.681	80.19
484.9	100.19
485.118	99.19
485.336	101.19
485.554	88.19
485.772	99.19
485.99	105.19
486.209	106.19
486.427	109.19
486.645	115.19
486.863	101.19
487.081	107.19
487.299	103.19
487.517	94.19
487.735	91.19
487.953	99.19
488.171	114.19
488.389	103.19
488.607	96.19
488.825	95.19
489.043	98.19
489.261	99.19
489.479	90.19
489.696	82.19
489.914	88.19
490.132	90.19
490.35	88.19
490.568	94.19
490.786	82.19
491.003	100.19
491.221	108.19
491.439	84.19
491.657	94.19
491.874	97.19
492.092	96.19
492.31	96.19
492.527	96.19
492.745	79.19
492.963	94.19
493.18	93.19
493.398	88.19
493.615	99.19
493.833	93.19
494.05	90.19
494.268	95.19
494.485	100.19
494.703	86.19
494.92	90.19
495.138	98.19
495.355	79.19
495.573	87.19
495.79	87.19
496.008	88.19
496.225	107.19
496.442	101.19
496.66	87.19
496.877	87.19
497.094	109.19
497.312	92.19
497.529	99.19
497.746	90.19
497.963	82.19
498.181	80.19
498.398	96.19
498.615	112.19
498.832	101.19
499.049	94.19
499.267	88.19
499.484	91.19
499.701	98.19
499.918	98.19
500.135	104.19
500.352	98.19
500.569	91.19
500.786	94.19
501.003	88.19
501.22	91.19
501.437	101.19
501.654	93.19
501.871	99.19
502.088	91.19
502.305	87.19
502.522	103.19
502.739	85.19
502.956	94.19
503.172	107.19
503.389	98.19
503.606	118.19
503.823	99.19
504.04	97.19
504.256	94.19
504.473	81.19
504.69	88.19
504.907	82.19
505.123	93.19
505.34	94.19
505.557	114.19
505.773	112.19
505.99	99.19
506.207	83.19
506.423	91.19
506.64	82.19
506.856	91.19
507.073	90.19
507.289	102.19
507.506	93.19
507.722	106.19
507.939	111.19
508.155	100.19
508.372	90.19
508.588	99.19
508.805	97.19
509.021	106.19
509.238	109.19
509.454	107.19
509.67	124.19
509.887	115.19
510.103	140.19
510.319	225.19
510.536	858.19
510.752	2660.19
510.968	714.19
511.184	152.19
511.401	120.19
511.617	99.19
511.833	92.19
512.049	92.19
512.265	98.19
512.481	95.19
512.698	92.19
512.914	82.19
513.13	94.19
513.346	90.19
513.562	91.19
513.778	103.19
513.994	94.19
514.21	101.19
514.426	125.19
