Data from Uncirc_1994_H10_HRD10591_00021.txt Node
Date: Wed Jan 03 11:39:25 EST 2024
User: Yrep
Spectrometer: HR+D1059
Trigger mode: 1
Integration Time (sec): 1.000000E-1
Scans to average: 1
Electric dark correction enabled: true
Nonlinearity correction enabled: false
Boxcar width: 0
XAxis mode: Wavelengths
Number of Pixels in Spectrum: 2048
>>>>>Begin Spectral Data<<<<<
223.165	-20.75
223.4	-20.75
223.635	-20.75
223.869	-18.75
224.104	-26.75
224.338	-8.75
224.573	-11.75
224.808	-12.75
225.042	2.25
225.277	3.25
225.511	-2.75
225.746	-4.75
225.98	4.25
226.215	17.25
226.449	14.25
226.683	13.25
226.918	27.25
227.152	25.25
227.387	45.25
227.621	56.25
227.856	50.25
228.09	55.25
228.324	57.25
228.559	54.25
228.793	55.25
229.027	68.25
229.262	69.25
229.496	76.25
229.73	83.25
229.964	89.25
230.199	75.25
230.433	75.25
230.667	87.25
230.901	85.25
231.136	87.25
231.37	81.25
231.604	93.25
231.838	85.25
232.072	83.25
232.306	84.25
232.541	70.25
232.775	79.25
233.009	84.25
233.243	83.25
233.477	76.25
233.711	79.25
233.945	94.25
234.179	88.25
234.413	85.25
234.647	77.25
234.881	76.25
235.115	71.25
235.349	85.25
235.583	88.25
235.817	90.25
236.051	79.25
236.285	87.25
236.519	67.25
236.753	72.25
236.987	73.25
237.221	84.25
237.455	89.25
237.689	88.25
237.922	79.25
238.156	72.25
238.39	72.25
238.624	80.25
238.858	78.25
239.091	78.25
239.325	78.25
239.559	75.25
239.793	75.25
240.027	87.25
240.26	78.25
240.494	95.25
240.728	90.25
240.961	83.25
241.195	70.25
241.429	67.25
241.662	79.25
241.896	73.25
242.13	80.25
242.363	69.25
242.597	80.25
242.83	68.25
243.064	80.25
243.298	78.25
243.531	87.25
243.765	81.25
243.998	71.25
244.232	86.25
244.465	96.25
244.699	92.25
244.932	71.25
245.166	63.25
245.399	78.25
245.633	84.25
245.866	72.25
246.099	81.25
246.333	91.25
246.566	93.25
246.8	70.25
247.033	63.25
247.266	60.25
247.5	87.25
247.733	85.25
247.966	80.25
248.2	87.25
248.433	90.25
248.666	86.25
248.899	87.25
249.133	82.25
249.366	88.25
249.599	99.25
249.832	75.25
250.066	88.25
250.299	84.25
250.532	81.25
250.765	79.25
250.998	94.25
251.231	107.25
251.465	72.25
251.698	79.25
251.931	93.25
252.164	81.25
252.397	69.25
252.63	81.25
252.863	87.25
253.096	96.25
253.329	89.25
253.562	96.25
253.795	88.25
254.028	68.25
254.261	79.25
254.494	83.25
254.727	91.25
254.96	72.25
255.193	67.25
255.426	70.25
255.659	84.25
255.892	79.25
256.124	92.25
256.357	89.25
256.59	89.25
256.823	78.25
257.056	83.25
257.289	89.25
257.521	92.25
257.754	81.25
257.987	89.25
258.22	84.25
258.452	94.25
258.685	81.25
258.918	81.25
259.151	81.25
259.383	93.25
259.616	78.25
259.849	85.25
260.081	94.25
260.314	78.25
260.547	102.25
260.779	87.25
261.012	87.25
261.244	84.25
261.477	95.25
261.71	89.25
261.942	107.25
262.175	100.25
262.407	96.25
262.64	94.25
262.872	92.25
263.105	89.25
263.337	87.25
263.57	77.25
263.802	80.25
264.035	95.25
264.267	93.25
264.499	82.25
264.732	86.25
264.964	85.25
265.197	67.25
265.429	83.25
265.661	97.25
265.894	92.25
266.126	73.25
266.358	82.25
266.591	73.25
266.823	87.25
267.055	75.25
267.287	88.25
267.52	91.25
267.752	73.25
267.984	83.25
268.216	96.25
268.448	87.25
268.681	97.25
268.913	98.25
269.145	86.25
269.377	89.25
269.609	95.25
269.841	86.25
270.073	87.25
270.306	91.25
270.538	79.25
270.77	78.25
271.002	92.25
271.234	96.25
271.466	98.25
271.698	84.25
271.93	90.25
272.162	89.25
272.394	79.25
272.626	83.25
272.858	93.25
273.09	94.25
273.322	79.25
273.553	85.25
273.785	81.25
274.017	86.25
274.249	89.25
274.481	100.25
274.713	89.25
274.945	81.25
275.176	89.25
275.408	84.25
275.64	87.25
275.872	89.25
276.104	87.25
276.335	86.25
276.567	92.25
276.799	107.25
277.031	94.25
277.262	83.25
277.494	95.25
277.726	94.25
277.957	86.25
278.189	96.25
278.421	98.25
278.652	89.25
278.884	96.25
279.115	87.25
279.347	77.25
279.579	88.25
279.81	85.25
280.042	94.25
280.273	84.25
280.505	87.25
280.736	77.25
280.968	72.25
281.199	85.25
281.431	84.25
281.662	96.25
281.894	91.25
282.125	100.25
282.356	108.25
282.588	124.25
282.819	111.25
283.051	102.25
283.282	95.25
283.513	91.25
283.745	101.25
283.976	89.25
284.207	93.25
284.439	89.25
284.67	88.25
284.901	78.25
285.132	81.25
285.364	93.25
285.595	77.25
285.826	97.25
286.057	82.25
286.288	94.25
286.52	100.25
286.751	73.25
286.982	81.25
287.213	95.25
287.444	80.25
287.675	89.25
287.906	69.25
288.138	86.25
288.369	82.25
288.6	81.25
288.831	89.25
289.062	90.25
289.293	86.25
289.524	91.25
289.755	85.25
289.986	90.25
290.217	95.25
290.448	85.25
290.679	89.25
290.91	93.25
291.141	88.25
291.371	101.25
291.602	87.25
291.833	81.25
292.064	91.25
292.295	92.25
292.526	96.25
292.757	82.25
292.987	95.25
293.218	102.25
293.449	104.25
293.68	83.25
293.91	93.25
294.141	87.25
294.372	93.25
294.603	85.25
294.833	90.25
295.064	80.25
295.295	87.25
295.525	93.25
295.756	116.25
295.987	107.25
296.217	136.25
296.448	116.25
296.679	86.25
296.909	103.25
297.14	104.25
297.37	75.25
297.601	81.25
297.831	86.25
298.062	93.25
298.292	82.25
298.523	99.25
298.753	101.25
298.984	82.25
299.214	91.25
299.445	80.25
299.675	87.25
299.905	108.25
300.136	96.25
300.366	91.25
300.597	97.25
300.827	87.25
301.057	103.25
301.288	94.25
301.518	105.25
301.748	80.25
301.979	96.25
302.209	92.25
302.439	99.25
302.669	94.25
302.9	105.25
303.13	82.25
303.36	96.25
303.59	101.25
303.82	105.25
304.051	86.25
304.281	83.25
304.511	97.25
304.741	85.25
304.971	86.25
305.201	113.25
305.431	84.25
305.661	84.25
305.891	87.25
306.121	92.25
306.352	87.25
306.582	101.25
306.812	96.25
307.042	106.25
307.272	88.25
307.502	91.25
307.731	92.25
307.961	101.25
308.191	98.25
308.421	91.25
308.651	87.25
308.881	83.25
309.111	102.25
309.341	105.25
309.571	112.25
309.8	93.25
310.03	105.25
310.26	88.25
310.49	117.25
310.72	100.25
310.949	123.25
311.179	103.25
311.409	83.25
311.639	98.25
311.868	94.25
312.098	96.25
312.328	95.25
312.557	102.25
312.787	102.25
313.017	118.25
313.246	106.25
313.476	93.25
313.706	86.25
313.935	103.25
314.165	108.25
314.394	107.25
314.624	103.25
314.853	104.25
315.083	92.25
315.312	101.25
315.542	93.25
315.771	90.25
316.001	84.25
316.23	88.25
316.46	107.25
316.689	81.25
316.919	97.25
317.148	102.25
317.377	89.25
317.607	91.25
317.836	89.25
318.065	85.25
318.295	95.25
318.524	104.25
318.753	83.25
318.983	96.25
319.212	117.25
319.441	110.25
319.67	113.25
319.9	93.25
320.129	94.25
320.358	91.25
320.587	86.25
320.816	93.25
321.046	106.25
321.275	103.25
321.504	88.25
321.733	97.25
321.962	91.25
322.191	98.25
322.42	95.25
322.649	117.25
322.878	104.25
323.108	123.25
323.337	101.25
323.566	132.25
323.795	141.25
324.024	217.25
324.253	381.25
324.482	787.25
324.71	1627.25
324.939	2102.25
325.168	770.25
325.397	231.25
325.626	157.25
325.855	142.25
326.084	120.25
326.313	128.25
326.542	169.25
326.77	219.25
326.999	462.25
327.228	929.25
327.457	1661.25
327.686	1275.25
327.914	357.25
328.143	188.25
328.372	146.25
328.6	120.25
328.829	118.25
329.058	120.25
329.287	134.25
329.515	107.25
329.744	99.25
329.972	98.25
330.201	106.25
330.43	104.25
330.658	111.25
330.887	129.25
331.115	118.25
331.344	105.25
331.572	98.25
331.801	109.25
332.03	105.25
332.258	97.25
332.486	88.25
332.715	97.25
332.943	91.25
333.172	92.25
333.4	105.25
333.629	92.25
333.857	104.25
334.085	99.25
334.314	108.25
334.542	110.25
334.771	107.25
334.999	103.25
335.227	91.25
335.455	98.25
335.684	87.25
335.912	101.25
336.14	97.25
336.369	95.25
336.597	93.25
336.825	103.25
337.053	97.25
337.281	97.25
337.51	93.25
337.738	103.25
337.966	92.25
338.194	110.25
338.422	110.25
338.65	112.25
338.878	104.25
339.106	111.25
339.334	95.25
339.562	97.25
339.79	103.25
340.018	95.25
340.246	81.25
340.474	114.25
340.702	106.25
340.93	100.25
341.158	96.25
341.386	110.25
341.614	95.25
341.842	91.25
342.07	94.25
342.298	85.25
342.526	100.25
342.754	96.25
342.981	93.25
343.209	102.25
343.437	110.25
343.665	96.25
343.893	84.25
344.12	100.25
344.348	94.25
344.576	96.25
344.804	98.25
345.031	95.25
345.259	111.25
345.487	104.25
345.714	101.25
345.942	107.25
346.17	102.25
346.397	97.25
346.625	102.25
346.853	96.25
347.08	86.25
347.308	97.25
347.535	99.25
347.763	86.25
347.99	92.25
348.218	111.25
348.445	103.25
348.673	94.25
348.9	94.25
349.128	89.25
349.355	91.25
349.583	97.25
349.81	96.25
350.037	91.25
350.265	94.25
350.492	83.25
350.72	103.25
350.947	98.25
351.174	97.25
351.402	103.25
351.629	103.25
351.856	95.25
352.083	107.25
352.311	94.25
352.538	115.25
352.765	107.25
352.992	100.25
353.22	112.25
353.447	99.25
353.674	104.25
353.901	98.25
354.128	92.25
354.355	103.25
354.583	97.25
354.81	100.25
355.037	89.25
355.264	88.25
355.491	100.25
355.718	92.25
355.945	98.25
356.172	83.25
356.399	104.25
356.626	106.25
356.853	81.25
357.08	114.25
357.307	104.25
357.534	106.25
357.761	109.25
357.988	106.25
358.215	109.25
358.441	85.25
358.668	108.25
358.895	85.25
359.122	95.25
359.349	84.25
359.576	98.25
359.802	93.25
360.029	105.25
360.256	111.25
360.483	102.25
360.709	89.25
360.936	100.25
361.163	114.25
361.39	90.25
361.616	89.25
361.843	95.25
362.07	89.25
362.296	88.25
362.523	107.25
362.749	105.25
362.976	93.25
363.203	96.25
363.429	84.25
363.656	81.25
363.882	96.25
364.109	110.25
364.335	89.25
364.562	101.25
364.788	81.25
365.015	93.25
365.241	95.25
365.468	100.25
365.694	83.25
365.92	88.25
366.147	100.25
366.373	87.25
366.599	92.25
366.826	91.25
367.052	103.25
367.278	103.25
367.505	79.25
367.731	92.25
367.957	103.25
368.184	108.25
368.41	103.25
368.636	105.25
368.862	117.25
369.089	101.25
369.315	83.25
369.541	99.25
369.767	99.25
369.993	103.25
370.219	77.25
370.445	95.25
370.672	93.25
370.898	97.25
371.124	103.25
371.35	105.25
371.576	97.25
371.802	95.25
372.028	89.25
372.254	99.25
372.48	89.25
372.706	101.25
372.932	109.25
373.158	84.25
373.384	97.25
373.61	112.25
373.835	89.25
374.061	88.25
374.287	103.25
374.513	104.25
374.739	95.25
374.965	99.25
375.191	76.25
375.416	89.25
375.642	101.25
375.868	115.25
376.094	93.25
376.319	93.25
376.545	97.25
376.771	97.25
376.997	101.25
377.222	97.25
377.448	88.25
377.674	93.25
377.899	99.25
378.125	87.25
378.35	89.25
378.576	96.25
378.802	93.25
379.027	97.25
379.253	94.25
379.478	88.25
379.704	88.25
379.929	100.25
380.155	100.25
380.38	96.25
380.606	105.25
380.831	103.25
381.057	108.25
381.282	91.25
381.507	97.25
381.733	94.25
381.958	94.25
382.184	89.25
382.409	102.25
382.634	98.25
382.86	95.25
383.085	104.25
383.31	103.25
383.535	114.25
383.761	102.25
383.986	110.25
384.211	96.25
384.436	95.25
384.662	98.25
384.887	103.25
385.112	113.25
385.337	115.25
385.562	121.25
385.787	97.25
386.013	108.25
386.238	100.25
386.463	112.25
386.688	117.25
386.913	111.25
387.138	116.25
387.363	119.25
387.588	106.25
387.813	92.25
388.038	105.25
388.263	119.25
388.488	117.25
388.713	110.25
388.938	98.25
389.163	91.25
389.387	99.25
389.612	99.25
389.837	94.25
390.062	91.25
390.287	94.25
390.512	90.25
390.736	92.25
390.961	88.25
391.186	93.25
391.411	102.25
391.636	91.25
391.86	92.25
392.085	97.25
392.31	80.25
392.534	88.25
392.759	96.25
392.984	91.25
393.208	95.25
393.433	110.25
393.658	91.25
393.882	83.25
394.107	88.25
394.331	92.25
394.556	95.25
394.78	86.25
395.005	92.25
395.229	87.25
395.454	95.25
395.678	92.25
395.903	84.25
396.127	89.25
396.352	70.25
396.576	95.25
396.801	81.25
397.025	88.25
397.249	98.25
397.474	83.25
397.698	82.25
397.922	87.25
398.147	85.25
398.371	84.25
398.595	98.25
398.82	76.25
399.044	83.25
399.268	88.25
399.492	97.25
399.717	104.25
399.941	101.25
400.165	104.25
400.389	98.25
400.613	87.25
400.837	100.25
401.062	93.25
401.286	87.25
401.51	80.25
401.734	85.25
401.958	112.25
402.182	125.25
402.406	154.25
402.63	114.25
402.854	91.25
403.078	99.25
403.302	86.25
403.526	84.25
403.75	97.25
403.974	89.25
404.198	101.25
404.422	97.25
404.645	80.25
404.869	76.25
405.093	91.25
405.317	86.25
405.541	89.25
405.765	97.25
405.988	119.25
406.212	155.25
406.436	209.25
406.66	134.25
406.883	97.25
407.107	92.25
407.331	92.25
407.555	111.25
407.778	110.25
408.002	95.25
408.226	77.25
408.449	96.25
408.673	99.25
408.896	92.25
409.12	106.25
409.344	79.25
409.567	98.25
409.791	98.25
410.014	78.25
410.238	94.25
410.461	89.25
410.685	104.25
410.908	114.25
411.132	112.25
411.355	89.25
411.578	99.25
411.802	105.25
412.025	94.25
412.249	93.25
412.472	86.25
412.695	92.25
412.919	101.25
413.142	89.25
413.365	92.25
413.589	91.25
413.812	94.25
414.035	92.25
414.258	95.25
414.482	90.25
414.705	86.25
414.928	88.25
415.151	99.25
415.374	90.25
415.597	96.25
415.821	82.25
416.044	95.25
416.267	89.25
416.49	94.25
416.713	91.25
416.936	92.25
417.159	94.25
417.382	87.25
417.605	95.25
417.828	88.25
418.051	72.25
418.274	100.25
418.497	84.25
418.72	87.25
418.943	87.25
419.166	93.25
419.389	84.25
419.611	79.25
419.834	99.25
420.057	84.25
420.28	86.25
420.503	92.25
420.726	93.25
420.948	96.25
421.171	101.25
421.394	91.25
421.617	86.25
421.839	92.25
422.062	95.25
422.285	95.25
422.507	97.25
422.73	124.25
422.953	91.25
423.175	105.25
423.398	99.25
423.621	100.25
423.843	92.25
424.066	87.25
424.288	85.25
424.511	107.25
424.733	103.25
424.956	104.25
425.178	102.25
425.401	106.25
425.623	92.25
425.846	85.25
426.068	99.25
426.291	99.25
426.513	89.25
426.735	107.25
426.958	103.25
427.18	100.25
427.402	133.25
427.625	161.25
427.847	122.25
428.069	98.25
428.292	87.25
428.514	81.25
428.736	84.25
428.958	84.25
429.181	87.25
429.403	101.25
429.625	99.25
429.847	88.25
430.069	91.25
430.292	87.25
430.514	87.25
430.736	86.25
430.958	102.25
431.18	91.25
431.402	79.25
431.624	93.25
431.846	88.25
432.068	75.25
432.29	93.25
432.512	87.25
432.734	91.25
432.956	98.25
433.178	96.25
433.4	91.25
433.622	101.25
433.844	93.25
434.066	79.25
434.287	106.25
434.509	89.25
434.731	95.25
434.953	103.25
435.175	86.25
435.397	85.25
435.618	96.25
435.84	104.25
436.062	135.25
436.284	116.25
436.505	115.25
436.727	109.25
436.949	99.25
437.17	99.25
437.392	99.25
437.614	89.25
437.835	104.25
438.057	125.25
438.278	103.25
438.5	96.25
438.721	141.25
438.943	100.25
439.165	95.25
439.386	76.25
439.608	103.25
439.829	106.25
440.05	119.25
440.272	128.25
440.493	90.25
440.715	81.25
440.936	98.25
441.158	87.25
441.379	89.25
441.6	102.25
441.822	90.25
442.043	95.25
442.264	101.25
442.486	99.25
442.707	92.25
442.928	108.25
443.149	106.25
443.371	126.25
443.592	124.25
443.813	121.25
444.034	97.25
444.255	97.25
444.476	99.25
444.698	88.25
444.919	86.25
445.14	139.25
445.361	122.25
445.582	115.25
445.803	128.25
446.024	119.25
446.245	151.25
446.466	122.25
446.687	94.25
446.908	111.25
447.129	108.25
447.35	97.25
447.571	88.25
447.792	95.25
448.013	92.25
448.234	115.25
448.455	98.25
448.675	122.25
448.896	121.25
449.117	99.25
449.338	114.25
449.559	125.25
449.779	139.25
450	102.25
450.221	81.25
450.442	88.25
450.662	87.25
450.883	103.25
451.104	115.25
451.324	91.25
451.545	98.25
451.766	84.25
451.986	79.25
452.207	88.25
452.428	100.25
452.648	93.25
452.869	105.25
453.089	110.25
453.31	95.25
453.53	94.25
453.751	102.25
453.971	92.25
454.192	120.25
454.412	97.25
454.633	97.25
454.853	95.25
455.073	96.25
455.294	92.25
455.514	103.25
455.734	94.25
455.955	95.25
456.175	86.25
456.395	93.25
456.616	99.25
456.836	94.25
457.056	88.25
457.276	89.25
457.497	83.25
457.717	97.25
457.937	94.25
458.157	94.25
458.377	95.25
458.598	109.25
458.818	148.25
459.038	145.25
459.258	123.25
459.478	88.25
459.698	77.25
459.918	85.25
460.138	102.25
460.358	98.25
460.578	96.25
460.798	81.25
461.018	92.25
461.238	81.25
461.458	81.25
461.678	88.25
461.898	95.25
462.118	92.25
462.338	89.25
462.558	107.25
462.777	84.25
462.997	95.25
463.217	90.25
463.437	89.25
463.657	94.25
463.876	80.25
464.096	79.25
464.316	89.25
464.536	89.25
464.755	96.25
464.975	108.25
465.195	145.25
465.414	159.25
465.634	82.25
465.854	93.25
466.073	88.25
466.293	97.25
466.512	94.25
466.732	89.25
466.951	87.25
467.171	100.25
467.391	89.25
467.61	109.25
467.829	101.25
468.049	99.25
468.268	75.25
468.488	86.25
468.707	84.25
468.927	98.25
469.146	82.25
469.365	88.25
469.585	86.25
469.804	94.25
470.023	94.25
470.243	102.25
470.462	96.25
470.681	95.25
470.901	79.25
471.12	91.25
471.339	94.25
471.558	99.25
471.777	107.25
471.997	94.25
472.216	88.25
472.435	93.25
472.654	95.25
472.873	71.25
473.092	93.25
473.311	73.25
473.53	84.25
473.749	87.25
473.968	107.25
474.187	109.25
474.406	97.25
474.625	102.25
474.844	93.25
475.063	100.25
475.282	94.25
475.501	77.25
475.72	96.25
475.939	96.25
476.158	91.25
476.377	94.25
476.596	95.25
476.814	81.25
477.033	91.25
477.252	88.25
477.471	99.25
477.69	75.25
477.908	85.25
478.127	99.25
478.346	97.25
478.564	91.25
478.783	96.25
479.002	104.25
479.22	87.25
479.439	116.25
479.658	101.25
479.876	104.25
480.095	100.25
480.313	87.25
480.532	80.25
480.751	94.25
480.969	83.25
481.188	112.25
481.406	85.25
481.624	99.25
481.843	76.25
482.061	76.25
482.28	94.25
482.498	94.25
482.717	86.25
482.935	99.25
483.153	81.25
483.372	84.25
483.59	87.25
483.808	83.25
484.027	96.25
484.245	85.25
484.463	78.25
484.681	88.25
484.9	88.25
485.118	85.25
485.336	117.25
485.554	104.25
485.772	93.25
485.99	108.25
486.209	112.25
486.427	116.25
486.645	108.25
486.863	114.25
487.081	103.25
487.299	99.25
487.517	107.25
487.735	87.25
487.953	92.25
488.171	94.25
488.389	95.25
488.607	94.25
488.825	89.25
489.043	98.25
489.261	104.25
489.479	87.25
489.696	87.25
489.914	94.25
490.132	85.25
490.35	92.25
490.568	97.25
490.786	98.25
491.003	95.25
491.221	100.25
491.439	84.25
491.657	87.25
491.874	90.25
492.092	81.25
492.31	107.25
492.527	91.25
492.745	82.25
492.963	85.25
493.18	84.25
493.398	94.25
493.615	101.25
493.833	98.25
494.05	83.25
494.268	80.25
494.485	86.25
494.703	89.25
494.92	96.25
495.138	93.25
495.355	109.25
495.573	92.25
495.79	89.25
496.008	85.25
496.225	97.25
496.442	95.25
496.66	92.25
496.877	96.25
497.094	91.25
497.312	99.25
497.529	92.25
497.746	99.25
497.963	95.25
498.181	103.25
498.398	113.25
498.615	111.25
498.832	103.25
499.049	95.25
499.267	96.25
499.484	107.25
499.701	92.25
499.918	97.25
500.135	104.25
500.352	91.25
500.569	89.25
500.786	90.25
501.003	85.25
501.22	88.25
501.437	96.25
501.654	97.25
501.871	112.25
502.088	101.25
502.305	98.25
502.522	86.25
502.739	82.25
502.956	85.25
503.172	93.25
503.389	94.25
503.606	108.25
503.823	88.25
504.04	89.25
504.256	94.25
504.473	105.25
504.69	80.25
504.907	105.25
505.123	92.25
505.34	83.25
505.557	91.25
505.773	99.25
505.99	87.25
506.207	84.25
506.423	97.25
506.64	95.25
506.856	106.25
507.073	85.25
507.289	75.25
507.506	94.25
507.722	102.25
507.939	104.25
508.155	102.25
508.372	100.25
508.588	97.25
508.805	97.25
509.021	111.25
509.238	92.25
509.454	96.25
509.67	94.25
509.887	119.25
510.103	130.25
510.319	219.25
510.536	735.25
510.752	2210.25
510.968	610.25
511.184	143.25
511.401	109.25
511.617	117.25
511.833	111.25
512.049	105.25
512.265	99.25
512.481	102.25
512.698	98.25
512.914	91.25
513.13	91.25
513.346	79.25
513.562	90.25
513.778	103.25
513.994	92.25
514.21	97.25
514.426	119.25
514.642	139.25
514.858	118.25
