Data from Uncirc_1994_H10_HRD10591_00039.txt Node
Date: Wed Jan 03 11:39:28 EST 2024
User: Yrep
Spectrometer: HR+D1059
Trigger mode: 1
Integration Time (sec): 1.000000E-1
Scans to average: 1
Electric dark correction enabled: true
Nonlinearity correction enabled: false
Boxcar width: 0
XAxis mode: Wavelengths
Number of Pixels in Spectrum: 2048
>>>>>Begin Spectral Data<<<<<
223.165	-1.38
223.4	-1.38
223.635	-1.38
223.869	-20.38
224.104	-32.38
224.338	-16.38
224.573	-5.38
224.808	-4.38
225.042	-15.38
225.277	0.62
225.511	-0.38
225.746	-4.38
225.98	3.62
226.215	10.62
226.449	10.62
226.683	25.62
226.918	19.62
227.152	29.62
227.387	46.62
227.621	37.62
227.856	46.62
228.09	42.62
228.324	50.62
228.559	65.62
228.793	59.62
229.027	66.62
229.262	73.62
229.496	52.62
229.73	70.62
229.964	79.62
230.199	97.62
230.433	86.62
230.667	94.62
230.901	84.62
231.136	79.62
231.37	90.62
231.604	68.62
231.838	93.62
232.072	92.62
232.306	85.62
232.541	80.62
232.775	80.62
233.009	68.62
233.243	70.62
233.477	85.62
233.711	76.62
233.945	91.62
234.179	69.62
234.413	75.62
234.647	87.62
234.881	80.62
235.115	92.62
235.349	70.62
235.583	93.62
235.817	85.62
236.051	85.62
236.285	69.62
236.519	67.62
236.753	84.62
236.987	68.62
237.221	92.62
237.455	84.62
237.689	64.62
237.922	87.62
238.156	76.62
238.39	82.62
238.624	76.62
238.858	86.62
239.091	72.62
239.325	77.62
239.559	76.62
239.793	92.62
240.027	86.62
240.26	83.62
240.494	85.62
240.728	80.62
240.961	88.62
241.195	74.62
241.429	72.62
241.662	90.62
241.896	100.62
242.13	92.62
242.363	67.62
242.597	72.62
242.83	86.62
243.064	86.62
243.298	84.62
243.531	92.62
243.765	78.62
243.998	87.62
244.232	89.62
244.465	93.62
244.699	79.62
244.932	94.62
245.166	87.62
245.399	63.62
245.633	74.62
245.866	92.62
246.099	84.62
246.333	87.62
246.566	82.62
246.8	93.62
247.033	67.62
247.266	80.62
247.5	88.62
247.733	81.62
247.966	79.62
248.2	88.62
248.433	79.62
248.666	83.62
248.899	79.62
249.133	82.62
249.366	90.62
249.599	85.62
249.832	78.62
250.066	91.62
250.299	88.62
250.532	76.62
250.765	96.62
250.998	85.62
251.231	87.62
251.465	78.62
251.698	74.62
251.931	81.62
252.164	82.62
252.397	91.62
252.63	87.62
252.863	69.62
253.096	78.62
253.329	80.62
253.562	86.62
253.795	76.62
254.028	83.62
254.261	72.62
254.494	83.62
254.727	92.62
254.96	92.62
255.193	77.62
255.426	99.62
255.659	67.62
255.892	95.62
256.124	88.62
256.357	81.62
256.59	87.62
256.823	82.62
257.056	92.62
257.289	95.62
257.521	83.62
257.754	90.62
257.987	82.62
258.22	78.62
258.452	82.62
258.685	83.62
258.918	85.62
259.151	71.62
259.383	79.62
259.616	86.62
259.849	72.62
260.081	81.62
260.314	67.62
260.547	94.62
260.779	97.62
261.012	90.62
261.244	91.62
261.477	79.62
261.71	89.62
261.942	103.62
262.175	122.62
262.407	83.62
262.64	88.62
262.872	89.62
263.105	96.62
263.337	83.62
263.57	95.62
263.802	98.62
264.035	99.62
264.267	84.62
264.499	86.62
264.732	80.62
264.964	82.62
265.197	78.62
265.429	88.62
265.661	88.62
265.894	97.62
266.126	96.62
266.358	81.62
266.591	87.62
266.823	102.62
267.055	67.62
267.287	86.62
267.52	90.62
267.752	92.62
267.984	95.62
268.216	100.62
268.448	85.62
268.681	86.62
268.913	94.62
269.145	84.62
269.377	91.62
269.609	92.62
269.841	97.62
270.073	78.62
270.306	88.62
270.538	90.62
270.77	89.62
271.002	94.62
271.234	84.62
271.466	94.62
271.698	83.62
271.93	84.62
272.162	102.62
272.394	88.62
272.626	95.62
272.858	99.62
273.09	86.62
273.322	98.62
273.553	84.62
273.785	85.62
274.017	74.62
274.249	89.62
274.481	88.62
274.713	92.62
274.945	102.62
275.176	82.62
275.408	92.62
275.64	84.62
275.872	87.62
276.104	86.62
276.335	96.62
276.567	99.62
276.799	110.62
277.031	108.62
277.262	82.62
277.494	86.62
277.726	90.62
277.957	91.62
278.189	87.62
278.421	78.62
278.652	91.62
278.884	86.62
279.115	102.62
279.347	90.62
279.579	83.62
279.81	89.62
280.042	83.62
280.273	90.62
280.505	98.62
280.736	82.62
280.968	87.62
281.199	96.62
281.431	96.62
281.662	90.62
281.894	88.62
282.125	101.62
282.356	112.62
282.588	131.62
282.819	111.62
283.051	86.62
283.282	86.62
283.513	87.62
283.745	99.62
283.976	90.62
284.207	95.62
284.439	83.62
284.67	95.62
284.901	94.62
285.132	88.62
285.364	80.62
285.595	94.62
285.826	70.62
286.057	92.62
286.288	89.62
286.52	93.62
286.751	85.62
286.982	83.62
287.213	91.62
287.444	94.62
287.675	94.62
287.906	83.62
288.138	94.62
288.369	93.62
288.6	86.62
288.831	89.62
289.062	96.62
289.293	92.62
289.524	69.62
289.755	94.62
289.986	88.62
290.217	86.62
290.448	92.62
290.679	85.62
290.91	95.62
291.141	86.62
291.371	97.62
291.602	100.62
291.833	88.62
292.064	89.62
292.295	94.62
292.526	95.62
292.757	88.62
292.987	87.62
293.218	84.62
293.449	89.62
293.68	92.62
293.91	84.62
294.141	97.62
294.372	87.62
294.603	98.62
294.833	79.62
295.064	94.62
295.295	86.62
295.525	105.62
295.756	105.62
295.987	122.62
296.217	131.62
296.448	110.62
296.679	94.62
296.909	91.62
297.14	90.62
297.37	101.62
297.601	94.62
297.831	103.62
298.062	94.62
298.292	92.62
298.523	92.62
298.753	101.62
298.984	89.62
299.214	83.62
299.445	100.62
299.675	96.62
299.905	97.62
300.136	110.62
300.366	95.62
300.597	87.62
300.827	96.62
301.057	98.62
301.288	94.62
301.518	97.62
301.748	87.62
301.979	99.62
302.209	98.62
302.439	100.62
302.669	99.62
302.9	95.62
303.13	95.62
303.36	95.62
303.59	98.62
303.82	114.62
304.051	106.62
304.281	93.62
304.511	94.62
304.741	104.62
304.971	98.62
305.201	93.62
305.431	92.62
305.661	91.62
305.891	96.62
306.121	103.62
306.352	102.62
306.582	92.62
306.812	95.62
307.042	107.62
307.272	81.62
307.502	94.62
307.731	106.62
307.961	100.62
308.191	96.62
308.421	106.62
308.651	85.62
308.881	93.62
309.111	96.62
309.341	100.62
309.571	100.62
309.8	107.62
310.03	87.62
310.26	82.62
310.49	93.62
310.72	100.62
310.949	108.62
311.179	111.62
311.409	105.62
311.639	106.62
311.868	108.62
312.098	100.62
312.328	94.62
312.557	101.62
312.787	118.62
313.017	101.62
313.246	101.62
313.476	98.62
313.706	94.62
313.935	102.62
314.165	92.62
314.394	99.62
314.624	95.62
314.853	91.62
315.083	84.62
315.312	100.62
315.542	104.62
315.771	81.62
316.001	95.62
316.23	96.62
316.46	86.62
316.689	99.62
316.919	90.62
317.148	84.62
317.377	91.62
317.607	103.62
317.836	100.62
318.065	92.62
318.295	100.62
318.524	81.62
318.753	91.62
318.983	104.62
319.212	117.62
319.441	109.62
319.67	109.62
319.9	95.62
320.129	98.62
320.358	91.62
320.587	88.62
320.816	102.62
321.046	103.62
321.275	109.62
321.504	104.62
321.733	105.62
321.962	112.62
322.191	101.62
322.42	93.62
322.649	100.62
322.878	112.62
323.108	113.62
323.337	117.62
323.566	142.62
323.795	142.62
324.024	190.62
324.253	378.62
324.482	743.62
324.71	1541.62
324.939	1948.62
325.168	718.62
325.397	220.62
325.626	163.62
325.855	139.62
326.084	121.62
326.313	147.62
326.542	146.62
326.77	216.62
326.999	414.62
327.228	866.62
327.457	1549.62
327.686	1198.62
327.914	340.62
328.143	190.62
328.372	146.62
328.6	110.62
328.829	119.62
329.058	122.62
329.287	119.62
329.515	117.62
329.744	107.62
329.972	90.62
330.201	100.62
330.43	106.62
330.658	110.62
330.887	120.62
331.115	111.62
331.344	106.62
331.572	101.62
331.801	113.62
332.03	100.62
332.258	111.62
332.486	113.62
332.715	102.62
332.943	93.62
333.172	82.62
333.4	98.62
333.629	105.62
333.857	115.62
334.085	106.62
334.314	100.62
334.542	83.62
334.771	92.62
334.999	121.62
335.227	113.62
335.455	84.62
335.684	106.62
335.912	106.62
336.14	103.62
336.369	109.62
336.597	101.62
336.825	108.62
337.053	86.62
337.281	97.62
337.51	89.62
337.738	101.62
337.966	91.62
338.194	96.62
338.422	102.62
338.65	109.62
338.878	94.62
339.106	91.62
339.334	99.62
339.562	84.62
339.79	87.62
340.018	80.62
340.246	104.62
340.474	93.62
340.702	94.62
340.93	101.62
341.158	92.62
341.386	91.62
341.614	96.62
341.842	88.62
342.07	84.62
342.298	98.62
342.526	92.62
342.754	96.62
342.981	99.62
343.209	97.62
343.437	107.62
343.665	84.62
343.893	96.62
344.12	100.62
344.348	98.62
344.576	101.62
344.804	102.62
345.031	92.62
345.259	107.62
345.487	106.62
345.714	95.62
345.942	91.62
346.17	91.62
346.397	78.62
346.625	97.62
346.853	87.62
347.08	99.62
347.308	99.62
347.535	96.62
347.763	98.62
347.99	101.62
348.218	96.62
348.445	106.62
348.673	102.62
348.9	106.62
349.128	90.62
349.355	95.62
349.583	104.62
349.81	107.62
350.037	104.62
350.265	95.62
350.492	90.62
350.72	102.62
350.947	99.62
351.174	106.62
351.402	112.62
351.629	105.62
351.856	111.62
352.083	100.62
352.311	115.62
352.538	108.62
352.765	106.62
352.992	125.62
353.22	103.62
353.447	97.62
353.674	108.62
353.901	84.62
354.128	88.62
354.355	94.62
354.583	103.62
354.81	107.62
355.037	104.62
355.264	114.62
355.491	97.62
355.718	102.62
355.945	106.62
356.172	90.62
356.399	111.62
356.626	100.62
356.853	110.62
357.08	94.62
357.307	94.62
357.534	82.62
357.761	96.62
357.988	103.62
358.215	99.62
358.441	98.62
358.668	83.62
358.895	98.62
359.122	98.62
359.349	90.62
359.576	109.62
359.802	115.62
360.029	114.62
360.256	93.62
360.483	100.62
360.709	93.62
360.936	101.62
361.163	96.62
361.39	95.62
361.616	108.62
361.843	90.62
362.07	98.62
362.296	112.62
362.523	105.62
362.749	95.62
362.976	101.62
363.203	108.62
363.429	96.62
363.656	104.62
363.882	97.62
364.109	88.62
364.335	87.62
364.562	93.62
364.788	80.62
365.015	88.62
365.241	99.62
365.468	107.62
365.694	104.62
365.92	95.62
366.147	96.62
366.373	83.62
366.599	70.62
366.826	91.62
367.052	83.62
367.278	98.62
367.505	98.62
367.731	96.62
367.957	85.62
368.184	93.62
368.41	101.62
368.636	113.62
368.862	122.62
369.089	112.62
369.315	107.62
369.541	95.62
369.767	94.62
369.993	83.62
370.219	95.62
370.445	88.62
370.672	93.62
370.898	81.62
371.124	98.62
371.35	94.62
371.576	82.62
371.802	92.62
372.028	91.62
372.254	99.62
372.48	93.62
372.706	96.62
372.932	101.62
373.158	100.62
373.384	90.62
373.61	103.62
373.835	90.62
374.061	93.62
374.287	95.62
374.513	91.62
374.739	96.62
374.965	92.62
375.191	88.62
375.416	80.62
375.642	103.62
375.868	91.62
376.094	91.62
376.319	89.62
376.545	92.62
376.771	98.62
376.997	86.62
377.222	83.62
377.448	93.62
377.674	86.62
377.899	98.62
378.125	91.62
378.35	98.62
378.576	97.62
378.802	101.62
379.027	91.62
379.253	100.62
379.478	99.62
379.704	92.62
379.929	98.62
380.155	93.62
380.38	96.62
380.606	92.62
380.831	103.62
381.057	103.62
381.282	107.62
381.507	89.62
381.733	92.62
381.958	103.62
382.184	109.62
382.409	107.62
382.634	99.62
382.86	96.62
383.085	93.62
383.31	115.62
383.535	108.62
383.761	107.62
383.986	106.62
384.211	95.62
384.436	95.62
384.662	106.62
384.887	100.62
385.112	100.62
385.337	108.62
385.562	106.62
385.787	115.62
386.013	116.62
386.238	103.62
386.463	100.62
386.688	98.62
386.913	86.62
387.138	99.62
387.363	109.62
387.588	94.62
387.813	95.62
388.038	111.62
388.263	112.62
388.488	108.62
388.713	99.62
388.938	88.62
389.163	103.62
389.387	97.62
389.612	96.62
389.837	99.62
390.062	86.62
390.287	89.62
390.512	110.62
390.736	104.62
390.961	90.62
391.186	128.62
391.411	110.62
391.636	87.62
391.86	67.62
392.085	87.62
392.31	99.62
392.534	93.62
392.759	85.62
392.984	94.62
393.208	93.62
393.433	100.62
393.658	93.62
393.882	82.62
394.107	86.62
394.331	96.62
394.556	98.62
394.78	100.62
395.005	86.62
395.229	84.62
395.454	91.62
395.678	98.62
395.903	91.62
396.127	86.62
396.352	87.62
396.576	93.62
396.801	102.62
397.025	86.62
397.249	95.62
397.474	100.62
397.698	87.62
397.922	88.62
398.147	86.62
398.371	90.62
398.595	82.62
398.82	78.62
399.044	84.62
399.268	85.62
399.492	90.62
399.717	96.62
399.941	92.62
400.165	101.62
400.389	94.62
400.613	87.62
400.837	93.62
401.062	83.62
401.286	79.62
401.51	91.62
401.734	88.62
401.958	93.62
402.182	109.62
402.406	139.62
402.63	113.62
402.854	90.62
403.078	94.62
403.302	87.62
403.526	82.62
403.75	95.62
403.974	94.62
404.198	98.62
404.422	102.62
404.645	86.62
404.869	82.62
405.093	97.62
405.317	98.62
405.541	86.62
405.765	109.62
405.988	128.62
406.212	173.62
406.436	210.62
406.66	126.62
406.883	92.62
407.107	96.62
407.331	88.62
407.555	89.62
407.778	104.62
408.002	92.62
408.226	87.62
408.449	80.62
408.673	90.62
408.896	107.62
409.12	82.62
409.344	89.62
409.567	68.62
409.791	108.62
410.014	110.62
410.238	96.62
410.461	85.62
410.685	100.62
410.908	96.62
411.132	102.62
411.355	111.62
411.578	103.62
411.802	84.62
412.025	102.62
412.249	101.62
412.472	87.62
412.695	96.62
412.919	82.62
413.142	89.62
413.365	91.62
413.589	84.62
413.812	91.62
414.035	94.62
414.258	115.62
414.482	97.62
414.705	96.62
414.928	83.62
415.151	87.62
415.374	87.62
415.597	95.62
415.821	99.62
416.044	88.62
416.267	98.62
416.49	85.62
416.713	90.62
416.936	103.62
417.159	94.62
417.382	103.62
417.605	98.62
417.828	90.62
418.051	113.62
418.274	105.62
418.497	88.62
418.72	96.62
418.943	77.62
419.166	91.62
419.389	86.62
419.611	93.62
419.834	96.62
420.057	88.62
420.28	91.62
420.503	87.62
420.726	80.62
420.948	91.62
421.171	98.62
421.394	108.62
421.617	97.62
421.839	88.62
422.062	87.62
422.285	86.62
422.507	122.62
422.73	98.62
422.953	101.62
423.175	84.62
423.398	78.62
423.621	75.62
423.843	99.62
424.066	83.62
424.288	88.62
424.511	80.62
424.733	104.62
424.956	106.62
425.178	107.62
425.401	104.62
425.623	116.62
425.846	109.62
426.068	84.62
426.291	87.62
426.513	80.62
426.735	85.62
426.958	96.62
427.18	107.62
427.402	143.62
427.625	155.62
427.847	135.62
428.069	100.62
428.292	78.62
428.514	91.62
428.736	85.62
428.958	78.62
429.181	97.62
429.403	87.62
429.625	79.62
429.847	94.62
430.069	102.62
430.292	112.62
430.514	83.62
430.736	88.62
430.958	85.62
431.18	83.62
431.402	99.62
431.624	107.62
431.846	88.62
432.068	76.62
432.29	95.62
432.512	106.62
432.734	96.62
432.956	111.62
433.178	103.62
433.4	106.62
433.622	96.62
433.844	94.62
434.066	82.62
434.287	98.62
434.509	89.62
434.731	88.62
434.953	87.62
435.175	111.62
435.397	92.62
435.618	97.62
435.84	115.62
436.062	118.62
436.284	114.62
436.505	103.62
436.727	97.62
436.949	101.62
437.17	93.62
437.392	96.62
437.614	84.62
437.835	109.62
438.057	119.62
438.278	106.62
438.5	108.62
438.721	125.62
438.943	102.62
439.165	86.62
439.386	91.62
439.608	83.62
439.829	108.62
440.05	115.62
440.272	146.62
440.493	96.62
440.715	74.62
440.936	76.62
441.158	80.62
441.379	102.62
441.6	92.62
441.822	93.62
442.043	93.62
442.264	98.62
442.486	100.62
442.707	86.62
442.928	108.62
443.149	114.62
443.371	123.62
443.592	115.62
443.813	108.62
444.034	102.62
444.255	86.62
444.476	93.62
444.698	99.62
444.919	88.62
445.14	141.62
445.361	130.62
445.582	117.62
445.803	125.62
446.024	117.62
446.245	128.62
446.466	116.62
446.687	108.62
446.908	99.62
447.129	87.62
447.35	71.62
447.571	78.62
447.792	96.62
448.013	88.62
448.234	107.62
448.455	95.62
448.675	113.62
448.896	109.62
449.117	99.62
449.338	101.62
449.559	124.62
449.779	133.62
450	94.62
450.221	107.62
450.442	97.62
450.662	91.62
450.883	109.62
451.104	99.62
451.324	93.62
451.545	95.62
451.766	85.62
451.986	89.62
452.207	97.62
452.428	101.62
452.648	93.62
452.869	105.62
453.089	111.62
453.31	112.62
453.53	100.62
453.751	90.62
453.971	94.62
454.192	98.62
454.412	90.62
454.633	94.62
454.853	99.62
455.073	78.62
455.294	93.62
455.514	78.62
455.734	91.62
455.955	90.62
456.175	78.62
456.395	89.62
456.616	93.62
456.836	92.62
457.056	87.62
457.276	88.62
457.497	89.62
457.717	85.62
457.937	80.62
458.157	81.62
458.377	81.62
458.598	115.62
458.818	135.62
459.038	143.62
459.258	101.62
459.478	92.62
459.698	97.62
459.918	98.62
460.138	84.62
460.358	98.62
460.578	94.62
460.798	95.62
461.018	98.62
461.238	99.62
461.458	87.62
461.678	96.62
461.898	98.62
462.118	96.62
462.338	88.62
462.558	80.62
462.777	95.62
462.997	100.62
463.217	87.62
463.437	83.62
463.657	80.62
463.876	83.62
464.096	83.62
464.316	101.62
464.536	92.62
464.755	95.62
464.975	118.62
465.195	160.62
465.414	154.62
465.634	94.62
465.854	102.62
466.073	90.62
466.293	84.62
466.512	87.62
466.732	82.62
466.951	85.62
467.171	106.62
467.391	108.62
467.61	108.62
467.829	96.62
468.049	95.62
468.268	106.62
468.488	90.62
468.707	100.62
468.927	77.62
469.146	93.62
469.365	97.62
469.585	88.62
469.804	97.62
470.023	106.62
470.243	93.62
470.462	100.62
470.681	111.62
470.901	96.62
471.12	89.62
471.339	99.62
471.558	77.62
471.777	95.62
471.997	93.62
472.216	100.62
472.435	90.62
472.654	88.62
472.873	86.62
473.092	88.62
473.311	92.62
473.53	69.62
473.749	87.62
473.968	91.62
474.187	110.62
474.406	85.62
474.625	99.62
474.844	92.62
475.063	90.62
475.282	79.62
475.501	86.62
475.72	94.62
475.939	80.62
476.158	94.62
476.377	103.62
476.596	85.62
476.814	90.62
477.033	92.62
477.252	86.62
477.471	88.62
477.69	88.62
477.908	104.62
478.127	97.62
478.346	85.62
478.564	91.62
478.783	99.62
479.002	86.62
479.22	84.62
479.439	107.62
479.658	96.62
479.876	90.62
480.095	93.62
480.313	99.62
480.532	85.62
480.751	80.62
480.969	89.62
481.188	90.62
481.406	92.62
481.624	94.62
481.843	101.62
482.061	93.62
482.28	81.62
482.498	105.62
482.717	76.62
482.935	86.62
483.153	96.62
483.372	109.62
483.59	78.62
483.808	89.62
484.027	102.62
484.245	101.62
484.463	106.62
484.681	90.62
484.9	76.62
485.118	101.62
485.336	95.62
485.554	110.62
485.772	116.62
485.99	104.62
486.209	102.62
486.427	95.62
486.645	102.62
486.863	103.62
487.081	119.62
487.299	93.62
487.517	98.62
487.735	90.62
487.953	95.62
488.171	93.62
488.389	96.62
488.607	102.62
488.825	99.62
489.043	80.62
489.261	102.62
489.479	99.62
489.696	94.62
489.914	83.62
490.132	90.62
490.35	90.62
490.568	98.62
490.786	91.62
491.003	96.62
491.221	91.62
491.439	79.62
491.657	86.62
491.874	93.62
492.092	101.62
492.31	84.62
492.527	78.62
492.745	92.62
492.963	91.62
493.18	85.62
493.398	112.62
493.615	105.62
493.833	88.62
494.05	103.62
494.268	103.62
494.485	104.62
494.703	85.62
494.92	90.62
495.138	96.62
495.355	88.62
495.573	81.62
495.79	92.62
496.008	82.62
496.225	107.62
496.442	95.62
496.66	93.62
496.877	110.62
497.094	94.62
497.312	97.62
497.529	97.62
497.746	102.62
497.963	100.62
498.181	88.62
498.398	89.62
498.615	111.62
498.832	110.62
499.049	102.62
499.267	92.62
499.484	89.62
499.701	84.62
499.918	101.62
500.135	82.62
500.352	88.62
500.569	86.62
500.786	101.62
501.003	105.62
501.22	106.62
501.437	91.62
501.654	100.62
501.871	110.62
502.088	71.62
502.305	88.62
502.522	99.62
502.739	96.62
502.956	111.62
503.172	97.62
503.389	102.62
503.606	102.62
503.823	99.62
504.04	91.62
504.256	97.62
504.473	90.62
504.69	88.62
504.907	98.62
505.123	92.62
505.34	91.62
505.557	88.62
505.773	92.62
505.99	80.62
506.207	89.62
506.423	83.62
506.64	102.62
506.856	103.62
507.073	96.62
507.289	83.62
507.506	96.62
507.722	95.62
507.939	98.62
508.155	86.62
508.372	98.62
508.588	98.62
508.805	94.62
509.021	99.62
509.238	92.62
509.454	104.62
509.67	103.62
509.887	117.62
510.103	133.62
510.319	200.62
510.536	739.62
510.752	2166.62
510.968	616.62
511.184	142.62
511.401	96.62
511.617	88.62
511.833	103.62
512.049	102.62
512.265	94.62
512.481	76.62
512.698	96.62
512.914	100.62
513.13	107.62
513.346	102.62
513.562	92.62
513.778	100.62
513.994	103.62
514.21	95.62
514.426	125.62
514.642	154.62
