Data from Uncirc_1994_H10_HRD10591_00033.txt Node
Date: Wed Jan 03 11:39:27 EST 2024
User: Yrep
Spectrometer: HR+D1059
Trigger mode: 1
Integration Time (sec): 1.000000E-1
Scans to average: 1
Electric dark correction enabled: true
Nonlinearity correction enabled: false
Boxcar width: 0
XAxis mode: Wavelengths
Number of Pixels in Spectrum: 2048
>>>>>Begin Spectral Data<<<<<
223.165	-13.06
223.4	-13.06
223.635	-13.06
223.869	-12.06
224.104	-26.06
224.338	-9.06
224.573	-18.06
224.808	-9.06
225.042	-7.06
225.277	-3.06
225.511	-6.06
225.746	-2.06
225.98	17.94
226.215	2.94
226.449	2.94
226.683	18.94
226.918	32.94
227.152	29.94
227.387	46.94
227.621	51.94
227.856	52.94
228.09	46.94
228.324	38.94
228.559	58.94
228.793	68.94
229.027	56.94
229.262	73.94
229.496	80.94
229.73	72.94
229.964	84.94
230.199	91.94
230.433	77.94
230.667	74.94
230.901	74.94
231.136	88.94
231.37	86.94
231.604	84.94
231.838	85.94
232.072	65.94
232.306	82.94
232.541	71.94
232.775	81.94
233.009	76.94
233.243	61.94
233.477	79.94
233.711	83.94
233.945	96.94
234.179	81.94
234.413	85.94
234.647	77.94
234.881	84.94
235.115	93.94
235.349	76.94
235.583	66.94
235.817	83.94
236.051	76.94
236.285	86.94
236.519	84.94
236.753	71.94
236.987	75.94
237.221	93.94
237.455	83.94
237.689	75.94
237.922	76.94
238.156	82.94
238.39	73.94
238.624	89.94
238.858	90.94
239.091	96.94
239.325	90.94
239.559	91.94
239.793	79.94
240.027	88.94
240.26	77.94
240.494	85.94
240.728	90.94
240.961	86.94
241.195	76.94
241.429	74.94
241.662	64.94
241.896	63.94
242.13	76.94
242.363	75.94
242.597	87.94
242.83	78.94
243.064	66.94
243.298	84.94
243.531	67.94
243.765	79.94
243.998	81.94
244.232	68.94
244.465	81.94
244.699	79.94
244.932	83.94
245.166	81.94
245.399	75.94
245.633	85.94
245.866	69.94
246.099	72.94
246.333	91.94
246.566	80.94
246.8	64.94
247.033	81.94
247.266	86.94
247.5	86.94
247.733	64.94
247.966	83.94
248.2	87.94
248.433	79.94
248.666	87.94
248.899	79.94
249.133	89.94
249.366	80.94
249.599	111.94
249.832	75.94
250.066	89.94
250.299	79.94
250.532	95.94
250.765	65.94
250.998	90.94
251.231	65.94
251.465	83.94
251.698	84.94
251.931	85.94
252.164	87.94
252.397	82.94
252.63	75.94
252.863	76.94
253.096	73.94
253.329	87.94
253.562	82.94
253.795	84.94
254.028	81.94
254.261	71.94
254.494	80.94
254.727	79.94
254.96	93.94
255.193	101.94
255.426	87.94
255.659	70.94
255.892	80.94
256.124	80.94
256.357	81.94
256.59	97.94
256.823	82.94
257.056	81.94
257.289	76.94
257.521	83.94
257.754	86.94
257.987	72.94
258.22	94.94
258.452	90.94
258.685	87.94
258.918	81.94
259.151	86.94
259.383	76.94
259.616	80.94
259.849	68.94
260.081	88.94
260.314	77.94
260.547	90.94
260.779	88.94
261.012	81.94
261.244	93.94
261.477	99.94
261.71	83.94
261.942	95.94
262.175	109.94
262.407	91.94
262.64	88.94
262.872	71.94
263.105	90.94
263.337	81.94
263.57	79.94
263.802	74.94
264.035	80.94
264.267	83.94
264.499	94.94
264.732	82.94
264.964	80.94
265.197	83.94
265.429	87.94
265.661	103.94
265.894	75.94
266.126	76.94
266.358	71.94
266.591	71.94
266.823	79.94
267.055	79.94
267.287	87.94
267.52	83.94
267.752	84.94
267.984	79.94
268.216	76.94
268.448	83.94
268.681	83.94
268.913	87.94
269.145	77.94
269.377	80.94
269.609	99.94
269.841	84.94
270.073	86.94
270.306	90.94
270.538	93.94
270.77	86.94
271.002	93.94
271.234	87.94
271.466	71.94
271.698	74.94
271.93	76.94
272.162	83.94
272.394	94.94
272.626	83.94
272.858	83.94
273.09	76.94
273.322	82.94
273.553	68.94
273.785	83.94
274.017	91.94
274.249	89.94
274.481	81.94
274.713	87.94
274.945	86.94
275.176	91.94
275.408	98.94
275.64	85.94
275.872	70.94
276.104	83.94
276.335	85.94
276.567	106.94
276.799	111.94
277.031	89.94
277.262	91.94
277.494	101.94
277.726	94.94
277.957	91.94
278.189	76.94
278.421	91.94
278.652	87.94
278.884	90.94
279.115	74.94
279.347	81.94
279.579	104.94
279.81	97.94
280.042	83.94
280.273	98.94
280.505	94.94
280.736	82.94
280.968	86.94
281.199	100.94
281.431	81.94
281.662	82.94
281.894	80.94
282.125	95.94
282.356	106.94
282.588	138.94
282.819	115.94
283.051	92.94
283.282	92.94
283.513	79.94
283.745	101.94
283.976	93.94
284.207	69.94
284.439	65.94
284.67	84.94
284.901	91.94
285.132	81.94
285.364	85.94
285.595	90.94
285.826	94.94
286.057	83.94
286.288	79.94
286.52	85.94
286.751	90.94
286.982	81.94
287.213	96.94
287.444	83.94
287.675	84.94
287.906	82.94
288.138	91.94
288.369	97.94
288.6	87.94
288.831	85.94
289.062	89.94
289.293	91.94
289.524	79.94
289.755	97.94
289.986	90.94
290.217	78.94
290.448	88.94
290.679	88.94
290.91	88.94
291.141	90.94
291.371	89.94
291.602	93.94
291.833	91.94
292.064	102.94
292.295	84.94
292.526	93.94
292.757	89.94
292.987	98.94
293.218	81.94
293.449	91.94
293.68	81.94
293.91	88.94
294.141	97.94
294.372	100.94
294.603	89.94
294.833	81.94
295.064	81.94
295.295	81.94
295.525	107.94
295.756	95.94
295.987	98.94
296.217	111.94
296.448	116.94
296.679	98.94
296.909	100.94
297.14	88.94
297.37	75.94
297.601	93.94
297.831	86.94
298.062	81.94
298.292	94.94
298.523	90.94
298.753	94.94
298.984	99.94
299.214	91.94
299.445	97.94
299.675	92.94
299.905	90.94
300.136	110.94
300.366	91.94
300.597	99.94
300.827	91.94
301.057	89.94
301.288	92.94
301.518	94.94
301.748	91.94
301.979	89.94
302.209	105.94
302.439	86.94
302.669	91.94
302.9	99.94
303.13	88.94
303.36	93.94
303.59	99.94
303.82	98.94
304.051	91.94
304.281	79.94
304.511	83.94
304.741	90.94
304.971	80.94
305.201	87.94
305.431	95.94
305.661	100.94
305.891	83.94
306.121	115.94
306.352	101.94
306.582	100.94
306.812	99.94
307.042	99.94
307.272	94.94
307.502	92.94
307.731	84.94
307.961	100.94
308.191	95.94
308.421	93.94
308.651	81.94
308.881	90.94
309.111	92.94
309.341	95.94
309.571	90.94
309.8	88.94
310.03	93.94
310.26	94.94
310.49	101.94
310.72	99.94
310.949	109.94
311.179	95.94
311.409	89.94
311.639	105.94
311.868	98.94
312.098	101.94
312.328	80.94
312.557	93.94
312.787	99.94
313.017	102.94
313.246	88.94
313.476	96.94
313.706	91.94
313.935	94.94
314.165	86.94
314.394	92.94
314.624	92.94
314.853	80.94
315.083	105.94
315.312	94.94
315.542	95.94
315.771	96.94
316.001	126.94
316.23	111.94
316.46	93.94
316.689	96.94
316.919	87.94
317.148	98.94
317.377	103.94
317.607	100.94
317.836	136.94
318.065	159.94
318.295	106.94
318.524	100.94
318.753	91.94
318.983	85.94
319.212	80.94
319.441	108.94
319.67	101.94
319.9	102.94
320.129	91.94
320.358	81.94
320.587	94.94
320.816	85.94
321.046	86.94
321.275	99.94
321.504	108.94
321.733	97.94
321.962	94.94
322.191	97.94
322.42	108.94
322.649	110.94
322.878	99.94
323.108	106.94
323.337	117.94
323.566	143.94
323.795	146.94
324.024	197.94
324.253	385.94
324.482	789.94
324.71	1648.94
324.939	2146.94
325.168	787.94
325.397	235.94
325.626	146.94
325.855	123.94
326.084	124.94
326.313	124.94
326.542	140.94
326.77	213.94
326.999	436.94
327.228	921.94
327.457	1668.94
327.686	1281.94
327.914	343.94
328.143	169.94
328.372	144.94
328.6	121.94
328.829	107.94
329.058	127.94
329.287	142.94
329.515	99.94
329.744	92.94
329.972	98.94
330.201	79.94
330.43	98.94
330.658	128.94
330.887	136.94
331.115	109.94
331.344	86.94
331.572	88.94
331.801	96.94
332.03	90.94
332.258	92.94
332.486	96.94
332.715	91.94
332.943	101.94
333.172	105.94
333.4	99.94
333.629	95.94
333.857	98.94
334.085	97.94
334.314	93.94
334.542	108.94
334.771	91.94
334.999	77.94
335.227	97.94
335.455	83.94
335.684	94.94
335.912	91.94
336.14	90.94
336.369	95.94
336.597	88.94
336.825	99.94
337.053	79.94
337.281	91.94
337.51	86.94
337.738	109.94
337.966	93.94
338.194	91.94
338.422	85.94
338.65	95.94
338.878	85.94
339.106	96.94
339.334	86.94
339.562	88.94
339.79	99.94
340.018	97.94
340.246	84.94
340.474	91.94
340.702	79.94
340.93	93.94
341.158	83.94
341.386	93.94
341.614	94.94
341.842	78.94
342.07	75.94
342.298	95.94
342.526	88.94
342.754	105.94
342.981	95.94
343.209	80.94
343.437	100.94
343.665	88.94
343.893	97.94
344.12	64.94
344.348	90.94
344.576	85.94
344.804	98.94
345.031	77.94
345.259	104.94
345.487	89.94
345.714	99.94
345.942	75.94
346.17	82.94
346.397	88.94
346.625	88.94
346.853	88.94
347.08	87.94
347.308	94.94
347.535	82.94
347.763	84.94
347.99	97.94
348.218	95.94
348.445	93.94
348.673	97.94
348.9	81.94
349.128	88.94
349.355	93.94
349.583	83.94
349.81	87.94
350.037	90.94
350.265	81.94
350.492	81.94
350.72	91.94
350.947	93.94
351.174	116.94
351.402	119.94
351.629	105.94
351.856	96.94
352.083	98.94
352.311	106.94
352.538	104.94
352.765	104.94
352.992	99.94
353.22	100.94
353.447	104.94
353.674	92.94
353.901	93.94
354.128	92.94
354.355	90.94
354.583	88.94
354.81	84.94
355.037	104.94
355.264	97.94
355.491	94.94
355.718	90.94
355.945	75.94
356.172	101.94
356.399	91.94
356.626	103.94
356.853	99.94
357.08	93.94
357.307	104.94
357.534	92.94
357.761	95.94
357.988	95.94
358.215	91.94
358.441	89.94
358.668	82.94
358.895	86.94
359.122	89.94
359.349	93.94
359.576	95.94
359.802	103.94
360.029	113.94
360.256	106.94
360.483	93.94
360.709	84.94
360.936	95.94
361.163	89.94
361.39	103.94
361.616	90.94
361.843	111.94
362.07	80.94
362.296	98.94
362.523	91.94
362.749	84.94
362.976	88.94
363.203	100.94
363.429	71.94
363.656	79.94
363.882	85.94
364.109	101.94
364.335	87.94
364.562	92.94
364.788	96.94
365.015	83.94
365.241	94.94
365.468	95.94
365.694	92.94
365.92	98.94
366.147	81.94
366.373	97.94
366.599	96.94
366.826	79.94
367.052	86.94
367.278	92.94
367.505	101.94
367.731	95.94
367.957	84.94
368.184	85.94
368.41	106.94
368.636	119.94
368.862	128.94
369.089	94.94
369.315	95.94
369.541	97.94
369.767	94.94
369.993	80.94
370.219	100.94
370.445	88.94
370.672	111.94
370.898	91.94
371.124	82.94
371.35	90.94
371.576	83.94
371.802	111.94
372.028	84.94
372.254	93.94
372.48	88.94
372.706	80.94
372.932	72.94
373.158	73.94
373.384	94.94
373.61	119.94
373.835	128.94
374.061	107.94
374.287	91.94
374.513	91.94
374.739	91.94
374.965	83.94
375.191	94.94
375.416	81.94
375.642	93.94
375.868	97.94
376.094	95.94
376.319	97.94
376.545	84.94
376.771	85.94
376.997	91.94
377.222	87.94
377.448	96.94
377.674	89.94
377.899	84.94
378.125	87.94
378.35	75.94
378.576	89.94
378.802	104.94
379.027	92.94
379.253	96.94
379.478	86.94
379.704	91.94
379.929	108.94
380.155	88.94
380.38	101.94
380.606	88.94
380.831	99.94
381.057	107.94
381.282	92.94
381.507	87.94
381.733	111.94
381.958	101.94
382.184	89.94
382.409	99.94
382.634	107.94
382.86	94.94
383.085	94.94
383.31	95.94
383.535	89.94
383.761	92.94
383.986	107.94
384.211	82.94
384.436	95.94
384.662	94.94
384.887	91.94
385.112	106.94
385.337	101.94
385.562	99.94
385.787	120.94
386.013	114.94
386.238	105.94
386.463	102.94
386.688	101.94
386.913	82.94
387.138	105.94
387.363	109.94
387.588	105.94
387.813	94.94
388.038	104.94
388.263	101.94
388.488	84.94
388.713	93.94
388.938	103.94
389.163	88.94
389.387	97.94
389.612	94.94
389.837	97.94
390.062	92.94
390.287	104.94
390.512	92.94
390.736	105.94
390.961	84.94
391.186	95.94
391.411	85.94
391.636	97.94
391.86	96.94
392.085	88.94
392.31	100.94
392.534	95.94
392.759	122.94
392.984	217.94
393.208	541.94
393.433	1173.94
393.658	904.94
393.882	221.94
394.107	130.94
394.331	102.94
394.556	100.94
394.78	101.94
395.005	101.94
395.229	83.94
395.454	87.94
395.678	83.94
395.903	103.94
396.127	115.94
396.352	132.94
396.576	263.94
396.801	563.94
397.025	936.94
397.249	324.94
397.474	133.94
397.698	85.94
397.922	79.94
398.147	77.94
398.371	71.94
398.595	90.94
398.82	82.94
399.044	80.94
399.268	85.94
399.492	95.94
399.717	89.94
399.941	89.94
400.165	97.94
400.389	90.94
400.613	93.94
400.837	75.94
401.062	80.94
401.286	63.94
401.51	77.94
401.734	91.94
401.958	92.94
402.182	118.94
402.406	140.94
402.63	109.94
402.854	90.94
403.078	91.94
403.302	95.94
403.526	95.94
403.75	76.94
403.974	78.94
404.198	93.94
404.422	88.94
404.645	80.94
404.869	87.94
405.093	72.94
405.317	85.94
405.541	94.94
405.765	93.94
405.988	112.94
406.212	153.94
406.436	215.94
406.66	130.94
406.883	116.94
407.107	83.94
407.331	78.94
407.555	98.94
407.778	91.94
408.002	84.94
408.226	73.94
408.449	88.94
408.673	84.94
408.896	88.94
409.12	89.94
409.344	77.94
409.567	84.94
409.791	73.94
410.014	88.94
410.238	70.94
410.461	87.94
410.685	89.94
410.908	97.94
411.132	112.94
411.355	87.94
411.578	89.94
411.802	94.94
412.025	97.94
412.249	89.94
412.472	97.94
412.695	90.94
412.919	76.94
413.142	105.94
413.365	94.94
413.589	89.94
413.812	88.94
414.035	80.94
414.258	83.94
414.482	74.94
414.705	78.94
414.928	82.94
415.151	99.94
415.374	86.94
415.597	87.94
415.821	101.94
416.044	94.94
416.267	80.94
416.49	88.94
416.713	78.94
416.936	95.94
417.159	107.94
417.382	90.94
417.605	82.94
417.828	97.94
418.051	91.94
418.274	85.94
418.497	94.94
418.72	83.94
418.943	92.94
419.166	84.94
419.389	70.94
419.611	92.94
419.834	90.94
420.057	98.94
420.28	79.94
420.503	93.94
420.726	100.94
420.948	108.94
421.171	66.94
421.394	81.94
421.617	67.94
421.839	103.94
422.062	87.94
422.285	112.94
422.507	142.94
422.73	208.94
422.953	196.94
423.175	93.94
423.398	99.94
423.621	101.94
423.843	81.94
424.066	87.94
424.288	101.94
424.511	97.94
424.733	92.94
424.956	111.94
425.178	92.94
425.401	93.94
425.623	87.94
425.846	98.94
426.068	96.94
426.291	85.94
426.513	101.94
426.735	85.94
426.958	88.94
427.18	107.94
427.402	110.94
427.625	155.94
427.847	121.94
428.069	91.94
428.292	83.94
428.514	87.94
428.736	102.94
428.958	77.94
429.181	89.94
429.403	80.94
429.625	95.94
429.847	85.94
430.069	103.94
430.292	91.94
430.514	98.94
430.736	81.94
430.958	89.94
431.18	79.94
431.402	73.94
431.624	68.94
431.846	92.94
432.068	71.94
432.29	87.94
432.512	99.94
432.734	77.94
432.956	73.94
433.178	83.94
433.4	92.94
433.622	90.94
433.844	99.94
434.066	85.94
434.287	88.94
434.509	75.94
434.731	97.94
434.953	99.94
435.175	80.94
435.397	81.94
435.618	94.94
435.84	98.94
436.062	115.94
436.284	108.94
436.505	80.94
436.727	93.94
436.949	98.94
437.17	84.94
437.392	81.94
437.614	97.94
437.835	96.94
438.057	119.94
438.278	111.94
438.5	92.94
438.721	121.94
438.943	97.94
439.165	88.94
439.386	80.94
439.608	85.94
439.829	102.94
440.05	128.94
440.272	140.94
440.493	92.94
440.715	73.94
440.936	87.94
441.158	81.94
441.379	91.94
441.6	90.94
441.822	82.94
442.043	96.94
442.264	108.94
442.486	94.94
442.707	96.94
442.928	100.94
443.149	122.94
443.371	122.94
443.592	121.94
443.813	114.94
444.034	103.94
444.255	92.94
444.476	91.94
444.698	72.94
444.919	79.94
445.14	130.94
445.361	123.94
445.582	107.94
445.803	132.94
446.024	126.94
446.245	137.94
446.466	103.94
446.687	89.94
446.908	83.94
447.129	95.94
447.35	92.94
447.571	91.94
447.792	91.94
448.013	89.94
448.234	89.94
448.455	88.94
448.675	105.94
448.896	118.94
449.117	97.94
449.338	99.94
449.559	129.94
449.779	136.94
450	96.94
450.221	91.94
450.442	81.94
450.662	95.94
450.883	104.94
451.104	107.94
451.324	96.94
451.545	92.94
451.766	88.94
451.986	92.94
452.207	91.94
452.428	99.94
452.648	90.94
452.869	98.94
453.089	108.94
453.31	124.94
453.53	96.94
453.751	91.94
453.971	101.94
454.192	95.94
454.412	96.94
454.633	88.94
454.853	90.94
455.073	93.94
455.294	91.94
455.514	98.94
455.734	88.94
455.955	91.94
456.175	73.94
456.395	83.94
456.616	87.94
456.836	92.94
457.056	83.94
457.276	79.94
457.497	74.94
457.717	88.94
457.937	79.94
458.157	77.94
458.377	93.94
458.598	112.94
458.818	139.94
459.038	156.94
459.258	114.94
459.478	74.94
459.698	92.94
459.918	77.94
460.138	87.94
460.358	87.94
460.578	93.94
460.798	83.94
461.018	84.94
461.238	83.94
461.458	88.94
461.678	94.94
461.898	71.94
462.118	79.94
462.338	79.94
462.558	79.94
462.777	83.94
462.997	87.94
463.217	86.94
463.437	82.94
463.657	84.94
463.876	91.94
464.096	80.94
464.316	79.94
464.536	95.94
464.755	93.94
464.975	111.94
465.195	164.94
465.414	153.94
465.634	90.94
465.854	91.94
466.073	81.94
466.293	81.94
466.512	80.94
466.732	84.94
466.951	91.94
467.171	97.94
467.391	100.94
467.61	92.94
467.829	100.94
468.049	89.94
468.268	84.94
468.488	84.94
468.707	75.94
468.927	91.94
469.146	88.94
469.365	82.94
469.585	90.94
469.804	101.94
470.023	90.94
470.243	87.94
470.462	96.94
470.681	101.94
470.901	107.94
471.12	80.94
471.339	83.94
471.558	84.94
471.777	101.94
471.997	100.94
472.216	81.94
472.435	92.94
472.654	92.94
472.873	100.94
473.092	104.94
473.311	101.94
473.53	82.94
473.749	84.94
473.968	90.94
474.187	109.94
474.406	87.94
474.625	99.94
474.844	80.94
475.063	99.94
475.282	77.94
475.501	92.94
475.72	87.94
475.939	77.94
476.158	83.94
476.377	93.94
476.596	95.94
476.814	79.94
477.033	95.94
477.252	88.94
477.471	81.94
477.69	95.94
477.908	88.94
478.127	84.94
478.346	90.94
478.564	83.94
478.783	94.94
479.002	92.94
479.22	77.94
479.439	99.94
479.658	98.94
479.876	87.94
480.095	91.94
480.313	103.94
480.532	87.94
480.751	91.94
480.969	91.94
481.188	91.94
481.406	84.94
481.624	98.94
481.843	89.94
482.061	78.94
482.28	83.94
482.498	91.94
482.717	104.94
482.935	100.94
483.153	94.94
483.372	84.94
483.59	86.94
483.808	85.94
484.027	87.94
484.245	101.94
484.463	82.94
484.681	99.94
484.9	98.94
485.118	100.94
485.336	97.94
485.554	86.94
485.772	106.94
485.99	94.94
486.209	111.94
486.427	101.94
486.645	103.94
486.863	125.94
487.081	95.94
487.299	101.94
487.517	98.94
487.735	97.94
487.953	98.94
488.171	103.94
488.389	87.94
488.607	84.94
488.825	78.94
489.043	98.94
489.261	95.94
489.479	97.94
489.696	99.94
489.914	89.94
490.132	87.94
490.35	76.94
490.568	83.94
490.786	85.94
491.003	94.94
491.221	91.94
491.439	87.94
491.657	91.94
491.874	97.94
492.092	94.94
492.31	95.94
492.527	90.94
492.745	75.94
492.963	90.94
493.18	84.94
493.398	101.94
493.615	98.94
493.833	89.94
494.05	80.94
494.268	83.94
494.485	89.94
494.703	90.94
494.92	89.94
495.138	81.94
495.355	82.94
495.573	96.94
495.79	92.94
496.008	82.94
496.225	81.94
496.442	85.94
496.66	75.94
496.877	83.94
497.094	87.94
497.312	89.94
497.529	88.94
497.746	81.94
497.963	94.94
498.181	93.94
498.398	103.94
498.615	109.94
498.832	105.94
499.049	84.94
499.267	69.94
499.484	90.94
499.701	89.94
499.918	79.94
500.135	81.94
500.352	87.94
500.569	76.94
500.786	88.94
501.003	94.94
501.22	91.94
501.437	89.94
501.654	100.94
501.871	96.94
502.088	91.94
502.305	98.94
502.522	95.94
502.739	96.94
502.956	94.94
503.172	83.94
503.389	91.94
503.606	118.94
503.823	94.94
504.04	103.94
504.256	75.94
504.473	90.94
504.69	80.94
504.907	100.94
505.123	87.94
505.34	100.94
505.557	100.94
505.773	109.94
505.99	87.94
506.207	81.94
506.423	92.94
506.64	101.94
506.856	86.94
507.073	81.94
507.289	101.94
507.506	93.94
507.722	106.94
507.939	99.94
508.155	91.94
508.372	97.94
508.588	77.94
508.805	91.94
509.021	102.94
509.238	94.94
509.454	105.94
509.67	98.94
509.887	109.94
510.103	131.94
510.319	233.94
510.536	773.94
510.752	2324.94
510.968	638.94
511.184	148.94
511.401	107.94
511.617	104.94
511.833	89.94
512.049	113.94
512.265	83.94
512.481	69.94
512.698	95.94
512.914	90.94
513.13	95.94
513.346	92.94
513.562	93.94
513.778	91.94
513.994	104.94
514.21	101.94
514.426	110.94
514.642	127.94
514.858	116.94
515.074	168.94
515.29	425.94
515.506	1433.94
515.721	499.94
515.937	147.94
