Data from Uncirc_1994_H10_HRD10591_00030.txt Node
Date: Wed Jan 03 11:39:26 EST 2024
User: Yrep
Spectrometer: HR+D1059
Trigger mode: 1
Integration Time (sec): 1.000000E-1
Scans to average: 1
Electric dark correction enabled: true
Nonlinearity correction enabled: false
Boxcar width: 0
XAxis mode: Wavelengths
Number of Pixels in Spectrum: 2048
>>>>>Begin Spectral Data<<<<<
223.165	-3.25
223.4	-3.25
223.635	-3.25
223.869	-6.25
224.104	-12.25
224.338	-24.25
224.573	-15.25
224.808	-5.25
225.042	-8.25
225.277	-10.25
225.511	-2.25
225.746	-3.25
225.98	0.75
226.215	18.75
226.449	6.75
226.683	18.75
226.918	19.75
227.152	25.75
227.387	36.75
227.621	50.75
227.856	37.75
228.09	64.75
228.324	56.75
228.559	57.75
228.793	65.75
229.027	59.75
229.262	56.75
229.496	68.75
229.73	63.75
229.964	75.75
230.199	74.75
230.433	82.75
230.667	76.75
230.901	78.75
231.136	75.75
231.37	84.75
231.604	66.75
231.838	82.75
232.072	74.75
232.306	87.75
232.541	83.75
232.775	73.75
233.009	73.75
233.243	75.75
233.477	77.75
233.711	72.75
233.945	68.75
234.179	89.75
234.413	84.75
234.647	80.75
234.881	85.75
235.115	77.75
235.349	90.75
235.583	71.75
235.817	93.75
236.051	85.75
236.285	80.75
236.519	84.75
236.753	76.75
236.987	67.75
237.221	77.75
237.455	75.75
237.689	66.75
237.922	82.75
238.156	80.75
238.39	76.75
238.624	62.75
238.858	87.75
239.091	79.75
239.325	63.75
239.559	77.75
239.793	75.75
240.027	72.75
240.26	71.75
240.494	83.75
240.728	69.75
240.961	76.75
241.195	79.75
241.429	76.75
241.662	67.75
241.896	70.75
242.13	65.75
242.363	81.75
242.597	76.75
242.83	72.75
243.064	79.75
243.298	84.75
243.531	81.75
243.765	64.75
243.998	79.75
244.232	68.75
244.465	75.75
244.699	74.75
244.932	61.75
245.166	89.75
245.399	95.75
245.633	76.75
245.866	67.75
246.099	65.75
246.333	87.75
246.566	79.75
246.8	71.75
247.033	67.75
247.266	75.75
247.5	77.75
247.733	78.75
247.966	66.75
248.2	81.75
248.433	61.75
248.666	84.75
248.899	78.75
249.133	84.75
249.366	84.75
249.599	94.75
249.832	82.75
250.066	81.75
250.299	89.75
250.532	74.75
250.765	71.75
250.998	81.75
251.231	85.75
251.465	72.75
251.698	87.75
251.931	84.75
252.164	74.75
252.397	88.75
252.63	79.75
252.863	68.75
253.096	76.75
253.329	71.75
253.562	79.75
253.795	68.75
254.028	83.75
254.261	86.75
254.494	81.75
254.727	92.75
254.96	78.75
255.193	81.75
255.426	72.75
255.659	92.75
255.892	85.75
256.124	81.75
256.357	78.75
256.59	92.75
256.823	82.75
257.056	81.75
257.289	92.75
257.521	69.75
257.754	85.75
257.987	82.75
258.22	85.75
258.452	76.75
258.685	82.75
258.918	84.75
259.151	90.75
259.383	79.75
259.616	89.75
259.849	87.75
260.081	82.75
260.314	87.75
260.547	98.75
260.779	80.75
261.012	94.75
261.244	68.75
261.477	81.75
261.71	87.75
261.942	106.75
262.175	112.75
262.407	95.75
262.64	71.75
262.872	83.75
263.105	79.75
263.337	76.75
263.57	94.75
263.802	80.75
264.035	71.75
264.267	71.75
264.499	77.75
264.732	87.75
264.964	85.75
265.197	77.75
265.429	88.75
265.661	72.75
265.894	79.75
266.126	88.75
266.358	80.75
266.591	94.75
266.823	94.75
267.055	74.75
267.287	83.75
267.52	77.75
267.752	79.75
267.984	75.75
268.216	88.75
268.448	72.75
268.681	81.75
268.913	88.75
269.145	89.75
269.377	89.75
269.609	87.75
269.841	77.75
270.073	74.75
270.306	89.75
270.538	87.75
270.77	92.75
271.002	75.75
271.234	69.75
271.466	84.75
271.698	66.75
271.93	88.75
272.162	92.75
272.394	90.75
272.626	91.75
272.858	97.75
273.09	96.75
273.322	96.75
273.553	89.75
273.785	85.75
274.017	71.75
274.249	79.75
274.481	108.75
274.713	73.75
274.945	81.75
275.176	77.75
275.408	101.75
275.64	80.75
275.872	75.75
276.104	79.75
276.335	77.75
276.567	83.75
276.799	108.75
277.031	90.75
277.262	86.75
277.494	80.75
277.726	78.75
277.957	76.75
278.189	65.75
278.421	77.75
278.652	94.75
278.884	79.75
279.115	85.75
279.347	84.75
279.579	82.75
279.81	87.75
280.042	90.75
280.273	88.75
280.505	94.75
280.736	90.75
280.968	91.75
281.199	71.75
281.431	77.75
281.662	81.75
281.894	95.75
282.125	89.75
282.356	100.75
282.588	129.75
282.819	100.75
283.051	75.75
283.282	95.75
283.513	90.75
283.745	79.75
283.976	90.75
284.207	94.75
284.439	92.75
284.67	82.75
284.901	95.75
285.132	68.75
285.364	76.75
285.595	83.75
285.826	83.75
286.057	84.75
286.288	69.75
286.52	79.75
286.751	87.75
286.982	88.75
287.213	86.75
287.444	83.75
287.675	98.75
287.906	92.75
288.138	84.75
288.369	96.75
288.6	83.75
288.831	93.75
289.062	104.75
289.293	96.75
289.524	79.75
289.755	79.75
289.986	91.75
290.217	73.75
290.448	97.75
290.679	97.75
290.91	91.75
291.141	83.75
291.371	100.75
291.602	91.75
291.833	91.75
292.064	87.75
292.295	68.75
292.526	84.75
292.757	84.75
292.987	94.75
293.218	75.75
293.449	90.75
293.68	88.75
293.91	84.75
294.141	78.75
294.372	94.75
294.603	95.75
294.833	88.75
295.064	105.75
295.295	91.75
295.525	100.75
295.756	97.75
295.987	99.75
296.217	128.75
296.448	119.75
296.679	92.75
296.909	99.75
297.14	80.75
297.37	87.75
297.601	83.75
297.831	68.75
298.062	99.75
298.292	83.75
298.523	87.75
298.753	79.75
298.984	80.75
299.214	83.75
299.445	94.75
299.675	95.75
299.905	81.75
300.136	94.75
300.366	91.75
300.597	98.75
300.827	100.75
301.057	106.75
301.288	94.75
301.518	91.75
301.748	95.75
301.979	93.75
302.209	84.75
302.439	95.75
302.669	82.75
302.9	95.75
303.13	73.75
303.36	93.75
303.59	80.75
303.82	95.75
304.051	87.75
304.281	85.75
304.511	89.75
304.741	88.75
304.971	90.75
305.201	79.75
305.431	89.75
305.661	84.75
305.891	98.75
306.121	87.75
306.352	108.75
306.582	113.75
306.812	98.75
307.042	80.75
307.272	95.75
307.502	80.75
307.731	84.75
307.961	80.75
308.191	80.75
308.421	100.75
308.651	88.75
308.881	99.75
309.111	84.75
309.341	94.75
309.571	89.75
309.8	95.75
310.03	102.75
310.26	104.75
310.49	88.75
310.72	95.75
310.949	116.75
311.179	100.75
311.409	93.75
311.639	104.75
311.868	96.75
312.098	112.75
312.328	107.75
312.557	112.75
312.787	102.75
313.017	93.75
313.246	94.75
313.476	85.75
313.706	84.75
313.935	100.75
314.165	97.75
314.394	105.75
314.624	103.75
314.853	92.75
315.083	83.75
315.312	105.75
315.542	89.75
315.771	94.75
316.001	87.75
316.23	83.75
316.46	89.75
316.689	74.75
316.919	91.75
317.148	96.75
317.377	85.75
317.607	90.75
317.836	79.75
318.065	105.75
318.295	95.75
318.524	90.75
318.753	93.75
318.983	101.75
319.212	89.75
319.441	104.75
319.67	101.75
319.9	87.75
320.129	93.75
320.358	102.75
320.587	93.75
320.816	94.75
321.046	100.75
321.275	102.75
321.504	92.75
321.733	102.75
321.962	97.75
322.191	93.75
322.42	112.75
322.649	110.75
322.878	107.75
323.108	113.75
323.337	112.75
323.566	122.75
323.795	147.75
324.024	190.75
324.253	372.75
324.482	739.75
324.71	1539.75
324.939	1962.75
325.168	720.75
325.397	221.75
325.626	132.75
325.855	115.75
326.084	131.75
326.313	105.75
326.542	149.75
326.77	200.75
326.999	411.75
327.228	835.75
327.457	1524.75
327.686	1194.75
327.914	337.75
328.143	176.75
328.372	135.75
328.6	106.75
328.829	106.75
329.058	126.75
329.287	110.75
329.515	98.75
329.744	100.75
329.972	108.75
330.201	97.75
330.43	101.75
330.658	116.75
330.887	113.75
331.115	99.75
331.344	92.75
331.572	100.75
331.801	94.75
332.03	100.75
332.258	98.75
332.486	102.75
332.715	87.75
332.943	100.75
333.172	92.75
333.4	101.75
333.629	101.75
333.857	112.75
334.085	99.75
334.314	87.75
334.542	98.75
334.771	109.75
334.999	92.75
335.227	92.75
335.455	83.75
335.684	92.75
335.912	95.75
336.14	90.75
336.369	89.75
336.597	99.75
336.825	94.75
337.053	98.75
337.281	92.75
337.51	95.75
337.738	92.75
337.966	93.75
338.194	101.75
338.422	84.75
338.65	107.75
338.878	98.75
339.106	89.75
339.334	89.75
339.562	92.75
339.79	88.75
340.018	94.75
340.246	93.75
340.474	83.75
340.702	97.75
340.93	91.75
341.158	78.75
341.386	100.75
341.614	91.75
341.842	89.75
342.07	84.75
342.298	99.75
342.526	89.75
342.754	88.75
342.981	73.75
343.209	103.75
343.437	105.75
343.665	85.75
343.893	78.75
344.12	82.75
344.348	90.75
344.576	97.75
344.804	80.75
345.031	100.75
345.259	94.75
345.487	80.75
345.714	90.75
345.942	84.75
346.17	94.75
346.397	83.75
346.625	93.75
346.853	91.75
347.08	84.75
347.308	95.75
347.535	95.75
347.763	96.75
347.99	105.75
348.218	107.75
348.445	102.75
348.673	91.75
348.9	92.75
349.128	95.75
349.355	87.75
349.583	82.75
349.81	92.75
350.037	89.75
350.265	84.75
350.492	92.75
350.72	101.75
350.947	86.75
351.174	95.75
351.402	115.75
351.629	95.75
351.856	103.75
352.083	102.75
352.311	106.75
352.538	105.75
352.765	98.75
352.992	98.75
353.22	112.75
353.447	100.75
353.674	87.75
353.901	82.75
354.128	77.75
354.355	85.75
354.583	93.75
354.81	100.75
355.037	84.75
355.264	84.75
355.491	101.75
355.718	84.75
355.945	97.75
356.172	93.75
356.399	98.75
356.626	104.75
356.853	88.75
357.08	79.75
357.307	89.75
357.534	94.75
357.761	91.75
357.988	97.75
358.215	85.75
358.441	83.75
358.668	96.75
358.895	80.75
359.122	82.75
359.349	72.75
359.576	99.75
359.802	96.75
360.029	103.75
360.256	108.75
360.483	87.75
360.709	92.75
360.936	92.75
361.163	91.75
361.39	95.75
361.616	98.75
361.843	99.75
362.07	82.75
362.296	85.75
362.523	80.75
362.749	90.75
362.976	77.75
363.203	87.75
363.429	85.75
363.656	92.75
363.882	100.75
364.109	90.75
364.335	87.75
364.562	88.75
364.788	87.75
365.015	103.75
365.241	106.75
365.468	96.75
365.694	100.75
365.92	90.75
366.147	97.75
366.373	86.75
366.599	89.75
366.826	97.75
367.052	95.75
367.278	90.75
367.505	84.75
367.731	90.75
367.957	96.75
368.184	97.75
368.41	98.75
368.636	106.75
368.862	108.75
369.089	107.75
369.315	87.75
369.541	82.75
369.767	87.75
369.993	82.75
370.219	79.75
370.445	88.75
370.672	84.75
370.898	87.75
371.124	101.75
371.35	87.75
371.576	92.75
371.802	97.75
372.028	105.75
372.254	97.75
372.48	89.75
372.706	92.75
372.932	91.75
373.158	90.75
373.384	110.75
373.61	102.75
373.835	81.75
374.061	84.75
374.287	73.75
374.513	92.75
374.739	97.75
374.965	97.75
375.191	94.75
375.416	90.75
375.642	85.75
375.868	96.75
376.094	83.75
376.319	84.75
376.545	82.75
376.771	95.75
376.997	84.75
377.222	99.75
377.448	97.75
377.674	93.75
377.899	90.75
378.125	90.75
378.35	93.75
378.576	95.75
378.802	89.75
379.027	107.75
379.253	88.75
379.478	98.75
379.704	84.75
379.929	78.75
380.155	98.75
380.38	68.75
380.606	91.75
380.831	99.75
381.057	85.75
381.282	76.75
381.507	90.75
381.733	96.75
381.958	99.75
382.184	102.75
382.409	96.75
382.634	93.75
382.86	112.75
383.085	100.75
383.31	98.75
383.535	105.75
383.761	108.75
383.986	108.75
384.211	102.75
384.436	101.75
384.662	95.75
384.887	103.75
385.112	105.75
385.337	106.75
385.562	108.75
385.787	110.75
386.013	97.75
386.238	112.75
386.463	111.75
386.688	103.75
386.913	112.75
387.138	99.75
387.363	84.75
387.588	102.75
387.813	112.75
388.038	103.75
388.263	112.75
388.488	91.75
388.713	99.75
388.938	92.75
389.163	92.75
389.387	101.75
389.612	107.75
389.837	87.75
390.062	82.75
390.287	108.75
390.512	88.75
390.736	88.75
390.961	83.75
391.186	100.75
391.411	89.75
391.636	90.75
391.86	82.75
392.085	78.75
392.31	88.75
392.534	92.75
392.759	93.75
392.984	81.75
393.208	94.75
393.433	82.75
393.658	88.75
393.882	67.75
394.107	92.75
394.331	90.75
394.556	94.75
394.78	91.75
395.005	82.75
395.229	80.75
395.454	93.75
395.678	98.75
395.903	87.75
396.127	92.75
396.352	90.75
396.576	90.75
396.801	107.75
397.025	91.75
397.249	93.75
397.474	88.75
397.698	90.75
397.922	90.75
398.147	77.75
398.371	94.75
398.595	68.75
398.82	99.75
399.044	84.75
399.268	87.75
399.492	78.75
399.717	93.75
399.941	94.75
400.165	97.75
400.389	101.75
400.613	89.75
400.837	71.75
401.062	80.75
401.286	80.75
401.51	94.75
401.734	90.75
401.958	108.75
402.182	123.75
402.406	140.75
402.63	112.75
402.854	92.75
403.078	83.75
403.302	78.75
403.526	84.75
403.75	95.75
403.974	81.75
404.198	87.75
404.422	82.75
404.645	93.75
404.869	98.75
405.093	113.75
405.317	94.75
405.541	94.75
405.765	98.75
405.988	112.75
406.212	153.75
406.436	212.75
406.66	131.75
406.883	87.75
407.107	96.75
407.331	92.75
407.555	96.75
407.778	100.75
408.002	93.75
408.226	100.75
408.449	94.75
408.673	85.75
408.896	91.75
409.12	97.75
409.344	96.75
409.567	93.75
409.791	99.75
410.014	86.75
410.238	101.75
410.461	100.75
410.685	105.75
410.908	84.75
411.132	97.75
411.355	95.75
411.578	97.75
411.802	90.75
412.025	86.75
412.249	91.75
412.472	87.75
412.695	88.75
412.919	89.75
413.142	93.75
413.365	84.75
413.589	88.75
413.812	94.75
414.035	96.75
414.258	91.75
414.482	98.75
414.705	84.75
414.928	80.75
415.151	94.75
415.374	84.75
415.597	101.75
415.821	90.75
416.044	92.75
416.267	89.75
416.49	70.75
416.713	92.75
416.936	87.75
417.159	86.75
417.382	77.75
417.605	91.75
417.828	84.75
418.051	81.75
418.274	88.75
418.497	83.75
418.72	87.75
418.943	86.75
419.166	81.75
419.389	77.75
419.611	80.75
419.834	96.75
420.057	92.75
420.28	96.75
420.503	82.75
420.726	94.75
420.948	92.75
421.171	77.75
421.394	89.75
421.617	77.75
421.839	91.75
422.062	90.75
422.285	89.75
422.507	103.75
422.73	109.75
422.953	92.75
423.175	83.75
423.398	96.75
423.621	85.75
423.843	89.75
424.066	85.75
424.288	82.75
424.511	89.75
424.733	88.75
424.956	106.75
425.178	104.75
425.401	100.75
425.623	92.75
425.846	94.75
426.068	93.75
426.291	73.75
426.513	96.75
426.735	92.75
426.958	86.75
427.18	95.75
427.402	138.75
427.625	136.75
427.847	119.75
428.069	95.75
428.292	81.75
428.514	84.75
428.736	76.75
428.958	77.75
429.181	93.75
429.403	87.75
429.625	98.75
429.847	104.75
430.069	105.75
430.292	85.75
430.514	83.75
430.736	77.75
430.958	92.75
431.18	74.75
431.402	77.75
431.624	94.75
431.846	93.75
432.068	89.75
432.29	89.75
432.512	84.75
432.734	77.75
432.956	90.75
433.178	100.75
433.4	80.75
433.622	99.75
433.844	82.75
434.066	93.75
434.287	88.75
434.509	81.75
434.731	82.75
434.953	87.75
435.175	82.75
435.397	99.75
435.618	95.75
435.84	101.75
436.062	122.75
436.284	118.75
436.505	105.75
436.727	104.75
436.949	91.75
437.17	98.75
437.392	93.75
437.614	94.75
437.835	100.75
438.057	89.75
438.278	84.75
438.5	108.75
438.721	113.75
438.943	101.75
439.165	95.75
439.386	81.75
439.608	88.75
439.829	91.75
440.05	114.75
440.272	138.75
440.493	102.75
440.715	82.75
440.936	88.75
441.158	96.75
441.379	96.75
441.6	98.75
441.822	92.75
442.043	78.75
442.264	88.75
442.486	85.75
442.707	88.75
442.928	93.75
443.149	120.75
443.371	117.75
443.592	101.75
443.813	113.75
444.034	107.75
444.255	99.75
444.476	70.75
444.698	83.75
444.919	101.75
445.14	133.75
445.361	115.75
445.582	99.75
445.803	131.75
446.024	112.75
446.245	111.75
446.466	99.75
446.687	97.75
446.908	92.75
447.129	87.75
447.35	80.75
447.571	90.75
447.792	96.75
448.013	91.75
448.234	98.75
448.455	92.75
448.675	109.75
448.896	106.75
449.117	88.75
449.338	87.75
449.559	116.75
449.779	124.75
450	88.75
450.221	108.75
450.442	100.75
450.662	96.75
450.883	92.75
451.104	101.75
451.324	105.75
451.545	85.75
451.766	94.75
451.986	81.75
452.207	86.75
452.428	84.75
452.648	84.75
452.869	110.75
453.089	97.75
453.31	99.75
453.53	83.75
453.751	89.75
453.971	99.75
454.192	110.75
454.412	96.75
454.633	77.75
454.853	88.75
455.073	91.75
455.294	83.75
455.514	108.75
455.734	96.75
455.955	84.75
456.175	85.75
456.395	89.75
456.616	79.75
456.836	76.75
457.056	92.75
457.276	70.75
457.497	87.75
457.717	78.75
457.937	90.75
458.157	101.75
458.377	85.75
458.598	93.75
458.818	137.75
459.038	151.75
459.258	113.75
459.478	85.75
459.698	89.75
459.918	88.75
460.138	83.75
460.358	77.75
460.578	79.75
460.798	99.75
461.018	70.75
461.238	95.75
461.458	79.75
461.678	82.75
461.898	78.75
462.118	89.75
462.338	78.75
462.558	82.75
462.777	76.75
462.997	93.75
463.217	85.75
463.437	86.75
463.657	83.75
463.876	77.75
464.096	93.75
464.316	87.75
464.536	85.75
464.755	102.75
464.975	117.75
465.195	146.75
465.414	128.75
465.634	88.75
465.854	90.75
466.073	92.75
466.293	83.75
466.512	74.75
466.732	72.75
466.951	93.75
467.171	93.75
467.391	82.75
467.61	101.75
467.829	94.75
468.049	90.75
468.268	89.75
468.488	83.75
468.707	88.75
468.927	79.75
469.146	82.75
469.365	90.75
469.585	76.75
469.804	95.75
470.023	93.75
470.243	100.75
470.462	94.75
470.681	85.75
470.901	89.75
471.12	68.75
471.339	81.75
471.558	84.75
471.777	87.75
471.997	83.75
472.216	83.75
472.435	78.75
472.654	71.75
472.873	92.75
473.092	83.75
473.311	90.75
473.53	81.75
473.749	98.75
473.968	91.75
474.187	105.75
474.406	91.75
474.625	89.75
474.844	88.75
475.063	79.75
475.282	87.75
475.501	94.75
475.72	83.75
475.939	77.75
476.158	70.75
476.377	86.75
476.596	81.75
476.814	92.75
477.033	87.75
477.252	85.75
477.471	75.75
477.69	96.75
477.908	117.75
478.127	91.75
478.346	85.75
478.564	98.75
478.783	86.75
479.002	96.75
479.22	104.75
479.439	109.75
479.658	87.75
479.876	85.75
480.095	87.75
480.313	94.75
480.532	87.75
480.751	95.75
480.969	88.75
481.188	109.75
481.406	90.75
481.624	99.75
481.843	105.75
482.061	90.75
482.28	95.75
482.498	100.75
482.717	70.75
482.935	89.75
483.153	87.75
483.372	92.75
483.59	83.75
483.808	77.75
484.027	100.75
484.245	79.75
484.463	97.75
484.681	92.75
484.9	87.75
485.118	96.75
485.336	94.75
485.554	98.75
485.772	97.75
485.99	111.75
486.209	108.75
486.427	98.75
486.645	98.75
486.863	101.75
487.081	84.75
487.299	93.75
487.517	89.75
487.735	89.75
487.953	85.75
488.171	88.75
488.389	89.75
488.607	83.75
488.825	87.75
489.043	88.75
489.261	86.75
489.479	93.75
489.696	89.75
489.914	83.75
490.132	94.75
490.35	84.75
490.568	79.75
490.786	87.75
491.003	90.75
491.221	84.75
491.439	98.75
491.657	113.75
491.874	90.75
492.092	101.75
492.31	89.75
492.527	108.75
492.745	95.75
492.963	79.75
493.18	83.75
493.398	93.75
493.615	77.75
493.833	71.75
494.05	105.75
494.268	91.75
494.485	90.75
494.703	91.75
494.92	97.75
495.138	96.75
495.355	94.75
495.573	95.75
495.79	106.75
496.008	82.75
496.225	91.75
496.442	93.75
496.66	100.75
496.877	94.75
497.094	91.75
497.312	84.75
497.529	86.75
497.746	96.75
497.963	88.75
498.181	91.75
498.398	90.75
498.615	83.75
498.832	106.75
499.049	88.75
499.267	79.75
499.484	99.75
499.701	87.75
499.918	79.75
500.135	87.75
500.352	97.75
500.569	94.75
500.786	93.75
501.003	77.75
501.22	93.75
501.437	80.75
501.654	94.75
501.871	112.75
502.088	93.75
502.305	103.75
502.522	86.75
502.739	86.75
502.956	80.75
503.172	82.75
503.389	98.75
503.606	113.75
503.823	79.75
504.04	100.75
504.256	87.75
504.473	80.75
504.69	95.75
504.907	87.75
505.123	82.75
505.34	87.75
505.557	83.75
505.773	93.75
505.99	87.75
506.207	82.75
506.423	95.75
506.64	98.75
506.856	106.75
507.073	101.75
507.289	92.75
507.506	99.75
507.722	98.75
507.939	113.75
508.155	108.75
508.372	96.75
508.588	97.75
508.805	100.75
509.021	95.75
509.238	98.75
509.454	98.75
509.67	108.75
509.887	104.75
510.103	124.75
510.319	193.75
510.536	725.75
510.752	2210.75
510.968	612.75
511.184	162.75
511.401	104.75
511.617	91.75
511.833	96.75
512.049	98.75
512.265	85.75
512.481	95.75
512.698	88.75
512.914	97.75
513.13	111.75
513.346	100.75
513.562	86.75
513.778	99.75
513.994	95.75
514.21	100.75
514.426	106.75
514.642	113.75
514.858	102.75
515.074	161.75
515.29	396.75
515.506	1290.75
515.721	478.75
515.937	139.75
516.153	111.75
516.369	91.75
