Data from Uncirc_1994_H10_HRD10591_00026.txt Node
Date: Wed Jan 03 11:39:26 EST 2024
User: Yrep
Spectrometer: HR+D1059
Trigger mode: 1
Integration Time (sec): 1.000000E-1
Scans to average: 1
Electric dark correction enabled: true
Nonlinearity correction enabled: false
Boxcar width: 0
XAxis mode: Wavelengths
Number of Pixels in Spectrum: 2048
>>>>>Begin Spectral Data<<<<<
223.165	-22.38
223.4	-22.38
223.635	-22.38
223.869	-22.38
224.104	-20.38
224.338	-17.38
224.573	-10.38
224.808	-15.38
225.042	-4.38
225.277	-0.38
225.511	-18.38
225.746	-0.38
225.98	8.62
226.215	5.62
226.449	11.62
226.683	35.62
226.918	29.62
227.152	40.62
227.387	49.62
227.621	40.62
227.856	46.62
228.09	54.62
228.324	54.62
228.559	57.62
228.793	65.62
229.027	69.62
229.262	91.62
229.496	70.62
229.73	82.62
229.964	104.62
230.199	74.62
230.433	71.62
230.667	82.62
230.901	90.62
231.136	64.62
231.37	80.62
231.604	86.62
231.838	85.62
232.072	82.62
232.306	95.62
232.541	92.62
232.775	78.62
233.009	84.62
233.243	91.62
233.477	84.62
233.711	91.62
233.945	87.62
234.179	88.62
234.413	90.62
234.647	91.62
234.881	93.62
235.115	95.62
235.349	92.62
235.583	66.62
235.817	91.62
236.051	78.62
236.285	81.62
236.519	78.62
236.753	78.62
236.987	98.62
237.221	83.62
237.455	102.62
237.689	89.62
237.922	95.62
238.156	78.62
238.39	85.62
238.624	77.62
238.858	79.62
239.091	82.62
239.325	75.62
239.559	82.62
239.793	69.62
240.027	81.62
240.26	89.62
240.494	91.62
240.728	91.62
240.961	84.62
241.195	74.62
241.429	82.62
241.662	92.62
241.896	90.62
242.13	66.62
242.363	90.62
242.597	87.62
242.83	73.62
243.064	97.62
243.298	78.62
243.531	79.62
243.765	80.62
243.998	80.62
244.232	87.62
244.465	85.62
244.699	85.62
244.932	79.62
245.166	80.62
245.399	95.62
245.633	82.62
245.866	82.62
246.099	78.62
246.333	84.62
246.566	78.62
246.8	70.62
247.033	81.62
247.266	97.62
247.5	87.62
247.733	81.62
247.966	80.62
248.2	82.62
248.433	86.62
248.666	80.62
248.899	91.62
249.133	77.62
249.366	98.62
249.599	102.62
249.832	93.62
250.066	95.62
250.299	73.62
250.532	94.62
250.765	89.62
250.998	90.62
251.231	85.62
251.465	91.62
251.698	84.62
251.931	91.62
252.164	86.62
252.397	75.62
252.63	82.62
252.863	73.62
253.096	77.62
253.329	101.62
253.562	95.62
253.795	87.62
254.028	71.62
254.261	91.62
254.494	81.62
254.727	82.62
254.96	86.62
255.193	96.62
255.426	89.62
255.659	80.62
255.892	94.62
256.124	94.62
256.357	87.62
256.59	84.62
256.823	87.62
257.056	70.62
257.289	89.62
257.521	90.62
257.754	90.62
257.987	84.62
258.22	93.62
258.452	81.62
258.685	90.62
258.918	89.62
259.151	74.62
259.383	88.62
259.616	89.62
259.849	91.62
260.081	85.62
260.314	81.62
260.547	80.62
260.779	81.62
261.012	71.62
261.244	89.62
261.477	95.62
261.71	96.62
261.942	105.62
262.175	110.62
262.407	87.62
262.64	101.62
262.872	87.62
263.105	98.62
263.337	96.62
263.57	82.62
263.802	97.62
264.035	96.62
264.267	89.62
264.499	85.62
264.732	105.62
264.964	82.62
265.197	82.62
265.429	85.62
265.661	96.62
265.894	90.62
266.126	86.62
266.358	103.62
266.591	79.62
266.823	89.62
267.055	103.62
267.287	81.62
267.52	79.62
267.752	88.62
267.984	109.62
268.216	69.62
268.448	85.62
268.681	93.62
268.913	87.62
269.145	93.62
269.377	111.62
269.609	96.62
269.841	94.62
270.073	81.62
270.306	85.62
270.538	93.62
270.77	93.62
271.002	87.62
271.234	95.62
271.466	88.62
271.698	88.62
271.93	94.62
272.162	87.62
272.394	72.62
272.626	96.62
272.858	90.62
273.09	99.62
273.322	94.62
273.553	96.62
273.785	101.62
274.017	81.62
274.249	82.62
274.481	97.62
274.713	85.62
274.945	87.62
275.176	97.62
275.408	94.62
275.64	93.62
275.872	93.62
276.104	88.62
276.335	95.62
276.567	99.62
276.799	107.62
277.031	95.62
277.262	97.62
277.494	99.62
277.726	98.62
277.957	101.62
278.189	85.62
278.421	90.62
278.652	86.62
278.884	98.62
279.115	78.62
279.347	98.62
279.579	89.62
279.81	99.62
280.042	90.62
280.273	98.62
280.505	93.62
280.736	81.62
280.968	88.62
281.199	84.62
281.431	87.62
281.662	100.62
281.894	107.62
282.125	105.62
282.356	120.62
282.588	144.62
282.819	119.62
283.051	98.62
283.282	88.62
283.513	77.62
283.745	84.62
283.976	97.62
284.207	90.62
284.439	86.62
284.67	98.62
284.901	86.62
285.132	88.62
285.364	92.62
285.595	93.62
285.826	91.62
286.057	99.62
286.288	90.62
286.52	86.62
286.751	87.62
286.982	89.62
287.213	99.62
287.444	101.62
287.675	90.62
287.906	99.62
288.138	82.62
288.369	74.62
288.6	76.62
288.831	88.62
289.062	89.62
289.293	88.62
289.524	94.62
289.755	97.62
289.986	99.62
290.217	99.62
290.448	107.62
290.679	97.62
290.91	101.62
291.141	103.62
291.371	106.62
291.602	85.62
291.833	90.62
292.064	90.62
292.295	82.62
292.526	111.62
292.757	89.62
292.987	94.62
293.218	98.62
293.449	102.62
293.68	79.62
293.91	101.62
294.141	101.62
294.372	91.62
294.603	96.62
294.833	92.62
295.064	93.62
295.295	86.62
295.525	114.62
295.756	108.62
295.987	110.62
296.217	121.62
296.448	126.62
296.679	86.62
296.909	90.62
297.14	96.62
297.37	81.62
297.601	83.62
297.831	100.62
298.062	90.62
298.292	90.62
298.523	91.62
298.753	88.62
298.984	95.62
299.214	99.62
299.445	96.62
299.675	103.62
299.905	83.62
300.136	99.62
300.366	72.62
300.597	100.62
300.827	95.62
301.057	98.62
301.288	108.62
301.518	99.62
301.748	94.62
301.979	105.62
302.209	88.62
302.439	96.62
302.669	97.62
302.9	95.62
303.13	96.62
303.36	98.62
303.59	93.62
303.82	113.62
304.051	97.62
304.281	99.62
304.511	101.62
304.741	93.62
304.971	97.62
305.201	100.62
305.431	89.62
305.661	89.62
305.891	99.62
306.121	93.62
306.352	90.62
306.582	90.62
306.812	93.62
307.042	110.62
307.272	111.62
307.502	96.62
307.731	106.62
307.961	82.62
308.191	90.62
308.421	93.62
308.651	81.62
308.881	100.62
309.111	110.62
309.341	94.62
309.571	92.62
309.8	98.62
310.03	97.62
310.26	103.62
310.49	94.62
310.72	91.62
310.949	121.62
311.179	103.62
311.409	85.62
311.639	97.62
311.868	92.62
312.098	103.62
312.328	91.62
312.557	95.62
312.787	97.62
313.017	97.62
313.246	95.62
313.476	97.62
313.706	103.62
313.935	95.62
314.165	107.62
314.394	93.62
314.624	99.62
314.853	99.62
315.083	86.62
315.312	88.62
315.542	115.62
315.771	97.62
316.001	87.62
316.23	99.62
316.46	99.62
316.689	102.62
316.919	101.62
317.148	87.62
317.377	98.62
317.607	102.62
317.836	92.62
318.065	90.62
318.295	88.62
318.524	88.62
318.753	86.62
318.983	86.62
319.212	90.62
319.441	105.62
319.67	101.62
319.9	111.62
320.129	88.62
320.358	97.62
320.587	109.62
320.816	102.62
321.046	94.62
321.275	110.62
321.504	89.62
321.733	102.62
321.962	101.62
322.191	105.62
322.42	110.62
322.649	101.62
322.878	117.62
323.108	118.62
323.337	131.62
323.566	105.62
323.795	164.62
324.024	190.62
324.253	320.62
324.482	709.62
324.71	1409.62
324.939	1814.62
325.168	697.62
325.397	222.62
325.626	157.62
325.855	143.62
326.084	130.62
326.313	120.62
326.542	158.62
326.77	217.62
326.999	413.62
327.228	816.62
327.457	1429.62
327.686	1135.62
327.914	329.62
328.143	165.62
328.372	148.62
328.6	111.62
328.829	123.62
329.058	122.62
329.287	122.62
329.515	108.62
329.744	95.62
329.972	101.62
330.201	99.62
330.43	95.62
330.658	121.62
330.887	124.62
331.115	107.62
331.344	102.62
331.572	118.62
331.801	114.62
332.03	114.62
332.258	93.62
332.486	93.62
332.715	92.62
332.943	80.62
333.172	101.62
333.4	102.62
333.629	108.62
333.857	112.62
334.085	91.62
334.314	106.62
334.542	95.62
334.771	111.62
334.999	114.62
335.227	103.62
335.455	101.62
335.684	107.62
335.912	107.62
336.14	98.62
336.369	89.62
336.597	101.62
336.825	94.62
337.053	96.62
337.281	100.62
337.51	106.62
337.738	104.62
337.966	94.62
338.194	96.62
338.422	106.62
338.65	105.62
338.878	98.62
339.106	90.62
339.334	95.62
339.562	101.62
339.79	80.62
340.018	100.62
340.246	97.62
340.474	106.62
340.702	91.62
340.93	96.62
341.158	95.62
341.386	102.62
341.614	112.62
341.842	97.62
342.07	93.62
342.298	95.62
342.526	105.62
342.754	86.62
342.981	88.62
343.209	108.62
343.437	104.62
343.665	97.62
343.893	87.62
344.12	99.62
344.348	102.62
344.576	91.62
344.804	89.62
345.031	105.62
345.259	98.62
345.487	108.62
345.714	93.62
345.942	100.62
346.17	107.62
346.397	84.62
346.625	88.62
346.853	105.62
347.08	113.62
347.308	111.62
347.535	108.62
347.763	107.62
347.99	102.62
348.218	110.62
348.445	102.62
348.673	97.62
348.9	99.62
349.128	109.62
349.355	93.62
349.583	93.62
349.81	86.62
350.037	98.62
350.265	91.62
350.492	93.62
350.72	106.62
350.947	100.62
351.174	122.62
351.402	116.62
351.629	111.62
351.856	106.62
352.083	93.62
352.311	102.62
352.538	110.62
352.765	105.62
352.992	110.62
353.22	110.62
353.447	110.62
353.674	104.62
353.901	109.62
354.128	98.62
354.355	102.62
354.583	117.62
354.81	111.62
355.037	116.62
355.264	95.62
355.491	104.62
355.718	94.62
355.945	108.62
356.172	91.62
356.399	105.62
356.626	98.62
356.853	96.62
357.08	90.62
357.307	94.62
357.534	85.62
357.761	83.62
357.988	96.62
358.215	102.62
358.441	101.62
358.668	101.62
358.895	106.62
359.122	79.62
359.349	93.62
359.576	100.62
359.802	109.62
360.029	107.62
360.256	94.62
360.483	96.62
360.709	102.62
360.936	108.62
361.163	101.62
361.39	102.62
361.616	97.62
361.843	86.62
362.07	93.62
362.296	102.62
362.523	101.62
362.749	95.62
362.976	86.62
363.203	95.62
363.429	103.62
363.656	103.62
363.882	99.62
364.109	104.62
364.335	83.62
364.562	95.62
364.788	102.62
365.015	107.62
365.241	99.62
365.468	114.62
365.694	95.62
365.92	94.62
366.147	94.62
366.373	105.62
366.599	85.62
366.826	99.62
367.052	95.62
367.278	97.62
367.505	97.62
367.731	96.62
367.957	92.62
368.184	93.62
368.41	107.62
368.636	90.62
368.862	104.62
369.089	104.62
369.315	84.62
369.541	92.62
369.767	102.62
369.993	87.62
370.219	94.62
370.445	104.62
370.672	88.62
370.898	89.62
371.124	89.62
371.35	78.62
371.576	91.62
371.802	90.62
372.028	94.62
372.254	90.62
372.48	91.62
372.706	95.62
372.932	93.62
373.158	91.62
373.384	96.62
373.61	98.62
373.835	91.62
374.061	88.62
374.287	83.62
374.513	93.62
374.739	94.62
374.965	104.62
375.191	100.62
375.416	97.62
375.642	106.62
375.868	91.62
376.094	94.62
376.319	98.62
376.545	88.62
376.771	95.62
376.997	112.62
377.222	99.62
377.448	97.62
377.674	102.62
377.899	97.62
378.125	78.62
378.35	93.62
378.576	84.62
378.802	109.62
379.027	85.62
379.253	101.62
379.478	89.62
379.704	91.62
379.929	111.62
380.155	100.62
380.38	85.62
380.606	100.62
380.831	102.62
381.057	110.62
381.282	92.62
381.507	86.62
381.733	107.62
381.958	106.62
382.184	96.62
382.409	107.62
382.634	92.62
382.86	106.62
383.085	107.62
383.31	110.62
383.535	101.62
383.761	97.62
383.986	102.62
384.211	114.62
384.436	118.62
384.662	99.62
384.887	115.62
385.112	110.62
385.337	109.62
385.562	113.62
385.787	107.62
386.013	95.62
386.238	114.62
386.463	95.62
386.688	105.62
386.913	102.62
387.138	104.62
387.363	102.62
387.588	103.62
387.813	100.62
388.038	104.62
388.263	110.62
388.488	91.62
388.713	96.62
388.938	121.62
389.163	89.62
389.387	95.62
389.612	99.62
389.837	95.62
390.062	98.62
390.287	96.62
390.512	94.62
390.736	98.62
390.961	106.62
391.186	102.62
391.411	95.62
391.636	91.62
391.86	91.62
392.085	94.62
392.31	104.62
392.534	84.62
392.759	98.62
392.984	102.62
393.208	83.62
393.433	102.62
393.658	110.62
393.882	91.62
394.107	87.62
394.331	86.62
394.556	102.62
394.78	93.62
395.005	97.62
395.229	100.62
395.454	94.62
395.678	95.62
395.903	90.62
396.127	95.62
396.352	94.62
396.576	90.62
396.801	90.62
397.025	103.62
397.249	111.62
397.474	93.62
397.698	85.62
397.922	77.62
398.147	80.62
398.371	91.62
398.595	87.62
398.82	87.62
399.044	99.62
399.268	88.62
399.492	90.62
399.717	106.62
399.941	90.62
400.165	85.62
400.389	101.62
400.613	85.62
400.837	89.62
401.062	87.62
401.286	103.62
401.51	103.62
401.734	94.62
401.958	102.62
402.182	137.62
402.406	147.62
402.63	119.62
402.854	98.62
403.078	104.62
403.302	94.62
403.526	98.62
403.75	90.62
403.974	90.62
404.198	85.62
404.422	84.62
404.645	103.62
404.869	91.62
405.093	101.62
405.317	105.62
405.541	103.62
405.765	97.62
405.988	114.62
406.212	159.62
406.436	207.62
406.66	135.62
406.883	118.62
407.107	100.62
407.331	101.62
407.555	110.62
407.778	87.62
408.002	88.62
408.226	103.62
408.449	99.62
408.673	101.62
408.896	116.62
409.12	86.62
409.344	93.62
409.567	97.62
409.791	92.62
410.014	98.62
410.238	100.62
410.461	83.62
410.685	89.62
410.908	111.62
411.132	99.62
411.355	107.62
411.578	102.62
411.802	93.62
412.025	101.62
412.249	97.62
412.472	94.62
412.695	81.62
412.919	101.62
413.142	107.62
413.365	101.62
413.589	94.62
413.812	89.62
414.035	101.62
414.258	101.62
414.482	89.62
414.705	93.62
414.928	99.62
415.151	105.62
415.374	97.62
415.597	88.62
415.821	107.62
416.044	72.62
416.267	93.62
416.49	103.62
416.713	97.62
416.936	93.62
417.159	87.62
417.382	95.62
417.605	103.62
417.828	100.62
418.051	94.62
418.274	97.62
418.497	85.62
418.72	102.62
418.943	102.62
419.166	94.62
419.389	89.62
419.611	90.62
419.834	87.62
420.057	98.62
420.28	94.62
420.503	99.62
420.726	94.62
420.948	94.62
421.171	101.62
421.394	89.62
421.617	85.62
421.839	94.62
422.062	105.62
422.285	111.62
422.507	85.62
422.73	124.62
422.953	93.62
423.175	85.62
423.398	97.62
423.621	87.62
423.843	102.62
424.066	87.62
424.288	100.62
424.511	91.62
424.733	91.62
424.956	116.62
425.178	98.62
425.401	102.62
425.623	101.62
425.846	96.62
426.068	100.62
426.291	96.62
426.513	118.62
426.735	88.62
426.958	99.62
427.18	112.62
427.402	125.62
427.625	154.62
427.847	129.62
428.069	110.62
428.292	105.62
428.514	91.62
428.736	90.62
428.958	89.62
429.181	79.62
429.403	92.62
429.625	83.62
429.847	84.62
430.069	99.62
430.292	90.62
430.514	85.62
430.736	105.62
430.958	95.62
431.18	87.62
431.402	97.62
431.624	97.62
431.846	110.62
432.068	98.62
432.29	87.62
432.512	104.62
432.734	103.62
432.956	89.62
433.178	105.62
433.4	85.62
433.622	107.62
433.844	106.62
434.066	104.62
434.287	95.62
434.509	96.62
434.731	85.62
434.953	81.62
435.175	95.62
435.397	100.62
435.618	99.62
435.84	102.62
436.062	121.62
436.284	116.62
436.505	94.62
436.727	115.62
436.949	90.62
437.17	88.62
437.392	87.62
437.614	89.62
437.835	87.62
438.057	103.62
438.278	120.62
438.5	111.62
438.721	118.62
438.943	122.62
439.165	115.62
439.386	95.62
439.608	87.62
439.829	104.62
440.05	105.62
440.272	137.62
440.493	103.62
440.715	89.62
440.936	94.62
441.158	95.62
441.379	104.62
441.6	94.62
441.822	102.62
442.043	113.62
442.264	104.62
442.486	97.62
442.707	110.62
442.928	112.62
443.149	120.62
443.371	114.62
443.592	105.62
443.813	109.62
444.034	121.62
444.255	115.62
444.476	95.62
444.698	92.62
444.919	90.62
445.14	136.62
445.361	136.62
445.582	104.62
445.803	127.62
446.024	149.62
446.245	127.62
446.466	93.62
446.687	94.62
446.908	98.62
447.129	92.62
447.35	102.62
447.571	96.62
447.792	97.62
448.013	106.62
448.234	118.62
448.455	94.62
448.675	103.62
448.896	123.62
449.117	107.62
449.338	105.62
449.559	126.62
449.779	126.62
450	99.62
450.221	99.62
450.442	100.62
450.662	95.62
450.883	102.62
451.104	105.62
451.324	93.62
451.545	101.62
451.766	87.62
451.986	102.62
452.207	97.62
452.428	92.62
452.648	110.62
452.869	122.62
453.089	114.62
453.31	111.62
453.53	102.62
453.751	89.62
453.971	111.62
454.192	105.62
454.412	93.62
454.633	95.62
454.853	91.62
455.073	79.62
455.294	106.62
455.514	99.62
455.734	102.62
455.955	98.62
456.175	98.62
456.395	103.62
456.616	107.62
456.836	87.62
457.056	94.62
457.276	98.62
457.497	107.62
457.717	86.62
457.937	112.62
458.157	96.62
458.377	80.62
458.598	124.62
458.818	128.62
459.038	156.62
459.258	119.62
459.478	109.62
459.698	103.62
459.918	99.62
460.138	106.62
460.358	99.62
460.578	95.62
460.798	95.62
461.018	97.62
461.238	83.62
461.458	100.62
461.678	95.62
461.898	91.62
462.118	106.62
462.338	83.62
462.558	100.62
462.777	83.62
462.997	85.62
463.217	85.62
463.437	82.62
463.657	83.62
463.876	88.62
464.096	96.62
464.316	89.62
464.536	114.62
464.755	96.62
464.975	102.62
465.195	150.62
465.414	137.62
465.634	97.62
465.854	93.62
466.073	85.62
466.293	95.62
466.512	94.62
466.732	87.62
466.951	93.62
467.171	101.62
467.391	96.62
467.61	102.62
467.829	91.62
468.049	95.62
468.268	90.62
468.488	94.62
468.707	83.62
468.927	79.62
469.146	102.62
469.365	100.62
469.585	95.62
469.804	109.62
470.023	104.62
470.243	97.62
470.462	105.62
470.681	116.62
470.901	100.62
471.12	85.62
471.339	94.62
471.558	101.62
471.777	96.62
471.997	97.62
472.216	90.62
472.435	90.62
472.654	83.62
472.873	91.62
473.092	97.62
473.311	93.62
473.53	83.62
473.749	90.62
473.968	105.62
474.187	100.62
474.406	99.62
474.625	101.62
474.844	101.62
475.063	93.62
475.282	91.62
475.501	87.62
475.72	89.62
475.939	89.62
476.158	86.62
476.377	88.62
476.596	91.62
476.814	103.62
477.033	84.62
477.252	93.62
477.471	90.62
477.69	98.62
477.908	87.62
478.127	110.62
478.346	96.62
478.564	87.62
478.783	98.62
479.002	94.62
479.22	93.62
479.439	96.62
479.658	103.62
479.876	97.62
480.095	104.62
480.313	105.62
480.532	113.62
480.751	102.62
480.969	105.62
481.188	104.62
481.406	103.62
481.624	98.62
481.843	100.62
482.061	87.62
482.28	101.62
482.498	100.62
482.717	100.62
482.935	82.62
483.153	86.62
483.372	94.62
483.59	86.62
483.808	89.62
484.027	89.62
484.245	107.62
484.463	95.62
484.681	101.62
484.9	94.62
485.118	92.62
485.336	105.62
485.554	93.62
485.772	113.62
485.99	114.62
486.209	98.62
486.427	105.62
486.645	107.62
486.863	115.62
487.081	102.62
487.299	99.62
487.517	102.62
487.735	85.62
487.953	106.62
488.171	95.62
488.389	111.62
488.607	104.62
488.825	93.62
489.043	83.62
489.261	88.62
489.479	92.62
489.696	103.62
489.914	99.62
490.132	88.62
490.35	110.62
490.568	95.62
490.786	86.62
491.003	83.62
491.221	103.62
491.439	87.62
491.657	100.62
491.874	108.62
492.092	101.62
492.31	102.62
492.527	100.62
492.745	90.62
492.963	82.62
493.18	85.62
493.398	99.62
493.615	109.62
493.833	103.62
494.05	100.62
494.268	98.62
494.485	94.62
494.703	88.62
494.92	89.62
495.138	102.62
495.355	96.62
495.573	94.62
495.79	87.62
496.008	108.62
496.225	104.62
496.442	95.62
496.66	105.62
496.877	83.62
497.094	103.62
497.312	93.62
497.529	96.62
497.746	105.62
497.963	94.62
498.181	104.62
498.398	93.62
498.615	108.62
498.832	103.62
499.049	110.62
499.267	95.62
499.484	112.62
499.701	100.62
499.918	91.62
500.135	88.62
500.352	83.62
500.569	94.62
500.786	110.62
501.003	71.62
501.22	111.62
501.437	112.62
501.654	94.62
501.871	104.62
502.088	100.62
502.305	102.62
502.522	100.62
502.739	99.62
502.956	83.62
503.172	105.62
503.389	105.62
503.606	107.62
503.823	104.62
504.04	94.62
504.256	95.62
504.473	109.62
504.69	104.62
504.907	84.62
505.123	103.62
505.34	88.62
505.557	92.62
505.773	101.62
505.99	99.62
506.207	88.62
506.423	85.62
506.64	87.62
506.856	96.62
507.073	97.62
507.289	108.62
507.506	82.62
507.722	106.62
507.939	113.62
508.155	87.62
508.372	97.62
508.588	98.62
508.805	103.62
509.021	102.62
509.238	111.62
509.454	95.62
509.67	112.62
509.887	106.62
510.103	140.62
510.319	193.62
510.536	666.62
510.752	1990.62
510.968	578.62
511.184	152.62
511.401	115.62
511.617	110.62
511.833	102.62
512.049	83.62
512.265	96.62
512.481	98.62
512.698	101.62
512.914	95.62
513.13	95.62
