Data from Uncirc_1994_H10_HRD10591_00094.txt Node
Date: Wed Jan 03 11:39:39 EST 2024
User: Yrep
Spectrometer: HR+D1059
Trigger mode: 1
Integration Time (sec): 1.000000E-1
Scans to average: 1
Electric dark correction enabled: true
Nonlinearity correction enabled: false
Boxcar width: 0
XAxis mode: Wavelengths
Number of Pixels in Spectrum: 2048
>>>>>Begin Spectral Data<<<<<
223.165	-12.44
223.4	-12.44
223.635	-12.44
223.869	-18.44
224.104	-16.44
224.338	-19.44
224.573	-4.44
224.808	-15.44
225.042	5.56
225.277	-7.44
225.511	-9.44
225.746	-1.44
225.98	4.56
226.215	-4.44
226.449	11.56
226.683	26.56
226.918	30.56
227.152	30.56
227.387	29.56
227.621	43.56
227.856	48.56
228.09	42.56
228.324	55.56
228.559	67.56
228.793	48.56
229.027	60.56
229.262	69.56
229.496	58.56
229.73	84.56
229.964	78.56
230.199	86.56
230.433	72.56
230.667	78.56
230.901	86.56
231.136	101.56
231.37	82.56
231.604	76.56
231.838	85.56
232.072	88.56
232.306	76.56
232.541	86.56
232.775	75.56
233.009	86.56
233.243	68.56
233.477	73.56
233.711	88.56
233.945	76.56
234.179	80.56
234.413	76.56
234.647	64.56
234.881	79.56
235.115	84.56
235.349	87.56
235.583	70.56
235.817	80.56
236.051	82.56
236.285	85.56
236.519	73.56
236.753	77.56
236.987	91.56
237.221	98.56
237.455	82.56
237.689	82.56
237.922	76.56
238.156	72.56
238.39	75.56
238.624	73.56
238.858	77.56
239.091	79.56
239.325	65.56
239.559	76.56
239.793	83.56
240.027	87.56
240.26	66.56
240.494	81.56
240.728	79.56
240.961	73.56
241.195	75.56
241.429	76.56
241.662	78.56
241.896	73.56
242.13	84.56
242.363	87.56
242.597	81.56
242.83	88.56
243.064	83.56
243.298	78.56
243.531	87.56
243.765	80.56
243.998	76.56
244.232	88.56
244.465	90.56
244.699	77.56
244.932	76.56
245.166	81.56
245.399	66.56
245.633	70.56
245.866	78.56
246.099	90.56
246.333	68.56
246.566	82.56
246.8	89.56
247.033	92.56
247.266	77.56
247.5	73.56
247.733	89.56
247.966	67.56
248.2	70.56
248.433	90.56
248.666	84.56
248.899	94.56
249.133	85.56
249.366	93.56
249.599	101.56
249.832	83.56
250.066	69.56
250.299	69.56
250.532	95.56
250.765	92.56
250.998	83.56
251.231	74.56
251.465	80.56
251.698	91.56
251.931	73.56
252.164	88.56
252.397	85.56
252.63	92.56
252.863	89.56
253.096	84.56
253.329	84.56
253.562	83.56
253.795	83.56
254.028	78.56
254.261	75.56
254.494	92.56
254.727	87.56
254.96	100.56
255.193	94.56
255.426	77.56
255.659	88.56
255.892	72.56
256.124	73.56
256.357	88.56
256.59	85.56
256.823	87.56
257.056	80.56
257.289	79.56
257.521	75.56
257.754	76.56
257.987	84.56
258.22	83.56
258.452	97.56
258.685	82.56
258.918	82.56
259.151	82.56
259.383	82.56
259.616	86.56
259.849	76.56
260.081	87.56
260.314	78.56
260.547	76.56
260.779	76.56
261.012	90.56
261.244	76.56
261.477	92.56
261.71	90.56
261.942	102.56
262.175	113.56
262.407	84.56
262.64	98.56
262.872	96.56
263.105	66.56
263.337	80.56
263.57	88.56
263.802	88.56
264.035	85.56
264.267	88.56
264.499	80.56
264.732	96.56
264.964	95.56
265.197	81.56
265.429	82.56
265.661	81.56
265.894	78.56
266.126	84.56
266.358	73.56
266.591	83.56
266.823	71.56
267.055	63.56
267.287	75.56
267.52	85.56
267.752	78.56
267.984	90.56
268.216	97.56
268.448	84.56
268.681	85.56
268.913	87.56
269.145	83.56
269.377	83.56
269.609	90.56
269.841	85.56
270.073	86.56
270.306	90.56
270.538	89.56
270.77	77.56
271.002	83.56
271.234	94.56
271.466	86.56
271.698	77.56
271.93	85.56
272.162	85.56
272.394	85.56
272.626	91.56
272.858	73.56
273.09	88.56
273.322	84.56
273.553	75.56
273.785	86.56
274.017	95.56
274.249	76.56
274.481	93.56
274.713	82.56
274.945	95.56
275.176	80.56
275.408	79.56
275.64	81.56
275.872	87.56
276.104	78.56
276.335	75.56
276.567	82.56
276.799	97.56
277.031	97.56
277.262	85.56
277.494	91.56
277.726	106.56
277.957	91.56
278.189	81.56
278.421	84.56
278.652	86.56
278.884	84.56
279.115	99.56
279.347	106.56
279.579	92.56
279.81	87.56
280.042	75.56
280.273	91.56
280.505	76.56
280.736	74.56
280.968	92.56
281.199	84.56
281.431	96.56
281.662	88.56
281.894	87.56
282.125	101.56
282.356	103.56
282.588	123.56
282.819	101.56
283.051	99.56
283.282	85.56
283.513	94.56
283.745	94.56
283.976	92.56
284.207	87.56
284.439	84.56
284.67	87.56
284.901	83.56
285.132	77.56
285.364	80.56
285.595	83.56
285.826	82.56
286.057	92.56
286.288	91.56
286.52	101.56
286.751	88.56
286.982	86.56
287.213	102.56
287.444	90.56
287.675	90.56
287.906	96.56
288.138	81.56
288.369	76.56
288.6	82.56
288.831	80.56
289.062	94.56
289.293	78.56
289.524	84.56
289.755	78.56
289.986	89.56
290.217	83.56
290.448	89.56
290.679	82.56
290.91	80.56
291.141	75.56
291.371	90.56
291.602	93.56
291.833	96.56
292.064	85.56
292.295	64.56
292.526	98.56
292.757	90.56
292.987	80.56
293.218	89.56
293.449	81.56
293.68	95.56
293.91	99.56
294.141	92.56
294.372	82.56
294.603	70.56
294.833	88.56
295.064	93.56
295.295	82.56
295.525	94.56
295.756	113.56
295.987	115.56
296.217	121.56
296.448	108.56
296.679	93.56
296.909	103.56
297.14	83.56
297.37	91.56
297.601	83.56
297.831	91.56
298.062	87.56
298.292	70.56
298.523	87.56
298.753	89.56
298.984	78.56
299.214	91.56
299.445	91.56
299.675	112.56
299.905	92.56
300.136	90.56
300.366	82.56
300.597	92.56
300.827	84.56
301.057	99.56
301.288	79.56
301.518	95.56
301.748	94.56
301.979	90.56
302.209	96.56
302.439	67.56
302.669	95.56
302.9	95.56
303.13	97.56
303.36	105.56
303.59	92.56
303.82	110.56
304.051	93.56
304.281	92.56
304.511	85.56
304.741	107.56
304.971	81.56
305.201	84.56
305.431	91.56
305.661	104.56
305.891	76.56
306.121	75.56
306.352	88.56
306.582	98.56
306.812	98.56
307.042	104.56
307.272	103.56
307.502	81.56
307.731	92.56
307.961	87.56
308.191	81.56
308.421	79.56
308.651	85.56
308.881	85.56
309.111	83.56
309.341	93.56
309.571	98.56
309.8	108.56
310.03	96.56
310.26	83.56
310.49	98.56
310.72	89.56
310.949	94.56
311.179	98.56
311.409	93.56
311.639	94.56
311.868	107.56
312.098	88.56
312.328	106.56
312.557	100.56
312.787	98.56
313.017	102.56
313.246	104.56
313.476	96.56
313.706	97.56
313.935	99.56
314.165	108.56
314.394	102.56
314.624	100.56
314.853	109.56
315.083	82.56
315.312	96.56
315.542	90.56
315.771	91.56
316.001	94.56
316.23	89.56
316.46	77.56
316.689	72.56
316.919	93.56
317.148	105.56
317.377	90.56
317.607	90.56
317.836	103.56
318.065	80.56
318.295	89.56
318.524	87.56
318.753	92.56
318.983	78.56
319.212	115.56
319.441	117.56
319.67	106.56
319.9	105.56
320.129	106.56
320.358	95.56
320.587	82.56
320.816	98.56
321.046	102.56
321.275	93.56
321.504	99.56
321.733	100.56
321.962	88.56
322.191	100.56
322.42	98.56
322.649	107.56
322.878	102.56
323.108	121.56
323.337	110.56
323.566	121.56
323.795	146.56
324.024	194.56
324.253	337.56
324.482	678.56
324.71	1450.56
324.939	1891.56
325.168	706.56
325.397	224.56
325.626	129.56
325.855	122.56
326.084	112.56
326.313	113.56
326.542	144.56
326.77	216.56
326.999	421.56
327.228	819.56
327.457	1437.56
327.686	1128.56
327.914	317.56
328.143	179.56
328.372	139.56
328.6	120.56
328.829	114.56
329.058	111.56
329.287	111.56
329.515	109.56
329.744	99.56
329.972	104.56
330.201	99.56
330.43	110.56
330.658	119.56
330.887	127.56
331.115	120.56
331.344	94.56
331.572	99.56
331.801	107.56
332.03	92.56
332.258	99.56
332.486	96.56
332.715	96.56
332.943	89.56
333.172	94.56
333.4	109.56
333.629	106.56
333.857	113.56
334.085	102.56
334.314	99.56
334.542	106.56
334.771	91.56
334.999	102.56
335.227	96.56
335.455	93.56
335.684	100.56
335.912	76.56
336.14	84.56
336.369	90.56
336.597	97.56
336.825	96.56
337.053	94.56
337.281	95.56
337.51	92.56
337.738	97.56
337.966	88.56
338.194	102.56
338.422	94.56
338.65	98.56
338.878	92.56
339.106	82.56
339.334	78.56
339.562	94.56
339.79	85.56
340.018	100.56
340.246	84.56
340.474	105.56
340.702	90.56
340.93	96.56
341.158	94.56
341.386	108.56
341.614	96.56
341.842	99.56
342.07	90.56
342.298	91.56
342.526	88.56
342.754	87.56
342.981	102.56
343.209	84.56
343.437	97.56
343.665	92.56
343.893	93.56
344.12	79.56
344.348	85.56
344.576	77.56
344.804	90.56
345.031	103.56
345.259	88.56
345.487	106.56
345.714	91.56
345.942	95.56
346.17	92.56
346.397	86.56
346.625	88.56
346.853	100.56
347.08	90.56
347.308	99.56
347.535	100.56
347.763	89.56
347.99	73.56
348.218	96.56
348.445	91.56
348.673	80.56
348.9	80.56
349.128	89.56
349.355	88.56
349.583	79.56
349.81	84.56
350.037	92.56
350.265	93.56
350.492	102.56
350.72	88.56
350.947	101.56
351.174	107.56
351.402	111.56
351.629	118.56
351.856	121.56
352.083	94.56
352.311	113.56
352.538	101.56
352.765	102.56
352.992	113.56
353.22	111.56
353.447	107.56
353.674	98.56
353.901	97.56
354.128	94.56
354.355	95.56
354.583	96.56
354.81	96.56
355.037	94.56
355.264	98.56
355.491	94.56
355.718	85.56
355.945	93.56
356.172	93.56
356.399	95.56
356.626	96.56
356.853	93.56
357.08	96.56
357.307	93.56
357.534	97.56
357.761	87.56
357.988	88.56
358.215	93.56
358.441	93.56
358.668	98.56
358.895	89.56
359.122	85.56
359.349	109.56
359.576	88.56
359.802	100.56
360.029	114.56
360.256	108.56
360.483	83.56
360.709	88.56
360.936	103.56
361.163	97.56
361.39	92.56
361.616	105.56
361.843	88.56
362.07	93.56
362.296	103.56
362.523	78.56
362.749	102.56
362.976	106.56
363.203	93.56
363.429	97.56
363.656	86.56
363.882	83.56
364.109	95.56
364.335	90.56
364.562	94.56
364.788	86.56
365.015	90.56
365.241	99.56
365.468	108.56
365.694	94.56
365.92	90.56
366.147	80.56
366.373	98.56
366.599	86.56
366.826	87.56
367.052	99.56
367.278	75.56
367.505	88.56
367.731	94.56
367.957	93.56
368.184	78.56
368.41	102.56
368.636	108.56
368.862	106.56
369.089	112.56
369.315	89.56
369.541	100.56
369.767	76.56
369.993	96.56
370.219	90.56
370.445	81.56
370.672	84.56
370.898	90.56
371.124	72.56
371.35	106.56
371.576	102.56
371.802	89.56
372.028	104.56
372.254	86.56
372.48	91.56
372.706	100.56
372.932	84.56
373.158	96.56
373.384	99.56
373.61	104.56
373.835	85.56
374.061	93.56
374.287	92.56
374.513	97.56
374.739	87.56
374.965	87.56
375.191	75.56
375.416	86.56
375.642	90.56
375.868	88.56
376.094	85.56
376.319	90.56
376.545	83.56
376.771	93.56
376.997	76.56
377.222	86.56
377.448	77.56
377.674	93.56
377.899	87.56
378.125	96.56
378.35	96.56
378.576	86.56
378.802	99.56
379.027	110.56
379.253	92.56
379.478	93.56
379.704	90.56
379.929	82.56
380.155	84.56
380.38	90.56
380.606	81.56
380.831	92.56
381.057	100.56
381.282	92.56
381.507	84.56
381.733	84.56
381.958	100.56
382.184	102.56
382.409	89.56
382.634	106.56
382.86	87.56
383.085	98.56
383.31	88.56
383.535	87.56
383.761	102.56
383.986	112.56
384.211	104.56
384.436	99.56
384.662	97.56
384.887	107.56
385.112	103.56
385.337	105.56
385.562	81.56
385.787	90.56
386.013	103.56
386.238	83.56
386.463	94.56
386.688	99.56
386.913	92.56
387.138	94.56
387.363	107.56
387.588	83.56
387.813	91.56
388.038	85.56
388.263	101.56
388.488	109.56
388.713	96.56
388.938	90.56
389.163	91.56
389.387	90.56
389.612	88.56
389.837	82.56
390.062	98.56
390.287	101.56
390.512	99.56
390.736	102.56
390.961	88.56
391.186	98.56
391.411	102.56
391.636	90.56
391.86	94.56
392.085	113.56
392.31	82.56
392.534	88.56
392.759	104.56
392.984	91.56
393.208	82.56
393.433	92.56
393.658	90.56
393.882	76.56
394.107	81.56
394.331	89.56
394.556	85.56
394.78	95.56
395.005	89.56
395.229	92.56
395.454	100.56
395.678	87.56
395.903	73.56
396.127	83.56
396.352	96.56
396.576	83.56
396.801	87.56
397.025	86.56
397.249	98.56
397.474	91.56
397.698	92.56
397.922	71.56
398.147	98.56
398.371	74.56
398.595	87.56
398.82	96.56
399.044	85.56
399.268	80.56
399.492	91.56
399.717	74.56
399.941	79.56
400.165	92.56
400.389	86.56
400.613	91.56
400.837	78.56
401.062	86.56
401.286	74.56
401.51	94.56
401.734	84.56
401.958	98.56
402.182	126.56
402.406	144.56
402.63	114.56
402.854	106.56
403.078	102.56
403.302	96.56
403.526	69.56
403.75	96.56
403.974	91.56
404.198	100.56
404.422	98.56
404.645	88.56
404.869	88.56
405.093	78.56
405.317	91.56
405.541	96.56
405.765	102.56
405.988	116.56
406.212	164.56
406.436	201.56
406.66	129.56
406.883	106.56
407.107	92.56
407.331	93.56
407.555	97.56
407.778	104.56
408.002	88.56
408.226	76.56
408.449	84.56
408.673	98.56
408.896	104.56
409.12	99.56
409.344	104.56
409.567	100.56
409.791	99.56
410.014	94.56
410.238	98.56
410.461	92.56
410.685	88.56
410.908	99.56
411.132	106.56
411.355	94.56
411.578	101.56
411.802	104.56
412.025	88.56
412.249	86.56
412.472	94.56
412.695	77.56
412.919	87.56
413.142	92.56
413.365	99.56
413.589	83.56
413.812	90.56
414.035	91.56
414.258	92.56
414.482	98.56
414.705	107.56
414.928	80.56
415.151	94.56
415.374	85.56
415.597	68.56
415.821	82.56
416.044	89.56
416.267	88.56
416.49	89.56
416.713	86.56
416.936	82.56
417.159	89.56
417.382	98.56
417.605	86.56
417.828	107.56
418.051	92.56
418.274	77.56
418.497	88.56
418.72	85.56
418.943	89.56
419.166	92.56
419.389	92.56
419.611	94.56
419.834	84.56
420.057	84.56
420.28	92.56
420.503	84.56
420.726	84.56
420.948	92.56
421.171	95.56
421.394	90.56
421.617	87.56
421.839	98.56
422.062	104.56
422.285	88.56
422.507	90.56
422.73	95.56
422.953	85.56
423.175	98.56
423.398	90.56
423.621	80.56
423.843	93.56
424.066	84.56
424.288	81.56
424.511	83.56
424.733	97.56
424.956	117.56
425.178	97.56
425.401	95.56
425.623	98.56
425.846	85.56
426.068	85.56
426.291	96.56
426.513	79.56
426.735	91.56
426.958	81.56
427.18	99.56
427.402	134.56
427.625	136.56
427.847	108.56
428.069	90.56
428.292	106.56
428.514	101.56
428.736	85.56
428.958	100.56
429.181	75.56
429.403	92.56
429.625	87.56
429.847	94.56
430.069	96.56
430.292	112.56
430.514	92.56
430.736	79.56
430.958	90.56
431.18	85.56
431.402	99.56
431.624	94.56
431.846	88.56
432.068	83.56
432.29	82.56
432.512	83.56
432.734	93.56
432.956	88.56
433.178	90.56
433.4	109.56
433.622	78.56
433.844	91.56
434.066	96.56
434.287	94.56
434.509	80.56
434.731	77.56
434.953	93.56
435.175	99.56
435.397	83.56
435.618	106.56
435.84	104.56
436.062	114.56
436.284	110.56
436.505	98.56
436.727	99.56
436.949	95.56
437.17	97.56
437.392	75.56
437.614	85.56
437.835	105.56
438.057	88.56
438.278	101.56
438.5	92.56
438.721	100.56
438.943	87.56
439.165	76.56
439.386	80.56
439.608	86.56
439.829	98.56
440.05	101.56
440.272	133.56
440.493	93.56
440.715	82.56
440.936	99.56
441.158	82.56
441.379	92.56
441.6	94.56
441.822	97.56
442.043	86.56
442.264	118.56
442.486	93.56
442.707	88.56
442.928	96.56
443.149	114.56
443.371	114.56
443.592	100.56
443.813	120.56
444.034	106.56
444.255	91.56
444.476	97.56
444.698	80.56
444.919	101.56
445.14	141.56
445.361	109.56
445.582	106.56
445.803	121.56
446.024	129.56
446.245	114.56
446.466	103.56
446.687	85.56
446.908	89.56
447.129	77.56
447.35	70.56
447.571	95.56
447.792	100.56
448.013	105.56
448.234	97.56
448.455	92.56
448.675	94.56
448.896	112.56
449.117	104.56
449.338	95.56
449.559	124.56
449.779	125.56
450	95.56
450.221	75.56
450.442	91.56
450.662	86.56
450.883	106.56
451.104	101.56
451.324	95.56
451.545	94.56
451.766	94.56
451.986	101.56
452.207	100.56
452.428	80.56
452.648	87.56
452.869	107.56
453.089	87.56
453.31	121.56
453.53	97.56
453.751	90.56
453.971	101.56
454.192	117.56
454.412	95.56
454.633	100.56
454.853	101.56
455.073	93.56
455.294	103.56
455.514	91.56
455.734	84.56
455.955	80.56
456.175	81.56
456.395	80.56
456.616	81.56
456.836	72.56
457.056	81.56
457.276	89.56
457.497	82.56
457.717	85.56
457.937	90.56
458.157	99.56
458.377	95.56
458.598	98.56
458.818	125.56
459.038	159.56
459.258	117.56
459.478	97.56
459.698	101.56
459.918	78.56
460.138	78.56
460.358	93.56
460.578	76.56
460.798	93.56
461.018	83.56
461.238	85.56
461.458	79.56
461.678	93.56
461.898	78.56
462.118	96.56
462.338	84.56
462.558	85.56
462.777	69.56
462.997	76.56
463.217	86.56
463.437	91.56
463.657	78.56
463.876	67.56
464.096	83.56
464.316	101.56
464.536	93.56
464.755	100.56
464.975	106.56
465.195	154.56
465.414	143.56
465.634	93.56
465.854	86.56
466.073	86.56
466.293	93.56
466.512	94.56
466.732	89.56
466.951	103.56
467.171	90.56
467.391	96.56
467.61	109.56
467.829	84.56
468.049	89.56
468.268	86.56
468.488	83.56
468.707	101.56
468.927	90.56
469.146	98.56
469.365	82.56
469.585	80.56
469.804	100.56
470.023	108.56
470.243	90.56
470.462	99.56
470.681	100.56
470.901	95.56
471.12	91.56
471.339	86.56
471.558	88.56
471.777	85.56
471.997	93.56
472.216	92.56
472.435	88.56
472.654	81.56
472.873	102.56
473.092	83.56
473.311	90.56
473.53	92.56
473.749	82.56
473.968	102.56
474.187	104.56
474.406	107.56
474.625	93.56
474.844	98.56
475.063	90.56
475.282	94.56
475.501	77.56
475.72	104.56
475.939	83.56
476.158	96.56
476.377	86.56
476.596	91.56
476.814	89.56
477.033	97.56
477.252	83.56
477.471	88.56
477.69	94.56
477.908	82.56
478.127	73.56
478.346	88.56
478.564	90.56
478.783	100.56
479.002	99.56
479.22	92.56
479.439	104.56
479.658	115.56
479.876	100.56
480.095	83.56
480.313	95.56
480.532	83.56
480.751	69.56
480.969	90.56
481.188	101.56
481.406	87.56
481.624	82.56
481.843	97.56
482.061	92.56
482.28	106.56
482.498	93.56
482.717	89.56
482.935	96.56
483.153	90.56
483.372	91.56
483.59	90.56
483.808	86.56
484.027	109.56
484.245	87.56
484.463	83.56
484.681	90.56
484.9	86.56
485.118	94.56
485.336	77.56
485.554	82.56
485.772	109.56
485.99	97.56
486.209	97.56
486.427	100.56
486.645	120.56
486.863	99.56
487.081	100.56
487.299	93.56
487.517	93.56
487.735	86.56
487.953	85.56
488.171	96.56
488.389	101.56
488.607	91.56
488.825	82.56
489.043	90.56
489.261	98.56
489.479	88.56
489.696	98.56
489.914	94.56
490.132	100.56
490.35	92.56
490.568	101.56
490.786	95.56
491.003	89.56
491.221	97.56
491.439	90.56
491.657	96.56
491.874	94.56
492.092	90.56
492.31	75.56
492.527	84.56
492.745	91.56
492.963	90.56
493.18	95.56
493.398	96.56
493.615	96.56
493.833	115.56
494.05	82.56
494.268	88.56
494.485	73.56
494.703	84.56
494.92	91.56
495.138	92.56
495.355	93.56
495.573	102.56
495.79	102.56
496.008	79.56
496.225	88.56
496.442	99.56
496.66	104.56
496.877	92.56
497.094	98.56
497.312	88.56
497.529	83.56
497.746	106.56
497.963	94.56
498.181	84.56
498.398	96.56
498.615	107.56
498.832	107.56
499.049	101.56
499.267	90.56
499.484	84.56
499.701	89.56
499.918	80.56
500.135	101.56
500.352	88.56
500.569	79.56
500.786	99.56
501.003	95.56
501.22	74.56
501.437	81.56
501.654	84.56
501.871	103.56
502.088	92.56
502.305	95.56
502.522	88.56
502.739	93.56
502.956	97.56
503.172	92.56
503.389	85.56
503.606	94.56
503.823	108.56
504.04	83.56
504.256	97.56
504.473	76.56
504.69	89.56
504.907	94.56
505.123	92.56
505.34	89.56
505.557	96.56
505.773	95.56
505.99	98.56
506.207	92.56
506.423	95.56
506.64	96.56
506.856	97.56
507.073	104.56
507.289	96.56
507.506	101.56
507.722	98.56
507.939	94.56
508.155	90.56
508.372	84.56
508.588	88.56
508.805	95.56
509.021	93.56
509.238	96.56
509.454	108.56
509.67	101.56
509.887	117.56
510.103	121.56
510.319	209.56
510.536	688.56
510.752	2147.56
510.968	607.56
511.184	154.56
511.401	124.56
511.617	90.56
511.833	90.56
512.049	87.56
512.265	82.56
512.481	94.56
512.698	87.56
512.914	96.56
513.13	92.56
513.346	86.56
513.562	80.56
513.778	90.56
513.994	87.56
514.21	103.56
514.426	117.56
514.642	126.56
514.858	126.56
515.074	145.56
515.29	414.56
515.506	1229.56
515.721	477.56
515.937	144.56
