Data from Uncirc_1994_H10_HRD10591_00085.txt Node
Date: Wed Jan 03 11:39:37 EST 2024
User: Yrep
Spectrometer: HR+D1059
Trigger mode: 1
Integration Time (sec): 1.000000E-1
Scans to average: 1
Electric dark correction enabled: true
Nonlinearity correction enabled: false
Boxcar width: 0
XAxis mode: Wavelengths
Number of Pixels in Spectrum: 2048
>>>>>Begin Spectral Data<<<<<
223.165	-15.06
223.4	-15.06
223.635	-15.06
223.869	-18.06
224.104	-18.06
224.338	-22.06
224.573	-14.06
224.808	-5.06
225.042	-6.06
225.277	-1.06
225.511	-7.06
225.746	6.94
225.98	-3.06
226.215	10.94
226.449	16.94
226.683	22.94
226.918	26.94
227.152	24.94
227.387	45.94
227.621	46.94
227.856	46.94
228.09	46.94
228.324	56.94
228.559	46.94
228.793	35.94
229.027	67.94
229.262	57.94
229.496	67.94
229.73	69.94
229.964	76.94
230.199	61.94
230.433	84.94
230.667	86.94
230.901	81.94
231.136	85.94
231.37	92.94
231.604	79.94
231.838	83.94
232.072	77.94
232.306	66.94
232.541	89.94
232.775	82.94
233.009	84.94
233.243	83.94
233.477	84.94
233.711	85.94
233.945	88.94
234.179	76.94
234.413	79.94
234.647	73.94
234.881	86.94
235.115	78.94
235.349	66.94
235.583	92.94
235.817	75.94
236.051	80.94
236.285	77.94
236.519	92.94
236.753	85.94
236.987	78.94
237.221	81.94
237.455	77.94
237.689	76.94
237.922	73.94
238.156	80.94
238.39	76.94
238.624	82.94
238.858	82.94
239.091	89.94
239.325	78.94
239.559	82.94
239.793	79.94
240.027	80.94
240.26	78.94
240.494	82.94
240.728	63.94
240.961	78.94
241.195	72.94
241.429	56.94
241.662	61.94
241.896	83.94
242.13	82.94
242.363	78.94
242.597	82.94
242.83	86.94
243.064	75.94
243.298	65.94
243.531	92.94
243.765	77.94
243.998	88.94
244.232	73.94
244.465	88.94
244.699	87.94
244.932	71.94
245.166	75.94
245.399	83.94
245.633	72.94
245.866	72.94
246.099	83.94
246.333	73.94
246.566	66.94
246.8	90.94
247.033	89.94
247.266	84.94
247.5	87.94
247.733	79.94
247.966	92.94
248.2	86.94
248.433	65.94
248.666	78.94
248.899	79.94
249.133	82.94
249.366	83.94
249.599	109.94
249.832	86.94
250.066	86.94
250.299	76.94
250.532	91.94
250.765	81.94
250.998	84.94
251.231	78.94
251.465	75.94
251.698	76.94
251.931	83.94
252.164	73.94
252.397	75.94
252.63	79.94
252.863	82.94
253.096	70.94
253.329	89.94
253.562	84.94
253.795	82.94
254.028	85.94
254.261	83.94
254.494	82.94
254.727	74.94
254.96	87.94
255.193	74.94
255.426	60.94
255.659	74.94
255.892	75.94
256.124	88.94
256.357	77.94
256.59	68.94
256.823	95.94
257.056	81.94
257.289	92.94
257.521	90.94
257.754	91.94
257.987	81.94
258.22	63.94
258.452	84.94
258.685	69.94
258.918	83.94
259.151	66.94
259.383	79.94
259.616	77.94
259.849	75.94
260.081	73.94
260.314	66.94
260.547	78.94
260.779	83.94
261.012	82.94
261.244	82.94
261.477	85.94
261.71	93.94
261.942	100.94
262.175	104.94
262.407	81.94
262.64	84.94
262.872	65.94
263.105	78.94
263.337	91.94
263.57	78.94
263.802	84.94
264.035	94.94
264.267	74.94
264.499	75.94
264.732	80.94
264.964	82.94
265.197	73.94
265.429	81.94
265.661	89.94
265.894	97.94
266.126	74.94
266.358	81.94
266.591	82.94
266.823	89.94
267.055	94.94
267.287	91.94
267.52	83.94
267.752	76.94
267.984	79.94
268.216	80.94
268.448	81.94
268.681	81.94
268.913	93.94
269.145	84.94
269.377	88.94
269.609	77.94
269.841	80.94
270.073	88.94
270.306	81.94
270.538	96.94
270.77	89.94
271.002	82.94
271.234	60.94
271.466	84.94
271.698	83.94
271.93	84.94
272.162	94.94
272.394	78.94
272.626	81.94
272.858	86.94
273.09	82.94
273.322	84.94
273.553	73.94
273.785	96.94
274.017	77.94
274.249	76.94
274.481	79.94
274.713	74.94
274.945	88.94
275.176	97.94
275.408	88.94
275.64	84.94
275.872	74.94
276.104	82.94
276.335	89.94
276.567	90.94
276.799	102.94
277.031	102.94
277.262	85.94
277.494	95.94
277.726	76.94
277.957	99.94
278.189	84.94
278.421	78.94
278.652	77.94
278.884	99.94
279.115	80.94
279.347	90.94
279.579	78.94
279.81	91.94
280.042	96.94
280.273	91.94
280.505	79.94
280.736	92.94
280.968	97.94
281.199	93.94
281.431	85.94
281.662	84.94
281.894	79.94
282.125	98.94
282.356	123.94
282.588	134.94
282.819	107.94
283.051	90.94
283.282	98.94
283.513	109.94
283.745	90.94
283.976	92.94
284.207	85.94
284.439	85.94
284.67	88.94
284.901	75.94
285.132	81.94
285.364	82.94
285.595	86.94
285.826	94.94
286.057	92.94
286.288	87.94
286.52	85.94
286.751	99.94
286.982	93.94
287.213	95.94
287.444	87.94
287.675	77.94
287.906	78.94
288.138	82.94
288.369	95.94
288.6	99.94
288.831	97.94
289.062	106.94
289.293	83.94
289.524	94.94
289.755	90.94
289.986	102.94
290.217	87.94
290.448	97.94
290.679	75.94
290.91	85.94
291.141	88.94
291.371	86.94
291.602	97.94
291.833	78.94
292.064	86.94
292.295	102.94
292.526	96.94
292.757	91.94
292.987	98.94
293.218	104.94
293.449	102.94
293.68	96.94
293.91	84.94
294.141	98.94
294.372	81.94
294.603	94.94
294.833	97.94
295.064	101.94
295.295	85.94
295.525	92.94
295.756	81.94
295.987	115.94
296.217	138.94
296.448	99.94
296.679	84.94
296.909	91.94
297.14	84.94
297.37	97.94
297.601	85.94
297.831	91.94
298.062	90.94
298.292	85.94
298.523	92.94
298.753	85.94
298.984	86.94
299.214	93.94
299.445	88.94
299.675	101.94
299.905	103.94
300.136	101.94
300.366	99.94
300.597	91.94
300.827	81.94
301.057	103.94
301.288	105.94
301.518	91.94
301.748	93.94
301.979	88.94
302.209	88.94
302.439	85.94
302.669	82.94
302.9	84.94
303.13	99.94
303.36	93.94
303.59	101.94
303.82	97.94
304.051	80.94
304.281	80.94
304.511	87.94
304.741	78.94
304.971	82.94
305.201	89.94
305.431	80.94
305.661	82.94
305.891	99.94
306.121	107.94
306.352	101.94
306.582	108.94
306.812	101.94
307.042	99.94
307.272	100.94
307.502	98.94
307.731	99.94
307.961	92.94
308.191	92.94
308.421	103.94
308.651	90.94
308.881	83.94
309.111	81.94
309.341	86.94
309.571	83.94
309.8	90.94
310.03	97.94
310.26	92.94
310.49	101.94
310.72	104.94
310.949	96.94
311.179	91.94
311.409	98.94
311.639	94.94
311.868	80.94
312.098	94.94
312.328	83.94
312.557	102.94
312.787	106.94
313.017	96.94
313.246	91.94
313.476	97.94
313.706	96.94
313.935	88.94
314.165	108.94
314.394	95.94
314.624	102.94
314.853	94.94
315.083	91.94
315.312	90.94
315.542	91.94
315.771	98.94
316.001	102.94
316.23	78.94
316.46	93.94
316.689	82.94
316.919	90.94
317.148	94.94
317.377	92.94
317.607	85.94
317.836	96.94
318.065	98.94
318.295	99.94
318.524	98.94
318.753	92.94
318.983	85.94
319.212	110.94
319.441	103.94
319.67	98.94
319.9	101.94
320.129	97.94
320.358	79.94
320.587	103.94
320.816	86.94
321.046	102.94
321.275	95.94
321.504	105.94
321.733	93.94
321.962	101.94
322.191	105.94
322.42	101.94
322.649	108.94
322.878	109.94
323.108	115.94
323.337	109.94
323.566	118.94
323.795	141.94
324.024	204.94
324.253	384.94
324.482	786.94
324.71	1621.94
324.939	2122.94
325.168	758.94
325.397	232.94
325.626	139.94
325.855	134.94
326.084	123.94
326.313	126.94
326.542	136.94
326.77	228.94
326.999	453.94
327.228	921.94
327.457	1596.94
327.686	1295.94
327.914	360.94
328.143	190.94
328.372	131.94
328.6	123.94
328.829	118.94
329.058	112.94
329.287	138.94
329.515	124.94
329.744	101.94
329.972	96.94
330.201	90.94
330.43	93.94
330.658	120.94
330.887	126.94
331.115	122.94
331.344	102.94
331.572	92.94
331.801	96.94
332.03	99.94
332.258	95.94
332.486	74.94
332.715	85.94
332.943	94.94
333.172	100.94
333.4	93.94
333.629	113.94
333.857	110.94
334.085	95.94
334.314	96.94
334.542	94.94
334.771	98.94
334.999	96.94
335.227	97.94
335.455	99.94
335.684	78.94
335.912	89.94
336.14	87.94
336.369	101.94
336.597	95.94
336.825	93.94
337.053	101.94
337.281	87.94
337.51	107.94
337.738	98.94
337.966	90.94
338.194	94.94
338.422	92.94
338.65	88.94
338.878	89.94
339.106	62.94
339.334	93.94
339.562	97.94
339.79	85.94
340.018	105.94
340.246	85.94
340.474	96.94
340.702	92.94
340.93	95.94
341.158	89.94
341.386	93.94
341.614	95.94
341.842	86.94
342.07	94.94
342.298	92.94
342.526	91.94
342.754	85.94
342.981	88.94
343.209	88.94
343.437	100.94
343.665	91.94
343.893	93.94
344.12	77.94
344.348	93.94
344.576	91.94
344.804	88.94
345.031	93.94
345.259	106.94
345.487	102.94
345.714	90.94
345.942	102.94
346.17	70.94
346.397	105.94
346.625	92.94
346.853	87.94
347.08	91.94
347.308	112.94
347.535	107.94
347.763	107.94
347.99	106.94
348.218	104.94
348.445	105.94
348.673	97.94
348.9	97.94
349.128	91.94
349.355	99.94
349.583	96.94
349.81	104.94
350.037	96.94
350.265	86.94
350.492	82.94
350.72	86.94
350.947	97.94
351.174	106.94
351.402	108.94
351.629	107.94
351.856	100.94
352.083	107.94
352.311	92.94
352.538	105.94
352.765	110.94
352.992	110.94
353.22	127.94
353.447	96.94
353.674	97.94
353.901	91.94
354.128	96.94
354.355	88.94
354.583	91.94
354.81	97.94
355.037	99.94
355.264	100.94
355.491	95.94
355.718	90.94
355.945	85.94
356.172	99.94
356.399	88.94
356.626	108.94
356.853	90.94
357.08	92.94
357.307	105.94
357.534	90.94
357.761	88.94
357.988	94.94
358.215	93.94
358.441	86.94
358.668	87.94
358.895	97.94
359.122	92.94
359.349	90.94
359.576	99.94
359.802	103.94
360.029	110.94
360.256	90.94
360.483	91.94
360.709	92.94
360.936	106.94
361.163	92.94
361.39	101.94
361.616	94.94
361.843	96.94
362.07	98.94
362.296	86.94
362.523	91.94
362.749	78.94
362.976	90.94
363.203	96.94
363.429	82.94
363.656	89.94
363.882	97.94
364.109	91.94
364.335	94.94
364.562	97.94
364.788	110.94
365.015	108.94
365.241	94.94
365.468	100.94
365.694	114.94
365.92	107.94
366.147	78.94
366.373	79.94
366.599	92.94
366.826	97.94
367.052	95.94
367.278	83.94
367.505	83.94
367.731	94.94
367.957	100.94
368.184	84.94
368.41	92.94
368.636	96.94
368.862	130.94
369.089	96.94
369.315	97.94
369.541	99.94
369.767	102.94
369.993	94.94
370.219	93.94
370.445	80.94
370.672	93.94
370.898	88.94
371.124	83.94
371.35	101.94
371.576	89.94
371.802	90.94
372.028	91.94
372.254	94.94
372.48	93.94
372.706	96.94
372.932	86.94
373.158	97.94
373.384	103.94
373.61	99.94
373.835	89.94
374.061	99.94
374.287	82.94
374.513	89.94
374.739	84.94
374.965	78.94
375.191	96.94
375.416	105.94
375.642	79.94
375.868	84.94
376.094	105.94
376.319	100.94
376.545	74.94
376.771	80.94
376.997	88.94
377.222	86.94
377.448	99.94
377.674	87.94
377.899	77.94
378.125	96.94
378.35	91.94
378.576	93.94
378.802	101.94
379.027	93.94
379.253	86.94
379.478	92.94
379.704	98.94
379.929	105.94
380.155	86.94
380.38	83.94
380.606	90.94
380.831	87.94
381.057	108.94
381.282	84.94
381.507	82.94
381.733	93.94
381.958	86.94
382.184	98.94
382.409	90.94
382.634	101.94
382.86	97.94
383.085	88.94
383.31	98.94
383.535	107.94
383.761	93.94
383.986	110.94
384.211	92.94
384.436	88.94
384.662	114.94
384.887	98.94
385.112	102.94
385.337	100.94
385.562	105.94
385.787	94.94
386.013	95.94
386.238	105.94
386.463	101.94
386.688	120.94
386.913	80.94
387.138	94.94
387.363	100.94
387.588	94.94
387.813	108.94
388.038	95.94
388.263	92.94
388.488	100.94
388.713	102.94
388.938	86.94
389.163	102.94
389.387	93.94
389.612	87.94
389.837	81.94
390.062	97.94
390.287	88.94
390.512	81.94
390.736	91.94
390.961	100.94
391.186	80.94
391.411	99.94
391.636	95.94
391.86	87.94
392.085	99.94
392.31	92.94
392.534	87.94
392.759	86.94
392.984	68.94
393.208	105.94
393.433	91.94
393.658	90.94
393.882	80.94
394.107	86.94
394.331	85.94
394.556	84.94
394.78	80.94
395.005	88.94
395.229	91.94
395.454	79.94
395.678	84.94
395.903	69.94
396.127	105.94
396.352	75.94
396.576	83.94
396.801	74.94
397.025	86.94
397.249	85.94
397.474	85.94
397.698	76.94
397.922	89.94
398.147	80.94
398.371	84.94
398.595	94.94
398.82	85.94
399.044	81.94
399.268	92.94
399.492	85.94
399.717	100.94
399.941	103.94
400.165	82.94
400.389	88.94
400.613	98.94
400.837	90.94
401.062	86.94
401.286	105.94
401.51	103.94
401.734	83.94
401.958	98.94
402.182	103.94
402.406	156.94
402.63	115.94
402.854	98.94
403.078	90.94
403.302	83.94
403.526	86.94
403.75	83.94
403.974	88.94
404.198	72.94
404.422	96.94
404.645	70.94
404.869	92.94
405.093	90.94
405.317	91.94
405.541	79.94
405.765	87.94
405.988	111.94
406.212	170.94
406.436	223.94
406.66	133.94
406.883	98.94
407.107	101.94
407.331	103.94
407.555	87.94
407.778	91.94
408.002	85.94
408.226	86.94
408.449	84.94
408.673	84.94
408.896	98.94
409.12	80.94
409.344	82.94
409.567	78.94
409.791	85.94
410.014	99.94
410.238	97.94
410.461	94.94
410.685	98.94
410.908	88.94
411.132	98.94
411.355	91.94
411.578	91.94
411.802	99.94
412.025	73.94
412.249	84.94
412.472	91.94
412.695	91.94
412.919	84.94
413.142	83.94
413.365	97.94
413.589	87.94
413.812	76.94
414.035	89.94
414.258	84.94
414.482	90.94
414.705	90.94
414.928	91.94
415.151	84.94
415.374	81.94
415.597	78.94
415.821	88.94
416.044	95.94
416.267	107.94
416.49	89.94
416.713	102.94
416.936	89.94
417.159	82.94
417.382	93.94
417.605	81.94
417.828	95.94
418.051	93.94
418.274	94.94
418.497	92.94
418.72	84.94
418.943	79.94
419.166	96.94
419.389	89.94
419.611	98.94
419.834	95.94
420.057	94.94
420.28	90.94
420.503	85.94
420.726	90.94
420.948	72.94
421.171	101.94
421.394	101.94
421.617	99.94
421.839	88.94
422.062	72.94
422.285	99.94
422.507	110.94
422.73	112.94
422.953	99.94
423.175	100.94
423.398	75.94
423.621	82.94
423.843	88.94
424.066	93.94
424.288	101.94
424.511	91.94
424.733	94.94
424.956	92.94
425.178	92.94
425.401	83.94
425.623	90.94
425.846	91.94
426.068	96.94
426.291	85.94
426.513	79.94
426.735	106.94
426.958	101.94
427.18	100.94
427.402	118.94
427.625	144.94
427.847	125.94
428.069	98.94
428.292	90.94
428.514	99.94
428.736	94.94
428.958	74.94
429.181	90.94
429.403	81.94
429.625	78.94
429.847	90.94
430.069	104.94
430.292	92.94
430.514	81.94
430.736	72.94
430.958	81.94
431.18	85.94
431.402	85.94
431.624	80.94
431.846	82.94
432.068	88.94
432.29	92.94
432.512	104.94
432.734	81.94
432.956	73.94
433.178	102.94
433.4	93.94
433.622	85.94
433.844	84.94
434.066	92.94
434.287	75.94
434.509	85.94
434.731	89.94
434.953	103.94
435.175	77.94
435.397	85.94
435.618	94.94
435.84	100.94
436.062	115.94
436.284	114.94
436.505	101.94
436.727	89.94
436.949	95.94
437.17	78.94
437.392	84.94
437.614	99.94
437.835	108.94
438.057	112.94
438.278	100.94
438.5	97.94
438.721	125.94
438.943	108.94
439.165	92.94
439.386	95.94
439.608	96.94
439.829	90.94
440.05	117.94
440.272	134.94
440.493	98.94
440.715	88.94
440.936	81.94
441.158	87.94
441.379	94.94
441.6	77.94
441.822	98.94
442.043	89.94
442.264	98.94
442.486	94.94
442.707	104.94
442.928	105.94
443.149	121.94
443.371	125.94
443.592	113.94
443.813	122.94
444.034	106.94
444.255	85.94
444.476	90.94
444.698	96.94
444.919	86.94
445.14	121.94
445.361	105.94
445.582	111.94
445.803	129.94
446.024	140.94
446.245	122.94
446.466	109.94
446.687	92.94
446.908	86.94
447.129	88.94
447.35	85.94
447.571	105.94
447.792	82.94
448.013	104.94
448.234	91.94
448.455	95.94
448.675	108.94
448.896	119.94
449.117	103.94
449.338	92.94
449.559	120.94
449.779	123.94
450	100.94
450.221	97.94
450.442	102.94
450.662	84.94
450.883	92.94
451.104	92.94
451.324	77.94
451.545	98.94
451.766	88.94
451.986	86.94
452.207	84.94
452.428	92.94
452.648	85.94
452.869	125.94
453.089	109.94
453.31	112.94
453.53	105.94
453.751	92.94
453.971	108.94
454.192	110.94
454.412	89.94
454.633	88.94
454.853	72.94
455.073	83.94
455.294	94.94
455.514	93.94
455.734	92.94
455.955	97.94
456.175	84.94
456.395	78.94
456.616	90.94
456.836	91.94
457.056	83.94
457.276	93.94
457.497	85.94
457.717	79.94
457.937	98.94
458.157	82.94
458.377	88.94
458.598	117.94
458.818	148.94
459.038	142.94
459.258	115.94
459.478	98.94
459.698	74.94
459.918	80.94
460.138	80.94
460.358	84.94
460.578	91.94
460.798	105.94
461.018	93.94
461.238	96.94
461.458	80.94
461.678	84.94
461.898	89.94
462.118	82.94
462.338	90.94
462.558	94.94
462.777	89.94
462.997	83.94
463.217	90.94
463.437	85.94
463.657	95.94
463.876	83.94
464.096	85.94
464.316	69.94
464.536	85.94
464.755	93.94
464.975	103.94
465.195	142.94
465.414	156.94
465.634	93.94
465.854	88.94
466.073	86.94
466.293	89.94
466.512	79.94
466.732	91.94
466.951	87.94
467.171	91.94
467.391	97.94
467.61	105.94
467.829	100.94
468.049	88.94
468.268	88.94
468.488	100.94
468.707	92.94
468.927	85.94
469.146	73.94
469.365	67.94
469.585	88.94
469.804	83.94
470.023	83.94
470.243	91.94
470.462	98.94
470.681	105.94
470.901	81.94
471.12	78.94
471.339	80.94
471.558	92.94
471.777	94.94
471.997	72.94
472.216	96.94
472.435	97.94
472.654	97.94
472.873	89.94
473.092	81.94
473.311	89.94
473.53	91.94
473.749	88.94
473.968	94.94
474.187	104.94
474.406	89.94
474.625	94.94
474.844	92.94
475.063	94.94
475.282	86.94
475.501	89.94
475.72	83.94
475.939	84.94
476.158	84.94
476.377	75.94
476.596	96.94
476.814	94.94
477.033	81.94
477.252	65.94
477.471	97.94
477.69	75.94
477.908	81.94
478.127	92.94
478.346	74.94
478.564	90.94
478.783	94.94
479.002	91.94
479.22	96.94
479.439	92.94
479.658	91.94
479.876	97.94
480.095	82.94
480.313	98.94
480.532	89.94
480.751	97.94
480.969	96.94
481.188	109.94
481.406	98.94
481.624	91.94
481.843	76.94
482.061	102.94
482.28	86.94
482.498	80.94
482.717	83.94
482.935	81.94
483.153	75.94
483.372	85.94
483.59	84.94
483.808	92.94
484.027	85.94
484.245	94.94
484.463	92.94
484.681	96.94
484.9	95.94
485.118	89.94
485.336	81.94
485.554	91.94
485.772	92.94
485.99	108.94
486.209	105.94
486.427	108.94
486.645	115.94
486.863	100.94
487.081	99.94
487.299	105.94
487.517	106.94
487.735	101.94
487.953	102.94
488.171	88.94
488.389	102.94
488.607	95.94
488.825	89.94
489.043	79.94
489.261	95.94
489.479	88.94
489.696	92.94
489.914	96.94
490.132	89.94
490.35	88.94
490.568	92.94
490.786	76.94
491.003	82.94
491.221	89.94
491.439	88.94
491.657	92.94
491.874	99.94
492.092	79.94
492.31	91.94
492.527	81.94
492.745	85.94
492.963	77.94
493.18	86.94
493.398	92.94
493.615	97.94
493.833	85.94
494.05	87.94
494.268	92.94
494.485	82.94
494.703	87.94
494.92	94.94
495.138	90.94
495.355	91.94
495.573	82.94
495.79	84.94
496.008	92.94
496.225	92.94
496.442	100.94
496.66	81.94
496.877	92.94
497.094	101.94
497.312	93.94
497.529	96.94
497.746	84.94
497.963	87.94
498.181	94.94
498.398	93.94
498.615	102.94
498.832	103.94
499.049	96.94
499.267	100.94
499.484	100.94
499.701	87.94
499.918	92.94
500.135	79.94
500.352	78.94
500.569	80.94
500.786	94.94
501.003	99.94
501.22	94.94
501.437	83.94
501.654	97.94
501.871	99.94
502.088	86.94
502.305	90.94
502.522	80.94
502.739	94.94
502.956	90.94
503.172	91.94
503.389	108.94
503.606	100.94
503.823	85.94
504.04	86.94
504.256	82.94
504.473	88.94
504.69	94.94
504.907	94.94
505.123	99.94
505.34	84.94
505.557	101.94
505.773	86.94
505.99	90.94
506.207	100.94
506.423	93.94
506.64	103.94
506.856	84.94
507.073	106.94
507.289	88.94
507.506	94.94
507.722	101.94
507.939	103.94
508.155	102.94
508.372	93.94
508.588	94.94
508.805	97.94
509.021	96.94
509.238	99.94
509.454	92.94
509.67	93.94
509.887	117.94
510.103	128.94
510.319	221.94
510.536	767.94
510.752	2404.94
510.968	672.94
511.184	166.94
511.401	114.94
511.617	100.94
511.833	92.94
512.049	101.94
512.265	100.94
512.481	90.94
512.698	88.94
512.914	104.94
513.13	94.94
513.346	88.94
513.562	117.94
513.778	104.94
513.994	102.94
514.21	99.94
514.426	108.94
514.642	141.94
514.858	117.94
515.074	164.94
515.29	465.94
515.506	1452.94
515.721	513.94
515.937	148.94
