Data from Uncirc_1994_H10_HRD10591_00020.txt Node
Date: Wed Jan 03 11:39:24 EST 2024
User: Yrep
Spectrometer: HR+D1059
Trigger mode: 1
Integration Time (sec): 1.000000E-1
Scans to average: 1
Electric dark correction enabled: true
Nonlinearity correction enabled: false
Boxcar width: 0
XAxis mode: Wavelengths
Number of Pixels in Spectrum: 2048
>>>>>Begin Spectral Data<<<<<
223.165	-26.5
223.4	-26.5
223.635	-26.5
223.869	-26.5
224.104	-20.5
224.338	-3.5
224.573	-9.5
224.808	-3.5
225.042	-7.5
225.277	-10.5
225.511	-3.5
225.746	10.5
225.98	4.5
226.215	3.5
226.449	17.5
226.683	19.5
226.918	24.5
227.152	31.5
227.387	52.5
227.621	43.5
227.856	43.5
228.09	40.5
228.324	30.5
228.559	63.5
228.793	56.5
229.027	54.5
229.262	65.5
229.496	75.5
229.73	81.5
229.964	76.5
230.199	92.5
230.433	66.5
230.667	61.5
230.901	82.5
231.136	79.5
231.37	68.5
231.604	84.5
231.838	76.5
232.072	95.5
232.306	84.5
232.541	85.5
232.775	85.5
233.009	89.5
233.243	76.5
233.477	82.5
233.711	76.5
233.945	69.5
234.179	75.5
234.413	82.5
234.647	87.5
234.881	83.5
235.115	82.5
235.349	77.5
235.583	91.5
235.817	68.5
236.051	67.5
236.285	66.5
236.519	67.5
236.753	83.5
236.987	74.5
237.221	75.5
237.455	76.5
237.689	82.5
237.922	67.5
238.156	78.5
238.39	70.5
238.624	79.5
238.858	72.5
239.091	74.5
239.325	82.5
239.559	75.5
239.793	85.5
240.027	71.5
240.26	75.5
240.494	82.5
240.728	80.5
240.961	88.5
241.195	83.5
241.429	77.5
241.662	71.5
241.896	76.5
242.13	79.5
242.363	77.5
242.597	85.5
242.83	88.5
243.064	68.5
243.298	87.5
243.531	80.5
243.765	80.5
243.998	67.5
244.232	87.5
244.465	85.5
244.699	87.5
244.932	88.5
245.166	79.5
245.399	82.5
245.633	78.5
245.866	68.5
246.099	83.5
246.333	79.5
246.566	74.5
246.8	74.5
247.033	64.5
247.266	83.5
247.5	87.5
247.733	73.5
247.966	81.5
248.2	72.5
248.433	75.5
248.666	80.5
248.899	72.5
249.133	73.5
249.366	95.5
249.599	95.5
249.832	78.5
250.066	91.5
250.299	79.5
250.532	79.5
250.765	76.5
250.998	82.5
251.231	73.5
251.465	86.5
251.698	76.5
251.931	79.5
252.164	73.5
252.397	76.5
252.63	72.5
252.863	80.5
253.096	81.5
253.329	87.5
253.562	82.5
253.795	82.5
254.028	88.5
254.261	71.5
254.494	81.5
254.727	65.5
254.96	87.5
255.193	76.5
255.426	72.5
255.659	100.5
255.892	81.5
256.124	81.5
256.357	82.5
256.59	75.5
256.823	79.5
257.056	89.5
257.289	92.5
257.521	87.5
257.754	75.5
257.987	77.5
258.22	80.5
258.452	86.5
258.685	78.5
258.918	88.5
259.151	89.5
259.383	85.5
259.616	75.5
259.849	79.5
260.081	69.5
260.314	78.5
260.547	68.5
260.779	87.5
261.012	93.5
261.244	95.5
261.477	98.5
261.71	90.5
261.942	97.5
262.175	103.5
262.407	75.5
262.64	77.5
262.872	75.5
263.105	81.5
263.337	92.5
263.57	83.5
263.802	91.5
264.035	83.5
264.267	81.5
264.499	77.5
264.732	93.5
264.964	95.5
265.197	86.5
265.429	89.5
265.661	91.5
265.894	82.5
266.126	90.5
266.358	88.5
266.591	79.5
266.823	69.5
267.055	73.5
267.287	82.5
267.52	63.5
267.752	85.5
267.984	80.5
268.216	81.5
268.448	84.5
268.681	86.5
268.913	78.5
269.145	80.5
269.377	74.5
269.609	73.5
269.841	97.5
270.073	95.5
270.306	90.5
270.538	86.5
270.77	91.5
271.002	75.5
271.234	83.5
271.466	90.5
271.698	82.5
271.93	93.5
272.162	101.5
272.394	80.5
272.626	83.5
272.858	89.5
273.09	84.5
273.322	81.5
273.553	83.5
273.785	81.5
274.017	93.5
274.249	90.5
274.481	84.5
274.713	86.5
274.945	90.5
275.176	68.5
275.408	77.5
275.64	101.5
275.872	85.5
276.104	72.5
276.335	89.5
276.567	106.5
276.799	100.5
277.031	94.5
277.262	92.5
277.494	91.5
277.726	81.5
277.957	99.5
278.189	71.5
278.421	93.5
278.652	84.5
278.884	87.5
279.115	100.5
279.347	92.5
279.579	92.5
279.81	98.5
280.042	77.5
280.273	73.5
280.505	92.5
280.736	88.5
280.968	101.5
281.199	87.5
281.431	75.5
281.662	86.5
281.894	91.5
282.125	102.5
282.356	115.5
282.588	112.5
282.819	101.5
283.051	89.5
283.282	87.5
283.513	83.5
283.745	83.5
283.976	77.5
284.207	98.5
284.439	82.5
284.67	91.5
284.901	83.5
285.132	93.5
285.364	76.5
285.595	88.5
285.826	92.5
286.057	83.5
286.288	89.5
286.52	89.5
286.751	78.5
286.982	101.5
287.213	80.5
287.444	97.5
287.675	92.5
287.906	92.5
288.138	95.5
288.369	89.5
288.6	96.5
288.831	88.5
289.062	84.5
289.293	81.5
289.524	88.5
289.755	95.5
289.986	81.5
290.217	92.5
290.448	89.5
290.679	82.5
290.91	91.5
291.141	82.5
291.371	96.5
291.602	81.5
291.833	85.5
292.064	77.5
292.295	91.5
292.526	89.5
292.757	90.5
292.987	96.5
293.218	95.5
293.449	92.5
293.68	71.5
293.91	89.5
294.141	82.5
294.372	92.5
294.603	78.5
294.833	86.5
295.064	92.5
295.295	91.5
295.525	92.5
295.756	111.5
295.987	126.5
296.217	123.5
296.448	111.5
296.679	106.5
296.909	90.5
297.14	87.5
297.37	83.5
297.601	92.5
297.831	91.5
298.062	88.5
298.292	73.5
298.523	78.5
298.753	91.5
298.984	91.5
299.214	93.5
299.445	88.5
299.675	82.5
299.905	80.5
300.136	100.5
300.366	97.5
300.597	101.5
300.827	94.5
301.057	93.5
301.288	94.5
301.518	88.5
301.748	85.5
301.979	100.5
302.209	90.5
302.439	92.5
302.669	95.5
302.9	88.5
303.13	83.5
303.36	86.5
303.59	105.5
303.82	89.5
304.051	82.5
304.281	95.5
304.511	88.5
304.741	93.5
304.971	83.5
305.201	83.5
305.431	92.5
305.661	83.5
305.891	76.5
306.121	94.5
306.352	104.5
306.582	98.5
306.812	78.5
307.042	68.5
307.272	83.5
307.502	84.5
307.731	92.5
307.961	95.5
308.191	81.5
308.421	88.5
308.651	93.5
308.881	96.5
309.111	84.5
309.341	89.5
309.571	100.5
309.8	101.5
310.03	104.5
310.26	87.5
310.49	107.5
310.72	93.5
310.949	102.5
311.179	92.5
311.409	93.5
311.639	91.5
311.868	101.5
312.098	94.5
312.328	90.5
312.557	89.5
312.787	101.5
313.017	84.5
313.246	104.5
313.476	101.5
313.706	81.5
313.935	103.5
314.165	102.5
314.394	88.5
314.624	111.5
314.853	91.5
315.083	89.5
315.312	89.5
315.542	96.5
315.771	87.5
316.001	82.5
316.23	83.5
316.46	89.5
316.689	93.5
316.919	100.5
317.148	101.5
317.377	105.5
317.607	90.5
317.836	92.5
318.065	94.5
318.295	98.5
318.524	99.5
318.753	80.5
318.983	89.5
319.212	88.5
319.441	104.5
319.67	96.5
319.9	101.5
320.129	118.5
320.358	111.5
320.587	114.5
320.816	101.5
321.046	106.5
321.275	97.5
321.504	91.5
321.733	86.5
321.962	100.5
322.191	105.5
322.42	92.5
322.649	104.5
322.878	97.5
323.108	104.5
323.337	115.5
323.566	115.5
323.795	152.5
324.024	187.5
324.253	332.5
324.482	695.5
324.71	1393.5
324.939	1867.5
325.168	682.5
325.397	205.5
325.626	137.5
325.855	117.5
326.084	119.5
326.313	122.5
326.542	132.5
326.77	225.5
326.999	398.5
327.228	809.5
327.457	1445.5
327.686	1151.5
327.914	316.5
328.143	181.5
328.372	115.5
328.6	139.5
328.829	120.5
329.058	126.5
329.287	109.5
329.515	109.5
329.744	99.5
329.972	96.5
330.201	95.5
330.43	104.5
330.658	107.5
330.887	124.5
331.115	99.5
331.344	108.5
331.572	99.5
331.801	113.5
332.03	104.5
332.258	97.5
332.486	100.5
332.715	96.5
332.943	95.5
333.172	97.5
333.4	80.5
333.629	99.5
333.857	95.5
334.085	119.5
334.314	95.5
334.542	95.5
334.771	89.5
334.999	98.5
335.227	86.5
335.455	99.5
335.684	101.5
335.912	94.5
336.14	96.5
336.369	90.5
336.597	96.5
336.825	100.5
337.053	88.5
337.281	99.5
337.51	91.5
337.738	105.5
337.966	97.5
338.194	94.5
338.422	92.5
338.65	100.5
338.878	100.5
339.106	84.5
339.334	78.5
339.562	87.5
339.79	90.5
340.018	89.5
340.246	92.5
340.474	81.5
340.702	91.5
340.93	85.5
341.158	86.5
341.386	81.5
341.614	93.5
341.842	98.5
342.07	100.5
342.298	95.5
342.526	93.5
342.754	88.5
342.981	108.5
343.209	95.5
343.437	101.5
343.665	85.5
343.893	86.5
344.12	96.5
344.348	75.5
344.576	90.5
344.804	100.5
345.031	90.5
345.259	88.5
345.487	102.5
345.714	81.5
345.942	96.5
346.17	97.5
346.397	106.5
346.625	95.5
346.853	98.5
347.08	74.5
347.308	67.5
347.535	87.5
347.763	85.5
347.99	91.5
348.218	105.5
348.445	93.5
348.673	92.5
348.9	100.5
349.128	90.5
349.355	90.5
349.583	105.5
349.81	85.5
350.037	83.5
350.265	85.5
350.492	93.5
350.72	93.5
350.947	101.5
351.174	97.5
351.402	94.5
351.629	90.5
351.856	97.5
352.083	99.5
352.311	99.5
352.538	108.5
352.765	107.5
352.992	96.5
353.22	109.5
353.447	95.5
353.674	100.5
353.901	96.5
354.128	97.5
354.355	103.5
354.583	117.5
354.81	90.5
355.037	94.5
355.264	95.5
355.491	92.5
355.718	78.5
355.945	93.5
356.172	93.5
356.399	90.5
356.626	96.5
356.853	80.5
357.08	80.5
357.307	96.5
357.534	103.5
357.761	95.5
357.988	97.5
358.215	100.5
358.441	83.5
358.668	99.5
358.895	78.5
359.122	80.5
359.349	81.5
359.576	91.5
359.802	89.5
360.029	107.5
360.256	112.5
360.483	96.5
360.709	93.5
360.936	94.5
361.163	88.5
361.39	95.5
361.616	97.5
361.843	100.5
362.07	81.5
362.296	83.5
362.523	85.5
362.749	94.5
362.976	99.5
363.203	104.5
363.429	86.5
363.656	84.5
363.882	87.5
364.109	78.5
364.335	100.5
364.562	94.5
364.788	82.5
365.015	93.5
365.241	83.5
365.468	101.5
365.694	81.5
365.92	93.5
366.147	100.5
366.373	84.5
366.599	99.5
366.826	93.5
367.052	89.5
367.278	101.5
367.505	84.5
367.731	88.5
367.957	77.5
368.184	79.5
368.41	92.5
368.636	110.5
368.862	109.5
369.089	108.5
369.315	91.5
369.541	76.5
369.767	88.5
369.993	96.5
370.219	93.5
370.445	91.5
370.672	96.5
370.898	91.5
371.124	80.5
371.35	99.5
371.576	99.5
371.802	85.5
372.028	63.5
372.254	87.5
372.48	97.5
372.706	95.5
372.932	76.5
373.158	91.5
373.384	94.5
373.61	98.5
373.835	96.5
374.061	98.5
374.287	86.5
374.513	91.5
374.739	106.5
374.965	77.5
375.191	98.5
375.416	84.5
375.642	98.5
375.868	89.5
376.094	91.5
376.319	82.5
376.545	106.5
376.771	105.5
376.997	92.5
377.222	95.5
377.448	98.5
377.674	90.5
377.899	102.5
378.125	92.5
378.35	84.5
378.576	78.5
378.802	82.5
379.027	71.5
379.253	104.5
379.478	106.5
379.704	84.5
379.929	89.5
380.155	91.5
380.38	83.5
380.606	89.5
380.831	86.5
381.057	99.5
381.282	93.5
381.507	92.5
381.733	86.5
381.958	89.5
382.184	102.5
382.409	108.5
382.634	109.5
382.86	84.5
383.085	92.5
383.31	100.5
383.535	100.5
383.761	92.5
383.986	105.5
384.211	99.5
384.436	104.5
384.662	100.5
384.887	93.5
385.112	89.5
385.337	108.5
385.562	97.5
385.787	89.5
386.013	104.5
386.238	112.5
386.463	97.5
386.688	108.5
386.913	111.5
387.138	119.5
387.363	113.5
387.588	85.5
387.813	100.5
388.038	98.5
388.263	130.5
388.488	111.5
388.713	90.5
388.938	92.5
389.163	94.5
389.387	100.5
389.612	101.5
389.837	108.5
390.062	82.5
390.287	90.5
390.512	82.5
390.736	94.5
390.961	93.5
391.186	88.5
391.411	88.5
391.636	90.5
391.86	90.5
392.085	81.5
392.31	90.5
392.534	96.5
392.759	108.5
392.984	92.5
393.208	81.5
393.433	104.5
393.658	89.5
393.882	98.5
394.107	99.5
394.331	79.5
394.556	87.5
394.78	88.5
395.005	80.5
395.229	81.5
395.454	97.5
395.678	93.5
395.903	87.5
396.127	108.5
396.352	89.5
396.576	72.5
396.801	97.5
397.025	93.5
397.249	91.5
397.474	90.5
397.698	87.5
397.922	84.5
398.147	96.5
398.371	77.5
398.595	87.5
398.82	83.5
399.044	82.5
399.268	96.5
399.492	80.5
399.717	80.5
399.941	86.5
400.165	105.5
400.389	90.5
400.613	82.5
400.837	67.5
401.062	86.5
401.286	98.5
401.51	80.5
401.734	91.5
401.958	97.5
402.182	115.5
402.406	131.5
402.63	106.5
402.854	92.5
403.078	88.5
403.302	95.5
403.526	86.5
403.75	89.5
403.974	101.5
404.198	97.5
404.422	93.5
404.645	99.5
404.869	82.5
405.093	85.5
405.317	94.5
405.541	97.5
405.765	100.5
405.988	110.5
406.212	139.5
406.436	203.5
406.66	128.5
406.883	81.5
407.107	96.5
407.331	102.5
407.555	93.5
407.778	89.5
408.002	98.5
408.226	91.5
408.449	88.5
408.673	97.5
408.896	92.5
409.12	96.5
409.344	106.5
409.567	91.5
409.791	97.5
410.014	94.5
410.238	92.5
410.461	95.5
410.685	90.5
410.908	95.5
411.132	96.5
411.355	91.5
411.578	76.5
411.802	90.5
412.025	88.5
412.249	84.5
412.472	83.5
412.695	84.5
412.919	77.5
413.142	85.5
413.365	75.5
413.589	84.5
413.812	92.5
414.035	80.5
414.258	88.5
414.482	79.5
414.705	83.5
414.928	95.5
415.151	81.5
415.374	96.5
415.597	96.5
415.821	74.5
416.044	85.5
416.267	95.5
416.49	86.5
416.713	85.5
416.936	90.5
417.159	96.5
417.382	84.5
417.605	85.5
417.828	75.5
418.051	86.5
418.274	95.5
418.497	78.5
418.72	91.5
418.943	87.5
419.166	97.5
419.389	93.5
419.611	88.5
419.834	81.5
420.057	97.5
420.28	89.5
420.503	80.5
420.726	95.5
420.948	95.5
421.171	91.5
421.394	93.5
421.617	96.5
421.839	78.5
422.062	93.5
422.285	87.5
422.507	83.5
422.73	107.5
422.953	91.5
423.175	86.5
423.398	93.5
423.621	88.5
423.843	105.5
424.066	83.5
424.288	70.5
424.511	83.5
424.733	102.5
424.956	100.5
425.178	87.5
425.401	93.5
425.623	84.5
425.846	83.5
426.068	87.5
426.291	90.5
426.513	87.5
426.735	101.5
426.958	96.5
427.18	91.5
427.402	119.5
427.625	133.5
427.847	113.5
428.069	75.5
428.292	89.5
428.514	86.5
428.736	83.5
428.958	87.5
429.181	85.5
429.403	76.5
429.625	79.5
429.847	81.5
430.069	95.5
430.292	85.5
430.514	83.5
430.736	84.5
430.958	100.5
431.18	81.5
431.402	87.5
431.624	80.5
431.846	84.5
432.068	81.5
432.29	70.5
432.512	80.5
432.734	87.5
432.956	91.5
433.178	93.5
433.4	99.5
433.622	77.5
433.844	98.5
434.066	88.5
434.287	100.5
434.509	83.5
434.731	84.5
434.953	96.5
435.175	78.5
435.397	75.5
435.618	88.5
435.84	96.5
436.062	112.5
436.284	88.5
436.505	96.5
436.727	109.5
436.949	111.5
437.17	100.5
437.392	71.5
437.614	82.5
437.835	100.5
438.057	113.5
438.278	107.5
438.5	97.5
438.721	114.5
438.943	93.5
439.165	86.5
439.386	98.5
439.608	84.5
439.829	92.5
440.05	110.5
440.272	117.5
440.493	117.5
440.715	94.5
440.936	79.5
441.158	87.5
441.379	91.5
441.6	72.5
441.822	91.5
442.043	83.5
442.264	100.5
442.486	99.5
442.707	100.5
442.928	109.5
443.149	114.5
443.371	124.5
443.592	100.5
443.813	111.5
444.034	115.5
444.255	95.5
444.476	77.5
444.698	100.5
444.919	79.5
445.14	125.5
445.361	119.5
445.582	107.5
445.803	132.5
446.024	113.5
446.245	123.5
446.466	98.5
446.687	89.5
446.908	92.5
447.129	93.5
447.35	99.5
447.571	86.5
447.792	85.5
448.013	102.5
448.234	110.5
448.455	92.5
448.675	106.5
448.896	122.5
449.117	88.5
449.338	112.5
449.559	107.5
449.779	113.5
450	105.5
450.221	88.5
450.442	95.5
450.662	87.5
450.883	95.5
451.104	96.5
451.324	83.5
451.545	89.5
451.766	70.5
451.986	73.5
452.207	90.5
452.428	91.5
452.648	88.5
452.869	94.5
453.089	99.5
453.31	108.5
453.53	84.5
453.751	89.5
453.971	90.5
454.192	91.5
454.412	78.5
454.633	86.5
454.853	82.5
455.073	79.5
455.294	84.5
455.514	94.5
455.734	91.5
455.955	67.5
456.175	86.5
456.395	84.5
456.616	72.5
456.836	83.5
457.056	77.5
457.276	80.5
457.497	76.5
457.717	81.5
457.937	81.5
458.157	72.5
458.377	87.5
458.598	88.5
458.818	116.5
459.038	123.5
459.258	115.5
459.478	84.5
459.698	90.5
459.918	83.5
460.138	87.5
460.358	69.5
460.578	97.5
460.798	93.5
461.018	83.5
461.238	91.5
461.458	76.5
461.678	91.5
461.898	87.5
462.118	95.5
462.338	83.5
462.558	79.5
462.777	81.5
462.997	81.5
463.217	75.5
463.437	76.5
463.657	86.5
463.876	82.5
464.096	90.5
464.316	100.5
464.536	98.5
464.755	84.5
464.975	97.5
465.195	128.5
465.414	156.5
465.634	85.5
465.854	86.5
466.073	92.5
466.293	84.5
466.512	85.5
466.732	77.5
466.951	88.5
467.171	89.5
467.391	91.5
467.61	96.5
467.829	93.5
468.049	100.5
468.268	83.5
468.488	89.5
468.707	81.5
468.927	77.5
469.146	82.5
469.365	91.5
469.585	100.5
469.804	101.5
470.023	97.5
470.243	81.5
470.462	89.5
470.681	110.5
470.901	85.5
471.12	83.5
471.339	94.5
471.558	86.5
471.777	88.5
471.997	88.5
472.216	98.5
472.435	87.5
472.654	87.5
472.873	92.5
473.092	81.5
473.311	91.5
473.53	85.5
473.749	92.5
473.968	101.5
474.187	92.5
474.406	89.5
474.625	88.5
474.844	83.5
475.063	92.5
475.282	90.5
475.501	100.5
475.72	88.5
475.939	83.5
476.158	93.5
476.377	75.5
476.596	66.5
476.814	94.5
477.033	91.5
477.252	94.5
477.471	88.5
477.69	83.5
477.908	73.5
478.127	83.5
478.346	79.5
478.564	96.5
478.783	95.5
479.002	97.5
479.22	91.5
479.439	93.5
479.658	111.5
479.876	105.5
480.095	93.5
480.313	97.5
480.532	82.5
480.751	70.5
480.969	100.5
481.188	101.5
481.406	97.5
481.624	83.5
481.843	96.5
482.061	86.5
482.28	57.5
482.498	75.5
482.717	92.5
482.935	87.5
483.153	64.5
483.372	92.5
483.59	92.5
483.808	84.5
484.027	90.5
484.245	93.5
484.463	91.5
484.681	89.5
484.9	82.5
485.118	85.5
485.336	112.5
485.554	109.5
485.772	94.5
485.99	94.5
486.209	95.5
486.427	99.5
486.645	100.5
486.863	106.5
487.081	102.5
487.299	91.5
487.517	98.5
487.735	87.5
487.953	98.5
488.171	105.5
488.389	96.5
488.607	98.5
488.825	99.5
489.043	73.5
489.261	91.5
489.479	96.5
489.696	77.5
489.914	92.5
490.132	91.5
490.35	87.5
490.568	80.5
490.786	87.5
491.003	91.5
491.221	91.5
491.439	91.5
491.657	96.5
491.874	86.5
492.092	104.5
492.31	78.5
492.527	80.5
492.745	104.5
492.963	92.5
493.18	90.5
493.398	91.5
493.615	90.5
493.833	95.5
494.05	91.5
494.268	96.5
494.485	83.5
494.703	90.5
494.92	79.5
495.138	68.5
495.355	76.5
495.573	89.5
495.79	84.5
496.008	93.5
496.225	94.5
496.442	77.5
496.66	87.5
496.877	102.5
497.094	100.5
497.312	92.5
497.529	84.5
497.746	90.5
497.963	92.5
498.181	96.5
498.398	92.5
498.615	99.5
498.832	95.5
499.049	88.5
499.267	80.5
499.484	89.5
499.701	91.5
499.918	101.5
500.135	84.5
500.352	99.5
500.569	94.5
500.786	86.5
501.003	93.5
501.22	91.5
501.437	76.5
501.654	94.5
501.871	92.5
502.088	92.5
502.305	91.5
502.522	99.5
502.739	94.5
502.956	69.5
503.172	104.5
503.389	95.5
503.606	91.5
503.823	95.5
504.04	89.5
504.256	87.5
504.473	89.5
504.69	97.5
504.907	92.5
505.123	107.5
505.34	87.5
505.557	93.5
505.773	96.5
505.99	92.5
506.207	83.5
506.423	85.5
506.64	90.5
506.856	76.5
507.073	89.5
507.289	93.5
507.506	83.5
507.722	105.5
507.939	95.5
508.155	93.5
508.372	99.5
508.588	99.5
508.805	92.5
509.021	84.5
509.238	100.5
509.454	90.5
509.67	102.5
509.887	107.5
510.103	125.5
510.319	183.5
510.536	619.5
510.752	1865.5
510.968	514.5
511.184	128.5
511.401	117.5
511.617	102.5
511.833	93.5
512.049	85.5
512.265	88.5
512.481	99.5
512.698	82.5
512.914	99.5
513.13	73.5
513.346	89.5
513.562	98.5
513.778	102.5
513.994	88.5
514.21	103.5
514.426	113.5
514.642	122.5
514.858	107.5
515.074	152.5
515.29	362.5
515.506	1121.5
515.721	420.5
515.937	136.5
516.153	102.5
516.369	86.5
516.585	79.5
516.801	91.5
517.016	95.5
517.232	82.5
517.448	92.5
517.664	105.5
517.879	101.5
518.095	92.5
518.311	96.5
518.527	97.5
518.742	77.5
518.958	88.5
519.173	94.5
519.389	90.5
519.605	110.5
519.82	83.5
520.036	89.5
520.251	112.5
520.467	122.5
520.682	106.5
520.898	107.5
521.113	108.5
521.329	137.5
521.544	179.5
521.76	455.5
521.975	1852.5
522.19	1113.5
522.406	245.5
522.621	120.5
522.836	101.5
523.052	92.5
523.267	88.5
523.482	82.5
523.698	112.5
523.913	123.5
524.128	91.5
524.343	94.5
524.559	87.5
524.774	84.5
524.989	115.5
525.204	100.5
525.419	97.5
525.634	83.5
525.849	75.5
526.064	96.5
526.28	103.5
526.495	91.5
526.71	94.5
526.925	89.5
527.14	67.5
527.355	89.5
527.57	92.5
527.785	86.5
527.999	95.5
528.214	95.5
528.429	90.5
528.644	93.5
528.859	95.5
529.074	89.5
529.289	125.5
529.503	170.5
529.718	113.5
529.933	87.5
530.148	91.5
530.363	90.5
530.577	90.5
530.792	93.5
531.007	75.5
531.221	90.5
531.436	80.5
531.651	82.5
531.865	89.5
532.08	79.5
532.295	79.5
532.509	91.5
532.724	97.5
532.938	82.5
533.153	92.5
533.367	83.5
533.582	93.5
533.796	94.5
534.011	96.5
534.225	91.5
534.44	94.5
534.654	91.5
534.868	92.5
535.083	104.5
535.297	97.5
535.511	99.5
535.726	106.5
535.94	97.5
536.154	96.5
