Data from Uncirc_1994_H10_HRD10591_00071.txt Node
Date: Wed Jan 03 11:39:35 EST 2024
User: Yrep
Spectrometer: HR+D1059
Trigger mode: 1
Integration Time (sec): 1.000000E-1
Scans to average: 1
Electric dark correction enabled: true
Nonlinearity correction enabled: false
Boxcar width: 0
XAxis mode: Wavelengths
Number of Pixels in Spectrum: 2048
>>>>>Begin Spectral Data<<<<<
223.165	-16.81
223.4	-16.81
223.635	-16.81
223.869	-12.81
224.104	-25.81
224.338	-8.81
224.573	-10.81
224.808	-27.81
225.042	-5.81
225.277	-13.81
225.511	-1.81
225.746	21.19
225.98	4.19
226.215	-0.81
226.449	22.19
226.683	33.19
226.918	21.19
227.152	23.19
227.387	29.19
227.621	35.19
227.856	42.19
228.09	36.19
228.324	47.19
228.559	38.19
228.793	60.19
229.027	49.19
229.262	61.19
229.496	64.19
229.73	73.19
229.964	80.19
230.199	77.19
230.433	76.19
230.667	78.19
230.901	85.19
231.136	76.19
231.37	73.19
231.604	82.19
231.838	78.19
232.072	81.19
232.306	85.19
232.541	76.19
232.775	83.19
233.009	88.19
233.243	61.19
233.477	63.19
233.711	98.19
233.945	76.19
234.179	81.19
234.413	87.19
234.647	83.19
234.881	78.19
235.115	77.19
235.349	68.19
235.583	88.19
235.817	80.19
236.051	72.19
236.285	66.19
236.519	60.19
236.753	91.19
236.987	77.19
237.221	69.19
237.455	73.19
237.689	61.19
237.922	60.19
238.156	80.19
238.39	80.19
238.624	70.19
238.858	89.19
239.091	76.19
239.325	76.19
239.559	71.19
239.793	76.19
240.027	74.19
240.26	75.19
240.494	84.19
240.728	78.19
240.961	73.19
241.195	78.19
241.429	87.19
241.662	80.19
241.896	72.19
242.13	75.19
242.363	73.19
242.597	70.19
242.83	88.19
243.064	75.19
243.298	74.19
243.531	72.19
243.765	75.19
243.998	84.19
244.232	80.19
244.465	78.19
244.699	82.19
244.932	61.19
245.166	71.19
245.399	86.19
245.633	78.19
245.866	84.19
246.099	79.19
246.333	77.19
246.566	80.19
246.8	57.19
247.033	83.19
247.266	78.19
247.5	72.19
247.733	73.19
247.966	66.19
248.2	65.19
248.433	84.19
248.666	72.19
248.899	83.19
249.133	79.19
249.366	86.19
249.599	84.19
249.832	82.19
250.066	76.19
250.299	68.19
250.532	68.19
250.765	85.19
250.998	89.19
251.231	69.19
251.465	79.19
251.698	87.19
251.931	68.19
252.164	72.19
252.397	72.19
252.63	83.19
252.863	76.19
253.096	76.19
253.329	95.19
253.562	85.19
253.795	88.19
254.028	89.19
254.261	81.19
254.494	72.19
254.727	75.19
254.96	89.19
255.193	62.19
255.426	69.19
255.659	66.19
255.892	89.19
256.124	76.19
256.357	78.19
256.59	74.19
256.823	79.19
257.056	79.19
257.289	73.19
257.521	78.19
257.754	86.19
257.987	87.19
258.22	81.19
258.452	72.19
258.685	75.19
258.918	74.19
259.151	79.19
259.383	81.19
259.616	80.19
259.849	73.19
260.081	81.19
260.314	84.19
260.547	74.19
260.779	76.19
261.012	76.19
261.244	87.19
261.477	75.19
261.71	83.19
261.942	97.19
262.175	92.19
262.407	79.19
262.64	70.19
262.872	77.19
263.105	88.19
263.337	92.19
263.57	80.19
263.802	89.19
264.035	81.19
264.267	79.19
264.499	78.19
264.732	74.19
264.964	80.19
265.197	72.19
265.429	81.19
265.661	81.19
265.894	78.19
266.126	90.19
266.358	82.19
266.591	89.19
266.823	80.19
267.055	78.19
267.287	74.19
267.52	80.19
267.752	71.19
267.984	89.19
268.216	86.19
268.448	80.19
268.681	73.19
268.913	67.19
269.145	77.19
269.377	71.19
269.609	77.19
269.841	86.19
270.073	80.19
270.306	87.19
270.538	76.19
270.77	83.19
271.002	90.19
271.234	78.19
271.466	85.19
271.698	76.19
271.93	89.19
272.162	78.19
272.394	81.19
272.626	81.19
272.858	79.19
273.09	76.19
273.322	98.19
273.553	84.19
273.785	73.19
274.017	87.19
274.249	85.19
274.481	71.19
274.713	61.19
274.945	71.19
275.176	80.19
275.408	77.19
275.64	70.19
275.872	78.19
276.104	91.19
276.335	101.19
276.567	87.19
276.799	104.19
277.031	90.19
277.262	90.19
277.494	90.19
277.726	86.19
277.957	79.19
278.189	81.19
278.421	87.19
278.652	84.19
278.884	74.19
279.115	90.19
279.347	89.19
279.579	79.19
279.81	80.19
280.042	85.19
280.273	85.19
280.505	109.19
280.736	96.19
280.968	76.19
281.199	96.19
281.431	87.19
281.662	74.19
281.894	80.19
282.125	96.19
282.356	108.19
282.588	133.19
282.819	111.19
283.051	76.19
283.282	92.19
283.513	87.19
283.745	79.19
283.976	79.19
284.207	81.19
284.439	75.19
284.67	88.19
284.901	79.19
285.132	71.19
285.364	95.19
285.595	88.19
285.826	85.19
286.057	98.19
286.288	101.19
286.52	87.19
286.751	88.19
286.982	85.19
287.213	88.19
287.444	85.19
287.675	85.19
287.906	102.19
288.138	102.19
288.369	93.19
288.6	85.19
288.831	83.19
289.062	88.19
289.293	79.19
289.524	81.19
289.755	76.19
289.986	85.19
290.217	72.19
290.448	78.19
290.679	88.19
290.91	81.19
291.141	77.19
291.371	92.19
291.602	74.19
291.833	83.19
292.064	81.19
292.295	95.19
292.526	101.19
292.757	81.19
292.987	80.19
293.218	84.19
293.449	97.19
293.68	85.19
293.91	80.19
294.141	96.19
294.372	82.19
294.603	86.19
294.833	83.19
295.064	82.19
295.295	105.19
295.525	98.19
295.756	88.19
295.987	113.19
296.217	124.19
296.448	105.19
296.679	70.19
296.909	93.19
297.14	70.19
297.37	76.19
297.601	88.19
297.831	100.19
298.062	80.19
298.292	87.19
298.523	77.19
298.753	84.19
298.984	82.19
299.214	91.19
299.445	80.19
299.675	98.19
299.905	98.19
300.136	92.19
300.366	89.19
300.597	89.19
300.827	101.19
301.057	104.19
301.288	88.19
301.518	81.19
301.748	72.19
301.979	93.19
302.209	79.19
302.439	85.19
302.669	94.19
302.9	84.19
303.13	82.19
303.36	93.19
303.59	96.19
303.82	116.19
304.051	92.19
304.281	91.19
304.511	94.19
304.741	89.19
304.971	94.19
305.201	82.19
305.431	93.19
305.661	86.19
305.891	77.19
306.121	89.19
306.352	105.19
306.582	105.19
306.812	81.19
307.042	75.19
307.272	95.19
307.502	88.19
307.731	81.19
307.961	91.19
308.191	96.19
308.421	86.19
308.651	82.19
308.881	73.19
309.111	93.19
309.341	95.19
309.571	95.19
309.8	103.19
310.03	97.19
310.26	95.19
310.49	86.19
310.72	88.19
310.949	98.19
311.179	84.19
311.409	108.19
311.639	89.19
311.868	87.19
312.098	84.19
312.328	107.19
312.557	98.19
312.787	95.19
313.017	91.19
313.246	102.19
313.476	90.19
313.706	94.19
313.935	93.19
314.165	92.19
314.394	107.19
314.624	96.19
314.853	101.19
315.083	78.19
315.312	80.19
315.542	87.19
315.771	88.19
316.001	83.19
316.23	88.19
316.46	97.19
316.689	94.19
316.919	89.19
317.148	86.19
317.377	88.19
317.607	86.19
317.836	90.19
318.065	91.19
318.295	86.19
318.524	90.19
318.753	93.19
318.983	92.19
319.212	95.19
319.441	89.19
319.67	83.19
319.9	87.19
320.129	87.19
320.358	88.19
320.587	101.19
320.816	104.19
321.046	94.19
321.275	96.19
321.504	102.19
321.733	93.19
321.962	89.19
322.191	98.19
322.42	95.19
322.649	98.19
322.878	110.19
323.108	115.19
323.337	102.19
323.566	121.19
323.795	139.19
324.024	187.19
324.253	345.19
324.482	748.19
324.71	1510.19
324.939	1964.19
325.168	719.19
325.397	226.19
325.626	134.19
325.855	113.19
326.084	110.19
326.313	115.19
326.542	136.19
326.77	206.19
326.999	436.19
327.228	863.19
327.457	1512.19
327.686	1205.19
327.914	333.19
328.143	169.19
328.372	132.19
328.6	119.19
328.829	110.19
329.058	117.19
329.287	122.19
329.515	101.19
329.744	104.19
329.972	84.19
330.201	101.19
330.43	114.19
330.658	122.19
330.887	127.19
331.115	110.19
331.344	77.19
331.572	92.19
331.801	108.19
332.03	94.19
332.258	83.19
332.486	93.19
332.715	79.19
332.943	98.19
333.172	99.19
333.4	90.19
333.629	94.19
333.857	110.19
334.085	89.19
334.314	83.19
334.542	96.19
334.771	97.19
334.999	104.19
335.227	85.19
335.455	82.19
335.684	85.19
335.912	95.19
336.14	94.19
336.369	94.19
336.597	90.19
336.825	103.19
337.053	86.19
337.281	80.19
337.51	85.19
337.738	78.19
337.966	108.19
338.194	94.19
338.422	90.19
338.65	89.19
338.878	87.19
339.106	71.19
339.334	90.19
339.562	79.19
339.79	74.19
340.018	96.19
340.246	105.19
340.474	75.19
340.702	92.19
340.93	71.19
341.158	83.19
341.386	109.19
341.614	102.19
341.842	84.19
342.07	81.19
342.298	92.19
342.526	85.19
342.754	89.19
342.981	88.19
343.209	76.19
343.437	91.19
343.665	92.19
343.893	94.19
344.12	96.19
344.348	83.19
344.576	89.19
344.804	80.19
345.031	98.19
345.259	107.19
345.487	97.19
345.714	88.19
345.942	93.19
346.17	91.19
346.397	78.19
346.625	90.19
346.853	104.19
347.08	90.19
347.308	80.19
347.535	100.19
347.763	84.19
347.99	95.19
348.218	98.19
348.445	86.19
348.673	94.19
348.9	94.19
349.128	103.19
349.355	90.19
349.583	86.19
349.81	99.19
350.037	74.19
350.265	92.19
350.492	98.19
350.72	100.19
350.947	100.19
351.174	96.19
351.402	104.19
351.629	93.19
351.856	93.19
352.083	103.19
352.311	94.19
352.538	107.19
352.765	112.19
352.992	100.19
353.22	108.19
353.447	99.19
353.674	93.19
353.901	94.19
354.128	92.19
354.355	93.19
354.583	103.19
354.81	98.19
355.037	102.19
355.264	91.19
355.491	91.19
355.718	88.19
355.945	81.19
356.172	97.19
356.399	92.19
356.626	103.19
356.853	93.19
357.08	84.19
357.307	90.19
357.534	79.19
357.761	92.19
357.988	97.19
358.215	92.19
358.441	85.19
358.668	82.19
358.895	84.19
359.122	83.19
359.349	96.19
359.576	85.19
359.802	93.19
360.029	100.19
360.256	104.19
360.483	89.19
360.709	93.19
360.936	89.19
361.163	92.19
361.39	96.19
361.616	93.19
361.843	102.19
362.07	75.19
362.296	93.19
362.523	93.19
362.749	78.19
362.976	94.19
363.203	87.19
363.429	85.19
363.656	89.19
363.882	65.19
364.109	88.19
364.335	90.19
364.562	89.19
364.788	81.19
365.015	84.19
365.241	80.19
365.468	89.19
365.694	104.19
365.92	93.19
366.147	103.19
366.373	90.19
366.599	96.19
366.826	75.19
367.052	69.19
367.278	76.19
367.505	75.19
367.731	76.19
367.957	84.19
368.184	87.19
368.41	100.19
368.636	115.19
368.862	119.19
369.089	110.19
369.315	85.19
369.541	92.19
369.767	99.19
369.993	84.19
370.219	76.19
370.445	82.19
370.672	87.19
370.898	81.19
371.124	70.19
371.35	86.19
371.576	92.19
371.802	92.19
372.028	82.19
372.254	76.19
372.48	86.19
372.706	75.19
372.932	86.19
373.158	91.19
373.384	92.19
373.61	72.19
373.835	88.19
374.061	84.19
374.287	79.19
374.513	91.19
374.739	87.19
374.965	81.19
375.191	87.19
375.416	83.19
375.642	92.19
375.868	84.19
376.094	94.19
376.319	83.19
376.545	76.19
376.771	91.19
376.997	87.19
377.222	76.19
377.448	88.19
377.674	88.19
377.899	91.19
378.125	93.19
378.35	84.19
378.576	94.19
378.802	82.19
379.027	90.19
379.253	89.19
379.478	95.19
379.704	89.19
379.929	83.19
380.155	96.19
380.38	96.19
380.606	96.19
380.831	88.19
381.057	86.19
381.282	94.19
381.507	102.19
381.733	81.19
381.958	88.19
382.184	102.19
382.409	101.19
382.634	115.19
382.86	85.19
383.085	82.19
383.31	89.19
383.535	101.19
383.761	109.19
383.986	110.19
384.211	100.19
384.436	89.19
384.662	90.19
384.887	103.19
385.112	86.19
385.337	98.19
385.562	100.19
385.787	98.19
386.013	103.19
386.238	106.19
386.463	103.19
386.688	103.19
386.913	95.19
387.138	92.19
387.363	94.19
387.588	88.19
387.813	110.19
388.038	91.19
388.263	103.19
388.488	105.19
388.713	95.19
388.938	82.19
389.163	98.19
389.387	80.19
389.612	87.19
389.837	92.19
390.062	104.19
390.287	85.19
390.512	80.19
390.736	80.19
390.961	96.19
391.186	95.19
391.411	74.19
391.636	90.19
391.86	81.19
392.085	66.19
392.31	93.19
392.534	78.19
392.759	60.19
392.984	83.19
393.208	86.19
393.433	83.19
393.658	93.19
393.882	74.19
394.107	87.19
394.331	78.19
394.556	93.19
394.78	80.19
395.005	98.19
395.229	71.19
395.454	89.19
395.678	72.19
395.903	77.19
396.127	82.19
396.352	72.19
396.576	85.19
396.801	86.19
397.025	75.19
397.249	80.19
397.474	80.19
397.698	87.19
397.922	84.19
398.147	77.19
398.371	76.19
398.595	85.19
398.82	70.19
399.044	74.19
399.268	79.19
399.492	82.19
399.717	99.19
399.941	88.19
400.165	101.19
400.389	92.19
400.613	84.19
400.837	74.19
401.062	91.19
401.286	75.19
401.51	83.19
401.734	74.19
401.958	98.19
402.182	109.19
402.406	124.19
402.63	107.19
402.854	80.19
403.078	87.19
403.302	102.19
403.526	90.19
403.75	85.19
403.974	89.19
404.198	86.19
404.422	85.19
404.645	77.19
404.869	84.19
405.093	95.19
405.317	80.19
405.541	93.19
405.765	85.19
405.988	114.19
406.212	160.19
406.436	191.19
406.66	129.19
406.883	91.19
407.107	84.19
407.331	90.19
407.555	95.19
407.778	95.19
408.002	93.19
408.226	99.19
408.449	88.19
408.673	86.19
408.896	102.19
409.12	109.19
409.344	87.19
409.567	92.19
409.791	83.19
410.014	90.19
410.238	90.19
410.461	93.19
410.685	86.19
410.908	105.19
411.132	106.19
411.355	93.19
411.578	81.19
411.802	88.19
412.025	79.19
412.249	88.19
412.472	81.19
412.695	82.19
412.919	76.19
413.142	83.19
413.365	75.19
413.589	77.19
413.812	93.19
414.035	103.19
414.258	80.19
414.482	86.19
414.705	78.19
414.928	73.19
415.151	68.19
415.374	99.19
415.597	72.19
415.821	73.19
416.044	80.19
416.267	93.19
416.49	73.19
416.713	91.19
416.936	94.19
417.159	77.19
417.382	84.19
417.605	77.19
417.828	88.19
418.051	86.19
418.274	80.19
418.497	88.19
418.72	87.19
418.943	77.19
419.166	74.19
419.389	93.19
419.611	94.19
419.834	77.19
420.057	89.19
420.28	78.19
420.503	76.19
420.726	72.19
420.948	84.19
421.171	97.19
421.394	65.19
421.617	99.19
421.839	76.19
422.062	85.19
422.285	84.19
422.507	94.19
422.73	92.19
422.953	90.19
423.175	78.19
423.398	92.19
423.621	87.19
423.843	85.19
424.066	64.19
424.288	89.19
424.511	80.19
424.733	93.19
424.956	92.19
425.178	93.19
425.401	94.19
425.623	101.19
425.846	88.19
426.068	93.19
426.291	92.19
426.513	67.19
426.735	97.19
426.958	87.19
427.18	97.19
427.402	119.19
427.625	138.19
427.847	100.19
428.069	97.19
428.292	87.19
428.514	83.19
428.736	91.19
428.958	92.19
429.181	96.19
429.403	81.19
429.625	80.19
429.847	80.19
430.069	89.19
430.292	78.19
430.514	86.19
430.736	85.19
430.958	86.19
431.18	85.19
431.402	93.19
431.624	85.19
431.846	77.19
432.068	85.19
432.29	80.19
432.512	85.19
432.734	83.19
432.956	87.19
433.178	101.19
433.4	108.19
433.622	87.19
433.844	82.19
434.066	95.19
434.287	93.19
434.509	86.19
434.731	94.19
434.953	104.19
435.175	85.19
435.397	88.19
435.618	83.19
435.84	107.19
436.062	121.19
436.284	105.19
436.505	90.19
436.727	79.19
436.949	81.19
437.17	86.19
437.392	78.19
437.614	81.19
437.835	90.19
438.057	115.19
438.278	103.19
438.5	98.19
438.721	101.19
438.943	98.19
439.165	91.19
439.386	82.19
439.608	85.19
439.829	92.19
440.05	128.19
440.272	145.19
440.493	90.19
440.715	76.19
440.936	79.19
441.158	79.19
441.379	73.19
441.6	97.19
441.822	80.19
442.043	79.19
442.264	92.19
442.486	94.19
442.707	93.19
442.928	96.19
443.149	111.19
443.371	102.19
443.592	102.19
443.813	104.19
444.034	99.19
444.255	85.19
444.476	74.19
444.698	70.19
444.919	79.19
445.14	125.19
445.361	128.19
445.582	110.19
445.803	120.19
446.024	123.19
446.245	120.19
446.466	113.19
446.687	90.19
446.908	83.19
447.129	94.19
447.35	82.19
447.571	89.19
447.792	96.19
448.013	87.19
448.234	103.19
448.455	97.19
448.675	124.19
448.896	110.19
449.117	88.19
449.338	113.19
449.559	116.19
449.779	137.19
450	107.19
450.221	85.19
450.442	90.19
450.662	86.19
450.883	101.19
451.104	94.19
451.324	87.19
451.545	73.19
451.766	79.19
451.986	91.19
452.207	90.19
452.428	91.19
452.648	98.19
452.869	85.19
453.089	88.19
453.31	113.19
453.53	84.19
453.751	69.19
453.971	97.19
454.192	110.19
454.412	94.19
454.633	84.19
454.853	84.19
455.073	70.19
455.294	95.19
455.514	102.19
455.734	102.19
455.955	71.19
456.175	76.19
456.395	66.19
456.616	88.19
456.836	77.19
457.056	80.19
457.276	86.19
457.497	85.19
457.717	81.19
457.937	89.19
458.157	80.19
458.377	97.19
458.598	99.19
458.818	129.19
459.038	129.19
459.258	98.19
459.478	85.19
459.698	85.19
459.918	90.19
460.138	97.19
460.358	80.19
460.578	77.19
460.798	81.19
461.018	88.19
461.238	93.19
461.458	82.19
461.678	81.19
461.898	71.19
462.118	98.19
462.338	94.19
462.558	68.19
462.777	87.19
462.997	80.19
463.217	74.19
463.437	88.19
463.657	84.19
463.876	63.19
464.096	91.19
464.316	89.19
464.536	76.19
464.755	88.19
464.975	102.19
465.195	146.19
465.414	143.19
465.634	96.19
465.854	89.19
466.073	86.19
466.293	90.19
466.512	93.19
466.732	81.19
466.951	81.19
467.171	85.19
467.391	90.19
467.61	73.19
467.829	88.19
468.049	94.19
468.268	75.19
468.488	64.19
468.707	87.19
468.927	87.19
469.146	92.19
469.365	86.19
469.585	98.19
469.804	83.19
470.023	82.19
470.243	101.19
470.462	82.19
470.681	108.19
470.901	69.19
471.12	82.19
471.339	85.19
471.558	83.19
471.777	89.19
471.997	94.19
472.216	95.19
472.435	83.19
472.654	85.19
472.873	77.19
473.092	79.19
473.311	94.19
473.53	70.19
473.749	80.19
473.968	95.19
474.187	84.19
474.406	95.19
474.625	92.19
474.844	79.19
475.063	80.19
475.282	82.19
475.501	81.19
475.72	78.19
475.939	75.19
476.158	82.19
476.377	87.19
476.596	88.19
476.814	80.19
477.033	81.19
477.252	81.19
477.471	82.19
477.69	68.19
477.908	87.19
478.127	100.19
478.346	87.19
478.564	95.19
478.783	87.19
479.002	77.19
479.22	87.19
479.439	102.19
479.658	112.19
479.876	76.19
480.095	84.19
480.313	88.19
480.532	84.19
480.751	99.19
480.969	69.19
481.188	88.19
481.406	93.19
481.624	90.19
481.843	85.19
482.061	93.19
482.28	90.19
482.498	91.19
482.717	80.19
482.935	88.19
483.153	74.19
483.372	88.19
483.59	85.19
483.808	77.19
484.027	85.19
484.245	100.19
484.463	105.19
484.681	97.19
484.9	88.19
485.118	81.19
485.336	84.19
485.554	103.19
485.772	86.19
485.99	95.19
486.209	114.19
486.427	93.19
486.645	103.19
486.863	106.19
487.081	85.19
487.299	93.19
487.517	85.19
487.735	91.19
487.953	84.19
488.171	93.19
488.389	82.19
488.607	84.19
488.825	90.19
489.043	90.19
489.261	88.19
489.479	84.19
489.696	86.19
489.914	85.19
490.132	92.19
490.35	94.19
490.568	81.19
490.786	84.19
491.003	79.19
491.221	94.19
491.439	89.19
491.657	78.19
491.874	94.19
492.092	96.19
492.31	94.19
492.527	86.19
492.745	90.19
492.963	82.19
493.18	86.19
493.398	87.19
493.615	92.19
493.833	75.19
494.05	84.19
494.268	96.19
494.485	75.19
494.703	78.19
494.92	85.19
495.138	93.19
495.355	90.19
495.573	83.19
495.79	87.19
496.008	92.19
496.225	97.19
496.442	97.19
496.66	96.19
496.877	78.19
497.094	90.19
497.312	106.19
497.529	78.19
497.746	86.19
497.963	78.19
498.181	81.19
498.398	97.19
498.615	88.19
498.832	98.19
499.049	79.19
499.267	81.19
499.484	79.19
499.701	81.19
499.918	85.19
500.135	79.19
500.352	84.19
500.569	93.19
500.786	88.19
501.003	84.19
501.22	88.19
501.437	98.19
501.654	72.19
501.871	97.19
502.088	99.19
502.305	86.19
502.522	85.19
502.739	76.19
502.956	84.19
503.172	90.19
503.389	88.19
503.606	114.19
503.823	80.19
504.04	96.19
504.256	95.19
504.473	77.19
504.69	94.19
504.907	77.19
505.123	86.19
505.34	88.19
505.557	95.19
505.773	89.19
505.99	90.19
506.207	78.19
506.423	83.19
506.64	93.19
506.856	70.19
507.073	78.19
507.289	89.19
507.506	101.19
507.722	103.19
507.939	102.19
508.155	83.19
508.372	89.19
508.588	92.19
508.805	102.19
509.021	98.19
509.238	93.19
509.454	88.19
509.67	76.19
509.887	112.19
510.103	114.19
510.319	188.19
510.536	720.19
510.752	2129.19
510.968	580.19
511.184	152.19
511.401	102.19
511.617	101.19
511.833	93.19
512.049	88.19
512.265	85.19
512.481	86.19
512.698	97.19
512.914	93.19
513.13	93.19
513.346	92.19
513.562	90.19
513.778	93.19
513.994	97.19
514.21	95.19
514.426	108.19
514.642	127.19
514.858	118.19
515.074	155.19
515.29	391.19
515.506	1236.19
515.721	460.19
515.937	150.19
516.153	91.19
516.369	100.19
516.585	92.19
516.801	97.19
517.016	89.19
