Data from Uncirc_1994_H10_HRD10591_00009.txt Node
Date: Wed Jan 03 11:39:22 EST 2024
User: Yrep
Spectrometer: HR+D1059
Trigger mode: 1
Integration Time (sec): 1.000000E-1
Scans to average: 1
Electric dark correction enabled: true
Nonlinearity correction enabled: false
Boxcar width: 0
XAxis mode: Wavelengths
Number of Pixels in Spectrum: 2048
>>>>>Begin Spectral Data<<<<<
223.165	-19.5
223.4	-19.5
223.635	-19.5
223.869	-18.5
224.104	-20.5
224.338	-3.5
224.573	-17.5
224.808	-24.5
225.042	-5.5
225.277	-7.5
225.511	-6.5
225.746	-11.5
225.98	17.5
226.215	17.5
226.449	33.5
226.683	11.5
226.918	19.5
227.152	35.5
227.387	26.5
227.621	51.5
227.856	47.5
228.09	49.5
228.324	53.5
228.559	56.5
228.793	61.5
229.027	69.5
229.262	78.5
229.496	69.5
229.73	73.5
229.964	94.5
230.199	75.5
230.433	78.5
230.667	85.5
230.901	97.5
231.136	70.5
231.37	78.5
231.604	83.5
231.838	89.5
232.072	77.5
232.306	78.5
232.541	91.5
232.775	73.5
233.009	78.5
233.243	90.5
233.477	81.5
233.711	87.5
233.945	64.5
234.179	77.5
234.413	77.5
234.647	67.5
234.881	85.5
235.115	89.5
235.349	95.5
235.583	82.5
235.817	85.5
236.051	78.5
236.285	78.5
236.519	82.5
236.753	73.5
236.987	75.5
237.221	89.5
237.455	75.5
237.689	84.5
237.922	63.5
238.156	77.5
238.39	67.5
238.624	73.5
238.858	82.5
239.091	65.5
239.325	94.5
239.559	88.5
239.793	84.5
240.027	70.5
240.26	76.5
240.494	70.5
240.728	81.5
240.961	71.5
241.195	73.5
241.429	67.5
241.662	77.5
241.896	85.5
242.13	89.5
242.363	92.5
242.597	77.5
242.83	73.5
243.064	85.5
243.298	80.5
243.531	77.5
243.765	81.5
243.998	74.5
244.232	96.5
244.465	88.5
244.699	86.5
244.932	83.5
245.166	85.5
245.399	73.5
245.633	96.5
245.866	83.5
246.099	75.5
246.333	83.5
246.566	75.5
246.8	87.5
247.033	71.5
247.266	77.5
247.5	94.5
247.733	80.5
247.966	84.5
248.2	106.5
248.433	76.5
248.666	71.5
248.899	81.5
249.133	90.5
249.366	99.5
249.599	113.5
249.832	71.5
250.066	86.5
250.299	87.5
250.532	69.5
250.765	82.5
250.998	66.5
251.231	82.5
251.465	76.5
251.698	80.5
251.931	83.5
252.164	75.5
252.397	82.5
252.63	78.5
252.863	86.5
253.096	83.5
253.329	82.5
253.562	76.5
253.795	107.5
254.028	84.5
254.261	83.5
254.494	89.5
254.727	78.5
254.96	82.5
255.193	73.5
255.426	70.5
255.659	84.5
255.892	85.5
256.124	79.5
256.357	77.5
256.59	78.5
256.823	80.5
257.056	77.5
257.289	74.5
257.521	77.5
257.754	90.5
257.987	82.5
258.22	97.5
258.452	89.5
258.685	77.5
258.918	80.5
259.151	83.5
259.383	89.5
259.616	89.5
259.849	77.5
260.081	76.5
260.314	84.5
260.547	84.5
260.779	77.5
261.012	81.5
261.244	74.5
261.477	81.5
261.71	95.5
261.942	107.5
262.175	102.5
262.407	88.5
262.64	91.5
262.872	90.5
263.105	78.5
263.337	93.5
263.57	77.5
263.802	90.5
264.035	89.5
264.267	98.5
264.499	94.5
264.732	80.5
264.964	84.5
265.197	76.5
265.429	82.5
265.661	79.5
265.894	86.5
266.126	87.5
266.358	60.5
266.591	85.5
266.823	95.5
267.055	77.5
267.287	97.5
267.52	90.5
267.752	84.5
267.984	77.5
268.216	93.5
268.448	93.5
268.681	95.5
268.913	92.5
269.145	95.5
269.377	90.5
269.609	78.5
269.841	86.5
270.073	77.5
270.306	92.5
270.538	91.5
270.77	86.5
271.002	82.5
271.234	89.5
271.466	96.5
271.698	97.5
271.93	76.5
272.162	81.5
272.394	98.5
272.626	83.5
272.858	92.5
273.09	78.5
273.322	75.5
273.553	97.5
273.785	100.5
274.017	90.5
274.249	64.5
274.481	89.5
274.713	98.5
274.945	103.5
275.176	87.5
275.408	97.5
275.64	78.5
275.872	94.5
276.104	97.5
276.335	92.5
276.567	87.5
276.799	99.5
277.031	97.5
277.262	74.5
277.494	82.5
277.726	85.5
277.957	75.5
278.189	92.5
278.421	93.5
278.652	84.5
278.884	94.5
279.115	84.5
279.347	78.5
279.579	78.5
279.81	79.5
280.042	97.5
280.273	77.5
280.505	88.5
280.736	87.5
280.968	82.5
281.199	90.5
281.431	89.5
281.662	97.5
281.894	87.5
282.125	97.5
282.356	103.5
282.588	111.5
282.819	94.5
283.051	97.5
283.282	69.5
283.513	78.5
283.745	85.5
283.976	89.5
284.207	96.5
284.439	87.5
284.67	99.5
284.901	87.5
285.132	102.5
285.364	81.5
285.595	77.5
285.826	92.5
286.057	91.5
286.288	107.5
286.52	84.5
286.751	82.5
286.982	95.5
287.213	78.5
287.444	101.5
287.675	85.5
287.906	92.5
288.138	79.5
288.369	101.5
288.6	85.5
288.831	82.5
289.062	92.5
289.293	104.5
289.524	95.5
289.755	96.5
289.986	84.5
290.217	101.5
290.448	91.5
290.679	95.5
290.91	86.5
291.141	78.5
291.371	98.5
291.602	90.5
291.833	83.5
292.064	83.5
292.295	100.5
292.526	101.5
292.757	73.5
292.987	86.5
293.218	85.5
293.449	93.5
293.68	102.5
293.91	87.5
294.141	101.5
294.372	92.5
294.603	109.5
294.833	81.5
295.064	90.5
295.295	116.5
295.525	93.5
295.756	100.5
295.987	115.5
296.217	116.5
296.448	115.5
296.679	90.5
296.909	96.5
297.14	110.5
297.37	93.5
297.601	90.5
297.831	102.5
298.062	99.5
298.292	89.5
298.523	98.5
298.753	86.5
298.984	83.5
299.214	93.5
299.445	102.5
299.675	82.5
299.905	99.5
300.136	98.5
300.366	95.5
300.597	91.5
300.827	95.5
301.057	122.5
301.288	101.5
301.518	102.5
301.748	95.5
301.979	95.5
302.209	85.5
302.439	89.5
302.669	84.5
302.9	82.5
303.13	87.5
303.36	97.5
303.59	85.5
303.82	101.5
304.051	91.5
304.281	93.5
304.511	97.5
304.741	89.5
304.971	90.5
305.201	88.5
305.431	102.5
305.661	95.5
305.891	90.5
306.121	96.5
306.352	93.5
306.582	89.5
306.812	93.5
307.042	86.5
307.272	106.5
307.502	85.5
307.731	90.5
307.961	86.5
308.191	89.5
308.421	90.5
308.651	101.5
308.881	98.5
309.111	106.5
309.341	92.5
309.571	113.5
309.8	96.5
310.03	87.5
310.26	102.5
310.49	89.5
310.72	102.5
310.949	106.5
311.179	92.5
311.409	102.5
311.639	78.5
311.868	87.5
312.098	101.5
312.328	98.5
312.557	103.5
312.787	97.5
313.017	92.5
313.246	89.5
313.476	88.5
313.706	95.5
313.935	89.5
314.165	96.5
314.394	100.5
314.624	95.5
314.853	86.5
315.083	88.5
315.312	92.5
315.542	91.5
315.771	90.5
316.001	102.5
316.23	99.5
316.46	80.5
316.689	90.5
316.919	93.5
317.148	94.5
317.377	101.5
317.607	93.5
317.836	90.5
318.065	75.5
318.295	107.5
318.524	104.5
318.753	89.5
318.983	106.5
319.212	110.5
319.441	89.5
319.67	91.5
319.9	97.5
320.129	107.5
320.358	91.5
320.587	87.5
320.816	95.5
321.046	106.5
321.275	100.5
321.504	110.5
321.733	93.5
321.962	88.5
322.191	107.5
322.42	100.5
322.649	107.5
322.878	104.5
323.108	103.5
323.337	118.5
323.566	122.5
323.795	121.5
324.024	190.5
324.253	338.5
324.482	689.5
324.71	1369.5
324.939	1765.5
325.168	673.5
325.397	217.5
325.626	135.5
325.855	137.5
326.084	100.5
326.313	112.5
326.542	143.5
326.77	201.5
326.999	417.5
327.228	777.5
327.457	1388.5
327.686	1113.5
327.914	308.5
328.143	167.5
328.372	111.5
328.6	122.5
328.829	121.5
329.058	118.5
329.287	105.5
329.515	107.5
329.744	108.5
329.972	94.5
330.201	104.5
330.43	95.5
330.658	109.5
330.887	118.5
331.115	115.5
331.344	95.5
331.572	110.5
331.801	103.5
332.03	98.5
332.258	113.5
332.486	81.5
332.715	82.5
332.943	75.5
333.172	100.5
333.4	103.5
333.629	96.5
333.857	100.5
334.085	93.5
334.314	99.5
334.542	100.5
334.771	104.5
334.999	103.5
335.227	99.5
335.455	106.5
335.684	91.5
335.912	98.5
336.14	83.5
336.369	97.5
336.597	108.5
336.825	105.5
337.053	108.5
337.281	102.5
337.51	93.5
337.738	95.5
337.966	96.5
338.194	104.5
338.422	93.5
338.65	94.5
338.878	98.5
339.106	89.5
339.334	83.5
339.562	100.5
339.79	93.5
340.018	102.5
340.246	84.5
340.474	86.5
340.702	83.5
340.93	91.5
341.158	94.5
341.386	100.5
341.614	92.5
341.842	109.5
342.07	98.5
342.298	98.5
342.526	92.5
342.754	83.5
342.981	100.5
343.209	90.5
343.437	101.5
343.665	94.5
343.893	89.5
344.12	95.5
344.348	86.5
344.576	103.5
344.804	89.5
345.031	93.5
345.259	92.5
345.487	102.5
345.714	83.5
345.942	74.5
346.17	93.5
346.397	85.5
346.625	95.5
346.853	98.5
347.08	92.5
347.308	97.5
347.535	100.5
347.763	86.5
347.99	100.5
348.218	114.5
348.445	105.5
348.673	105.5
348.9	98.5
349.128	105.5
349.355	85.5
349.583	83.5
349.81	88.5
350.037	102.5
350.265	90.5
350.492	93.5
350.72	97.5
350.947	104.5
351.174	110.5
351.402	91.5
351.629	99.5
351.856	93.5
352.083	100.5
352.311	109.5
352.538	114.5
352.765	108.5
352.992	112.5
353.22	103.5
353.447	101.5
353.674	115.5
353.901	100.5
354.128	97.5
354.355	93.5
354.583	104.5
354.81	104.5
355.037	94.5
355.264	96.5
355.491	96.5
355.718	93.5
355.945	108.5
356.172	101.5
356.399	98.5
356.626	96.5
356.853	95.5
357.08	90.5
357.307	117.5
357.534	107.5
357.761	108.5
357.988	103.5
358.215	95.5
358.441	109.5
358.668	84.5
358.895	80.5
359.122	110.5
359.349	93.5
359.576	90.5
359.802	99.5
360.029	96.5
360.256	91.5
360.483	87.5
360.709	91.5
360.936	102.5
361.163	94.5
361.39	106.5
361.616	88.5
361.843	85.5
362.07	86.5
362.296	97.5
362.523	84.5
362.749	91.5
362.976	99.5
363.203	100.5
363.429	97.5
363.656	95.5
363.882	92.5
364.109	92.5
364.335	107.5
364.562	98.5
364.788	99.5
365.015	101.5
365.241	95.5
365.468	103.5
365.694	106.5
365.92	89.5
366.147	85.5
366.373	90.5
366.599	92.5
366.826	79.5
367.052	81.5
367.278	92.5
367.505	94.5
367.731	95.5
367.957	74.5
368.184	83.5
368.41	88.5
368.636	96.5
368.862	101.5
369.089	98.5
369.315	104.5
369.541	103.5
369.767	95.5
369.993	93.5
370.219	76.5
370.445	97.5
370.672	90.5
370.898	80.5
371.124	97.5
371.35	89.5
371.576	93.5
371.802	91.5
372.028	82.5
372.254	80.5
372.48	95.5
372.706	92.5
372.932	78.5
373.158	91.5
373.384	97.5
373.61	73.5
373.835	93.5
374.061	84.5
374.287	78.5
374.513	86.5
374.739	91.5
374.965	101.5
375.191	99.5
375.416	87.5
375.642	97.5
375.868	97.5
376.094	80.5
376.319	98.5
376.545	98.5
376.771	91.5
376.997	83.5
377.222	96.5
377.448	85.5
377.674	101.5
377.899	87.5
378.125	94.5
378.35	99.5
378.576	89.5
378.802	113.5
379.027	84.5
379.253	98.5
379.478	108.5
379.704	97.5
379.929	95.5
380.155	108.5
380.38	97.5
380.606	108.5
380.831	96.5
381.057	103.5
381.282	91.5
381.507	86.5
381.733	94.5
381.958	104.5
382.184	104.5
382.409	101.5
382.634	99.5
382.86	102.5
383.085	117.5
383.31	85.5
383.535	103.5
383.761	95.5
383.986	94.5
384.211	107.5
384.436	102.5
384.662	109.5
384.887	108.5
385.112	101.5
385.337	100.5
385.562	114.5
385.787	104.5
386.013	126.5
386.238	103.5
386.463	103.5
386.688	115.5
386.913	107.5
387.138	102.5
387.363	98.5
387.588	106.5
387.813	101.5
388.038	90.5
388.263	108.5
388.488	106.5
388.713	94.5
388.938	103.5
389.163	87.5
389.387	108.5
389.612	99.5
389.837	84.5
390.062	86.5
390.287	93.5
390.512	102.5
390.736	105.5
390.961	94.5
391.186	100.5
391.411	97.5
391.636	86.5
391.86	93.5
392.085	98.5
392.31	95.5
392.534	88.5
392.759	101.5
392.984	123.5
393.208	204.5
393.433	323.5
393.658	224.5
393.882	109.5
394.107	90.5
394.331	97.5
394.556	104.5
394.78	86.5
395.005	87.5
395.229	90.5
395.454	99.5
395.678	96.5
395.903	83.5
396.127	93.5
396.352	99.5
396.576	117.5
396.801	202.5
397.025	221.5
397.249	107.5
397.474	102.5
397.698	95.5
397.922	89.5
398.147	82.5
398.371	101.5
398.595	93.5
398.82	87.5
399.044	85.5
399.268	78.5
399.492	88.5
399.717	91.5
399.941	98.5
400.165	89.5
400.389	85.5
400.613	84.5
400.837	93.5
401.062	80.5
401.286	85.5
401.51	78.5
401.734	94.5
401.958	107.5
402.182	109.5
402.406	129.5
402.63	104.5
402.854	93.5
403.078	91.5
403.302	87.5
403.526	92.5
403.75	93.5
403.974	84.5
404.198	104.5
404.422	85.5
404.645	85.5
404.869	98.5
405.093	73.5
405.317	91.5
405.541	110.5
405.765	96.5
405.988	104.5
406.212	154.5
406.436	189.5
406.66	127.5
406.883	85.5
407.107	98.5
407.331	88.5
407.555	111.5
407.778	85.5
408.002	88.5
408.226	94.5
408.449	82.5
408.673	75.5
408.896	95.5
409.12	83.5
409.344	70.5
409.567	91.5
409.791	88.5
410.014	104.5
410.238	95.5
410.461	101.5
410.685	92.5
410.908	86.5
411.132	91.5
411.355	95.5
411.578	94.5
411.802	80.5
412.025	77.5
412.249	89.5
412.472	95.5
412.695	90.5
412.919	87.5
413.142	77.5
413.365	88.5
413.589	92.5
413.812	101.5
414.035	97.5
414.258	85.5
414.482	75.5
414.705	103.5
414.928	94.5
415.151	97.5
415.374	101.5
415.597	100.5
415.821	103.5
416.044	82.5
416.267	88.5
416.49	89.5
416.713	87.5
416.936	95.5
417.159	93.5
417.382	80.5
417.605	86.5
417.828	99.5
418.051	100.5
418.274	90.5
418.497	91.5
418.72	86.5
418.943	85.5
419.166	93.5
419.389	88.5
419.611	103.5
419.834	97.5
420.057	86.5
420.28	78.5
420.503	82.5
420.726	89.5
420.948	78.5
421.171	87.5
421.394	87.5
421.617	85.5
421.839	104.5
422.062	92.5
422.285	87.5
422.507	105.5
422.73	124.5
422.953	123.5
423.175	96.5
423.398	81.5
423.621	105.5
423.843	98.5
424.066	90.5
424.288	89.5
424.511	97.5
424.733	100.5
424.956	84.5
425.178	90.5
425.401	116.5
425.623	100.5
425.846	103.5
426.068	87.5
426.291	91.5
426.513	77.5
426.735	102.5
426.958	90.5
427.18	88.5
427.402	128.5
427.625	156.5
427.847	117.5
428.069	96.5
428.292	91.5
428.514	74.5
428.736	80.5
428.958	99.5
429.181	94.5
429.403	87.5
429.625	83.5
429.847	108.5
430.069	103.5
430.292	85.5
430.514	93.5
430.736	79.5
430.958	85.5
431.18	82.5
431.402	90.5
431.624	92.5
431.846	89.5
432.068	81.5
432.29	92.5
432.512	99.5
432.734	77.5
432.956	103.5
433.178	102.5
433.4	80.5
433.622	106.5
433.844	88.5
434.066	92.5
434.287	91.5
434.509	87.5
434.731	93.5
434.953	83.5
435.175	96.5
435.397	87.5
435.618	85.5
435.84	100.5
436.062	107.5
436.284	93.5
436.505	101.5
436.727	87.5
436.949	89.5
437.17	74.5
437.392	95.5
437.614	93.5
437.835	102.5
438.057	107.5
438.278	87.5
438.5	99.5
438.721	131.5
438.943	91.5
439.165	85.5
439.386	83.5
439.608	84.5
439.829	91.5
440.05	122.5
440.272	122.5
440.493	83.5
440.715	87.5
440.936	82.5
441.158	92.5
441.379	92.5
441.6	102.5
441.822	94.5
442.043	90.5
442.264	99.5
442.486	87.5
442.707	89.5
442.928	104.5
443.149	115.5
443.371	128.5
443.592	107.5
443.813	101.5
444.034	98.5
444.255	91.5
444.476	95.5
444.698	91.5
444.919	89.5
445.14	123.5
445.361	123.5
445.582	116.5
445.803	117.5
446.024	119.5
446.245	132.5
446.466	123.5
446.687	89.5
446.908	96.5
447.129	82.5
447.35	98.5
447.571	91.5
447.792	99.5
448.013	91.5
448.234	104.5
448.455	88.5
448.675	105.5
448.896	106.5
449.117	98.5
449.338	115.5
449.559	129.5
449.779	117.5
450	94.5
450.221	95.5
450.442	90.5
450.662	99.5
450.883	95.5
451.104	95.5
451.324	103.5
451.545	99.5
451.766	86.5
451.986	92.5
452.207	91.5
452.428	79.5
452.648	86.5
452.869	106.5
453.089	103.5
453.31	105.5
453.53	97.5
453.751	86.5
453.971	86.5
454.192	96.5
454.412	96.5
454.633	90.5
454.853	92.5
455.073	80.5
455.294	80.5
455.514	101.5
455.734	91.5
455.955	85.5
456.175	85.5
456.395	79.5
456.616	79.5
456.836	101.5
457.056	97.5
457.276	94.5
457.497	85.5
457.717	89.5
457.937	91.5
458.157	89.5
458.377	87.5
458.598	95.5
458.818	123.5
459.038	133.5
459.258	119.5
459.478	79.5
459.698	99.5
459.918	93.5
460.138	85.5
460.358	90.5
460.578	105.5
460.798	87.5
461.018	86.5
461.238	87.5
461.458	91.5
461.678	75.5
461.898	85.5
462.118	84.5
462.338	94.5
462.558	80.5
462.777	80.5
462.997	87.5
463.217	86.5
463.437	81.5
463.657	76.5
463.876	97.5
464.096	87.5
464.316	89.5
464.536	90.5
464.755	111.5
464.975	93.5
465.195	132.5
465.414	134.5
465.634	95.5
465.854	83.5
466.073	82.5
466.293	88.5
466.512	82.5
466.732	79.5
466.951	71.5
467.171	99.5
467.391	105.5
467.61	97.5
467.829	87.5
468.049	75.5
468.268	86.5
468.488	88.5
468.707	82.5
468.927	89.5
469.146	91.5
469.365	110.5
469.585	81.5
469.804	76.5
470.023	89.5
470.243	86.5
470.462	104.5
470.681	107.5
470.901	87.5
471.12	73.5
471.339	83.5
471.558	95.5
471.777	95.5
471.997	88.5
472.216	94.5
472.435	86.5
472.654	70.5
472.873	79.5
473.092	84.5
473.311	77.5
473.53	92.5
473.749	86.5
473.968	92.5
474.187	87.5
474.406	93.5
474.625	87.5
474.844	85.5
475.063	86.5
475.282	90.5
475.501	83.5
475.72	91.5
475.939	95.5
476.158	81.5
476.377	91.5
476.596	80.5
476.814	84.5
477.033	84.5
477.252	84.5
477.471	92.5
477.69	85.5
477.908	99.5
478.127	106.5
478.346	85.5
478.564	105.5
478.783	90.5
479.002	98.5
479.22	85.5
479.439	103.5
479.658	99.5
479.876	85.5
480.095	86.5
480.313	75.5
480.532	97.5
480.751	86.5
480.969	73.5
481.188	87.5
481.406	95.5
481.624	96.5
481.843	100.5
482.061	83.5
482.28	98.5
482.498	79.5
482.717	109.5
482.935	89.5
483.153	93.5
483.372	93.5
483.59	95.5
483.808	91.5
484.027	102.5
484.245	89.5
484.463	85.5
484.681	113.5
484.9	83.5
485.118	89.5
485.336	110.5
485.554	118.5
485.772	110.5
485.99	101.5
486.209	99.5
486.427	98.5
486.645	113.5
486.863	113.5
487.081	90.5
487.299	89.5
487.517	107.5
487.735	103.5
487.953	89.5
488.171	89.5
488.389	82.5
488.607	99.5
488.825	103.5
489.043	89.5
489.261	86.5
489.479	105.5
489.696	86.5
489.914	91.5
490.132	102.5
490.35	104.5
490.568	88.5
490.786	100.5
491.003	88.5
491.221	89.5
491.439	96.5
491.657	80.5
491.874	101.5
492.092	92.5
492.31	107.5
492.527	95.5
492.745	86.5
492.963	74.5
493.18	106.5
493.398	104.5
493.615	97.5
493.833	99.5
494.05	89.5
494.268	105.5
494.485	98.5
494.703	79.5
494.92	94.5
495.138	101.5
495.355	99.5
495.573	93.5
495.79	110.5
496.008	101.5
496.225	103.5
496.442	88.5
496.66	86.5
496.877	92.5
497.094	87.5
497.312	91.5
497.529	106.5
497.746	87.5
497.963	90.5
498.181	89.5
498.398	91.5
498.615	111.5
498.832	109.5
499.049	105.5
499.267	91.5
499.484	99.5
499.701	95.5
499.918	94.5
500.135	74.5
500.352	80.5
500.569	85.5
500.786	88.5
501.003	85.5
501.22	95.5
501.437	95.5
501.654	88.5
501.871	108.5
502.088	93.5
502.305	99.5
502.522	84.5
502.739	95.5
502.956	86.5
503.172	87.5
503.389	82.5
503.606	91.5
503.823	90.5
504.04	89.5
504.256	95.5
504.473	81.5
504.69	89.5
504.907	94.5
505.123	91.5
505.34	90.5
505.557	82.5
505.773	93.5
505.99	99.5
506.207	98.5
506.423	89.5
506.64	104.5
506.856	85.5
507.073	89.5
507.289	96.5
507.506	100.5
507.722	120.5
507.939	98.5
508.155	83.5
508.372	74.5
508.588	89.5
508.805	97.5
509.021	109.5
509.238	101.5
509.454	93.5
509.67	92.5
509.887	134.5
510.103	138.5
510.319	194.5
510.536	674.5
510.752	1960.5
510.968	542.5
511.184	150.5
511.401	81.5
511.617	103.5
511.833	96.5
512.049	86.5
512.265	93.5
512.481	100.5
512.698	98.5
512.914	86.5
513.13	94.5
513.346	97.5
513.562	90.5
513.778	93.5
513.994	91.5
514.21	111.5
514.426	114.5
514.642	136.5
514.858	107.5
515.074	162.5
515.29	388.5
515.506	1124.5
515.721	428.5
515.937	145.5
516.153	104.5
516.369	107.5
516.585	106.5
516.801	99.5
517.016	77.5
517.232	98.5
517.448	93.5
517.664	89.5
517.879	108.5
518.095	95.5
518.311	105.5
518.527	101.5
518.742	94.5
518.958	89.5
519.173	100.5
519.389	108.5
519.605	97.5
519.82	103.5
520.036	93.5
520.251	125.5
520.467	95.5
520.682	106.5
520.898	109.5
521.113	114.5
521.329	137.5
521.544	201.5
521.76	446.5
521.975	1860.5
522.19	1111.5
522.406	269.5
522.621	108.5
522.836	98.5
523.052	103.5
523.267	93.5
523.482	93.5
523.698	97.5
523.913	118.5
524.128	103.5
524.343	89.5
524.559	102.5
524.774	82.5
524.989	100.5
525.204	93.5
525.419	94.5
525.634	102.5
525.849	92.5
526.064	90.5
526.28	92.5
526.495	102.5
526.71	87.5
526.925	82.5
527.14	92.5
527.355	81.5
527.57	94.5
527.785	80.5
527.999	84.5
528.214	91.5
528.429	83.5
528.644	85.5
528.859	91.5
529.074	91.5
529.289	115.5
529.503	157.5
529.718	102.5
529.933	100.5
530.148	101.5
530.363	101.5
530.577	93.5
530.792	75.5
531.007	85.5
531.221	105.5
531.436	108.5
531.651	99.5
531.865	88.5
532.08	95.5
532.295	92.5
532.509	90.5
532.724	104.5
532.938	108.5
533.153	101.5
533.367	96.5
533.582	99.5
533.796	89.5
534.011	110.5
534.225	85.5
534.44	95.5
534.654	100.5
