Data from Uncirc_1994_H10_HRD10591_00078.txt Node
Date: Wed Jan 03 11:39:36 EST 2024
User: Yrep
Spectrometer: HR+D1059
Trigger mode: 1
Integration Time (sec): 1.000000E-1
Scans to average: 1
Electric dark correction enabled: true
Nonlinearity correction enabled: false
Boxcar width: 0
XAxis mode: Wavelengths
Number of Pixels in Spectrum: 2048
>>>>>Begin Spectral Data<<<<<
223.165	-7
223.4	-7
223.635	-7
223.869	-28
224.104	-24
224.338	-23
224.573	-15
224.808	-16
225.042	-7
225.277	-10
225.511	3
225.746	5
225.98	-2
226.215	8
226.449	8
226.683	31
226.918	38
227.152	39
227.387	38
227.621	44
227.856	45
228.09	53
228.324	54
228.559	47
228.793	74
229.027	55
229.262	59
229.496	65
229.73	84
229.964	90
230.199	69
230.433	73
230.667	82
230.901	92
231.136	84
231.37	75
231.604	78
231.838	77
232.072	73
232.306	91
232.541	70
232.775	66
233.009	80
233.243	88
233.477	92
233.711	89
233.945	81
234.179	74
234.413	77
234.647	88
234.881	90
235.115	77
235.349	82
235.583	68
235.817	80
236.051	75
236.285	57
236.519	76
236.753	79
236.987	87
237.221	85
237.455	98
237.689	79
237.922	77
238.156	92
238.39	73
238.624	73
238.858	85
239.091	77
239.325	76
239.559	89
239.793	85
240.027	86
240.26	77
240.494	75
240.728	80
240.961	80
241.195	77
241.429	70
241.662	68
241.896	82
242.13	77
242.363	63
242.597	67
242.83	73
243.064	76
243.298	76
243.531	65
243.765	76
243.998	83
244.232	69
244.465	77
244.699	89
244.932	72
245.166	75
245.399	82
245.633	84
245.866	72
246.099	69
246.333	65
246.566	74
246.8	67
247.033	90
247.266	78
247.5	89
247.733	75
247.966	79
248.2	59
248.433	82
248.666	81
248.899	83
249.133	101
249.366	98
249.599	91
249.832	76
250.066	90
250.299	82
250.532	85
250.765	73
250.998	74
251.231	73
251.465	85
251.698	80
251.931	83
252.164	77
252.397	85
252.63	86
252.863	79
253.096	86
253.329	66
253.562	83
253.795	82
254.028	84
254.261	69
254.494	84
254.727	85
254.96	85
255.193	83
255.426	88
255.659	82
255.892	94
256.124	84
256.357	86
256.59	77
256.823	71
257.056	83
257.289	95
257.521	93
257.754	87
257.987	77
258.22	85
258.452	94
258.685	78
258.918	67
259.151	74
259.383	80
259.616	82
259.849	89
260.081	88
260.314	78
260.547	78
260.779	68
261.012	77
261.244	74
261.477	97
261.71	97
261.942	105
262.175	110
262.407	100
262.64	68
262.872	88
263.105	87
263.337	78
263.57	83
263.802	75
264.035	86
264.267	80
264.499	80
264.732	82
264.964	80
265.197	77
265.429	81
265.661	84
265.894	97
266.126	90
266.358	100
266.591	89
266.823	72
267.055	96
267.287	99
267.52	79
267.752	90
267.984	92
268.216	97
268.448	90
268.681	86
268.913	85
269.145	85
269.377	85
269.609	89
269.841	94
270.073	81
270.306	77
270.538	85
270.77	93
271.002	86
271.234	80
271.466	82
271.698	66
271.93	87
272.162	94
272.394	81
272.626	83
272.858	96
273.09	85
273.322	79
273.553	66
273.785	88
274.017	88
274.249	91
274.481	85
274.713	90
274.945	88
275.176	77
275.408	92
275.64	94
275.872	84
276.104	74
276.335	84
276.567	91
276.799	104
277.031	98
277.262	79
277.494	105
277.726	91
277.957	77
278.189	84
278.421	90
278.652	84
278.884	78
279.115	89
279.347	92
279.579	85
279.81	89
280.042	80
280.273	78
280.505	90
280.736	87
280.968	83
281.199	80
281.431	97
281.662	91
281.894	91
282.125	93
282.356	121
282.588	140
282.819	95
283.051	92
283.282	93
283.513	84
283.745	78
283.976	99
284.207	86
284.439	88
284.67	88
284.901	83
285.132	89
285.364	87
285.595	93
285.826	90
286.057	97
286.288	88
286.52	90
286.751	91
286.982	82
287.213	58
287.444	86
287.675	96
287.906	107
288.138	90
288.369	92
288.6	94
288.831	92
289.062	91
289.293	84
289.524	92
289.755	90
289.986	82
290.217	80
290.448	74
290.679	86
290.91	89
291.141	91
291.371	89
291.602	84
291.833	97
292.064	84
292.295	94
292.526	92
292.757	89
292.987	89
293.218	89
293.449	85
293.68	93
293.91	75
294.141	90
294.372	76
294.603	82
294.833	76
295.064	93
295.295	101
295.525	87
295.756	112
295.987	115
296.217	125
296.448	117
296.679	99
296.909	92
297.14	80
297.37	104
297.601	78
297.831	80
298.062	98
298.292	87
298.523	94
298.753	88
298.984	91
299.214	86
299.445	84
299.675	106
299.905	91
300.136	94
300.366	77
300.597	98
300.827	97
301.057	91
301.288	102
301.518	74
301.748	80
301.979	92
302.209	89
302.439	92
302.669	85
302.9	87
303.13	102
303.36	90
303.59	90
303.82	101
304.051	87
304.281	95
304.511	78
304.741	102
304.971	93
305.201	83
305.431	84
305.661	87
305.891	90
306.121	106
306.352	109
306.582	113
306.812	84
307.042	76
307.272	94
307.502	89
307.731	99
307.961	96
308.191	88
308.421	82
308.651	90
308.881	100
309.111	96
309.341	89
309.571	99
309.8	93
310.03	94
310.26	90
310.49	99
310.72	97
310.949	98
311.179	104
311.409	107
311.639	95
311.868	88
312.098	88
312.328	81
312.557	95
312.787	98
313.017	109
313.246	95
313.476	100
313.706	96
313.935	84
314.165	100
314.394	105
314.624	97
314.853	94
315.083	83
315.312	86
315.542	88
315.771	90
316.001	83
316.23	106
316.46	78
316.689	86
316.919	95
317.148	84
317.377	86
317.607	113
317.836	87
318.065	78
318.295	88
318.524	84
318.753	92
318.983	95
319.212	87
319.441	86
319.67	88
319.9	95
320.129	96
320.358	97
320.587	101
320.816	94
321.046	94
321.275	98
321.504	92
321.733	80
321.962	105
322.191	110
322.42	109
322.649	100
322.878	100
323.108	113
323.337	111
323.566	128
323.795	144
324.024	182
324.253	368
324.482	763
324.71	1602
324.939	2039
325.168	757
325.397	235
325.626	140
325.855	129
326.084	132
326.313	121
326.542	125
326.77	215
326.999	428
327.228	897
327.457	1604
327.686	1227
327.914	334
328.143	186
328.372	132
328.6	107
328.829	113
329.058	125
329.287	112
329.515	106
329.744	109
329.972	98
330.201	100
330.43	106
330.658	109
330.887	150
331.115	123
331.344	98
331.572	100
331.801	109
332.03	96
332.258	96
332.486	92
332.715	95
332.943	93
333.172	95
333.4	94
333.629	101
333.857	100
334.085	97
334.314	104
334.542	104
334.771	110
334.999	90
335.227	94
335.455	97
335.684	101
335.912	94
336.14	104
336.369	96
336.597	97
336.825	98
337.053	88
337.281	95
337.51	85
337.738	90
337.966	91
338.194	97
338.422	97
338.65	91
338.878	107
339.106	88
339.334	104
339.562	78
339.79	90
340.018	91
340.246	85
340.474	89
340.702	106
340.93	106
341.158	109
341.386	92
341.614	97
341.842	84
342.07	92
342.298	97
342.526	86
342.754	79
342.981	95
343.209	96
343.437	97
343.665	86
343.893	92
344.12	92
344.348	92
344.576	86
344.804	101
345.031	98
345.259	100
345.487	87
345.714	92
345.942	85
346.17	88
346.397	86
346.625	89
346.853	82
347.08	84
347.308	81
347.535	98
347.763	90
347.99	100
348.218	102
348.445	94
348.673	92
348.9	106
349.128	107
349.355	79
349.583	83
349.81	80
350.037	79
350.265	98
350.492	96
350.72	89
350.947	105
351.174	98
351.402	94
351.629	89
351.856	102
352.083	103
352.311	90
352.538	103
352.765	110
352.992	120
353.22	119
353.447	90
353.674	93
353.901	105
354.128	82
354.355	94
354.583	106
354.81	95
355.037	98
355.264	94
355.491	100
355.718	83
355.945	95
356.172	93
356.399	86
356.626	102
356.853	100
357.08	91
357.307	89
357.534	90
357.761	91
357.988	109
358.215	86
358.441	102
358.668	99
358.895	109
359.122	100
359.349	78
359.576	101
359.802	108
360.029	122
360.256	99
360.483	110
360.709	89
360.936	85
361.163	100
361.39	94
361.616	97
361.843	92
362.07	83
362.296	93
362.523	86
362.749	88
362.976	90
363.203	89
363.429	85
363.656	91
363.882	84
364.109	89
364.335	88
364.562	94
364.788	89
365.015	98
365.241	93
365.468	110
365.694	99
365.92	102
366.147	99
366.373	88
366.599	78
366.826	89
367.052	84
367.278	93
367.505	86
367.731	86
367.957	90
368.184	86
368.41	109
368.636	94
368.862	113
369.089	103
369.315	96
369.541	95
369.767	73
369.993	92
370.219	97
370.445	90
370.672	88
370.898	85
371.124	91
371.35	93
371.576	91
371.802	86
372.028	92
372.254	92
372.48	93
372.706	87
372.932	71
373.158	86
373.384	96
373.61	101
373.835	92
374.061	82
374.287	94
374.513	104
374.739	92
374.965	84
375.191	86
375.416	81
375.642	91
375.868	100
376.094	87
376.319	91
376.545	103
376.771	86
376.997	80
377.222	97
377.448	99
377.674	93
377.899	96
378.125	95
378.35	94
378.576	89
378.802	93
379.027	80
379.253	84
379.478	88
379.704	88
379.929	95
380.155	94
380.38	87
380.606	83
380.831	89
381.057	101
381.282	94
381.507	90
381.733	92
381.958	76
382.184	102
382.409	92
382.634	106
382.86	101
383.085	99
383.31	101
383.535	97
383.761	90
383.986	96
384.211	112
384.436	70
384.662	94
384.887	92
385.112	99
385.337	104
385.562	87
385.787	90
386.013	101
386.238	91
386.463	99
386.688	99
386.913	94
387.138	96
387.363	102
387.588	97
387.813	101
388.038	102
388.263	121
388.488	91
388.713	86
388.938	106
389.163	95
389.387	101
389.612	97
389.837	96
390.062	88
390.287	93
390.512	93
390.736	90
390.961	93
391.186	102
391.411	84
391.636	92
391.86	81
392.085	98
392.31	96
392.534	85
392.759	100
392.984	85
393.208	98
393.433	76
393.658	84
393.882	83
394.107	76
394.331	77
394.556	99
394.78	92
395.005	87
395.229	81
395.454	84
395.678	73
395.903	84
396.127	82
396.352	88
396.576	84
396.801	77
397.025	80
397.249	94
397.474	76
397.698	83
397.922	90
398.147	84
398.371	93
398.595	80
398.82	76
399.044	92
399.268	93
399.492	86
399.717	90
399.941	88
400.165	99
400.389	84
400.613	82
400.837	97
401.062	83
401.286	79
401.51	96
401.734	93
401.958	100
402.182	116
402.406	155
402.63	111
402.854	98
403.078	98
403.302	94
403.526	95
403.75	85
403.974	102
404.198	100
404.422	97
404.645	92
404.869	81
405.093	93
405.317	84
405.541	93
405.765	84
405.988	102
406.212	161
406.436	217
406.66	132
406.883	102
407.107	92
407.331	87
407.555	99
407.778	87
408.002	98
408.226	87
408.449	83
408.673	91
408.896	94
409.12	94
409.344	105
409.567	88
409.791	86
410.014	102
410.238	92
410.461	86
410.685	93
410.908	91
411.132	110
411.355	96
411.578	101
411.802	96
412.025	90
412.249	77
412.472	90
412.695	76
412.919	98
413.142	83
413.365	90
413.589	94
413.812	94
414.035	96
414.258	81
414.482	88
414.705	89
414.928	96
415.151	87
415.374	99
415.597	86
415.821	85
416.044	89
416.267	92
416.49	89
416.713	76
416.936	101
417.159	90
417.382	87
417.605	98
417.828	100
418.051	91
418.274	98
418.497	81
418.72	81
418.943	92
419.166	89
419.389	95
419.611	83
419.834	93
420.057	97
420.28	80
420.503	83
420.726	92
420.948	92
421.171	93
421.394	86
421.617	91
421.839	99
422.062	84
422.285	89
422.507	93
422.73	95
422.953	106
423.175	82
423.398	84
423.621	83
423.843	86
424.066	79
424.288	93
424.511	96
424.733	109
424.956	109
425.178	90
425.401	94
425.623	110
425.846	100
426.068	76
426.291	84
426.513	107
426.735	92
426.958	98
427.18	94
427.402	131
427.625	137
427.847	114
428.069	85
428.292	100
428.514	83
428.736	86
428.958	98
429.181	83
429.403	90
429.625	94
429.847	90
430.069	98
430.292	89
430.514	71
430.736	81
430.958	74
431.18	84
431.402	88
431.624	89
431.846	92
432.068	84
432.29	73
432.512	83
432.734	84
432.956	102
433.178	97
433.4	89
433.622	88
433.844	100
434.066	98
434.287	86
434.509	100
434.731	84
434.953	86
435.175	93
435.397	91
435.618	93
435.84	92
436.062	102
436.284	106
436.505	84
436.727	107
436.949	97
437.17	114
437.392	78
437.614	91
437.835	103
438.057	118
438.278	126
438.5	106
438.721	111
438.943	103
439.165	66
439.386	89
439.608	83
439.829	103
440.05	138
440.272	129
440.493	101
440.715	93
440.936	86
441.158	98
441.379	88
441.6	80
441.822	83
442.043	92
442.264	104
442.486	101
442.707	80
442.928	111
443.149	125
443.371	123
443.592	107
443.813	105
444.034	109
444.255	83
444.476	92
444.698	91
444.919	91
445.14	133
445.361	121
445.582	123
445.803	138
446.024	138
446.245	123
446.466	121
446.687	80
446.908	81
447.129	81
447.35	90
447.571	105
447.792	88
448.013	86
448.234	105
448.455	94
448.675	113
448.896	129
449.117	82
449.338	111
449.559	126
449.779	120
450	84
450.221	83
450.442	102
450.662	93
450.883	110
451.104	98
451.324	88
451.545	92
451.766	74
451.986	95
452.207	80
452.428	90
452.648	97
452.869	112
453.089	94
453.31	101
453.53	76
453.751	100
453.971	107
454.192	102
454.412	84
454.633	86
454.853	86
455.073	83
455.294	73
455.514	112
455.734	89
455.955	85
456.175	85
456.395	93
456.616	87
456.836	82
457.056	75
457.276	79
457.497	92
457.717	82
457.937	92
458.157	77
458.377	92
458.598	95
458.818	148
459.038	143
459.258	116
459.478	76
459.698	90
459.918	92
460.138	86
460.358	87
460.578	88
460.798	84
461.018	86
461.238	76
461.458	75
461.678	73
461.898	77
462.118	84
462.338	90
462.558	87
462.777	90
462.997	86
463.217	92
463.437	79
463.657	86
463.876	85
464.096	88
464.316	86
464.536	89
464.755	92
464.975	97
465.195	153
465.414	151
465.634	100
465.854	93
466.073	87
466.293	90
466.512	82
466.732	94
466.951	88
467.171	87
467.391	81
467.61	101
467.829	100
468.049	92
468.268	77
468.488	85
468.707	80
468.927	79
469.146	93
469.365	86
469.585	83
469.804	89
470.023	106
470.243	98
470.462	104
470.681	96
470.901	84
471.12	69
471.339	82
471.558	95
471.777	80
471.997	88
472.216	86
472.435	97
472.654	92
472.873	88
473.092	93
473.311	90
473.53	83
473.749	84
473.968	92
474.187	97
474.406	102
474.625	80
474.844	93
475.063	86
475.282	98
475.501	93
475.72	96
475.939	68
476.158	91
476.377	78
476.596	90
476.814	97
477.033	97
477.252	97
477.471	76
477.69	84
477.908	80
478.127	94
478.346	91
478.564	74
478.783	84
479.002	90
479.22	92
479.439	99
479.658	100
479.876	91
480.095	88
480.313	94
480.532	84
480.751	94
480.969	78
481.188	91
481.406	89
481.624	89
481.843	92
482.061	96
482.28	96
482.498	81
482.717	90
482.935	82
483.153	95
483.372	93
483.59	79
483.808	96
484.027	88
484.245	78
484.463	85
484.681	102
484.9	97
485.118	88
485.336	84
485.554	96
485.772	94
485.99	116
486.209	101
486.427	88
486.645	98
486.863	113
487.081	107
487.299	92
487.517	91
487.735	97
487.953	99
488.171	94
488.389	87
488.607	93
488.825	99
489.043	101
489.261	101
489.479	80
489.696	88
489.914	81
490.132	95
490.35	84
490.568	96
490.786	85
491.003	68
491.221	72
491.439	84
491.657	88
491.874	91
492.092	82
492.31	88
492.527	99
492.745	92
492.963	95
493.18	81
493.398	94
493.615	95
493.833	102
494.05	92
494.268	98
494.485	79
494.703	89
494.92	94
495.138	84
495.355	88
495.573	92
495.79	86
496.008	90
496.225	88
496.442	80
496.66	102
496.877	92
497.094	93
497.312	82
497.529	88
497.746	90
497.963	91
498.181	92
498.398	93
498.615	116
498.832	82
499.049	96
499.267	80
499.484	85
499.701	102
499.918	100
500.135	88
500.352	81
500.569	92
500.786	100
501.003	105
501.22	85
501.437	99
501.654	90
501.871	105
502.088	101
502.305	84
502.522	95
502.739	93
502.956	90
503.172	110
503.389	82
503.606	98
503.823	83
504.04	83
504.256	91
504.473	76
504.69	97
504.907	97
505.123	109
505.34	96
505.557	86
505.773	103
505.99	107
506.207	83
506.423	101
506.64	90
506.856	89
507.073	89
507.289	82
507.506	78
507.722	92
507.939	106
508.155	97
508.372	92
508.588	102
508.805	86
509.021	88
509.238	102
509.454	91
509.67	110
509.887	120
510.103	124
510.319	203
510.536	738
510.752	2246
510.968	611
511.184	136
511.401	113
511.617	89
511.833	93
512.049	89
512.265	101
512.481	88
512.698	78
512.914	95
513.13	104
513.346	92
513.562	90
513.778	84
513.994	98
514.21	98
514.426	108
514.642	123
514.858	129
515.074	154
515.29	441
515.506	1380
515.721	511
515.937	149
516.153	104
516.369	91
516.585	87
516.801	109
517.016	91
517.232	88
517.448	86
517.664	106
517.879	94
518.095	81
518.311	97
518.527	105
518.742	93
518.958	97
519.173	102
519.389	94
519.605	99
519.82	89
520.036	102
520.251	116
520.467	110
520.682	102
520.898	106
521.113	111
521.329	147
521.544	200
521.76	538
521.975	2270
522.19	1322
522.406	295
522.621	138
522.836	95
523.052	85
523.267	98
523.482	86
523.698	102
523.913	122
524.128	90
524.343	81
524.559	83
524.774	78
524.989	115
525.204	93
525.419	98
525.634	92
525.849	88
526.064	87
526.28	94
526.495	80
526.71	87
526.925	93
527.14	97
527.355	94
527.57	99
527.785	92
527.999	91
528.214	103
528.429	90
528.644	95
528.859	113
529.074	98
529.289	107
529.503	181
529.718	109
529.933	88
530.148	85
530.363	103
530.577	90
530.792	93
531.007	111
531.221	96
531.436	78
531.651	88
531.865	85
532.08	95
532.295	90
532.509	94
532.724	87
532.938	98
533.153	92
533.367	84
533.582	79
533.796	85
534.011	96
534.225	99
534.44	89
534.654	97
534.868	90
535.083	86
535.297	97
535.511	113
535.726	119
535.94	92
536.154	90
536.369	93
536.583	85
536.797	90
537.011	83
537.225	97
537.44	88
537.654	99
537.868	85
538.082	89
538.296	76
538.51	99
538.724	86
538.938	96
539.153	86
539.367	112
539.581	99
539.795	102
540.009	94
540.222	93
540.436	91
540.65	89
540.864	88
541.078	83
541.292	96
541.506	89
541.72	94
541.934	89
542.147	93
542.361	106
542.575	96
542.789	94
543.002	101
543.216	92
543.43	101
543.644	101
543.857	82
544.071	90
544.285	97
544.498	87
544.712	84
544.925	93
545.139	88
545.352	86
545.566	98
545.779	84
545.993	88
546.206	90
546.42	96
546.633	98
546.847	89
547.06	98
547.274	96
547.487	92
547.7	81
547.914	86
548.127	78
548.34	89
548.554	89
548.767	91
548.98	84
549.193	89
549.407	84
549.62	92
549.833	76
550.046	83
550.259	72
550.473	83
550.686	82
550.899	97
551.112	88
551.325	81
551.538	83
551.751	84
551.964	85
552.177	87
552.39	94
552.603	97
552.816	87
553.029	104
553.242	85
553.455	99
553.667	95
553.88	106
554.093	96
554.306	98
554.519	91
554.732	89
554.944	83
555.157	84
555.37	80
555.583	95
555.795	89
556.008	84
556.221	83
556.433	83
556.646	80
556.859	91
557.071	94
557.284	78
557.496	97
557.709	82
557.921	91
558.134	92
558.346	101
558.559	88
558.771	86
558.984	104
559.196	78
559.409	89
559.621	76
559.833	79
560.046	89
560.258	78
560.47	102
560.683	101
560.895	82
561.107	82
561.32	91
561.532	80
561.744	99
561.956	105
562.168	85
562.381	75
562.593	88
562.805	80
563.017	94
563.229	87
563.441	79
563.653	94
563.865	95
564.077	104
564.289	81
564.501	78
564.713	105
564.925	90
565.137	99
565.349	87
565.561	99
565.773	88
565.985	98
566.197	95
566.408	89
566.62	86
566.832	89
567.044	89
567.255	90
567.467	93
567.679	92
567.891	90
568.102	86
568.314	86
568.526	83
568.737	75
568.949	90
569.161	99
569.372	93
569.584	84
569.795	100
570.007	113
570.218	215
570.43	129
570.641	95
570.853	92
571.064	87
571.276	90
571.487	88
571.698	95
571.91	89
572.121	86
572.333	79
572.544	83
572.755	77
572.966	89
573.178	88
573.389	96
573.6	89
573.811	89
574.023	93
574.234	102
574.445	83
574.656	98
574.867	93
575.078	83
575.289	96
575.501	97
575.712	89
575.923	84
576.134	88
576.345	92
576.556	81
576.767	93
576.978	94
577.188	78
577.399	96
577.61	83
577.821	97
578.032	110
578.243	266
578.454	724
578.665	195
578.875	115
579.086	91
579.297	86
579.508	88
579.718	75
579.929	90
580.14	95
580.35	88
580.561	96
580.772	88
580.982	90
581.193	99
581.403	85
581.614	91
581.825	94
582.035	88
582.246	87
582.456	85
582.667	90
582.877	88
583.087	78
583.298	85
583.508	91
583.719	95
583.929	109
584.139	84
584.35	88
584.56	85
584.77	84
584.981	79
585.191	91
