Data from Uncirc_1994_H10_HRD10591_00003.txt Node
Date: Wed Jan 03 11:39:21 EST 2024
User: Yrep
Spectrometer: HR+D1059
Trigger mode: 1
Integration Time (sec): 1.000000E-1
Scans to average: 1
Electric dark correction enabled: true
Nonlinearity correction enabled: false
Boxcar width: 0
XAxis mode: Wavelengths
Number of Pixels in Spectrum: 2048
>>>>>Begin Spectral Data<<<<<
223.165	-16.06
223.4	-16.06
223.635	-16.06
223.869	-21.06
224.104	-25.06
224.338	-14.06
224.573	-13.06
224.808	-14.06
225.042	-8.06
225.277	-17.06
225.511	-1.06
225.746	-8.06
225.98	7.94
226.215	22.94
226.449	20.94
226.683	23.94
226.918	25.94
227.152	35.94
227.387	48.94
227.621	53.94
227.856	37.94
228.09	44.94
228.324	41.94
228.559	62.94
228.793	60.94
229.027	60.94
229.262	61.94
229.496	59.94
229.73	75.94
229.964	98.94
230.199	84.94
230.433	74.94
230.667	59.94
230.901	65.94
231.136	67.94
231.37	78.94
231.604	79.94
231.838	90.94
232.072	87.94
232.306	93.94
232.541	78.94
232.775	84.94
233.009	91.94
233.243	81.94
233.477	90.94
233.711	76.94
233.945	91.94
234.179	72.94
234.413	72.94
234.647	83.94
234.881	73.94
235.115	71.94
235.349	79.94
235.583	90.94
235.817	72.94
236.051	84.94
236.285	74.94
236.519	67.94
236.753	84.94
236.987	81.94
237.221	72.94
237.455	94.94
237.689	83.94
237.922	71.94
238.156	61.94
238.39	61.94
238.624	73.94
238.858	80.94
239.091	65.94
239.325	77.94
239.559	77.94
239.793	78.94
240.027	81.94
240.26	72.94
240.494	73.94
240.728	86.94
240.961	77.94
241.195	71.94
241.429	63.94
241.662	75.94
241.896	75.94
242.13	77.94
242.363	67.94
242.597	68.94
242.83	88.94
243.064	77.94
243.298	87.94
243.531	74.94
243.765	84.94
243.998	69.94
244.232	75.94
244.465	94.94
244.699	67.94
244.932	71.94
245.166	62.94
245.399	83.94
245.633	84.94
245.866	92.94
246.099	74.94
246.333	85.94
246.566	89.94
246.8	85.94
247.033	73.94
247.266	78.94
247.5	63.94
247.733	71.94
247.966	81.94
248.2	88.94
248.433	84.94
248.666	84.94
248.899	82.94
249.133	75.94
249.366	96.94
249.599	82.94
249.832	69.94
250.066	83.94
250.299	95.94
250.532	76.94
250.765	84.94
250.998	81.94
251.231	94.94
251.465	71.94
251.698	71.94
251.931	86.94
252.164	72.94
252.397	86.94
252.63	79.94
252.863	84.94
253.096	90.94
253.329	89.94
253.562	72.94
253.795	85.94
254.028	83.94
254.261	74.94
254.494	105.94
254.727	99.94
254.96	71.94
255.193	67.94
255.426	70.94
255.659	79.94
255.892	82.94
256.124	82.94
256.357	84.94
256.59	80.94
256.823	72.94
257.056	89.94
257.289	81.94
257.521	84.94
257.754	79.94
257.987	74.94
258.22	73.94
258.452	92.94
258.685	77.94
258.918	73.94
259.151	79.94
259.383	81.94
259.616	80.94
259.849	64.94
260.081	74.94
260.314	87.94
260.547	88.94
260.779	95.94
261.012	85.94
261.244	84.94
261.477	90.94
261.71	106.94
261.942	108.94
262.175	97.94
262.407	95.94
262.64	79.94
262.872	98.94
263.105	70.94
263.337	78.94
263.57	90.94
263.802	74.94
264.035	96.94
264.267	83.94
264.499	80.94
264.732	75.94
264.964	80.94
265.197	78.94
265.429	89.94
265.661	73.94
265.894	81.94
266.126	79.94
266.358	85.94
266.591	83.94
266.823	93.94
267.055	84.94
267.287	87.94
267.52	64.94
267.752	90.94
267.984	65.94
268.216	77.94
268.448	95.94
268.681	84.94
268.913	94.94
269.145	99.94
269.377	81.94
269.609	87.94
269.841	78.94
270.073	75.94
270.306	77.94
270.538	83.94
270.77	98.94
271.002	77.94
271.234	87.94
271.466	87.94
271.698	80.94
271.93	91.94
272.162	79.94
272.394	87.94
272.626	91.94
272.858	79.94
273.09	82.94
273.322	88.94
273.553	86.94
273.785	88.94
274.017	84.94
274.249	73.94
274.481	81.94
274.713	90.94
274.945	79.94
275.176	100.94
275.408	82.94
275.64	88.94
275.872	102.94
276.104	83.94
276.335	94.94
276.567	79.94
276.799	87.94
277.031	95.94
277.262	80.94
277.494	82.94
277.726	92.94
277.957	61.94
278.189	85.94
278.421	83.94
278.652	74.94
278.884	80.94
279.115	75.94
279.347	83.94
279.579	79.94
279.81	93.94
280.042	84.94
280.273	79.94
280.505	100.94
280.736	82.94
280.968	82.94
281.199	76.94
281.431	102.94
281.662	81.94
281.894	91.94
282.125	112.94
282.356	119.94
282.588	116.94
282.819	90.94
283.051	89.94
283.282	88.94
283.513	94.94
283.745	92.94
283.976	91.94
284.207	92.94
284.439	84.94
284.67	90.94
284.901	92.94
285.132	73.94
285.364	93.94
285.595	91.94
285.826	77.94
286.057	88.94
286.288	91.94
286.52	80.94
286.751	82.94
286.982	97.94
287.213	99.94
287.444	99.94
287.675	88.94
287.906	87.94
288.138	98.94
288.369	92.94
288.6	88.94
288.831	83.94
289.062	95.94
289.293	77.94
289.524	65.94
289.755	77.94
289.986	91.94
290.217	82.94
290.448	77.94
290.679	96.94
290.91	97.94
291.141	92.94
291.371	95.94
291.602	77.94
291.833	73.94
292.064	79.94
292.295	75.94
292.526	67.94
292.757	105.94
292.987	89.94
293.218	97.94
293.449	81.94
293.68	76.94
293.91	80.94
294.141	66.94
294.372	96.94
294.603	92.94
294.833	81.94
295.064	81.94
295.295	83.94
295.525	89.94
295.756	98.94
295.987	101.94
296.217	112.94
296.448	117.94
296.679	106.94
296.909	112.94
297.14	89.94
297.37	92.94
297.601	87.94
297.831	87.94
298.062	88.94
298.292	94.94
298.523	101.94
298.753	106.94
298.984	92.94
299.214	85.94
299.445	98.94
299.675	95.94
299.905	95.94
300.136	83.94
300.366	81.94
300.597	100.94
300.827	73.94
301.057	87.94
301.288	105.94
301.518	91.94
301.748	91.94
301.979	95.94
302.209	72.94
302.439	87.94
302.669	87.94
302.9	85.94
303.13	90.94
303.36	95.94
303.59	85.94
303.82	99.94
304.051	89.94
304.281	88.94
304.511	105.94
304.741	92.94
304.971	97.94
305.201	90.94
305.431	89.94
305.661	99.94
305.891	102.94
306.121	95.94
306.352	102.94
306.582	100.94
306.812	98.94
307.042	84.94
307.272	100.94
307.502	96.94
307.731	99.94
307.961	87.94
308.191	84.94
308.421	87.94
308.651	84.94
308.881	99.94
309.111	95.94
309.341	86.94
309.571	96.94
309.8	94.94
310.03	93.94
310.26	89.94
310.49	93.94
310.72	102.94
310.949	103.94
311.179	99.94
311.409	80.94
311.639	94.94
311.868	92.94
312.098	91.94
312.328	95.94
312.557	128.94
312.787	107.94
313.017	100.94
313.246	87.94
313.476	91.94
313.706	90.94
313.935	80.94
314.165	88.94
314.394	100.94
314.624	94.94
314.853	110.94
315.083	83.94
315.312	83.94
315.542	96.94
315.771	93.94
316.001	91.94
316.23	90.94
316.46	89.94
316.689	96.94
316.919	102.94
317.148	96.94
317.377	87.94
317.607	83.94
317.836	93.94
318.065	82.94
318.295	100.94
318.524	93.94
318.753	79.94
318.983	99.94
319.212	90.94
319.441	102.94
319.67	111.94
319.9	92.94
320.129	105.94
320.358	99.94
320.587	95.94
320.816	91.94
321.046	116.94
321.275	106.94
321.504	91.94
321.733	74.94
321.962	94.94
322.191	114.94
322.42	91.94
322.649	107.94
322.878	109.94
323.108	128.94
323.337	112.94
323.566	135.94
323.795	152.94
324.024	192.94
324.253	328.94
324.482	714.94
324.71	1389.94
324.939	1856.94
325.168	677.94
325.397	211.94
325.626	146.94
325.855	125.94
326.084	116.94
326.313	134.94
326.542	141.94
326.77	190.94
326.999	394.94
327.228	816.94
327.457	1473.94
327.686	1143.94
327.914	316.94
328.143	170.94
328.372	121.94
328.6	100.94
328.829	110.94
329.058	125.94
329.287	116.94
329.515	116.94
329.744	93.94
329.972	84.94
330.201	97.94
330.43	109.94
330.658	105.94
330.887	114.94
331.115	120.94
331.344	84.94
331.572	87.94
331.801	85.94
332.03	99.94
332.258	98.94
332.486	100.94
332.715	100.94
332.943	100.94
333.172	107.94
333.4	93.94
333.629	98.94
333.857	101.94
334.085	101.94
334.314	100.94
334.542	91.94
334.771	82.94
334.999	99.94
335.227	95.94
335.455	88.94
335.684	110.94
335.912	113.94
336.14	112.94
336.369	97.94
336.597	109.94
336.825	105.94
337.053	100.94
337.281	105.94
337.51	94.94
337.738	97.94
337.966	107.94
338.194	81.94
338.422	90.94
338.65	92.94
338.878	97.94
339.106	108.94
339.334	96.94
339.562	75.94
339.79	79.94
340.018	83.94
340.246	89.94
340.474	84.94
340.702	92.94
340.93	99.94
341.158	81.94
341.386	99.94
341.614	89.94
341.842	97.94
342.07	87.94
342.298	94.94
342.526	93.94
342.754	82.94
342.981	99.94
343.209	95.94
343.437	104.94
343.665	95.94
343.893	100.94
344.12	100.94
344.348	96.94
344.576	88.94
344.804	89.94
345.031	84.94
345.259	106.94
345.487	101.94
345.714	82.94
345.942	91.94
346.17	82.94
346.397	101.94
346.625	91.94
346.853	99.94
347.08	96.94
347.308	95.94
347.535	97.94
347.763	95.94
347.99	96.94
348.218	99.94
348.445	90.94
348.673	89.94
348.9	80.94
349.128	97.94
349.355	79.94
349.583	104.94
349.81	95.94
350.037	79.94
350.265	79.94
350.492	102.94
350.72	88.94
350.947	90.94
351.174	116.94
351.402	109.94
351.629	92.94
351.856	93.94
352.083	97.94
352.311	104.94
352.538	107.94
352.765	92.94
352.992	105.94
353.22	113.94
353.447	104.94
353.674	99.94
353.901	92.94
354.128	95.94
354.355	87.94
354.583	105.94
354.81	98.94
355.037	98.94
355.264	107.94
355.491	93.94
355.718	93.94
355.945	100.94
356.172	96.94
356.399	94.94
356.626	88.94
356.853	79.94
357.08	85.94
357.307	100.94
357.534	89.94
357.761	90.94
357.988	107.94
358.215	103.94
358.441	81.94
358.668	98.94
358.895	90.94
359.122	101.94
359.349	83.94
359.576	86.94
359.802	95.94
360.029	94.94
360.256	105.94
360.483	103.94
360.709	98.94
360.936	99.94
361.163	89.94
361.39	85.94
361.616	99.94
361.843	98.94
362.07	101.94
362.296	103.94
362.523	96.94
362.749	90.94
362.976	101.94
363.203	85.94
363.429	82.94
363.656	90.94
363.882	79.94
364.109	84.94
364.335	76.94
364.562	77.94
364.788	78.94
365.015	98.94
365.241	82.94
365.468	99.94
365.694	93.94
365.92	86.94
366.147	87.94
366.373	83.94
366.599	92.94
366.826	85.94
367.052	90.94
367.278	96.94
367.505	89.94
367.731	88.94
367.957	91.94
368.184	84.94
368.41	101.94
368.636	111.94
368.862	102.94
369.089	103.94
369.315	87.94
369.541	91.94
369.767	106.94
369.993	84.94
370.219	87.94
370.445	86.94
370.672	92.94
370.898	95.94
371.124	82.94
371.35	85.94
371.576	96.94
371.802	75.94
372.028	87.94
372.254	92.94
372.48	91.94
372.706	85.94
372.932	92.94
373.158	95.94
373.384	90.94
373.61	82.94
373.835	85.94
374.061	89.94
374.287	90.94
374.513	100.94
374.739	95.94
374.965	97.94
375.191	104.94
375.416	88.94
375.642	96.94
375.868	92.94
376.094	88.94
376.319	65.94
376.545	89.94
376.771	87.94
376.997	82.94
377.222	96.94
377.448	95.94
377.674	78.94
377.899	104.94
378.125	88.94
378.35	80.94
378.576	92.94
378.802	81.94
379.027	87.94
379.253	101.94
379.478	100.94
379.704	95.94
379.929	99.94
380.155	88.94
380.38	88.94
380.606	89.94
380.831	107.94
381.057	96.94
381.282	83.94
381.507	99.94
381.733	84.94
381.958	95.94
382.184	94.94
382.409	107.94
382.634	102.94
382.86	91.94
383.085	105.94
383.31	112.94
383.535	107.94
383.761	99.94
383.986	93.94
384.211	96.94
384.436	92.94
384.662	100.94
384.887	97.94
385.112	89.94
385.337	98.94
385.562	115.94
385.787	115.94
386.013	113.94
386.238	104.94
386.463	99.94
386.688	116.94
386.913	106.94
387.138	105.94
387.363	104.94
387.588	86.94
387.813	89.94
388.038	115.94
388.263	118.94
388.488	112.94
388.713	103.94
388.938	104.94
389.163	85.94
389.387	99.94
389.612	87.94
389.837	84.94
390.062	91.94
390.287	92.94
390.512	101.94
390.736	90.94
390.961	96.94
391.186	89.94
391.411	95.94
391.636	85.94
391.86	80.94
392.085	85.94
392.31	81.94
392.534	90.94
392.759	79.94
392.984	96.94
393.208	99.94
393.433	115.94
393.658	124.94
393.882	90.94
394.107	90.94
394.331	89.94
394.556	74.94
394.78	103.94
395.005	90.94
395.229	75.94
395.454	71.94
395.678	89.94
395.903	96.94
396.127	104.94
396.352	91.94
396.576	89.94
396.801	76.94
397.025	101.94
397.249	86.94
397.474	81.94
397.698	88.94
397.922	92.94
398.147	99.94
398.371	83.94
398.595	76.94
398.82	95.94
399.044	79.94
399.268	94.94
399.492	84.94
399.717	89.94
399.941	106.94
400.165	93.94
400.389	83.94
400.613	74.94
400.837	83.94
401.062	96.94
401.286	86.94
401.51	92.94
401.734	88.94
401.958	107.94
402.182	107.94
402.406	124.94
402.63	99.94
402.854	94.94
403.078	84.94
403.302	89.94
403.526	71.94
403.75	81.94
403.974	83.94
404.198	72.94
404.422	84.94
404.645	80.94
404.869	77.94
405.093	88.94
405.317	86.94
405.541	89.94
405.765	84.94
405.988	107.94
406.212	138.94
406.436	182.94
406.66	135.94
406.883	89.94
407.107	92.94
407.331	93.94
407.555	92.94
407.778	81.94
408.002	99.94
408.226	90.94
408.449	87.94
408.673	78.94
408.896	83.94
409.12	107.94
409.344	94.94
409.567	79.94
409.791	100.94
410.014	100.94
410.238	99.94
410.461	89.94
410.685	81.94
410.908	96.94
411.132	100.94
411.355	91.94
411.578	85.94
411.802	87.94
412.025	87.94
412.249	98.94
412.472	95.94
412.695	89.94
412.919	78.94
413.142	81.94
413.365	87.94
413.589	86.94
413.812	90.94
414.035	99.94
414.258	79.94
414.482	90.94
414.705	86.94
414.928	87.94
415.151	96.94
415.374	99.94
415.597	95.94
415.821	85.94
416.044	76.94
416.267	91.94
416.49	89.94
416.713	83.94
416.936	83.94
417.159	98.94
417.382	85.94
417.605	92.94
417.828	95.94
418.051	92.94
418.274	92.94
418.497	68.94
418.72	89.94
418.943	89.94
419.166	80.94
419.389	95.94
419.611	97.94
419.834	82.94
420.057	89.94
420.28	95.94
420.503	84.94
420.726	85.94
420.948	86.94
421.171	98.94
421.394	89.94
421.617	72.94
421.839	104.94
422.062	89.94
422.285	94.94
422.507	85.94
422.73	96.94
422.953	87.94
423.175	97.94
423.398	91.94
423.621	93.94
423.843	83.94
424.066	81.94
424.288	101.94
424.511	83.94
424.733	91.94
424.956	95.94
425.178	90.94
425.401	113.94
425.623	108.94
425.846	83.94
426.068	97.94
426.291	87.94
426.513	98.94
426.735	96.94
426.958	98.94
427.18	105.94
427.402	119.94
427.625	150.94
427.847	124.94
428.069	102.94
428.292	98.94
428.514	83.94
428.736	90.94
428.958	93.94
429.181	99.94
429.403	94.94
429.625	96.94
429.847	98.94
430.069	97.94
430.292	85.94
430.514	77.94
430.736	73.94
430.958	78.94
431.18	89.94
431.402	93.94
431.624	94.94
431.846	90.94
432.068	79.94
432.29	91.94
432.512	89.94
432.734	80.94
432.956	89.94
433.178	93.94
433.4	90.94
433.622	84.94
433.844	85.94
434.066	95.94
434.287	84.94
434.509	101.94
434.731	98.94
434.953	88.94
435.175	93.94
435.397	95.94
435.618	91.94
435.84	102.94
436.062	108.94
436.284	110.94
436.505	107.94
436.727	94.94
436.949	96.94
437.17	85.94
437.392	91.94
437.614	94.94
437.835	99.94
438.057	101.94
438.278	114.94
438.5	104.94
438.721	114.94
438.943	97.94
439.165	98.94
439.386	98.94
439.608	94.94
439.829	98.94
440.05	114.94
440.272	124.94
440.493	96.94
440.715	89.94
440.936	77.94
441.158	96.94
441.379	76.94
441.6	88.94
441.822	95.94
442.043	94.94
442.264	111.94
442.486	97.94
442.707	95.94
442.928	90.94
443.149	112.94
443.371	104.94
443.592	93.94
443.813	114.94
444.034	102.94
444.255	73.94
444.476	92.94
444.698	69.94
444.919	87.94
445.14	131.94
445.361	114.94
445.582	114.94
445.803	124.94
446.024	111.94
446.245	115.94
446.466	108.94
446.687	93.94
446.908	81.94
447.129	86.94
447.35	92.94
447.571	108.94
447.792	84.94
448.013	92.94
448.234	82.94
448.455	92.94
448.675	108.94
448.896	110.94
449.117	102.94
449.338	94.94
449.559	130.94
449.779	108.94
450	99.94
450.221	88.94
450.442	84.94
450.662	90.94
450.883	101.94
451.104	96.94
451.324	88.94
451.545	92.94
451.766	87.94
451.986	84.94
452.207	85.94
452.428	72.94
452.648	94.94
452.869	97.94
453.089	109.94
453.31	111.94
453.53	84.94
453.751	82.94
453.971	107.94
454.192	101.94
454.412	99.94
454.633	75.94
454.853	85.94
455.073	96.94
455.294	76.94
455.514	103.94
455.734	80.94
455.955	83.94
456.175	88.94
456.395	83.94
456.616	82.94
456.836	86.94
457.056	84.94
457.276	85.94
457.497	82.94
457.717	77.94
457.937	77.94
458.157	91.94
458.377	90.94
458.598	91.94
458.818	124.94
459.038	130.94
459.258	119.94
459.478	93.94
459.698	71.94
459.918	78.94
460.138	84.94
460.358	83.94
460.578	79.94
460.798	85.94
461.018	87.94
461.238	85.94
461.458	80.94
461.678	73.94
461.898	88.94
462.118	91.94
462.338	89.94
462.558	83.94
462.777	84.94
462.997	90.94
463.217	99.94
463.437	85.94
463.657	88.94
463.876	89.94
464.096	95.94
464.316	75.94
464.536	102.94
464.755	85.94
464.975	98.94
465.195	134.94
465.414	141.94
465.634	96.94
465.854	100.94
466.073	94.94
466.293	83.94
466.512	94.94
466.732	85.94
466.951	89.94
467.171	90.94
467.391	91.94
467.61	101.94
467.829	93.94
468.049	85.94
468.268	73.94
468.488	87.94
468.707	83.94
468.927	84.94
469.146	85.94
469.365	88.94
469.585	87.94
469.804	98.94
470.023	88.94
470.243	93.94
470.462	117.94
470.681	108.94
470.901	97.94
471.12	91.94
471.339	88.94
471.558	78.94
471.777	86.94
471.997	84.94
472.216	89.94
472.435	95.94
472.654	82.94
472.873	82.94
473.092	97.94
473.311	80.94
473.53	91.94
473.749	88.94
473.968	93.94
474.187	110.94
474.406	99.94
474.625	105.94
474.844	90.94
475.063	85.94
475.282	94.94
475.501	93.94
475.72	100.94
475.939	104.94
476.158	87.94
476.377	77.94
476.596	96.94
476.814	82.94
477.033	98.94
477.252	91.94
477.471	81.94
477.69	90.94
477.908	82.94
478.127	97.94
478.346	101.94
478.564	84.94
478.783	99.94
479.002	86.94
479.22	97.94
479.439	100.94
479.658	95.94
479.876	78.94
480.095	93.94
480.313	84.94
480.532	91.94
480.751	98.94
480.969	74.94
481.188	95.94
481.406	93.94
481.624	91.94
481.843	82.94
482.061	81.94
482.28	103.94
482.498	85.94
482.717	105.94
482.935	86.94
483.153	78.94
483.372	81.94
483.59	83.94
483.808	95.94
484.027	77.94
484.245	92.94
484.463	94.94
484.681	93.94
484.9	94.94
485.118	91.94
485.336	92.94
485.554	104.94
485.772	99.94
485.99	103.94
486.209	102.94
486.427	99.94
486.645	109.94
486.863	100.94
487.081	94.94
487.299	107.94
487.517	109.94
487.735	107.94
487.953	92.94
488.171	96.94
488.389	103.94
488.607	100.94
488.825	87.94
489.043	88.94
489.261	82.94
489.479	90.94
489.696	101.94
489.914	82.94
490.132	85.94
490.35	85.94
490.568	95.94
490.786	95.94
491.003	89.94
491.221	85.94
491.439	99.94
491.657	103.94
491.874	92.94
492.092	86.94
492.31	92.94
492.527	93.94
492.745	97.94
492.963	90.94
493.18	71.94
493.398	104.94
493.615	97.94
493.833	78.94
494.05	96.94
494.268	84.94
494.485	86.94
494.703	94.94
494.92	104.94
495.138	89.94
495.355	95.94
495.573	105.94
495.79	100.94
496.008	95.94
496.225	97.94
496.442	87.94
496.66	91.94
496.877	89.94
497.094	89.94
497.312	92.94
497.529	92.94
497.746	97.94
497.963	101.94
498.181	99.94
498.398	115.94
498.615	101.94
498.832	100.94
499.049	90.94
499.267	88.94
499.484	86.94
499.701	92.94
499.918	101.94
500.135	84.94
500.352	84.94
500.569	87.94
500.786	87.94
501.003	100.94
501.22	95.94
501.437	87.94
501.654	88.94
501.871	107.94
502.088	84.94
502.305	87.94
502.522	96.94
502.739	83.94
502.956	95.94
503.172	97.94
503.389	104.94
503.606	113.94
503.823	104.94
504.04	98.94
504.256	85.94
504.473	97.94
504.69	93.94
504.907	88.94
505.123	89.94
505.34	92.94
505.557	86.94
505.773	89.94
505.99	90.94
506.207	93.94
506.423	83.94
506.64	91.94
506.856	71.94
507.073	92.94
507.289	84.94
507.506	88.94
507.722	106.94
507.939	91.94
508.155	107.94
508.372	104.94
508.588	99.94
508.805	94.94
509.021	108.94
509.238	105.94
509.454	104.94
509.67	89.94
509.887	105.94
510.103	111.94
510.319	187.94
510.536	644.94
510.752	1918.94
510.968	546.94
511.184	139.94
511.401	95.94
511.617	93.94
511.833	85.94
512.049	85.94
512.265	83.94
512.481	93.94
512.698	117.94
512.914	95.94
513.13	90.94
513.346	93.94
513.562	80.94
513.778	97.94
513.994	98.94
514.21	106.94
514.426	127.94
514.642	122.94
514.858	113.94
515.074	147.94
515.29	367.94
515.506	1149.94
515.721	437.94
515.937	151.94
516.153	91.94
