Data from Uncirc_1994_H10_HRD10591_00069.txt Node
Date: Wed Jan 03 11:39:34 EST 2024
User: Yrep
Spectrometer: HR+D1059
Trigger mode: 1
Integration Time (sec): 1.000000E-1
Scans to average: 1
Electric dark correction enabled: true
Nonlinearity correction enabled: false
Boxcar width: 0
XAxis mode: Wavelengths
Number of Pixels in Spectrum: 2048
>>>>>Begin Spectral Data<<<<<
223.165	-15.31
223.4	-15.31
223.635	-15.31
223.869	-11.31
224.104	-15.31
224.338	-18.31
224.573	-3.31
224.808	-22.31
225.042	-18.31
225.277	-12.31
225.511	-6.31
225.746	14.69
225.98	-6.31
226.215	6.69
226.449	23.69
226.683	28.69
226.918	22.69
227.152	32.69
227.387	15.69
227.621	25.69
227.856	42.69
228.09	42.69
228.324	49.69
228.559	48.69
228.793	53.69
229.027	59.69
229.262	73.69
229.496	61.69
229.73	77.69
229.964	74.69
230.199	71.69
230.433	64.69
230.667	85.69
230.901	78.69
231.136	69.69
231.37	77.69
231.604	81.69
231.838	80.69
232.072	71.69
232.306	79.69
232.541	69.69
232.775	89.69
233.009	63.69
233.243	72.69
233.477	73.69
233.711	70.69
233.945	83.69
234.179	67.69
234.413	64.69
234.647	75.69
234.881	83.69
235.115	69.69
235.349	68.69
235.583	58.69
235.817	79.69
236.051	84.69
236.285	78.69
236.519	70.69
236.753	70.69
236.987	68.69
237.221	86.69
237.455	76.69
237.689	69.69
237.922	72.69
238.156	65.69
238.39	69.69
238.624	79.69
238.858	78.69
239.091	65.69
239.325	78.69
239.559	59.69
239.793	76.69
240.027	62.69
240.26	72.69
240.494	71.69
240.728	79.69
240.961	74.69
241.195	75.69
241.429	70.69
241.662	71.69
241.896	84.69
242.13	71.69
242.363	75.69
242.597	78.69
242.83	72.69
243.064	76.69
243.298	83.69
243.531	81.69
243.765	57.69
243.998	62.69
244.232	62.69
244.465	56.69
244.699	72.69
244.932	67.69
245.166	76.69
245.399	80.69
245.633	59.69
245.866	71.69
246.099	71.69
246.333	85.69
246.566	75.69
246.8	83.69
247.033	67.69
247.266	71.69
247.5	70.69
247.733	75.69
247.966	54.69
248.2	65.69
248.433	88.69
248.666	89.69
248.899	67.69
249.133	70.69
249.366	86.69
249.599	87.69
249.832	75.69
250.066	78.69
250.299	76.69
250.532	54.69
250.765	71.69
250.998	74.69
251.231	62.69
251.465	69.69
251.698	73.69
251.931	64.69
252.164	62.69
252.397	69.69
252.63	62.69
252.863	78.69
253.096	85.69
253.329	83.69
253.562	73.69
253.795	69.69
254.028	75.69
254.261	79.69
254.494	71.69
254.727	81.69
254.96	85.69
255.193	75.69
255.426	93.69
255.659	76.69
255.892	71.69
256.124	76.69
256.357	69.69
256.59	75.69
256.823	78.69
257.056	80.69
257.289	75.69
257.521	79.69
257.754	77.69
257.987	75.69
258.22	77.69
258.452	58.69
258.685	82.69
258.918	85.69
259.151	77.69
259.383	84.69
259.616	69.69
259.849	78.69
260.081	85.69
260.314	66.69
260.547	75.69
260.779	79.69
261.012	83.69
261.244	76.69
261.477	81.69
261.71	81.69
261.942	102.69
262.175	104.69
262.407	89.69
262.64	85.69
262.872	73.69
263.105	93.69
263.337	73.69
263.57	79.69
263.802	81.69
264.035	85.69
264.267	80.69
264.499	79.69
264.732	77.69
264.964	76.69
265.197	77.69
265.429	83.69
265.661	88.69
265.894	74.69
266.126	90.69
266.358	82.69
266.591	81.69
266.823	79.69
267.055	78.69
267.287	92.69
267.52	87.69
267.752	80.69
267.984	93.69
268.216	83.69
268.448	72.69
268.681	81.69
268.913	79.69
269.145	73.69
269.377	86.69
269.609	93.69
269.841	71.69
270.073	68.69
270.306	71.69
270.538	81.69
270.77	75.69
271.002	85.69
271.234	87.69
271.466	87.69
271.698	75.69
271.93	77.69
272.162	77.69
272.394	80.69
272.626	77.69
272.858	81.69
273.09	89.69
273.322	83.69
273.553	73.69
273.785	78.69
274.017	56.69
274.249	73.69
274.481	84.69
274.713	75.69
274.945	83.69
275.176	90.69
275.408	81.69
275.64	79.69
275.872	88.69
276.104	69.69
276.335	96.69
276.567	98.69
276.799	94.69
277.031	86.69
277.262	92.69
277.494	90.69
277.726	76.69
277.957	85.69
278.189	89.69
278.421	91.69
278.652	83.69
278.884	94.69
279.115	74.69
279.347	74.69
279.579	95.69
279.81	72.69
280.042	88.69
280.273	82.69
280.505	84.69
280.736	76.69
280.968	71.69
281.199	84.69
281.431	86.69
281.662	87.69
281.894	82.69
282.125	91.69
282.356	97.69
282.588	118.69
282.819	102.69
283.051	91.69
283.282	73.69
283.513	87.69
283.745	75.69
283.976	88.69
284.207	81.69
284.439	86.69
284.67	105.69
284.901	76.69
285.132	89.69
285.364	94.69
285.595	82.69
285.826	96.69
286.057	92.69
286.288	82.69
286.52	84.69
286.751	68.69
286.982	58.69
287.213	69.69
287.444	85.69
287.675	72.69
287.906	79.69
288.138	83.69
288.369	86.69
288.6	88.69
288.831	86.69
289.062	93.69
289.293	74.69
289.524	101.69
289.755	83.69
289.986	85.69
290.217	74.69
290.448	68.69
290.679	79.69
290.91	94.69
291.141	79.69
291.371	80.69
291.602	77.69
291.833	80.69
292.064	94.69
292.295	100.69
292.526	87.69
292.757	87.69
292.987	75.69
293.218	79.69
293.449	83.69
293.68	80.69
293.91	88.69
294.141	78.69
294.372	86.69
294.603	71.69
294.833	87.69
295.064	88.69
295.295	104.69
295.525	76.69
295.756	99.69
295.987	102.69
296.217	122.69
296.448	116.69
296.679	85.69
296.909	83.69
297.14	90.69
297.37	88.69
297.601	95.69
297.831	86.69
298.062	94.69
298.292	79.69
298.523	77.69
298.753	89.69
298.984	73.69
299.214	96.69
299.445	81.69
299.675	101.69
299.905	95.69
300.136	87.69
300.366	89.69
300.597	104.69
300.827	86.69
301.057	100.69
301.288	85.69
301.518	97.69
301.748	79.69
301.979	90.69
302.209	96.69
302.439	85.69
302.669	93.69
302.9	92.69
303.13	82.69
303.36	92.69
303.59	96.69
303.82	97.69
304.051	85.69
304.281	94.69
304.511	84.69
304.741	80.69
304.971	81.69
305.201	86.69
305.431	93.69
305.661	86.69
305.891	95.69
306.121	71.69
306.352	92.69
306.582	99.69
306.812	78.69
307.042	101.69
307.272	89.69
307.502	87.69
307.731	91.69
307.961	88.69
308.191	92.69
308.421	76.69
308.651	83.69
308.881	85.69
309.111	83.69
309.341	70.69
309.571	97.69
309.8	87.69
310.03	81.69
310.26	103.69
310.49	88.69
310.72	95.69
310.949	99.69
311.179	103.69
311.409	94.69
311.639	79.69
311.868	96.69
312.098	94.69
312.328	83.69
312.557	112.69
312.787	82.69
313.017	93.69
313.246	77.69
313.476	101.69
313.706	81.69
313.935	91.69
314.165	95.69
314.394	101.69
314.624	83.69
314.853	100.69
315.083	104.69
315.312	76.69
315.542	92.69
315.771	84.69
316.001	90.69
316.23	73.69
316.46	74.69
316.689	101.69
316.919	84.69
317.148	86.69
317.377	93.69
317.607	88.69
317.836	84.69
318.065	81.69
318.295	94.69
318.524	95.69
318.753	97.69
318.983	84.69
319.212	101.69
319.441	105.69
319.67	98.69
319.9	81.69
320.129	96.69
320.358	79.69
320.587	89.69
320.816	85.69
321.046	88.69
321.275	91.69
321.504	77.69
321.733	100.69
321.962	89.69
322.191	97.69
322.42	87.69
322.649	91.69
322.878	109.69
323.108	99.69
323.337	99.69
323.566	127.69
323.795	145.69
324.024	188.69
324.253	352.69
324.482	781.69
324.71	1665.69
324.939	2119.69
325.168	768.69
325.397	217.69
325.626	143.69
325.855	134.69
326.084	113.69
326.313	116.69
326.542	143.69
326.77	224.69
326.999	428.69
327.228	903.69
327.457	1661.69
327.686	1269.69
327.914	335.69
328.143	179.69
328.372	143.69
328.6	105.69
328.829	115.69
329.058	119.69
329.287	121.69
329.515	94.69
329.744	97.69
329.972	97.69
330.201	112.69
330.43	110.69
330.658	118.69
330.887	142.69
331.115	107.69
331.344	85.69
331.572	112.69
331.801	93.69
332.03	90.69
332.258	103.69
332.486	89.69
332.715	79.69
332.943	92.69
333.172	93.69
333.4	94.69
333.629	100.69
333.857	102.69
334.085	93.69
334.314	97.69
334.542	94.69
334.771	90.69
334.999	92.69
335.227	87.69
335.455	91.69
335.684	83.69
335.912	95.69
336.14	102.69
336.369	97.69
336.597	88.69
336.825	94.69
337.053	82.69
337.281	99.69
337.51	91.69
337.738	90.69
337.966	91.69
338.194	91.69
338.422	89.69
338.65	89.69
338.878	83.69
339.106	87.69
339.334	81.69
339.562	78.69
339.79	85.69
340.018	87.69
340.246	92.69
340.474	87.69
340.702	66.69
340.93	88.69
341.158	97.69
341.386	93.69
341.614	109.69
341.842	86.69
342.07	83.69
342.298	79.69
342.526	98.69
342.754	87.69
342.981	83.69
343.209	88.69
343.437	93.69
343.665	81.69
343.893	80.69
344.12	99.69
344.348	94.69
344.576	87.69
344.804	97.69
345.031	92.69
345.259	85.69
345.487	80.69
345.714	104.69
345.942	95.69
346.17	80.69
346.397	92.69
346.625	95.69
346.853	85.69
347.08	91.69
347.308	94.69
347.535	91.69
347.763	86.69
347.99	90.69
348.218	94.69
348.445	91.69
348.673	90.69
348.9	94.69
349.128	92.69
349.355	88.69
349.583	93.69
349.81	91.69
350.037	85.69
350.265	83.69
350.492	66.69
350.72	80.69
350.947	102.69
351.174	113.69
351.402	106.69
351.629	85.69
351.856	92.69
352.083	106.69
352.311	115.69
352.538	96.69
352.765	90.69
352.992	109.69
353.22	109.69
353.447	86.69
353.674	103.69
353.901	90.69
354.128	94.69
354.355	82.69
354.583	88.69
354.81	87.69
355.037	94.69
355.264	73.69
355.491	90.69
355.718	75.69
355.945	73.69
356.172	86.69
356.399	91.69
356.626	83.69
356.853	101.69
357.08	97.69
357.307	71.69
357.534	96.69
357.761	80.69
357.988	88.69
358.215	80.69
358.441	93.69
358.668	91.69
358.895	87.69
359.122	76.69
359.349	87.69
359.576	94.69
359.802	97.69
360.029	103.69
360.256	75.69
360.483	97.69
360.709	97.69
360.936	71.69
361.163	99.69
361.39	92.69
361.616	89.69
361.843	99.69
362.07	84.69
362.296	104.69
362.523	94.69
362.749	93.69
362.976	96.69
363.203	88.69
363.429	82.69
363.656	83.69
363.882	97.69
364.109	93.69
364.335	96.69
364.562	98.69
364.788	79.69
365.015	94.69
365.241	96.69
365.468	96.69
365.694	91.69
365.92	86.69
366.147	91.69
366.373	100.69
366.599	91.69
366.826	87.69
367.052	84.69
367.278	99.69
367.505	90.69
367.731	92.69
367.957	88.69
368.184	76.69
368.41	87.69
368.636	92.69
368.862	99.69
369.089	87.69
369.315	78.69
369.541	91.69
369.767	93.69
369.993	80.69
370.219	89.69
370.445	91.69
370.672	74.69
370.898	94.69
371.124	90.69
371.35	85.69
371.576	81.69
371.802	95.69
372.028	90.69
372.254	83.69
372.48	89.69
372.706	97.69
372.932	72.69
373.158	81.69
373.384	79.69
373.61	92.69
373.835	85.69
374.061	97.69
374.287	89.69
374.513	84.69
374.739	91.69
374.965	83.69
375.191	85.69
375.416	67.69
375.642	79.69
375.868	90.69
376.094	91.69
376.319	96.69
376.545	77.69
376.771	76.69
376.997	85.69
377.222	83.69
377.448	88.69
377.674	75.69
377.899	84.69
378.125	69.69
378.35	89.69
378.576	79.69
378.802	69.69
379.027	79.69
379.253	85.69
379.478	83.69
379.704	88.69
379.929	95.69
380.155	102.69
380.38	92.69
380.606	86.69
380.831	97.69
381.057	92.69
381.282	91.69
381.507	94.69
381.733	99.69
381.958	85.69
382.184	79.69
382.409	96.69
382.634	90.69
382.86	83.69
383.085	83.69
383.31	92.69
383.535	87.69
383.761	98.69
383.986	98.69
384.211	99.69
384.436	104.69
384.662	92.69
384.887	94.69
385.112	92.69
385.337	96.69
385.562	102.69
385.787	92.69
386.013	100.69
386.238	93.69
386.463	94.69
386.688	112.69
386.913	94.69
387.138	95.69
387.363	85.69
387.588	93.69
387.813	100.69
388.038	91.69
388.263	110.69
388.488	105.69
388.713	90.69
388.938	91.69
389.163	95.69
389.387	100.69
389.612	96.69
389.837	77.69
390.062	89.69
390.287	76.69
390.512	75.69
390.736	79.69
390.961	90.69
391.186	89.69
391.411	80.69
391.636	91.69
391.86	80.69
392.085	75.69
392.31	71.69
392.534	82.69
392.759	90.69
392.984	100.69
393.208	90.69
393.433	81.69
393.658	79.69
393.882	82.69
394.107	75.69
394.331	85.69
394.556	81.69
394.78	85.69
395.005	81.69
395.229	77.69
395.454	90.69
395.678	87.69
395.903	85.69
396.127	73.69
396.352	92.69
396.576	79.69
396.801	79.69
397.025	89.69
397.249	72.69
397.474	81.69
397.698	81.69
397.922	85.69
398.147	88.69
398.371	82.69
398.595	78.69
398.82	99.69
399.044	80.69
399.268	85.69
399.492	81.69
399.717	78.69
399.941	76.69
400.165	97.69
400.389	80.69
400.613	94.69
400.837	87.69
401.062	87.69
401.286	95.69
401.51	82.69
401.734	89.69
401.958	100.69
402.182	128.69
402.406	138.69
402.63	103.69
402.854	87.69
403.078	86.69
403.302	84.69
403.526	77.69
403.75	95.69
403.974	90.69
404.198	84.69
404.422	79.69
404.645	72.69
404.869	78.69
405.093	89.69
405.317	96.69
405.541	77.69
405.765	83.69
405.988	107.69
406.212	167.69
406.436	207.69
406.66	126.69
406.883	90.69
407.107	96.69
407.331	103.69
407.555	87.69
407.778	94.69
408.002	93.69
408.226	78.69
408.449	92.69
408.673	88.69
408.896	102.69
409.12	102.69
409.344	89.69
409.567	95.69
409.791	103.69
410.014	92.69
410.238	92.69
410.461	83.69
410.685	78.69
410.908	80.69
411.132	84.69
411.355	97.69
411.578	72.69
411.802	79.69
412.025	82.69
412.249	87.69
412.472	82.69
412.695	92.69
412.919	83.69
413.142	87.69
413.365	102.69
413.589	68.69
413.812	75.69
414.035	87.69
414.258	96.69
414.482	85.69
414.705	82.69
414.928	95.69
415.151	91.69
415.374	93.69
415.597	86.69
415.821	82.69
416.044	82.69
416.267	62.69
416.49	81.69
416.713	95.69
416.936	82.69
417.159	94.69
417.382	67.69
417.605	78.69
417.828	88.69
418.051	75.69
418.274	87.69
418.497	84.69
418.72	95.69
418.943	79.69
419.166	88.69
419.389	89.69
419.611	79.69
419.834	92.69
420.057	88.69
420.28	86.69
420.503	82.69
420.726	82.69
420.948	82.69
421.171	91.69
421.394	80.69
421.617	89.69
421.839	73.69
422.062	81.69
422.285	80.69
422.507	81.69
422.73	101.69
422.953	79.69
423.175	74.69
423.398	84.69
423.621	77.69
423.843	77.69
424.066	93.69
424.288	75.69
424.511	97.69
424.733	100.69
424.956	99.69
425.178	79.69
425.401	98.69
425.623	83.69
425.846	94.69
426.068	78.69
426.291	77.69
426.513	105.69
426.735	86.69
426.958	82.69
427.18	94.69
427.402	126.69
427.625	135.69
427.847	95.69
428.069	97.69
428.292	100.69
428.514	78.69
428.736	84.69
428.958	75.69
429.181	74.69
429.403	87.69
429.625	87.69
429.847	88.69
430.069	101.69
430.292	90.69
430.514	79.69
430.736	84.69
430.958	77.69
431.18	67.69
431.402	79.69
431.624	78.69
431.846	79.69
432.068	85.69
432.29	85.69
432.512	85.69
432.734	84.69
432.956	76.69
433.178	73.69
433.4	103.69
433.622	96.69
433.844	96.69
434.066	86.69
434.287	96.69
434.509	87.69
434.731	81.69
434.953	92.69
435.175	83.69
435.397	82.69
435.618	77.69
435.84	88.69
436.062	118.69
436.284	105.69
436.505	88.69
436.727	101.69
436.949	86.69
437.17	80.69
437.392	71.69
437.614	75.69
437.835	101.69
438.057	104.69
438.278	104.69
438.5	93.69
438.721	97.69
438.943	99.69
439.165	87.69
439.386	85.69
439.608	84.69
439.829	86.69
440.05	116.69
440.272	128.69
440.493	86.69
440.715	80.69
440.936	83.69
441.158	91.69
441.379	80.69
441.6	97.69
441.822	81.69
442.043	78.69
442.264	77.69
442.486	92.69
442.707	83.69
442.928	104.69
443.149	124.69
443.371	112.69
443.592	93.69
443.813	102.69
444.034	114.69
444.255	102.69
444.476	89.69
444.698	94.69
444.919	70.69
445.14	124.69
445.361	114.69
445.582	104.69
445.803	131.69
446.024	122.69
446.245	119.69
446.466	105.69
446.687	83.69
446.908	77.69
447.129	77.69
447.35	75.69
447.571	84.69
447.792	90.69
448.013	103.69
448.234	100.69
448.455	115.69
448.675	100.69
448.896	115.69
449.117	109.69
449.338	106.69
449.559	126.69
449.779	135.69
450	77.69
450.221	85.69
450.442	66.69
450.662	92.69
450.883	91.69
451.104	87.69
451.324	94.69
451.545	75.69
451.766	78.69
451.986	87.69
452.207	75.69
452.428	79.69
452.648	102.69
452.869	104.69
453.089	107.69
453.31	98.69
453.53	88.69
453.751	101.69
453.971	100.69
454.192	99.69
454.412	95.69
454.633	84.69
454.853	88.69
455.073	87.69
455.294	75.69
455.514	85.69
455.734	84.69
455.955	94.69
456.175	84.69
456.395	80.69
456.616	72.69
456.836	85.69
457.056	75.69
457.276	81.69
457.497	90.69
457.717	84.69
457.937	101.69
458.157	78.69
458.377	83.69
458.598	109.69
458.818	152.69
459.038	148.69
459.258	113.69
459.478	95.69
459.698	73.69
459.918	84.69
460.138	69.69
460.358	89.69
460.578	72.69
460.798	104.69
461.018	78.69
461.238	80.69
461.458	85.69
461.678	89.69
461.898	86.69
462.118	86.69
462.338	78.69
462.558	88.69
462.777	76.69
462.997	75.69
463.217	80.69
463.437	69.69
463.657	79.69
463.876	87.69
464.096	92.69
464.316	71.69
464.536	75.69
464.755	83.69
464.975	85.69
465.195	152.69
465.414	133.69
465.634	88.69
465.854	87.69
466.073	90.69
466.293	78.69
466.512	78.69
466.732	87.69
466.951	84.69
467.171	96.69
467.391	79.69
467.61	88.69
467.829	74.69
468.049	75.69
468.268	78.69
468.488	86.69
468.707	87.69
468.927	83.69
469.146	75.69
469.365	104.69
469.585	94.69
469.804	89.69
470.023	94.69
470.243	93.69
470.462	87.69
470.681	92.69
470.901	78.69
471.12	84.69
471.339	80.69
471.558	94.69
471.777	83.69
471.997	88.69
472.216	86.69
472.435	95.69
472.654	91.69
472.873	71.69
473.092	86.69
473.311	77.69
473.53	79.69
473.749	83.69
473.968	87.69
474.187	99.69
474.406	91.69
474.625	90.69
474.844	83.69
475.063	80.69
475.282	71.69
475.501	82.69
475.72	86.69
475.939	76.69
476.158	88.69
476.377	84.69
476.596	81.69
476.814	79.69
477.033	94.69
477.252	87.69
477.471	82.69
477.69	99.69
477.908	77.69
478.127	79.69
478.346	70.69
478.564	99.69
478.783	87.69
479.002	75.69
479.22	72.69
479.439	90.69
479.658	113.69
479.876	81.69
480.095	95.69
480.313	79.69
480.532	88.69
480.751	91.69
480.969	80.69
481.188	98.69
481.406	88.69
481.624	81.69
481.843	92.69
482.061	87.69
482.28	65.69
482.498	75.69
482.717	83.69
482.935	94.69
483.153	85.69
483.372	78.69
483.59	84.69
483.808	92.69
484.027	77.69
484.245	85.69
484.463	96.69
484.681	83.69
484.9	93.69
485.118	86.69
485.336	96.69
485.554	98.69
485.772	93.69
485.99	89.69
486.209	95.69
486.427	101.69
486.645	102.69
486.863	101.69
487.081	86.69
487.299	93.69
487.517	103.69
487.735	91.69
487.953	75.69
488.171	71.69
488.389	80.69
488.607	90.69
488.825	86.69
489.043	72.69
489.261	91.69
489.479	88.69
489.696	77.69
489.914	76.69
490.132	90.69
490.35	91.69
490.568	85.69
490.786	96.69
491.003	69.69
491.221	97.69
491.439	77.69
491.657	85.69
491.874	105.69
492.092	91.69
492.31	79.69
492.527	89.69
492.745	69.69
492.963	77.69
493.18	86.69
493.398	81.69
493.615	103.69
493.833	84.69
494.05	83.69
494.268	85.69
494.485	92.69
494.703	86.69
494.92	93.69
495.138	84.69
495.355	88.69
495.573	89.69
495.79	79.69
496.008	83.69
496.225	87.69
496.442	84.69
496.66	92.69
496.877	83.69
497.094	89.69
497.312	80.69
497.529	81.69
497.746	77.69
497.963	79.69
498.181	100.69
498.398	80.69
498.615	90.69
498.832	97.69
499.049	87.69
499.267	84.69
499.484	95.69
499.701	93.69
499.918	89.69
500.135	78.69
500.352	92.69
500.569	87.69
500.786	86.69
501.003	78.69
501.22	78.69
501.437	79.69
501.654	86.69
501.871	108.69
502.088	83.69
502.305	93.69
502.522	83.69
502.739	82.69
502.956	101.69
503.172	95.69
503.389	77.69
503.606	91.69
503.823	89.69
504.04	86.69
504.256	94.69
504.473	88.69
504.69	81.69
504.907	92.69
505.123	78.69
505.34	92.69
505.557	81.69
505.773	83.69
505.99	82.69
506.207	90.69
506.423	80.69
506.64	90.69
506.856	77.69
507.073	86.69
507.289	83.69
507.506	91.69
507.722	101.69
507.939	90.69
508.155	83.69
508.372	85.69
508.588	100.69
508.805	93.69
509.021	93.69
509.238	97.69
509.454	89.69
509.67	91.69
509.887	98.69
510.103	111.69
510.319	196.69
510.536	703.69
510.752	2224.69
510.968	632.69
511.184	154.69
511.401	102.69
511.617	87.69
511.833	87.69
512.049	76.69
512.265	81.69
512.481	77.69
512.698	88.69
512.914	84.69
513.13	88.69
513.346	93.69
513.562	85.69
513.778	91.69
513.994	99.69
514.21	99.69
514.426	106.69
514.642	116.69
514.858	104.69
515.074	148.69
515.29	407.69
515.506	1351.69
515.721	475.69
515.937	145.69
516.153	103.69
516.369	92.69
516.585	85.69
516.801	82.69
517.016	90.69
517.232	95.69
517.448	83.69
