Data from Uncirc_1994_H10_HRD10591_00050.txt Node
Date: Wed Jan 03 11:39:30 EST 2024
User: Yrep
Spectrometer: HR+D1059
Trigger mode: 1
Integration Time (sec): 1.000000E-1
Scans to average: 1
Electric dark correction enabled: true
Nonlinearity correction enabled: false
Boxcar width: 0
XAxis mode: Wavelengths
Number of Pixels in Spectrum: 2048
>>>>>Begin Spectral Data<<<<<
223.165	-25.75
223.4	-25.75
223.635	-25.75
223.869	-17.75
224.104	-17.75
224.338	-29.75
224.573	-20.75
224.808	-13.75
225.042	0.25
225.277	-0.75
225.511	0.25
225.746	0.25
225.98	21.25
226.215	23.25
226.449	30.25
226.683	11.25
226.918	8.25
227.152	31.25
227.387	33.25
227.621	43.25
227.856	43.25
228.09	43.25
228.324	53.25
228.559	77.25
228.793	59.25
229.027	52.25
229.262	58.25
229.496	77.25
229.73	55.25
229.964	83.25
230.199	73.25
230.433	81.25
230.667	66.25
230.901	65.25
231.136	62.25
231.37	86.25
231.604	69.25
231.838	82.25
232.072	65.25
232.306	74.25
232.541	78.25
232.775	77.25
233.009	79.25
233.243	81.25
233.477	82.25
233.711	77.25
233.945	79.25
234.179	79.25
234.413	71.25
234.647	79.25
234.881	75.25
235.115	69.25
235.349	70.25
235.583	69.25
235.817	77.25
236.051	74.25
236.285	70.25
236.519	82.25
236.753	73.25
236.987	75.25
237.221	83.25
237.455	71.25
237.689	77.25
237.922	81.25
238.156	80.25
238.39	73.25
238.624	64.25
238.858	80.25
239.091	92.25
239.325	81.25
239.559	63.25
239.793	73.25
240.027	77.25
240.26	81.25
240.494	74.25
240.728	76.25
240.961	82.25
241.195	89.25
241.429	75.25
241.662	75.25
241.896	87.25
242.13	83.25
242.363	81.25
242.597	76.25
242.83	63.25
243.064	73.25
243.298	79.25
243.531	83.25
243.765	82.25
243.998	78.25
244.232	69.25
244.465	72.25
244.699	79.25
244.932	71.25
245.166	65.25
245.399	81.25
245.633	58.25
245.866	89.25
246.099	81.25
246.333	81.25
246.566	77.25
246.8	88.25
247.033	64.25
247.266	81.25
247.5	79.25
247.733	78.25
247.966	85.25
248.2	76.25
248.433	75.25
248.666	77.25
248.899	82.25
249.133	86.25
249.366	81.25
249.599	98.25
249.832	81.25
250.066	63.25
250.299	81.25
250.532	80.25
250.765	72.25
250.998	65.25
251.231	73.25
251.465	71.25
251.698	69.25
251.931	64.25
252.164	67.25
252.397	61.25
252.63	79.25
252.863	75.25
253.096	80.25
253.329	75.25
253.562	80.25
253.795	84.25
254.028	72.25
254.261	71.25
254.494	73.25
254.727	81.25
254.96	77.25
255.193	66.25
255.426	82.25
255.659	69.25
255.892	71.25
256.124	86.25
256.357	75.25
256.59	66.25
256.823	73.25
257.056	74.25
257.289	82.25
257.521	91.25
257.754	66.25
257.987	77.25
258.22	73.25
258.452	82.25
258.685	66.25
258.918	76.25
259.151	87.25
259.383	89.25
259.616	81.25
259.849	95.25
260.081	79.25
260.314	89.25
260.547	85.25
260.779	68.25
261.012	85.25
261.244	87.25
261.477	81.25
261.71	83.25
261.942	102.25
262.175	112.25
262.407	86.25
262.64	74.25
262.872	84.25
263.105	85.25
263.337	89.25
263.57	84.25
263.802	86.25
264.035	76.25
264.267	78.25
264.499	82.25
264.732	86.25
264.964	75.25
265.197	81.25
265.429	83.25
265.661	82.25
265.894	73.25
266.126	78.25
266.358	79.25
266.591	88.25
266.823	77.25
267.055	79.25
267.287	84.25
267.52	81.25
267.752	85.25
267.984	87.25
268.216	79.25
268.448	78.25
268.681	82.25
268.913	85.25
269.145	85.25
269.377	70.25
269.609	85.25
269.841	76.25
270.073	74.25
270.306	81.25
270.538	93.25
270.77	69.25
271.002	95.25
271.234	73.25
271.466	78.25
271.698	77.25
271.93	73.25
272.162	93.25
272.394	85.25
272.626	92.25
272.858	85.25
273.09	90.25
273.322	79.25
273.553	92.25
273.785	78.25
274.017	88.25
274.249	69.25
274.481	85.25
274.713	78.25
274.945	82.25
275.176	94.25
275.408	89.25
275.64	75.25
275.872	89.25
276.104	52.25
276.335	90.25
276.567	81.25
276.799	107.25
277.031	104.25
277.262	94.25
277.494	83.25
277.726	79.25
277.957	98.25
278.189	73.25
278.421	86.25
278.652	73.25
278.884	94.25
279.115	93.25
279.347	80.25
279.579	88.25
279.81	87.25
280.042	77.25
280.273	91.25
280.505	80.25
280.736	70.25
280.968	84.25
281.199	87.25
281.431	76.25
281.662	79.25
281.894	81.25
282.125	98.25
282.356	118.25
282.588	146.25
282.819	107.25
283.051	93.25
283.282	81.25
283.513	87.25
283.745	93.25
283.976	81.25
284.207	89.25
284.439	76.25
284.67	84.25
284.901	85.25
285.132	88.25
285.364	81.25
285.595	90.25
285.826	77.25
286.057	103.25
286.288	88.25
286.52	84.25
286.751	82.25
286.982	85.25
287.213	94.25
287.444	89.25
287.675	87.25
287.906	81.25
288.138	105.25
288.369	91.25
288.6	86.25
288.831	88.25
289.062	92.25
289.293	71.25
289.524	69.25
289.755	77.25
289.986	91.25
290.217	81.25
290.448	83.25
290.679	96.25
290.91	89.25
291.141	88.25
291.371	77.25
291.602	78.25
291.833	81.25
292.064	76.25
292.295	72.25
292.526	76.25
292.757	81.25
292.987	91.25
293.218	82.25
293.449	83.25
293.68	84.25
293.91	79.25
294.141	79.25
294.372	99.25
294.603	87.25
294.833	79.25
295.064	81.25
295.295	79.25
295.525	99.25
295.756	87.25
295.987	106.25
296.217	137.25
296.448	112.25
296.679	85.25
296.909	77.25
297.14	75.25
297.37	82.25
297.601	99.25
297.831	85.25
298.062	90.25
298.292	81.25
298.523	94.25
298.753	92.25
298.984	80.25
299.214	95.25
299.445	76.25
299.675	85.25
299.905	89.25
300.136	88.25
300.366	75.25
300.597	80.25
300.827	90.25
301.057	99.25
301.288	84.25
301.518	83.25
301.748	93.25
301.979	100.25
302.209	83.25
302.439	95.25
302.669	89.25
302.9	79.25
303.13	76.25
303.36	84.25
303.59	93.25
303.82	96.25
304.051	94.25
304.281	93.25
304.511	70.25
304.741	81.25
304.971	83.25
305.201	86.25
305.431	83.25
305.661	89.25
305.891	66.25
306.121	95.25
306.352	102.25
306.582	82.25
306.812	88.25
307.042	100.25
307.272	89.25
307.502	98.25
307.731	97.25
307.961	73.25
308.191	80.25
308.421	89.25
308.651	96.25
308.881	82.25
309.111	77.25
309.341	95.25
309.571	92.25
309.8	107.25
310.03	105.25
310.26	93.25
310.49	105.25
310.72	97.25
310.949	106.25
311.179	105.25
311.409	78.25
311.639	99.25
311.868	89.25
312.098	82.25
312.328	93.25
312.557	91.25
312.787	101.25
313.017	94.25
313.246	85.25
313.476	88.25
313.706	98.25
313.935	92.25
314.165	81.25
314.394	99.25
314.624	105.25
314.853	81.25
315.083	87.25
315.312	97.25
315.542	88.25
315.771	105.25
316.001	102.25
316.23	89.25
316.46	66.25
316.689	93.25
316.919	79.25
317.148	91.25
317.377	98.25
317.607	71.25
317.836	99.25
318.065	88.25
318.295	81.25
318.524	85.25
318.753	84.25
318.983	103.25
319.212	93.25
319.441	89.25
319.67	90.25
319.9	92.25
320.129	73.25
320.358	89.25
320.587	79.25
320.816	86.25
321.046	98.25
321.275	79.25
321.504	91.25
321.733	93.25
321.962	80.25
322.191	96.25
322.42	107.25
322.649	106.25
322.878	120.25
323.108	115.25
323.337	111.25
323.566	125.25
323.795	141.25
324.024	195.25
324.253	367.25
324.482	766.25
324.71	1554.25
324.939	2070.25
325.168	768.25
325.397	213.25
325.626	156.25
325.855	127.25
326.084	117.25
326.313	125.25
326.542	148.25
326.77	209.25
326.999	445.25
327.228	882.25
327.457	1555.25
327.686	1248.25
327.914	354.25
328.143	187.25
328.372	140.25
328.6	107.25
328.829	121.25
329.058	115.25
329.287	127.25
329.515	112.25
329.744	97.25
329.972	103.25
330.201	90.25
330.43	91.25
330.658	118.25
330.887	111.25
331.115	110.25
331.344	85.25
331.572	92.25
331.801	98.25
332.03	87.25
332.258	95.25
332.486	95.25
332.715	91.25
332.943	101.25
333.172	101.25
333.4	82.25
333.629	100.25
333.857	98.25
334.085	114.25
334.314	91.25
334.542	87.25
334.771	93.25
334.999	99.25
335.227	110.25
335.455	93.25
335.684	89.25
335.912	83.25
336.14	94.25
336.369	98.25
336.597	112.25
336.825	94.25
337.053	74.25
337.281	89.25
337.51	91.25
337.738	87.25
337.966	97.25
338.194	82.25
338.422	81.25
338.65	107.25
338.878	99.25
339.106	95.25
339.334	92.25
339.562	76.25
339.79	96.25
340.018	95.25
340.246	75.25
340.474	87.25
340.702	97.25
340.93	83.25
341.158	93.25
341.386	82.25
341.614	106.25
341.842	96.25
342.07	98.25
342.298	95.25
342.526	91.25
342.754	78.25
342.981	79.25
343.209	86.25
343.437	90.25
343.665	88.25
343.893	88.25
344.12	78.25
344.348	79.25
344.576	86.25
344.804	101.25
345.031	87.25
345.259	95.25
345.487	86.25
345.714	96.25
345.942	103.25
346.17	93.25
346.397	98.25
346.625	94.25
346.853	78.25
347.08	73.25
347.308	88.25
347.535	88.25
347.763	90.25
347.99	98.25
348.218	105.25
348.445	89.25
348.673	102.25
348.9	86.25
349.128	87.25
349.355	82.25
349.583	86.25
349.81	86.25
350.037	88.25
350.265	97.25
350.492	90.25
350.72	93.25
350.947	86.25
351.174	112.25
351.402	102.25
351.629	94.25
351.856	94.25
352.083	91.25
352.311	98.25
352.538	101.25
352.765	93.25
352.992	105.25
353.22	101.25
353.447	89.25
353.674	95.25
353.901	103.25
354.128	98.25
354.355	93.25
354.583	85.25
354.81	104.25
355.037	87.25
355.264	78.25
355.491	82.25
355.718	99.25
355.945	101.25
356.172	81.25
356.399	97.25
356.626	103.25
356.853	83.25
357.08	93.25
357.307	88.25
357.534	83.25
357.761	89.25
357.988	91.25
358.215	91.25
358.441	97.25
358.668	88.25
358.895	88.25
359.122	87.25
359.349	101.25
359.576	93.25
359.802	92.25
360.029	95.25
360.256	111.25
360.483	96.25
360.709	93.25
360.936	103.25
361.163	94.25
361.39	88.25
361.616	93.25
361.843	88.25
362.07	80.25
362.296	103.25
362.523	83.25
362.749	88.25
362.976	75.25
363.203	87.25
363.429	86.25
363.656	74.25
363.882	90.25
364.109	86.25
364.335	98.25
364.562	93.25
364.788	94.25
365.015	82.25
365.241	98.25
365.468	98.25
365.694	98.25
365.92	97.25
366.147	88.25
366.373	96.25
366.599	88.25
366.826	89.25
367.052	94.25
367.278	88.25
367.505	83.25
367.731	83.25
367.957	106.25
368.184	85.25
368.41	95.25
368.636	106.25
368.862	113.25
369.089	83.25
369.315	111.25
369.541	90.25
369.767	87.25
369.993	94.25
370.219	93.25
370.445	83.25
370.672	92.25
370.898	84.25
371.124	82.25
371.35	81.25
371.576	80.25
371.802	67.25
372.028	75.25
372.254	93.25
372.48	81.25
372.706	67.25
372.932	81.25
373.158	77.25
373.384	94.25
373.61	91.25
373.835	87.25
374.061	93.25
374.287	88.25
374.513	82.25
374.739	92.25
374.965	103.25
375.191	89.25
375.416	78.25
375.642	94.25
375.868	93.25
376.094	83.25
376.319	84.25
376.545	88.25
376.771	89.25
376.997	82.25
377.222	94.25
377.448	86.25
377.674	85.25
377.899	89.25
378.125	88.25
378.35	90.25
378.576	82.25
378.802	99.25
379.027	81.25
379.253	86.25
379.478	94.25
379.704	82.25
379.929	89.25
380.155	76.25
380.38	102.25
380.606	88.25
380.831	96.25
381.057	97.25
381.282	104.25
381.507	80.25
381.733	97.25
381.958	77.25
382.184	90.25
382.409	101.25
382.634	105.25
382.86	75.25
383.085	88.25
383.31	110.25
383.535	103.25
383.761	102.25
383.986	94.25
384.211	78.25
384.436	82.25
384.662	93.25
384.887	106.25
385.112	98.25
385.337	109.25
385.562	105.25
385.787	96.25
386.013	90.25
386.238	94.25
386.463	99.25
386.688	108.25
386.913	82.25
387.138	95.25
387.363	95.25
387.588	86.25
387.813	101.25
388.038	95.25
388.263	104.25
388.488	98.25
388.713	95.25
388.938	76.25
389.163	96.25
389.387	99.25
389.612	94.25
389.837	86.25
390.062	89.25
390.287	89.25
390.512	75.25
390.736	86.25
390.961	77.25
391.186	89.25
391.411	98.25
391.636	95.25
391.86	85.25
392.085	102.25
392.31	82.25
392.534	85.25
392.759	91.25
392.984	85.25
393.208	94.25
393.433	102.25
393.658	98.25
393.882	86.25
394.107	94.25
394.331	90.25
394.556	86.25
394.78	100.25
395.005	88.25
395.229	83.25
395.454	69.25
395.678	74.25
395.903	94.25
396.127	92.25
396.352	85.25
396.576	83.25
396.801	93.25
397.025	96.25
397.249	90.25
397.474	97.25
397.698	85.25
397.922	85.25
398.147	89.25
398.371	96.25
398.595	66.25
398.82	77.25
399.044	86.25
399.268	74.25
399.492	93.25
399.717	85.25
399.941	82.25
400.165	89.25
400.389	97.25
400.613	80.25
400.837	92.25
401.062	104.25
401.286	87.25
401.51	97.25
401.734	85.25
401.958	98.25
402.182	112.25
402.406	156.25
402.63	120.25
402.854	91.25
403.078	97.25
403.302	74.25
403.526	98.25
403.75	79.25
403.974	85.25
404.198	79.25
404.422	98.25
404.645	72.25
404.869	91.25
405.093	86.25
405.317	92.25
405.541	96.25
405.765	96.25
405.988	98.25
406.212	169.25
406.436	219.25
406.66	130.25
406.883	110.25
407.107	95.25
407.331	98.25
407.555	86.25
407.778	99.25
408.002	78.25
408.226	94.25
408.449	90.25
408.673	84.25
408.896	87.25
409.12	94.25
409.344	76.25
409.567	97.25
409.791	88.25
410.014	98.25
410.238	91.25
410.461	81.25
410.685	99.25
410.908	105.25
411.132	96.25
411.355	114.25
411.578	85.25
411.802	80.25
412.025	71.25
412.249	81.25
412.472	104.25
412.695	85.25
412.919	89.25
413.142	95.25
413.365	97.25
413.589	77.25
413.812	96.25
414.035	83.25
414.258	71.25
414.482	77.25
414.705	79.25
414.928	89.25
415.151	97.25
415.374	88.25
415.597	94.25
415.821	78.25
416.044	74.25
416.267	81.25
416.49	84.25
416.713	82.25
416.936	87.25
417.159	83.25
417.382	86.25
417.605	80.25
417.828	90.25
418.051	78.25
418.274	78.25
418.497	81.25
418.72	84.25
418.943	93.25
419.166	81.25
419.389	94.25
419.611	90.25
419.834	96.25
420.057	83.25
420.28	81.25
420.503	83.25
420.726	71.25
420.948	89.25
421.171	99.25
421.394	102.25
421.617	94.25
421.839	93.25
422.062	77.25
422.285	86.25
422.507	99.25
422.73	98.25
422.953	101.25
423.175	87.25
423.398	93.25
423.621	79.25
423.843	90.25
424.066	87.25
424.288	84.25
424.511	91.25
424.733	86.25
424.956	106.25
425.178	98.25
425.401	95.25
425.623	80.25
425.846	101.25
426.068	89.25
426.291	86.25
426.513	88.25
426.735	79.25
426.958	92.25
427.18	112.25
427.402	134.25
427.625	154.25
427.847	118.25
428.069	110.25
428.292	102.25
428.514	89.25
428.736	87.25
428.958	96.25
429.181	79.25
429.403	83.25
429.625	88.25
429.847	90.25
430.069	101.25
430.292	91.25
430.514	80.25
430.736	89.25
430.958	93.25
431.18	66.25
431.402	81.25
431.624	90.25
431.846	75.25
432.068	96.25
432.29	90.25
432.512	103.25
432.734	83.25
432.956	88.25
433.178	90.25
433.4	99.25
433.622	97.25
433.844	97.25
434.066	91.25
434.287	87.25
434.509	90.25
434.731	75.25
434.953	94.25
435.175	85.25
435.397	91.25
435.618	95.25
435.84	89.25
436.062	116.25
436.284	120.25
436.505	100.25
436.727	98.25
436.949	86.25
437.17	99.25
437.392	80.25
437.614	92.25
437.835	104.25
438.057	119.25
438.278	97.25
438.5	98.25
438.721	125.25
438.943	115.25
439.165	87.25
439.386	77.25
439.608	77.25
439.829	95.25
440.05	117.25
440.272	118.25
440.493	104.25
440.715	91.25
440.936	86.25
441.158	65.25
441.379	81.25
441.6	86.25
441.822	82.25
442.043	83.25
442.264	105.25
442.486	102.25
442.707	93.25
442.928	90.25
443.149	123.25
443.371	103.25
443.592	105.25
443.813	112.25
444.034	92.25
444.255	89.25
444.476	81.25
444.698	81.25
444.919	75.25
445.14	126.25
445.361	121.25
445.582	111.25
445.803	134.25
446.024	132.25
446.245	125.25
446.466	101.25
446.687	89.25
446.908	92.25
447.129	90.25
447.35	88.25
447.571	94.25
447.792	101.25
448.013	111.25
448.234	98.25
448.455	93.25
448.675	100.25
448.896	104.25
449.117	92.25
449.338	94.25
449.559	122.25
449.779	109.25
450	91.25
450.221	95.25
450.442	85.25
450.662	95.25
450.883	107.25
451.104	102.25
451.324	92.25
451.545	82.25
451.766	81.25
451.986	86.25
452.207	91.25
452.428	100.25
452.648	91.25
452.869	100.25
453.089	106.25
453.31	108.25
453.53	95.25
453.751	88.25
453.971	105.25
454.192	108.25
454.412	85.25
454.633	86.25
454.853	69.25
455.073	88.25
455.294	93.25
455.514	98.25
455.734	86.25
455.955	87.25
456.175	77.25
456.395	73.25
456.616	82.25
456.836	85.25
457.056	83.25
457.276	78.25
457.497	90.25
457.717	83.25
457.937	77.25
458.157	81.25
458.377	96.25
458.598	98.25
458.818	151.25
459.038	129.25
459.258	120.25
459.478	91.25
459.698	80.25
459.918	94.25
460.138	96.25
460.358	77.25
460.578	90.25
460.798	82.25
461.018	82.25
461.238	92.25
461.458	92.25
461.678	70.25
461.898	89.25
462.118	89.25
462.338	94.25
462.558	86.25
462.777	74.25
462.997	82.25
463.217	83.25
463.437	92.25
463.657	94.25
463.876	90.25
464.096	81.25
464.316	80.25
464.536	85.25
464.755	90.25
464.975	102.25
465.195	158.25
465.414	141.25
465.634	91.25
465.854	81.25
466.073	81.25
466.293	79.25
466.512	74.25
466.732	83.25
466.951	84.25
467.171	93.25
467.391	90.25
467.61	94.25
467.829	87.25
468.049	81.25
468.268	83.25
468.488	90.25
468.707	79.25
468.927	83.25
469.146	88.25
469.365	70.25
469.585	93.25
469.804	83.25
470.023	94.25
470.243	84.25
470.462	106.25
470.681	101.25
470.901	85.25
471.12	91.25
471.339	74.25
471.558	92.25
471.777	105.25
471.997	74.25
472.216	95.25
472.435	97.25
472.654	87.25
472.873	79.25
473.092	85.25
473.311	92.25
473.53	89.25
473.749	96.25
473.968	88.25
474.187	100.25
474.406	89.25
474.625	80.25
474.844	85.25
475.063	92.25
475.282	95.25
475.501	88.25
475.72	92.25
475.939	89.25
476.158	84.25
476.377	84.25
476.596	90.25
476.814	81.25
477.033	90.25
477.252	90.25
477.471	88.25
477.69	89.25
477.908	93.25
478.127	94.25
478.346	78.25
478.564	93.25
478.783	97.25
479.002	81.25
479.22	96.25
479.439	95.25
479.658	97.25
479.876	92.25
480.095	74.25
480.313	94.25
480.532	93.25
480.751	93.25
480.969	87.25
481.188	91.25
481.406	85.25
481.624	96.25
481.843	91.25
482.061	79.25
482.28	93.25
482.498	95.25
482.717	85.25
482.935	81.25
483.153	78.25
483.372	87.25
483.59	103.25
483.808	87.25
484.027	97.25
484.245	94.25
484.463	88.25
484.681	80.25
484.9	85.25
485.118	84.25
485.336	93.25
485.554	80.25
485.772	98.25
485.99	90.25
486.209	99.25
486.427	102.25
486.645	115.25
486.863	108.25
487.081	82.25
487.299	110.25
487.517	99.25
487.735	96.25
487.953	82.25
488.171	90.25
488.389	88.25
488.607	94.25
488.825	94.25
489.043	95.25
489.261	89.25
489.479	82.25
489.696	92.25
489.914	86.25
490.132	93.25
490.35	96.25
490.568	100.25
490.786	97.25
491.003	84.25
491.221	85.25
491.439	87.25
491.657	96.25
491.874	92.25
492.092	87.25
492.31	92.25
492.527	92.25
492.745	95.25
492.963	98.25
493.18	94.25
493.398	78.25
493.615	104.25
493.833	90.25
494.05	73.25
494.268	83.25
494.485	94.25
494.703	91.25
494.92	79.25
495.138	94.25
495.355	87.25
495.573	93.25
495.79	88.25
496.008	86.25
496.225	94.25
496.442	90.25
496.66	91.25
496.877	89.25
497.094	96.25
497.312	88.25
497.529	108.25
497.746	98.25
497.963	73.25
498.181	98.25
498.398	90.25
498.615	106.25
498.832	104.25
499.049	99.25
499.267	91.25
499.484	103.25
499.701	98.25
499.918	98.25
500.135	95.25
500.352	93.25
500.569	96.25
500.786	96.25
501.003	92.25
501.22	102.25
501.437	77.25
501.654	97.25
501.871	105.25
502.088	97.25
502.305	103.25
502.522	89.25
502.739	89.25
502.956	85.25
503.172	90.25
503.389	94.25
503.606	102.25
503.823	104.25
504.04	93.25
504.256	72.25
504.473	87.25
504.69	92.25
504.907	82.25
505.123	101.25
505.34	95.25
505.557	115.25
505.773	94.25
505.99	91.25
506.207	94.25
506.423	80.25
506.64	72.25
506.856	78.25
507.073	106.25
507.289	102.25
507.506	111.25
507.722	99.25
507.939	111.25
508.155	98.25
508.372	105.25
508.588	83.25
508.805	99.25
509.021	101.25
509.238	95.25
509.454	100.25
509.67	97.25
509.887	110.25
510.103	129.25
510.319	215.25
510.536	764.25
510.752	2451.25
510.968	655.25
511.184	146.25
511.401	112.25
511.617	96.25
511.833	82.25
512.049	86.25
512.265	99.25
512.481	88.25
512.698	97.25
512.914	80.25
513.13	92.25
513.346	85.25
513.562	97.25
513.778	78.25
513.994	94.25
514.21	106.25
514.426	106.25
514.642	127.25
514.858	100.25
515.074	174.25
515.29	446.25
515.506	1390.25
515.721	493.25
515.937	145.25
516.153	96.25
516.369	79.25
516.585	89.25
516.801	86.25
517.016	86.25
