Data from Uncirc_1994_H10_HRD10591_00098.txt Node
Date: Wed Jan 03 11:39:40 EST 2024
User: Yrep
Spectrometer: HR+D1059
Trigger mode: 1
Integration Time (sec): 1.000000E-1
Scans to average: 1
Electric dark correction enabled: true
Nonlinearity correction enabled: false
Boxcar width: 0
XAxis mode: Wavelengths
Number of Pixels in Spectrum: 2048
>>>>>Begin Spectral Data<<<<<
223.165	-23
223.4	-23
223.635	-23
223.869	-19
224.104	-7
224.338	-3
224.573	-12
224.808	-26
225.042	5
225.277	1
225.511	-11
225.746	1
225.98	-7
226.215	9
226.449	14
226.683	28
226.918	28
227.152	22
227.387	31
227.621	43
227.856	34
228.09	41
228.324	61
228.559	50
228.793	73
229.027	50
229.262	66
229.496	67
229.73	91
229.964	73
230.199	76
230.433	78
230.667	77
230.901	73
231.136	79
231.37	81
231.604	80
231.838	82
232.072	77
232.306	86
232.541	77
232.775	75
233.009	67
233.243	74
233.477	78
233.711	91
233.945	90
234.179	83
234.413	92
234.647	75
234.881	78
235.115	70
235.349	77
235.583	75
235.817	81
236.051	80
236.285	83
236.519	75
236.753	74
236.987	70
237.221	82
237.455	93
237.689	76
237.922	78
238.156	82
238.39	84
238.624	64
238.858	55
239.091	78
239.325	78
239.559	74
239.793	82
240.027	74
240.26	54
240.494	64
240.728	73
240.961	80
241.195	73
241.429	65
241.662	72
241.896	85
242.13	66
242.363	82
242.597	76
242.83	90
243.064	69
243.298	73
243.531	69
243.765	81
243.998	72
244.232	65
244.465	75
244.699	84
244.932	76
245.166	81
245.399	73
245.633	77
245.866	77
246.099	76
246.333	75
246.566	81
246.8	61
247.033	73
247.266	61
247.5	72
247.733	79
247.966	75
248.2	84
248.433	81
248.666	74
248.899	78
249.133	79
249.366	85
249.599	89
249.832	91
250.066	79
250.299	67
250.532	80
250.765	93
250.998	78
251.231	79
251.465	70
251.698	83
251.931	73
252.164	91
252.397	64
252.63	81
252.863	57
253.096	81
253.329	74
253.562	61
253.795	85
254.028	79
254.261	84
254.494	79
254.727	81
254.96	75
255.193	75
255.426	78
255.659	81
255.892	72
256.124	76
256.357	77
256.59	84
256.823	87
257.056	87
257.289	78
257.521	75
257.754	66
257.987	89
258.22	80
258.452	66
258.685	69
258.918	85
259.151	77
259.383	67
259.616	69
259.849	80
260.081	93
260.314	85
260.547	84
260.779	77
261.012	85
261.244	86
261.477	82
261.71	83
261.942	91
262.175	93
262.407	83
262.64	80
262.872	88
263.105	70
263.337	83
263.57	80
263.802	73
264.035	82
264.267	79
264.499	81
264.732	87
264.964	91
265.197	87
265.429	87
265.661	75
265.894	64
266.126	80
266.358	91
266.591	92
266.823	79
267.055	78
267.287	75
267.52	91
267.752	80
267.984	58
268.216	82
268.448	76
268.681	88
268.913	87
269.145	82
269.377	75
269.609	80
269.841	69
270.073	81
270.306	71
270.538	84
270.77	86
271.002	78
271.234	83
271.466	69
271.698	94
271.93	78
272.162	82
272.394	106
272.626	93
272.858	82
273.09	70
273.322	88
273.553	78
273.785	78
274.017	79
274.249	90
274.481	74
274.713	86
274.945	83
275.176	96
275.408	87
275.64	86
275.872	81
276.104	82
276.335	74
276.567	94
276.799	94
277.031	92
277.262	86
277.494	88
277.726	86
277.957	73
278.189	69
278.421	80
278.652	73
278.884	91
279.115	84
279.347	73
279.579	66
279.81	73
280.042	83
280.273	71
280.505	88
280.736	76
280.968	79
281.199	95
281.431	77
281.662	86
281.894	83
282.125	93
282.356	111
282.588	127
282.819	104
283.051	85
283.282	81
283.513	89
283.745	98
283.976	92
284.207	76
284.439	76
284.67	85
284.901	78
285.132	85
285.364	99
285.595	73
285.826	83
286.057	83
286.288	91
286.52	78
286.751	85
286.982	82
287.213	84
287.444	87
287.675	93
287.906	74
288.138	76
288.369	88
288.6	96
288.831	87
289.062	94
289.293	86
289.524	94
289.755	82
289.986	75
290.217	96
290.448	81
290.679	91
290.91	79
291.141	83
291.371	77
291.602	68
291.833	78
292.064	86
292.295	92
292.526	84
292.757	78
292.987	86
293.218	94
293.449	89
293.68	70
293.91	75
294.141	76
294.372	82
294.603	80
294.833	81
295.064	85
295.295	86
295.525	86
295.756	108
295.987	117
296.217	127
296.448	121
296.679	93
296.909	89
297.14	86
297.37	83
297.601	83
297.831	93
298.062	83
298.292	103
298.523	74
298.753	75
298.984	97
299.214	93
299.445	84
299.675	91
299.905	91
300.136	98
300.366	89
300.597	81
300.827	66
301.057	81
301.288	90
301.518	82
301.748	96
301.979	93
302.209	85
302.439	90
302.669	77
302.9	78
303.13	100
303.36	95
303.59	89
303.82	93
304.051	94
304.281	87
304.511	73
304.741	88
304.971	85
305.201	100
305.431	96
305.661	73
305.891	90
306.121	107
306.352	94
306.582	87
306.812	76
307.042	97
307.272	91
307.502	101
307.731	95
307.961	75
308.191	91
308.421	82
308.651	95
308.881	93
309.111	88
309.341	91
309.571	92
309.8	77
310.03	92
310.26	103
310.49	91
310.72	86
310.949	96
311.179	83
311.409	87
311.639	93
311.868	77
312.098	70
312.328	93
312.557	103
312.787	90
313.017	104
313.246	88
313.476	100
313.706	96
313.935	86
314.165	104
314.394	97
314.624	82
314.853	79
315.083	87
315.312	98
315.542	99
315.771	89
316.001	95
316.23	92
316.46	90
316.689	78
316.919	84
317.148	102
317.377	103
317.607	98
317.836	83
318.065	96
318.295	89
318.524	94
318.753	94
318.983	90
319.212	93
319.441	90
319.67	114
319.9	95
320.129	88
320.358	91
320.587	95
320.816	90
321.046	84
321.275	113
321.504	84
321.733	97
321.962	109
322.191	98
322.42	110
322.649	92
322.878	99
323.108	116
323.337	109
323.566	125
323.795	131
324.024	205
324.253	361
324.482	739
324.71	1533
324.939	1987
325.168	729
325.397	221
325.626	153
325.855	134
326.084	123
326.313	135
326.542	133
326.77	222
326.999	425
327.228	882
327.457	1538
327.686	1208
327.914	328
328.143	172
328.372	139
328.6	106
328.829	106
329.058	105
329.287	113
329.515	98
329.744	98
329.972	106
330.201	83
330.43	102
330.658	127
330.887	119
331.115	110
331.344	96
331.572	113
331.801	109
332.03	101
332.258	85
332.486	95
332.715	90
332.943	92
333.172	96
333.4	91
333.629	96
333.857	109
334.085	105
334.314	94
334.542	90
334.771	91
334.999	93
335.227	91
335.455	96
335.684	108
335.912	87
336.14	104
336.369	81
336.597	97
336.825	100
337.053	90
337.281	92
337.51	82
337.738	89
337.966	95
338.194	106
338.422	93
338.65	90
338.878	91
339.106	90
339.334	73
339.562	87
339.79	96
340.018	90
340.246	84
340.474	97
340.702	93
340.93	96
341.158	90
341.386	104
341.614	75
341.842	101
342.07	75
342.298	91
342.526	75
342.754	90
342.981	97
343.209	81
343.437	102
343.665	89
343.893	104
344.12	90
344.348	99
344.576	93
344.804	83
345.031	99
345.259	81
345.487	95
345.714	94
345.942	94
346.17	71
346.397	86
346.625	87
346.853	88
347.08	93
347.308	94
347.535	86
347.763	89
347.99	97
348.218	83
348.445	95
348.673	94
348.9	104
349.128	87
349.355	85
349.583	96
349.81	79
350.037	99
350.265	99
350.492	98
350.72	101
350.947	109
351.174	106
351.402	99
351.629	98
351.856	102
352.083	105
352.311	104
352.538	96
352.765	113
352.992	117
353.22	97
353.447	100
353.674	88
353.901	95
354.128	73
354.355	104
354.583	86
354.81	89
355.037	87
355.264	90
355.491	99
355.718	90
355.945	86
356.172	86
356.399	84
356.626	89
356.853	98
357.08	83
357.307	105
357.534	99
357.761	88
357.988	91
358.215	105
358.441	100
358.668	101
358.895	69
359.122	82
359.349	90
359.576	78
359.802	86
360.029	97
360.256	98
360.483	84
360.709	87
360.936	94
361.163	99
361.39	87
361.616	85
361.843	93
362.07	82
362.296	98
362.523	91
362.749	94
362.976	85
363.203	96
363.429	91
363.656	93
363.882	87
364.109	98
364.335	75
364.562	86
364.788	78
365.015	78
365.241	99
365.468	114
365.694	110
365.92	103
366.147	86
366.373	72
366.599	77
366.826	85
367.052	93
367.278	100
367.505	89
367.731	90
367.957	76
368.184	91
368.41	89
368.636	119
368.862	115
369.089	99
369.315	90
369.541	91
369.767	85
369.993	96
370.219	91
370.445	80
370.672	90
370.898	94
371.124	87
371.35	83
371.576	87
371.802	73
372.028	93
372.254	96
372.48	97
372.706	87
372.932	92
373.158	91
373.384	79
373.61	94
373.835	88
374.061	80
374.287	96
374.513	89
374.739	81
374.965	84
375.191	96
375.416	88
375.642	83
375.868	77
376.094	97
376.319	94
376.545	80
376.771	97
376.997	76
377.222	91
377.448	91
377.674	93
377.899	98
378.125	89
378.35	92
378.576	78
378.802	84
379.027	108
379.253	91
379.478	82
379.704	93
379.929	87
380.155	85
380.38	83
380.606	80
380.831	99
381.057	90
381.282	88
381.507	94
381.733	95
381.958	71
382.184	91
382.409	99
382.634	98
382.86	94
383.085	91
383.31	86
383.535	99
383.761	96
383.986	86
384.211	89
384.436	80
384.662	84
384.887	104
385.112	116
385.337	94
385.562	94
385.787	105
386.013	103
386.238	106
386.463	93
386.688	111
386.913	112
387.138	108
387.363	98
387.588	102
387.813	97
388.038	86
388.263	120
388.488	108
388.713	85
388.938	104
389.163	85
389.387	103
389.612	79
389.837	89
390.062	90
390.287	84
390.512	81
390.736	104
390.961	94
391.186	90
391.411	100
391.636	81
391.86	95
392.085	75
392.31	93
392.534	76
392.759	92
392.984	98
393.208	83
393.433	81
393.658	81
393.882	72
394.107	86
394.331	87
394.556	79
394.78	90
395.005	86
395.229	95
395.454	82
395.678	85
395.903	96
396.127	93
396.352	90
396.576	78
396.801	82
397.025	99
397.249	95
397.474	64
397.698	96
397.922	98
398.147	78
398.371	82
398.595	78
398.82	85
399.044	91
399.268	89
399.492	99
399.717	89
399.941	85
400.165	99
400.389	97
400.613	93
400.837	96
401.062	73
401.286	90
401.51	95
401.734	69
401.958	101
402.182	126
402.406	157
402.63	104
402.854	83
403.078	85
403.302	85
403.526	92
403.75	89
403.974	77
404.198	81
404.422	89
404.645	91
404.869	90
405.093	82
405.317	94
405.541	121
405.765	105
405.988	100
406.212	162
406.436	209
406.66	138
406.883	87
407.107	78
407.331	78
407.555	103
407.778	93
408.002	105
408.226	84
408.449	86
408.673	92
408.896	97
409.12	103
409.344	95
409.567	83
409.791	84
410.014	83
410.238	88
410.461	88
410.685	94
410.908	82
411.132	94
411.355	95
411.578	90
411.802	62
412.025	90
412.249	88
412.472	82
412.695	84
412.919	92
413.142	79
413.365	88
413.589	76
413.812	89
414.035	87
414.258	81
414.482	88
414.705	79
414.928	80
415.151	84
415.374	110
415.597	87
415.821	85
416.044	76
416.267	81
416.49	89
416.713	83
416.936	73
417.159	82
417.382	101
417.605	99
417.828	84
418.051	81
418.274	99
418.497	94
418.72	82
418.943	89
419.166	79
419.389	85
419.611	72
419.834	79
420.057	87
420.28	61
420.503	87
420.726	77
420.948	77
421.171	105
421.394	98
421.617	88
421.839	80
422.062	90
422.285	81
422.507	98
422.73	107
422.953	95
423.175	96
423.398	109
423.621	99
423.843	85
424.066	82
424.288	87
424.511	92
424.733	94
424.956	100
425.178	96
425.401	86
425.623	88
425.846	88
426.068	75
426.291	91
426.513	94
426.735	90
426.958	73
427.18	109
427.402	114
427.625	138
427.847	122
428.069	88
428.292	78
428.514	79
428.736	86
428.958	90
429.181	97
429.403	74
429.625	96
429.847	87
430.069	95
430.292	96
430.514	84
430.736	86
430.958	79
431.18	81
431.402	100
431.624	88
431.846	73
432.068	106
432.29	82
432.512	78
432.734	88
432.956	92
433.178	93
433.4	101
433.622	88
433.844	94
434.066	77
434.287	94
434.509	86
434.731	87
434.953	93
435.175	89
435.397	83
435.618	92
435.84	90
436.062	119
436.284	106
436.505	106
436.727	97
436.949	95
437.17	74
437.392	82
437.614	91
437.835	101
438.057	114
438.278	104
438.5	97
438.721	108
438.943	103
439.165	90
439.386	94
439.608	103
439.829	92
440.05	110
440.272	129
440.493	77
440.715	92
440.936	89
441.158	90
441.379	86
441.6	93
441.822	96
442.043	87
442.264	107
442.486	91
442.707	87
442.928	101
443.149	104
443.371	125
443.592	109
443.813	102
444.034	101
444.255	90
444.476	92
444.698	97
444.919	86
445.14	113
445.361	111
445.582	113
445.803	126
446.024	129
446.245	126
446.466	114
446.687	104
446.908	85
447.129	89
447.35	93
447.571	97
447.792	99
448.013	78
448.234	109
448.455	89
448.675	99
448.896	96
449.117	95
449.338	94
449.559	128
449.779	126
450	86
450.221	91
450.442	89
450.662	83
450.883	113
451.104	129
451.324	96
451.545	87
451.766	75
451.986	72
452.207	93
452.428	85
452.648	97
452.869	93
453.089	107
453.31	123
453.53	95
453.751	91
453.971	91
454.192	112
454.412	95
454.633	80
454.853	86
455.073	95
455.294	90
455.514	94
455.734	77
455.955	79
456.175	86
456.395	86
456.616	79
456.836	79
457.056	90
457.276	83
457.497	96
457.717	89
457.937	87
458.157	90
458.377	82
458.598	102
458.818	139
459.038	155
459.258	108
459.478	90
459.698	87
459.918	81
460.138	90
460.358	95
460.578	90
460.798	97
461.018	94
461.238	79
461.458	98
461.678	76
461.898	86
462.118	105
462.338	78
462.558	82
462.777	77
462.997	81
463.217	71
463.437	71
463.657	90
463.876	99
464.096	85
464.316	102
464.536	91
464.755	97
464.975	104
465.195	162
465.414	152
465.634	86
465.854	94
466.073	79
466.293	91
466.512	84
466.732	80
466.951	85
467.171	91
467.391	94
467.61	93
467.829	88
468.049	82
468.268	95
468.488	79
468.707	85
468.927	72
469.146	86
469.365	74
469.585	86
469.804	91
470.023	91
470.243	97
470.462	85
470.681	107
470.901	89
471.12	89
471.339	75
471.558	70
471.777	85
471.997	82
472.216	80
472.435	89
472.654	92
472.873	89
473.092	88
473.311	85
473.53	90
473.749	92
473.968	100
474.187	87
474.406	83
474.625	79
474.844	93
475.063	74
475.282	87
475.501	92
475.72	89
475.939	99
476.158	82
476.377	85
476.596	88
476.814	82
477.033	96
477.252	91
477.471	81
477.69	86
477.908	94
478.127	76
478.346	76
478.564	89
478.783	90
479.002	95
479.22	83
479.439	107
479.658	82
479.876	98
480.095	94
480.313	85
480.532	99
480.751	86
480.969	81
481.188	89
481.406	87
481.624	87
481.843	89
482.061	87
482.28	95
482.498	84
482.717	83
482.935	87
483.153	75
483.372	97
483.59	85
483.808	78
484.027	85
484.245	92
484.463	97
484.681	98
484.9	83
485.118	99
485.336	89
485.554	101
485.772	100
485.99	99
486.209	94
486.427	106
486.645	99
486.863	92
487.081	90
487.299	83
487.517	91
487.735	96
487.953	94
488.171	99
488.389	89
488.607	82
488.825	93
489.043	89
489.261	102
489.479	83
489.696	94
489.914	88
490.132	88
490.35	86
490.568	98
490.786	82
491.003	102
491.221	103
491.439	96
491.657	102
491.874	85
492.092	82
492.31	77
492.527	79
492.745	87
492.963	92
493.18	95
493.398	85
493.615	108
493.833	79
494.05	101
494.268	94
494.485	103
494.703	75
494.92	94
495.138	85
495.355	98
495.573	101
495.79	95
496.008	81
496.225	86
496.442	97
496.66	88
496.877	87
497.094	94
497.312	88
497.529	87
497.746	78
497.963	86
498.181	88
498.398	94
498.615	112
498.832	87
499.049	78
499.267	89
499.484	94
499.701	88
499.918	85
500.135	85
500.352	81
500.569	93
500.786	78
501.003	87
501.22	81
501.437	90
501.654	98
501.871	95
502.088	102
502.305	81
502.522	86
502.739	81
502.956	84
503.172	85
503.389	84
503.606	84
503.823	92
504.04	83
504.256	103
504.473	95
504.69	105
504.907	114
505.123	86
505.34	86
505.557	78
505.773	83
505.99	89
506.207	80
506.423	96
506.64	86
506.856	93
507.073	89
507.289	87
507.506	102
507.722	90
507.939	104
508.155	90
508.372	89
508.588	96
508.805	90
509.021	103
509.238	93
509.454	90
509.67	99
509.887	110
510.103	128
510.319	207
510.536	744
510.752	2238
510.968	610
511.184	157
511.401	109
511.617	96
511.833	98
512.049	79
512.265	91
512.481	89
512.698	91
512.914	85
513.13	83
513.346	98
513.562	89
513.778	94
513.994	96
514.21	112
514.426	119
514.642	115
514.858	120
515.074	166
515.29	413
515.506	1341
515.721	486
515.937	142
516.153	109
516.369	89
516.585	88
516.801	86
517.016	95
517.232	100
517.448	86
517.664	103
517.879	95
518.095	86
518.311	86
518.527	91
518.742	86
518.958	90
519.173	103
519.389	111
519.605	101
519.82	99
520.036	88
520.251	120
520.467	116
520.682	103
520.898	94
521.113	105
521.329	133
521.544	206
521.76	510
521.975	2245
522.19	1321
522.406	302
522.621	124
522.836	94
523.052	95
523.267	90
523.482	97
523.698	107
523.913	114
524.128	104
524.343	94
524.559	96
524.774	85
524.989	94
525.204	104
525.419	101
525.634	92
525.849	78
526.064	97
526.28	73
526.495	89
526.71	74
526.925	85
527.14	78
527.355	80
527.57	86
527.785	85
527.999	98
528.214	85
528.429	82
528.644	89
528.859	94
529.074	91
529.289	122
529.503	167
529.718	109
529.933	84
530.148	82
530.363	99
530.577	87
530.792	79
531.007	85
531.221	96
531.436	80
531.651	87
531.865	95
532.08	78
532.295	89
532.509	89
532.724	99
532.938	93
533.153	104
533.367	95
533.582	79
533.796	90
534.011	86
534.225	92
534.44	105
534.654	94
534.868	106
535.083	88
535.297	96
535.511	91
535.726	103
535.94	92
536.154	90
536.369	85
536.583	91
536.797	96
537.011	95
537.225	90
537.44	86
537.654	96
537.868	88
538.082	79
538.296	85
538.51	79
538.724	87
538.938	91
539.153	85
539.367	89
539.581	79
539.795	87
540.009	86
540.222	97
540.436	91
540.65	90
540.864	96
541.078	94
541.292	91
541.506	82
541.72	103
541.934	98
542.147	86
542.361	91
542.575	78
542.789	89
543.002	93
543.216	80
543.43	91
543.644	87
543.857	86
544.071	86
544.285	77
544.498	93
544.712	85
544.925	90
545.139	71
545.352	90
545.566	86
545.779	76
545.993	72
546.206	101
546.42	87
546.633	83
546.847	98
547.06	84
547.274	73
547.487	93
547.7	83
547.914	93
548.127	93
548.34	80
548.554	96
548.767	95
548.98	77
549.193	90
549.407	68
549.62	75
549.833	97
550.046	86
550.259	83
550.473	83
550.686	80
550.899	88
551.112	90
551.325	85
551.538	84
551.751	92
551.964	91
552.177	96
552.39	80
552.603	81
552.816	88
553.029	86
553.242	90
553.455	94
553.667	90
553.88	87
554.093	85
554.306	100
554.519	98
554.732	93
554.944	99
555.157	101
555.37	97
555.583	103
555.795	102
556.008	92
556.221	72
556.433	97
556.646	102
556.859	89
557.071	96
557.284	88
557.496	93
557.709	76
557.921	81
558.134	78
558.346	93
558.559	97
558.771	81
558.984	90
559.196	87
559.409	86
559.621	96
559.833	86
560.046	80
560.258	97
560.47	91
560.683	102
560.895	101
561.107	92
561.32	97
561.532	85
561.744	86
561.956	90
562.168	90
562.381	91
562.593	84
562.805	92
563.017	83
563.229	75
563.441	88
563.653	102
563.865	77
564.077	87
564.289	89
564.501	87
564.713	83
564.925	103
565.137	110
565.349	81
565.561	91
565.773	82
565.985	87
566.197	90
566.408	88
566.62	81
566.832	75
567.044	80
567.255	89
567.467	72
567.679	94
567.891	74
568.102	84
568.314	92
568.526	86
568.737	88
568.949	86
569.161	79
569.372	107
569.584	93
569.795	82
570.007	105
570.218	236
570.43	140
570.641	85
570.853	88
571.064	85
571.276	92
571.487	74
571.698	88
571.91	74
572.121	90
572.333	94
572.544	78
572.755	79
572.966	78
573.178	84
573.389	75
573.6	95
573.811	94
574.023	104
574.234	93
574.445	95
574.656	86
574.867	92
575.078	73
575.289	103
575.501	85
575.712	92
575.923	83
576.134	103
576.345	82
576.556	80
576.767	79
576.978	100
577.188	87
577.399	94
577.61	90
577.821	103
578.032	103
578.243	266
578.454	717
578.665	191
578.875	97
579.086	88
579.297	87
579.508	83
579.718	111
579.929	79
580.14	82
580.35	79
580.561	79
580.772	85
580.982	76
581.193	99
581.403	86
581.614	92
581.825	79
582.035	87
582.246	95
582.456	92
582.667	84
582.877	78
583.087	86
583.298	94
583.508	86
583.719	91
583.929	85
584.139	82
584.35	72
584.56	78
584.77	86
584.981	81
585.191	88
585.401	80
585.611	81
585.821	72
586.032	84
