Data from Uncirc_1994_H10_HRD10591_00072.txt Node
Date: Wed Jan 03 11:39:35 EST 2024
User: Yrep
Spectrometer: HR+D1059
Trigger mode: 1
Integration Time (sec): 1.000000E-1
Scans to average: 1
Electric dark correction enabled: true
Nonlinearity correction enabled: false
Boxcar width: 0
XAxis mode: Wavelengths
Number of Pixels in Spectrum: 2048
>>>>>Begin Spectral Data<<<<<
223.165	-17.69
223.4	-17.69
223.635	-17.69
223.869	-20.69
224.104	-15.69
224.338	-7.69
224.573	-23.69
224.808	-23.69
225.042	-0.69
225.277	-0.69
225.511	-1.69
225.746	-9.69
225.98	15.31
226.215	20.31
226.449	16.31
226.683	15.31
226.918	17.31
227.152	37.31
227.387	24.31
227.621	52.31
227.856	47.31
228.09	46.31
228.324	47.31
228.559	63.31
228.793	49.31
229.027	61.31
229.262	62.31
229.496	81.31
229.73	84.31
229.964	92.31
230.199	73.31
230.433	73.31
230.667	81.31
230.901	60.31
231.136	80.31
231.37	88.31
231.604	94.31
231.838	80.31
232.072	85.31
232.306	88.31
232.541	82.31
232.775	72.31
233.009	73.31
233.243	86.31
233.477	65.31
233.711	72.31
233.945	82.31
234.179	92.31
234.413	67.31
234.647	77.31
234.881	81.31
235.115	70.31
235.349	74.31
235.583	88.31
235.817	85.31
236.051	81.31
236.285	91.31
236.519	101.31
236.753	99.31
236.987	88.31
237.221	82.31
237.455	78.31
237.689	61.31
237.922	74.31
238.156	90.31
238.39	81.31
238.624	72.31
238.858	67.31
239.091	72.31
239.325	76.31
239.559	85.31
239.793	80.31
240.027	77.31
240.26	77.31
240.494	85.31
240.728	79.31
240.961	54.31
241.195	79.31
241.429	81.31
241.662	86.31
241.896	70.31
242.13	53.31
242.363	84.31
242.597	88.31
242.83	77.31
243.064	82.31
243.298	78.31
243.531	82.31
243.765	92.31
243.998	85.31
244.232	83.31
244.465	79.31
244.699	94.31
244.932	67.31
245.166	68.31
245.399	76.31
245.633	86.31
245.866	80.31
246.099	78.31
246.333	73.31
246.566	84.31
246.8	88.31
247.033	85.31
247.266	72.31
247.5	61.31
247.733	64.31
247.966	84.31
248.2	78.31
248.433	80.31
248.666	85.31
248.899	69.31
249.133	90.31
249.366	97.31
249.599	111.31
249.832	72.31
250.066	77.31
250.299	85.31
250.532	92.31
250.765	90.31
250.998	85.31
251.231	90.31
251.465	76.31
251.698	70.31
251.931	84.31
252.164	73.31
252.397	82.31
252.63	81.31
252.863	69.31
253.096	86.31
253.329	72.31
253.562	84.31
253.795	81.31
254.028	93.31
254.261	72.31
254.494	77.31
254.727	86.31
254.96	84.31
255.193	82.31
255.426	80.31
255.659	80.31
255.892	85.31
256.124	89.31
256.357	81.31
256.59	80.31
256.823	76.31
257.056	82.31
257.289	69.31
257.521	84.31
257.754	85.31
257.987	80.31
258.22	93.31
258.452	80.31
258.685	80.31
258.918	98.31
259.151	73.31
259.383	69.31
259.616	104.31
259.849	72.31
260.081	96.31
260.314	84.31
260.547	99.31
260.779	84.31
261.012	77.31
261.244	93.31
261.477	76.31
261.71	81.31
261.942	104.31
262.175	110.31
262.407	85.31
262.64	86.31
262.872	86.31
263.105	85.31
263.337	82.31
263.57	71.31
263.802	80.31
264.035	88.31
264.267	72.31
264.499	81.31
264.732	105.31
264.964	76.31
265.197	74.31
265.429	96.31
265.661	78.31
265.894	92.31
266.126	86.31
266.358	85.31
266.591	82.31
266.823	83.31
267.055	70.31
267.287	70.31
267.52	80.31
267.752	72.31
267.984	70.31
268.216	76.31
268.448	82.31
268.681	90.31
268.913	84.31
269.145	80.31
269.377	89.31
269.609	65.31
269.841	87.31
270.073	83.31
270.306	90.31
270.538	88.31
270.77	83.31
271.002	80.31
271.234	101.31
271.466	85.31
271.698	86.31
271.93	77.31
272.162	80.31
272.394	94.31
272.626	92.31
272.858	80.31
273.09	83.31
273.322	86.31
273.553	77.31
273.785	77.31
274.017	76.31
274.249	90.31
274.481	85.31
274.713	85.31
274.945	84.31
275.176	80.31
275.408	89.31
275.64	84.31
275.872	66.31
276.104	87.31
276.335	97.31
276.567	103.31
276.799	106.31
277.031	96.31
277.262	97.31
277.494	93.31
277.726	80.31
277.957	86.31
278.189	91.31
278.421	91.31
278.652	81.31
278.884	88.31
279.115	114.31
279.347	87.31
279.579	81.31
279.81	86.31
280.042	88.31
280.273	81.31
280.505	100.31
280.736	85.31
280.968	101.31
281.199	83.31
281.431	95.31
281.662	72.31
281.894	76.31
282.125	111.31
282.356	111.31
282.588	129.31
282.819	112.31
283.051	99.31
283.282	85.31
283.513	91.31
283.745	84.31
283.976	101.31
284.207	88.31
284.439	77.31
284.67	91.31
284.901	77.31
285.132	94.31
285.364	89.31
285.595	91.31
285.826	97.31
286.057	89.31
286.288	101.31
286.52	95.31
286.751	84.31
286.982	96.31
287.213	91.31
287.444	82.31
287.675	83.31
287.906	83.31
288.138	89.31
288.369	93.31
288.6	77.31
288.831	95.31
289.062	82.31
289.293	91.31
289.524	86.31
289.755	71.31
289.986	91.31
290.217	87.31
290.448	85.31
290.679	97.31
290.91	100.31
291.141	83.31
291.371	90.31
291.602	95.31
291.833	75.31
292.064	84.31
292.295	98.31
292.526	89.31
292.757	88.31
292.987	90.31
293.218	99.31
293.449	102.31
293.68	75.31
293.91	73.31
294.141	89.31
294.372	83.31
294.603	93.31
294.833	95.31
295.064	83.31
295.295	84.31
295.525	99.31
295.756	116.31
295.987	93.31
296.217	141.31
296.448	126.31
296.679	82.31
296.909	72.31
297.14	80.31
297.37	96.31
297.601	87.31
297.831	96.31
298.062	84.31
298.292	81.31
298.523	84.31
298.753	84.31
298.984	86.31
299.214	90.31
299.445	86.31
299.675	88.31
299.905	95.31
300.136	93.31
300.366	99.31
300.597	91.31
300.827	86.31
301.057	96.31
301.288	97.31
301.518	91.31
301.748	89.31
301.979	103.31
302.209	69.31
302.439	84.31
302.669	102.31
302.9	92.31
303.13	77.31
303.36	91.31
303.59	106.31
303.82	85.31
304.051	91.31
304.281	82.31
304.511	93.31
304.741	75.31
304.971	90.31
305.201	90.31
305.431	109.31
305.661	90.31
305.891	80.31
306.121	94.31
306.352	85.31
306.582	102.31
306.812	105.31
307.042	90.31
307.272	99.31
307.502	82.31
307.731	106.31
307.961	100.31
308.191	99.31
308.421	80.31
308.651	92.31
308.881	98.31
309.111	113.31
309.341	88.31
309.571	106.31
309.8	101.31
310.03	93.31
310.26	117.31
310.49	90.31
310.72	84.31
310.949	99.31
311.179	106.31
311.409	106.31
311.639	94.31
311.868	97.31
312.098	85.31
312.328	90.31
312.557	99.31
312.787	118.31
313.017	112.31
313.246	97.31
313.476	88.31
313.706	96.31
313.935	94.31
314.165	100.31
314.394	96.31
314.624	92.31
314.853	100.31
315.083	89.31
315.312	96.31
315.542	99.31
315.771	96.31
316.001	100.31
316.23	97.31
316.46	93.31
316.689	96.31
316.919	91.31
317.148	97.31
317.377	100.31
317.607	92.31
317.836	92.31
318.065	87.31
318.295	85.31
318.524	111.31
318.753	98.31
318.983	97.31
319.212	89.31
319.441	116.31
319.67	109.31
319.9	91.31
320.129	94.31
320.358	97.31
320.587	105.31
320.816	101.31
321.046	91.31
321.275	96.31
321.504	106.31
321.733	96.31
321.962	92.31
322.191	99.31
322.42	78.31
322.649	112.31
322.878	109.31
323.108	110.31
323.337	115.31
323.566	130.31
323.795	139.31
324.024	202.31
324.253	398.31
324.482	838.31
324.71	1711.31
324.939	2236.31
325.168	792.31
325.397	236.31
325.626	165.31
325.855	114.31
326.084	102.31
326.313	125.31
326.542	138.31
326.77	210.31
326.999	461.31
327.228	930.31
327.457	1703.31
327.686	1397.31
327.914	376.31
328.143	193.31
328.372	149.31
328.6	135.31
328.829	99.31
329.058	114.31
329.287	139.31
329.515	110.31
329.744	101.31
329.972	92.31
330.201	108.31
330.43	101.31
330.658	113.31
330.887	146.31
331.115	115.31
331.344	95.31
331.572	91.31
331.801	100.31
332.03	101.31
332.258	100.31
332.486	86.31
332.715	91.31
332.943	98.31
333.172	96.31
333.4	88.31
333.629	110.31
333.857	104.31
334.085	83.31
334.314	88.31
334.542	89.31
334.771	104.31
334.999	89.31
335.227	86.31
335.455	93.31
335.684	93.31
335.912	88.31
336.14	90.31
336.369	90.31
336.597	108.31
336.825	87.31
337.053	92.31
337.281	107.31
337.51	94.31
337.738	97.31
337.966	93.31
338.194	99.31
338.422	107.31
338.65	85.31
338.878	97.31
339.106	82.31
339.334	99.31
339.562	99.31
339.79	89.31
340.018	84.31
340.246	91.31
340.474	86.31
340.702	101.31
340.93	96.31
341.158	82.31
341.386	103.31
341.614	97.31
341.842	100.31
342.07	94.31
342.298	108.31
342.526	99.31
342.754	94.31
342.981	80.31
343.209	101.31
343.437	106.31
343.665	78.31
343.893	87.31
344.12	90.31
344.348	97.31
344.576	86.31
344.804	86.31
345.031	93.31
345.259	96.31
345.487	86.31
345.714	92.31
345.942	88.31
346.17	88.31
346.397	93.31
346.625	85.31
346.853	76.31
347.08	89.31
347.308	97.31
347.535	101.31
347.763	89.31
347.99	93.31
348.218	92.31
348.445	102.31
348.673	107.31
348.9	91.31
349.128	96.31
349.355	83.31
349.583	94.31
349.81	98.31
350.037	102.31
350.265	82.31
350.492	107.31
350.72	106.31
350.947	89.31
351.174	101.31
351.402	120.31
351.629	114.31
351.856	105.31
352.083	106.31
352.311	101.31
352.538	96.31
352.765	111.31
352.992	113.31
353.22	111.31
353.447	100.31
353.674	94.31
353.901	96.31
354.128	100.31
354.355	90.31
354.583	105.31
354.81	81.31
355.037	105.31
355.264	96.31
355.491	91.31
355.718	88.31
355.945	96.31
356.172	100.31
356.399	99.31
356.626	104.31
356.853	100.31
357.08	102.31
357.307	102.31
357.534	90.31
357.761	97.31
357.988	88.31
358.215	92.31
358.441	84.31
358.668	87.31
358.895	79.31
359.122	90.31
359.349	92.31
359.576	89.31
359.802	109.31
360.029	102.31
360.256	108.31
360.483	100.31
360.709	89.31
360.936	86.31
361.163	92.31
361.39	94.31
361.616	103.31
361.843	92.31
362.07	91.31
362.296	90.31
362.523	103.31
362.749	99.31
362.976	81.31
363.203	97.31
363.429	100.31
363.656	85.31
363.882	92.31
364.109	91.31
364.335	82.31
364.562	108.31
364.788	93.31
365.015	94.31
365.241	97.31
365.468	92.31
365.694	113.31
365.92	88.31
366.147	79.31
366.373	101.31
366.599	96.31
366.826	92.31
367.052	92.31
367.278	87.31
367.505	78.31
367.731	91.31
367.957	106.31
368.184	93.31
368.41	112.31
368.636	116.31
368.862	120.31
369.089	109.31
369.315	93.31
369.541	88.31
369.767	89.31
369.993	83.31
370.219	97.31
370.445	93.31
370.672	89.31
370.898	95.31
371.124	78.31
371.35	85.31
371.576	79.31
371.802	82.31
372.028	81.31
372.254	97.31
372.48	85.31
372.706	85.31
372.932	100.31
373.158	80.31
373.384	84.31
373.61	90.31
373.835	82.31
374.061	104.31
374.287	88.31
374.513	87.31
374.739	77.31
374.965	88.31
375.191	94.31
375.416	87.31
375.642	85.31
375.868	95.31
376.094	74.31
376.319	97.31
376.545	84.31
376.771	84.31
376.997	97.31
377.222	85.31
377.448	85.31
377.674	91.31
377.899	87.31
378.125	97.31
378.35	95.31
378.576	100.31
378.802	96.31
379.027	85.31
379.253	85.31
379.478	97.31
379.704	100.31
379.929	88.31
380.155	88.31
380.38	79.31
380.606	89.31
380.831	98.31
381.057	97.31
381.282	91.31
381.507	96.31
381.733	86.31
381.958	84.31
382.184	98.31
382.409	101.31
382.634	91.31
382.86	98.31
383.085	98.31
383.31	96.31
383.535	102.31
383.761	88.31
383.986	98.31
384.211	94.31
384.436	99.31
384.662	93.31
384.887	99.31
385.112	99.31
385.337	86.31
385.562	94.31
385.787	97.31
386.013	109.31
386.238	106.31
386.463	107.31
386.688	108.31
386.913	100.31
387.138	95.31
387.363	99.31
387.588	93.31
387.813	96.31
388.038	104.31
388.263	91.31
388.488	114.31
388.713	101.31
388.938	95.31
389.163	102.31
389.387	86.31
389.612	88.31
389.837	96.31
390.062	92.31
390.287	90.31
390.512	106.31
390.736	98.31
390.961	84.31
391.186	96.31
391.411	94.31
391.636	83.31
391.86	100.31
392.085	101.31
392.31	81.31
392.534	92.31
392.759	92.31
392.984	85.31
393.208	89.31
393.433	93.31
393.658	87.31
393.882	86.31
394.107	88.31
394.331	92.31
394.556	96.31
394.78	77.31
395.005	82.31
395.229	89.31
395.454	80.31
395.678	74.31
395.903	94.31
396.127	95.31
396.352	88.31
396.576	80.31
396.801	91.31
397.025	94.31
397.249	95.31
397.474	94.31
397.698	81.31
397.922	99.31
398.147	94.31
398.371	101.31
398.595	82.31
398.82	80.31
399.044	83.31
399.268	78.31
399.492	100.31
399.717	87.31
399.941	90.31
400.165	85.31
400.389	87.31
400.613	91.31
400.837	91.31
401.062	88.31
401.286	80.31
401.51	76.31
401.734	85.31
401.958	79.31
402.182	139.31
402.406	154.31
402.63	111.31
402.854	100.31
403.078	99.31
403.302	75.31
403.526	96.31
403.75	93.31
403.974	91.31
404.198	83.31
404.422	85.31
404.645	93.31
404.869	92.31
405.093	99.31
405.317	95.31
405.541	97.31
405.765	100.31
405.988	112.31
406.212	182.31
406.436	228.31
406.66	142.31
406.883	104.31
407.107	101.31
407.331	96.31
407.555	91.31
407.778	86.31
408.002	90.31
408.226	94.31
408.449	78.31
408.673	96.31
408.896	91.31
409.12	97.31
409.344	91.31
409.567	99.31
409.791	96.31
410.014	106.31
410.238	92.31
410.461	90.31
410.685	98.31
410.908	96.31
411.132	106.31
411.355	98.31
411.578	87.31
411.802	100.31
412.025	80.31
412.249	108.31
412.472	105.31
412.695	88.31
412.919	76.31
413.142	77.31
413.365	78.31
413.589	84.31
413.812	90.31
414.035	83.31
414.258	84.31
414.482	93.31
414.705	85.31
414.928	78.31
415.151	88.31
415.374	85.31
415.597	83.31
415.821	86.31
416.044	93.31
416.267	96.31
416.49	77.31
416.713	101.31
416.936	77.31
417.159	82.31
417.382	89.31
417.605	86.31
417.828	93.31
418.051	97.31
418.274	92.31
418.497	89.31
418.72	91.31
418.943	79.31
419.166	92.31
419.389	80.31
419.611	77.31
419.834	75.31
420.057	80.31
420.28	91.31
420.503	85.31
420.726	86.31
420.948	78.31
421.171	98.31
421.394	95.31
421.617	81.31
421.839	102.31
422.062	86.31
422.285	102.31
422.507	103.31
422.73	96.31
422.953	95.31
423.175	95.31
423.398	79.31
423.621	93.31
423.843	90.31
424.066	99.31
424.288	81.31
424.511	92.31
424.733	88.31
424.956	97.31
425.178	108.31
425.401	92.31
425.623	90.31
425.846	103.31
426.068	85.31
426.291	100.31
426.513	84.31
426.735	94.31
426.958	79.31
427.18	91.31
427.402	142.31
427.625	157.31
427.847	130.31
428.069	107.31
428.292	81.31
428.514	69.31
428.736	100.31
428.958	98.31
429.181	90.31
429.403	99.31
429.625	84.31
429.847	101.31
430.069	97.31
430.292	94.31
430.514	94.31
430.736	91.31
430.958	77.31
431.18	78.31
431.402	101.31
431.624	107.31
431.846	93.31
432.068	94.31
432.29	79.31
432.512	105.31
432.734	85.31
432.956	96.31
433.178	111.31
433.4	93.31
433.622	107.31
433.844	79.31
434.066	97.31
434.287	94.31
434.509	99.31
434.731	76.31
434.953	78.31
435.175	78.31
435.397	101.31
435.618	96.31
435.84	105.31
436.062	122.31
436.284	107.31
436.505	96.31
436.727	99.31
436.949	106.31
437.17	89.31
437.392	79.31
437.614	91.31
437.835	124.31
438.057	113.31
438.278	114.31
438.5	84.31
438.721	116.31
438.943	106.31
439.165	85.31
439.386	104.31
439.608	102.31
439.829	91.31
440.05	127.31
440.272	113.31
440.493	105.31
440.715	85.31
440.936	89.31
441.158	79.31
441.379	94.31
441.6	89.31
441.822	106.31
442.043	114.31
442.264	105.31
442.486	106.31
442.707	96.31
442.928	113.31
443.149	140.31
443.371	123.31
443.592	119.31
443.813	112.31
444.034	113.31
444.255	102.31
444.476	86.31
444.698	103.31
444.919	86.31
445.14	132.31
445.361	126.31
445.582	100.31
445.803	122.31
446.024	129.31
446.245	140.31
446.466	109.31
446.687	88.31
446.908	80.31
447.129	101.31
447.35	91.31
447.571	106.31
447.792	94.31
448.013	97.31
448.234	98.31
448.455	98.31
448.675	136.31
448.896	123.31
449.117	89.31
449.338	112.31
449.559	148.31
449.779	132.31
450	112.31
450.221	82.31
450.442	73.31
450.662	83.31
450.883	100.31
451.104	101.31
451.324	99.31
451.545	85.31
451.766	101.31
451.986	78.31
452.207	81.31
452.428	97.31
452.648	106.31
452.869	112.31
453.089	105.31
453.31	126.31
453.53	88.31
453.751	90.31
453.971	96.31
454.192	100.31
454.412	102.31
454.633	89.31
454.853	88.31
455.073	95.31
455.294	106.31
455.514	80.31
455.734	90.31
455.955	83.31
456.175	82.31
456.395	77.31
456.616	83.31
456.836	83.31
457.056	86.31
457.276	72.31
457.497	83.31
457.717	96.31
457.937	86.31
458.157	97.31
458.377	96.31
458.598	117.31
458.818	145.31
459.038	143.31
459.258	103.31
459.478	104.31
459.698	92.31
459.918	78.31
460.138	97.31
460.358	75.31
460.578	85.31
460.798	86.31
461.018	95.31
461.238	93.31
461.458	73.31
461.678	80.31
461.898	90.31
462.118	79.31
462.338	96.31
462.558	92.31
462.777	98.31
462.997	96.31
463.217	89.31
463.437	88.31
463.657	85.31
463.876	83.31
464.096	86.31
464.316	95.31
464.536	97.31
464.755	110.31
464.975	115.31
465.195	139.31
465.414	154.31
465.634	90.31
465.854	85.31
466.073	84.31
466.293	83.31
466.512	98.31
466.732	90.31
466.951	89.31
467.171	102.31
467.391	101.31
467.61	104.31
467.829	110.31
468.049	88.31
468.268	91.31
468.488	87.31
468.707	101.31
468.927	89.31
469.146	92.31
469.365	68.31
469.585	77.31
469.804	85.31
470.023	102.31
470.243	90.31
470.462	101.31
470.681	93.31
470.901	94.31
471.12	91.31
471.339	82.31
471.558	79.31
471.777	92.31
471.997	79.31
472.216	93.31
472.435	102.31
472.654	76.31
472.873	77.31
473.092	90.31
473.311	88.31
473.53	88.31
473.749	87.31
473.968	97.31
474.187	101.31
474.406	85.31
474.625	78.31
474.844	85.31
475.063	87.31
475.282	81.31
475.501	86.31
475.72	90.31
475.939	98.31
476.158	80.31
476.377	81.31
476.596	76.31
476.814	78.31
477.033	89.31
477.252	93.31
477.471	81.31
477.69	90.31
477.908	94.31
478.127	83.31
478.346	90.31
478.564	82.31
478.783	109.31
479.002	86.31
479.22	106.31
479.439	119.31
479.658	100.31
479.876	88.31
480.095	87.31
480.313	94.31
480.532	84.31
480.751	88.31
480.969	85.31
481.188	83.31
481.406	73.31
481.624	96.31
481.843	88.31
482.061	87.31
482.28	86.31
482.498	88.31
482.717	70.31
482.935	102.31
483.153	90.31
483.372	84.31
483.59	97.31
483.808	86.31
484.027	85.31
484.245	103.31
484.463	96.31
484.681	83.31
484.9	93.31
485.118	83.31
485.336	77.31
485.554	97.31
485.772	107.31
485.99	90.31
486.209	110.31
486.427	105.31
486.645	97.31
486.863	112.31
487.081	98.31
487.299	90.31
487.517	97.31
487.735	96.31
487.953	97.31
488.171	95.31
488.389	98.31
488.607	100.31
488.825	97.31
489.043	109.31
489.261	96.31
489.479	86.31
489.696	78.31
489.914	81.31
490.132	102.31
490.35	81.31
490.568	84.31
490.786	89.31
491.003	92.31
491.221	84.31
491.439	87.31
491.657	93.31
491.874	100.31
492.092	84.31
492.31	89.31
492.527	108.31
492.745	87.31
492.963	102.31
493.18	89.31
493.398	76.31
493.615	103.31
493.833	86.31
494.05	92.31
494.268	101.31
494.485	82.31
494.703	88.31
494.92	104.31
495.138	94.31
495.355	86.31
495.573	97.31
495.79	92.31
496.008	81.31
496.225	94.31
496.442	83.31
496.66	118.31
496.877	94.31
497.094	88.31
497.312	94.31
497.529	106.31
497.746	97.31
497.963	80.31
498.181	97.31
498.398	91.31
498.615	114.31
498.832	107.31
499.049	109.31
499.267	96.31
499.484	82.31
499.701	89.31
499.918	89.31
500.135	82.31
500.352	91.31
500.569	78.31
500.786	83.31
501.003	81.31
501.22	85.31
501.437	88.31
501.654	84.31
501.871	100.31
502.088	102.31
502.305	89.31
502.522	89.31
502.739	85.31
502.956	92.31
503.172	97.31
503.389	81.31
503.606	107.31
503.823	106.31
504.04	103.31
504.256	92.31
504.473	75.31
504.69	99.31
504.907	77.31
505.123	106.31
505.34	83.31
505.557	96.31
505.773	91.31
505.99	92.31
506.207	92.31
506.423	98.31
506.64	89.31
506.856	108.31
507.073	87.31
507.289	86.31
507.506	93.31
507.722	111.31
507.939	96.31
508.155	112.31
508.372	89.31
508.588	91.31
508.805	90.31
509.021	99.31
509.238	89.31
509.454	84.31
509.67	102.31
509.887	109.31
510.103	138.31
510.319	221.31
510.536	757.31
510.752	2350.31
510.968	626.31
511.184	156.31
511.401	119.31
511.617	96.31
511.833	97.31
512.049	96.31
512.265	101.31
512.481	74.31
512.698	88.31
512.914	98.31
513.13	93.31
513.346	89.31
513.562	104.31
513.778	106.31
513.994	92.31
514.21	108.31
514.426	115.31
514.642	138.31
514.858	137.31
515.074	165.31
515.29	449.31
515.506	1452.31
