Data from Uncirc_1994_H10_HRD10591_00093.txt Node
Date: Wed Jan 03 11:39:39 EST 2024
User: Yrep
Spectrometer: HR+D1059
Trigger mode: 1
Integration Time (sec): 1.000000E-1
Scans to average: 1
Electric dark correction enabled: true
Nonlinearity correction enabled: false
Boxcar width: 0
XAxis mode: Wavelengths
Number of Pixels in Spectrum: 2048
>>>>>Begin Spectral Data<<<<<
223.165	-18.5
223.4	-18.5
223.635	-18.5
223.869	-17.5
224.104	-16.5
224.338	-1.5
224.573	-31.5
224.808	-11.5
225.042	-5.5
225.277	-14.5
225.511	3.5
225.746	-0.5
225.98	2.5
226.215	11.5
226.449	12.5
226.683	23.5
226.918	40.5
227.152	23.5
227.387	30.5
227.621	42.5
227.856	39.5
228.09	47.5
228.324	50.5
228.559	51.5
228.793	57.5
229.027	54.5
229.262	64.5
229.496	90.5
229.73	84.5
229.964	85.5
230.199	71.5
230.433	88.5
230.667	79.5
230.901	77.5
231.136	81.5
231.37	81.5
231.604	82.5
231.838	86.5
232.072	80.5
232.306	83.5
232.541	84.5
232.775	79.5
233.009	67.5
233.243	77.5
233.477	80.5
233.711	76.5
233.945	85.5
234.179	72.5
234.413	85.5
234.647	81.5
234.881	89.5
235.115	77.5
235.349	84.5
235.583	78.5
235.817	62.5
236.051	81.5
236.285	83.5
236.519	72.5
236.753	78.5
236.987	77.5
237.221	86.5
237.455	83.5
237.689	91.5
237.922	90.5
238.156	64.5
238.39	76.5
238.624	69.5
238.858	78.5
239.091	66.5
239.325	87.5
239.559	71.5
239.793	77.5
240.027	78.5
240.26	97.5
240.494	78.5
240.728	93.5
240.961	87.5
241.195	79.5
241.429	79.5
241.662	82.5
241.896	80.5
242.13	93.5
242.363	82.5
242.597	87.5
242.83	98.5
243.064	60.5
243.298	69.5
243.531	70.5
243.765	91.5
243.998	78.5
244.232	82.5
244.465	96.5
244.699	88.5
244.932	65.5
245.166	80.5
245.399	80.5
245.633	103.5
245.866	74.5
246.099	82.5
246.333	93.5
246.566	72.5
246.8	87.5
247.033	80.5
247.266	75.5
247.5	84.5
247.733	90.5
247.966	72.5
248.2	85.5
248.433	83.5
248.666	88.5
248.899	83.5
249.133	84.5
249.366	107.5
249.599	90.5
249.832	99.5
250.066	84.5
250.299	90.5
250.532	87.5
250.765	81.5
250.998	98.5
251.231	84.5
251.465	79.5
251.698	91.5
251.931	79.5
252.164	90.5
252.397	71.5
252.63	95.5
252.863	87.5
253.096	97.5
253.329	82.5
253.562	93.5
253.795	73.5
254.028	79.5
254.261	78.5
254.494	72.5
254.727	87.5
254.96	80.5
255.193	83.5
255.426	78.5
255.659	82.5
255.892	90.5
256.124	70.5
256.357	78.5
256.59	76.5
256.823	77.5
257.056	78.5
257.289	84.5
257.521	85.5
257.754	89.5
257.987	93.5
258.22	82.5
258.452	92.5
258.685	86.5
258.918	79.5
259.151	90.5
259.383	82.5
259.616	81.5
259.849	90.5
260.081	98.5
260.314	90.5
260.547	88.5
260.779	81.5
261.012	75.5
261.244	83.5
261.477	74.5
261.71	94.5
261.942	108.5
262.175	122.5
262.407	91.5
262.64	86.5
262.872	68.5
263.105	78.5
263.337	80.5
263.57	82.5
263.802	95.5
264.035	88.5
264.267	85.5
264.499	81.5
264.732	100.5
264.964	84.5
265.197	85.5
265.429	90.5
265.661	73.5
265.894	85.5
266.126	77.5
266.358	72.5
266.591	80.5
266.823	99.5
267.055	84.5
267.287	84.5
267.52	80.5
267.752	68.5
267.984	98.5
268.216	93.5
268.448	90.5
268.681	85.5
268.913	86.5
269.145	93.5
269.377	90.5
269.609	83.5
269.841	106.5
270.073	87.5
270.306	89.5
270.538	88.5
270.77	88.5
271.002	79.5
271.234	87.5
271.466	81.5
271.698	78.5
271.93	87.5
272.162	99.5
272.394	104.5
272.626	83.5
272.858	91.5
273.09	88.5
273.322	100.5
273.553	69.5
273.785	84.5
274.017	94.5
274.249	63.5
274.481	76.5
274.713	90.5
274.945	84.5
275.176	86.5
275.408	90.5
275.64	87.5
275.872	94.5
276.104	90.5
276.335	91.5
276.567	103.5
276.799	113.5
277.031	86.5
277.262	87.5
277.494	87.5
277.726	92.5
277.957	104.5
278.189	86.5
278.421	92.5
278.652	76.5
278.884	98.5
279.115	90.5
279.347	92.5
279.579	92.5
279.81	94.5
280.042	83.5
280.273	93.5
280.505	89.5
280.736	106.5
280.968	90.5
281.199	86.5
281.431	86.5
281.662	86.5
281.894	77.5
282.125	104.5
282.356	118.5
282.588	125.5
282.819	100.5
283.051	99.5
283.282	87.5
283.513	79.5
283.745	77.5
283.976	88.5
284.207	95.5
284.439	83.5
284.67	98.5
284.901	79.5
285.132	76.5
285.364	80.5
285.595	98.5
285.826	86.5
286.057	86.5
286.288	87.5
286.52	87.5
286.751	78.5
286.982	92.5
287.213	91.5
287.444	90.5
287.675	88.5
287.906	81.5
288.138	90.5
288.369	92.5
288.6	92.5
288.831	101.5
289.062	91.5
289.293	86.5
289.524	93.5
289.755	90.5
289.986	91.5
290.217	83.5
290.448	84.5
290.679	76.5
290.91	91.5
291.141	86.5
291.371	86.5
291.602	85.5
291.833	92.5
292.064	96.5
292.295	91.5
292.526	76.5
292.757	97.5
292.987	106.5
293.218	79.5
293.449	97.5
293.68	76.5
293.91	78.5
294.141	97.5
294.372	84.5
294.603	92.5
294.833	81.5
295.064	86.5
295.295	93.5
295.525	93.5
295.756	94.5
295.987	131.5
296.217	146.5
296.448	122.5
296.679	90.5
296.909	98.5
297.14	91.5
297.37	106.5
297.601	98.5
297.831	86.5
298.062	91.5
298.292	94.5
298.523	102.5
298.753	95.5
298.984	82.5
299.214	90.5
299.445	97.5
299.675	91.5
299.905	103.5
300.136	90.5
300.366	90.5
300.597	94.5
300.827	83.5
301.057	105.5
301.288	100.5
301.518	92.5
301.748	95.5
301.979	110.5
302.209	93.5
302.439	87.5
302.669	106.5
302.9	101.5
303.13	107.5
303.36	85.5
303.59	91.5
303.82	93.5
304.051	99.5
304.281	90.5
304.511	92.5
304.741	103.5
304.971	90.5
305.201	91.5
305.431	89.5
305.661	94.5
305.891	102.5
306.121	96.5
306.352	106.5
306.582	101.5
306.812	90.5
307.042	99.5
307.272	93.5
307.502	94.5
307.731	99.5
307.961	79.5
308.191	89.5
308.421	86.5
308.651	95.5
308.881	98.5
309.111	90.5
309.341	88.5
309.571	119.5
309.8	84.5
310.03	102.5
310.26	100.5
310.49	78.5
310.72	67.5
310.949	102.5
311.179	92.5
311.409	104.5
311.639	109.5
311.868	99.5
312.098	80.5
312.328	92.5
312.557	109.5
312.787	107.5
313.017	89.5
313.246	103.5
313.476	97.5
313.706	97.5
313.935	85.5
314.165	103.5
314.394	95.5
314.624	101.5
314.853	82.5
315.083	90.5
315.312	91.5
315.542	93.5
315.771	92.5
316.001	97.5
316.23	102.5
316.46	89.5
316.689	93.5
316.919	101.5
317.148	110.5
317.377	110.5
317.607	96.5
317.836	108.5
318.065	85.5
318.295	79.5
318.524	91.5
318.753	87.5
318.983	93.5
319.212	103.5
319.441	116.5
319.67	119.5
319.9	92.5
320.129	92.5
320.358	97.5
320.587	100.5
320.816	96.5
321.046	95.5
321.275	110.5
321.504	109.5
321.733	101.5
321.962	85.5
322.191	101.5
322.42	102.5
322.649	112.5
322.878	108.5
323.108	117.5
323.337	114.5
323.566	150.5
323.795	153.5
324.024	181.5
324.253	349.5
324.482	749.5
324.71	1510.5
324.939	1974.5
325.168	731.5
325.397	239.5
325.626	152.5
325.855	119.5
326.084	113.5
326.313	135.5
326.542	135.5
326.77	232.5
326.999	440.5
327.228	871.5
327.457	1545.5
327.686	1205.5
327.914	330.5
328.143	180.5
328.372	143.5
328.6	112.5
328.829	115.5
329.058	124.5
329.287	116.5
329.515	108.5
329.744	100.5
329.972	111.5
330.201	92.5
330.43	114.5
330.658	104.5
330.887	148.5
331.115	118.5
331.344	104.5
331.572	95.5
331.801	109.5
332.03	93.5
332.258	93.5
332.486	102.5
332.715	101.5
332.943	93.5
333.172	108.5
333.4	102.5
333.629	116.5
333.857	106.5
334.085	106.5
334.314	97.5
334.542	83.5
334.771	113.5
334.999	99.5
335.227	100.5
335.455	98.5
335.684	101.5
335.912	78.5
336.14	98.5
336.369	100.5
336.597	87.5
336.825	103.5
337.053	113.5
337.281	85.5
337.51	101.5
337.738	84.5
337.966	93.5
338.194	95.5
338.422	88.5
338.65	99.5
338.878	101.5
339.106	93.5
339.334	94.5
339.562	87.5
339.79	83.5
340.018	99.5
340.246	101.5
340.474	97.5
340.702	87.5
340.93	85.5
341.158	94.5
341.386	98.5
341.614	101.5
341.842	118.5
342.07	94.5
342.298	88.5
342.526	104.5
342.754	95.5
342.981	99.5
343.209	79.5
343.437	99.5
343.665	98.5
343.893	86.5
344.12	103.5
344.348	89.5
344.576	95.5
344.804	96.5
345.031	107.5
345.259	98.5
345.487	102.5
345.714	102.5
345.942	100.5
346.17	88.5
346.397	97.5
346.625	84.5
346.853	97.5
347.08	91.5
347.308	113.5
347.535	95.5
347.763	108.5
347.99	109.5
348.218	96.5
348.445	101.5
348.673	104.5
348.9	93.5
349.128	110.5
349.355	113.5
349.583	93.5
349.81	90.5
350.037	84.5
350.265	104.5
350.492	109.5
350.72	90.5
350.947	108.5
351.174	107.5
351.402	115.5
351.629	94.5
351.856	96.5
352.083	104.5
352.311	104.5
352.538	107.5
352.765	108.5
352.992	120.5
353.22	107.5
353.447	110.5
353.674	106.5
353.901	90.5
354.128	91.5
354.355	88.5
354.583	84.5
354.81	104.5
355.037	112.5
355.264	90.5
355.491	101.5
355.718	88.5
355.945	96.5
356.172	102.5
356.399	93.5
356.626	108.5
356.853	94.5
357.08	89.5
357.307	80.5
357.534	97.5
357.761	88.5
357.988	85.5
358.215	101.5
358.441	96.5
358.668	85.5
358.895	103.5
359.122	86.5
359.349	84.5
359.576	103.5
359.802	104.5
360.029	113.5
360.256	114.5
360.483	106.5
360.709	100.5
360.936	101.5
361.163	87.5
361.39	95.5
361.616	74.5
361.843	100.5
362.07	98.5
362.296	99.5
362.523	92.5
362.749	95.5
362.976	82.5
363.203	104.5
363.429	92.5
363.656	83.5
363.882	79.5
364.109	99.5
364.335	100.5
364.562	89.5
364.788	98.5
365.015	91.5
365.241	106.5
365.468	111.5
365.694	123.5
365.92	109.5
366.147	79.5
366.373	94.5
366.599	96.5
366.826	103.5
367.052	74.5
367.278	110.5
367.505	97.5
367.731	87.5
367.957	90.5
368.184	101.5
368.41	104.5
368.636	109.5
368.862	115.5
369.089	105.5
369.315	97.5
369.541	88.5
369.767	93.5
369.993	111.5
370.219	81.5
370.445	107.5
370.672	86.5
370.898	104.5
371.124	102.5
371.35	81.5
371.576	96.5
371.802	86.5
372.028	103.5
372.254	86.5
372.48	102.5
372.706	86.5
372.932	105.5
373.158	98.5
373.384	98.5
373.61	110.5
373.835	87.5
374.061	94.5
374.287	98.5
374.513	99.5
374.739	95.5
374.965	101.5
375.191	84.5
375.416	90.5
375.642	105.5
375.868	86.5
376.094	95.5
376.319	95.5
376.545	92.5
376.771	87.5
376.997	88.5
377.222	98.5
377.448	97.5
377.674	96.5
377.899	70.5
378.125	91.5
378.35	90.5
378.576	98.5
378.802	99.5
379.027	90.5
379.253	104.5
379.478	102.5
379.704	95.5
379.929	95.5
380.155	106.5
380.38	90.5
380.606	104.5
380.831	94.5
381.057	102.5
381.282	88.5
381.507	93.5
381.733	88.5
381.958	98.5
382.184	93.5
382.409	116.5
382.634	98.5
382.86	103.5
383.085	99.5
383.31	107.5
383.535	86.5
383.761	100.5
383.986	94.5
384.211	98.5
384.436	101.5
384.662	105.5
384.887	104.5
385.112	94.5
385.337	86.5
385.562	88.5
385.787	101.5
386.013	97.5
386.238	103.5
386.463	96.5
386.688	106.5
386.913	98.5
387.138	104.5
387.363	96.5
387.588	98.5
387.813	116.5
388.038	96.5
388.263	95.5
388.488	112.5
388.713	110.5
388.938	94.5
389.163	98.5
389.387	95.5
389.612	91.5
389.837	98.5
390.062	91.5
390.287	79.5
390.512	93.5
390.736	101.5
390.961	102.5
391.186	97.5
391.411	95.5
391.636	103.5
391.86	85.5
392.085	86.5
392.31	84.5
392.534	85.5
392.759	106.5
392.984	69.5
393.208	85.5
393.433	94.5
393.658	79.5
393.882	86.5
394.107	90.5
394.331	84.5
394.556	83.5
394.78	93.5
395.005	96.5
395.229	90.5
395.454	87.5
395.678	83.5
395.903	90.5
396.127	98.5
396.352	101.5
396.576	90.5
396.801	86.5
397.025	84.5
397.249	100.5
397.474	96.5
397.698	86.5
397.922	77.5
398.147	102.5
398.371	99.5
398.595	96.5
398.82	108.5
399.044	85.5
399.268	100.5
399.492	82.5
399.717	80.5
399.941	93.5
400.165	84.5
400.389	94.5
400.613	81.5
400.837	95.5
401.062	95.5
401.286	99.5
401.51	101.5
401.734	94.5
401.958	94.5
402.182	108.5
402.406	153.5
402.63	117.5
402.854	95.5
403.078	90.5
403.302	72.5
403.526	74.5
403.75	74.5
403.974	93.5
404.198	91.5
404.422	101.5
404.645	83.5
404.869	103.5
405.093	88.5
405.317	91.5
405.541	106.5
405.765	93.5
405.988	100.5
406.212	153.5
406.436	223.5
406.66	128.5
406.883	96.5
407.107	98.5
407.331	105.5
407.555	109.5
407.778	100.5
408.002	87.5
408.226	100.5
408.449	87.5
408.673	94.5
408.896	99.5
409.12	96.5
409.344	102.5
409.567	82.5
409.791	85.5
410.014	93.5
410.238	95.5
410.461	93.5
410.685	88.5
410.908	99.5
411.132	113.5
411.355	108.5
411.578	99.5
411.802	103.5
412.025	91.5
412.249	88.5
412.472	103.5
412.695	96.5
412.919	81.5
413.142	90.5
413.365	83.5
413.589	103.5
413.812	94.5
414.035	87.5
414.258	102.5
414.482	94.5
414.705	104.5
414.928	88.5
415.151	96.5
415.374	91.5
415.597	81.5
415.821	88.5
416.044	86.5
416.267	86.5
416.49	94.5
416.713	90.5
416.936	67.5
417.159	98.5
417.382	96.5
417.605	88.5
417.828	93.5
418.051	95.5
418.274	74.5
418.497	97.5
418.72	84.5
418.943	96.5
419.166	97.5
419.389	87.5
419.611	92.5
419.834	80.5
420.057	95.5
420.28	86.5
420.503	86.5
420.726	85.5
420.948	81.5
421.171	80.5
421.394	87.5
421.617	83.5
421.839	92.5
422.062	103.5
422.285	97.5
422.507	99.5
422.73	101.5
422.953	83.5
423.175	102.5
423.398	97.5
423.621	100.5
423.843	92.5
424.066	75.5
424.288	81.5
424.511	82.5
424.733	93.5
424.956	112.5
425.178	97.5
425.401	102.5
425.623	100.5
425.846	94.5
426.068	93.5
426.291	82.5
426.513	101.5
426.735	84.5
426.958	87.5
427.18	101.5
427.402	140.5
427.625	142.5
427.847	100.5
428.069	102.5
428.292	89.5
428.514	81.5
428.736	96.5
428.958	88.5
429.181	75.5
429.403	90.5
429.625	94.5
429.847	93.5
430.069	104.5
430.292	92.5
430.514	79.5
430.736	85.5
430.958	86.5
431.18	86.5
431.402	88.5
431.624	85.5
431.846	85.5
432.068	79.5
432.29	94.5
432.512	91.5
432.734	109.5
432.956	98.5
433.178	93.5
433.4	94.5
433.622	97.5
433.844	86.5
434.066	90.5
434.287	84.5
434.509	86.5
434.731	108.5
434.953	96.5
435.175	88.5
435.397	107.5
435.618	106.5
435.84	104.5
436.062	112.5
436.284	118.5
436.505	96.5
436.727	102.5
436.949	87.5
437.17	91.5
437.392	96.5
437.614	97.5
437.835	98.5
438.057	93.5
438.278	99.5
438.5	106.5
438.721	121.5
438.943	97.5
439.165	99.5
439.386	82.5
439.608	103.5
439.829	100.5
440.05	125.5
440.272	146.5
440.493	92.5
440.715	89.5
440.936	82.5
441.158	91.5
441.379	94.5
441.6	104.5
441.822	95.5
442.043	106.5
442.264	100.5
442.486	93.5
442.707	103.5
442.928	101.5
443.149	123.5
443.371	119.5
443.592	94.5
443.813	107.5
444.034	106.5
444.255	98.5
444.476	95.5
444.698	85.5
444.919	88.5
445.14	133.5
445.361	131.5
445.582	115.5
445.803	142.5
446.024	128.5
446.245	134.5
446.466	103.5
446.687	88.5
446.908	102.5
447.129	106.5
447.35	93.5
447.571	110.5
447.792	110.5
448.013	86.5
448.234	105.5
448.455	99.5
448.675	110.5
448.896	120.5
449.117	97.5
449.338	91.5
449.559	127.5
449.779	145.5
450	92.5
450.221	82.5
450.442	85.5
450.662	105.5
450.883	107.5
451.104	110.5
451.324	92.5
451.545	96.5
451.766	86.5
451.986	85.5
452.207	77.5
452.428	92.5
452.648	94.5
452.869	114.5
453.089	93.5
453.31	119.5
453.53	98.5
453.751	86.5
453.971	95.5
454.192	105.5
454.412	98.5
454.633	88.5
454.853	87.5
455.073	96.5
455.294	98.5
455.514	94.5
455.734	99.5
455.955	82.5
456.175	100.5
456.395	94.5
456.616	83.5
456.836	95.5
457.056	87.5
457.276	77.5
457.497	86.5
457.717	86.5
457.937	77.5
458.157	107.5
458.377	93.5
458.598	101.5
458.818	149.5
459.038	155.5
459.258	116.5
459.478	92.5
459.698	92.5
459.918	104.5
460.138	95.5
460.358	92.5
460.578	84.5
460.798	95.5
461.018	100.5
461.238	81.5
461.458	78.5
461.678	82.5
461.898	72.5
462.118	97.5
462.338	84.5
462.558	87.5
462.777	65.5
462.997	89.5
463.217	91.5
463.437	91.5
463.657	91.5
463.876	90.5
464.096	82.5
464.316	92.5
464.536	87.5
464.755	96.5
464.975	100.5
465.195	155.5
465.414	134.5
465.634	95.5
465.854	94.5
466.073	96.5
466.293	93.5
466.512	84.5
466.732	89.5
466.951	82.5
467.171	80.5
467.391	88.5
467.61	115.5
467.829	103.5
468.049	87.5
468.268	91.5
468.488	100.5
468.707	83.5
468.927	83.5
469.146	81.5
469.365	92.5
469.585	95.5
469.804	80.5
470.023	98.5
470.243	80.5
470.462	101.5
470.681	98.5
470.901	100.5
471.12	83.5
471.339	87.5
471.558	90.5
471.777	98.5
471.997	94.5
472.216	105.5
472.435	74.5
472.654	79.5
472.873	85.5
473.092	89.5
473.311	90.5
473.53	82.5
473.749	93.5
473.968	103.5
474.187	104.5
474.406	101.5
474.625	84.5
474.844	86.5
475.063	82.5
475.282	89.5
475.501	99.5
475.72	98.5
475.939	96.5
476.158	77.5
476.377	87.5
476.596	83.5
476.814	91.5
477.033	96.5
477.252	91.5
477.471	96.5
477.69	97.5
477.908	82.5
478.127	91.5
478.346	95.5
478.564	100.5
478.783	84.5
479.002	86.5
479.22	92.5
479.439	97.5
479.658	95.5
479.876	96.5
480.095	94.5
480.313	90.5
480.532	74.5
480.751	95.5
480.969	98.5
481.188	99.5
481.406	83.5
481.624	85.5
481.843	93.5
482.061	87.5
482.28	102.5
482.498	93.5
482.717	100.5
482.935	83.5
483.153	84.5
483.372	86.5
483.59	79.5
483.808	90.5
484.027	80.5
484.245	86.5
484.463	75.5
484.681	95.5
484.9	81.5
485.118	88.5
485.336	87.5
485.554	99.5
485.772	99.5
485.99	105.5
486.209	103.5
486.427	87.5
486.645	105.5
486.863	98.5
487.081	111.5
487.299	88.5
487.517	110.5
487.735	87.5
487.953	98.5
488.171	84.5
488.389	95.5
488.607	96.5
488.825	100.5
489.043	94.5
489.261	92.5
489.479	100.5
489.696	82.5
489.914	97.5
490.132	86.5
490.35	95.5
490.568	86.5
490.786	85.5
491.003	97.5
491.221	91.5
491.439	94.5
491.657	92.5
491.874	74.5
492.092	94.5
492.31	90.5
492.527	96.5
492.745	94.5
492.963	96.5
493.18	86.5
493.398	90.5
493.615	105.5
493.833	102.5
494.05	98.5
494.268	75.5
494.485	99.5
494.703	90.5
494.92	95.5
495.138	96.5
495.355	103.5
495.573	96.5
495.79	77.5
496.008	95.5
496.225	88.5
496.442	84.5
496.66	97.5
496.877	93.5
497.094	81.5
497.312	93.5
497.529	100.5
497.746	78.5
497.963	79.5
498.181	105.5
498.398	90.5
498.615	108.5
498.832	100.5
499.049	91.5
499.267	98.5
499.484	115.5
499.701	80.5
499.918	112.5
500.135	100.5
500.352	94.5
500.569	94.5
500.786	90.5
501.003	93.5
501.22	118.5
501.437	86.5
501.654	96.5
501.871	106.5
502.088	86.5
502.305	97.5
502.522	73.5
502.739	87.5
502.956	102.5
503.172	93.5
503.389	102.5
503.606	111.5
503.823	98.5
504.04	81.5
504.256	102.5
504.473	101.5
504.69	93.5
504.907	83.5
505.123	111.5
505.34	90.5
505.557	94.5
505.773	99.5
505.99	92.5
506.207	105.5
506.423	97.5
506.64	93.5
506.856	92.5
507.073	99.5
507.289	86.5
507.506	92.5
507.722	93.5
507.939	109.5
508.155	99.5
508.372	98.5
508.588	101.5
508.805	90.5
509.021	93.5
509.238	91.5
509.454	107.5
509.67	100.5
509.887	118.5
510.103	136.5
510.319	194.5
510.536	715.5
510.752	2095.5
510.968	579.5
511.184	154.5
511.401	114.5
511.617	104.5
511.833	97.5
512.049	103.5
512.265	98.5
512.481	106.5
512.698	98.5
512.914	83.5
513.13	95.5
513.346	95.5
513.562	94.5
513.778	97.5
513.994	98.5
514.21	111.5
514.426	109.5
514.642	123.5
514.858	109.5
515.074	162.5
515.29	411.5
515.506	1273.5
515.721	464.5
515.937	150.5
516.153	111.5
516.369	107.5
516.585	83.5
516.801	97.5
517.016	101.5
517.232	93.5
517.448	100.5
517.664	90.5
517.879	95.5
518.095	110.5
518.311	84.5
518.527	93.5
518.742	96.5
518.958	92.5
519.173	92.5
519.389	91.5
519.605	109.5
519.82	92.5
520.036	102.5
520.251	103.5
520.467	99.5
520.682	118.5
520.898	99.5
521.113	103.5
521.329	127.5
521.544	189.5
521.76	504.5
521.975	2083.5
522.19	1244.5
522.406	284.5
522.621	115.5
522.836	97.5
523.052	90.5
523.267	106.5
523.482	94.5
523.698	100.5
523.913	121.5
524.128	117.5
524.343	101.5
524.559	88.5
524.774	88.5
524.989	99.5
525.204	107.5
525.419	90.5
525.634	89.5
525.849	94.5
526.064	81.5
526.28	90.5
526.495	98.5
526.71	89.5
526.925	97.5
527.14	97.5
527.355	91.5
527.57	84.5
527.785	102.5
527.999	86.5
528.214	100.5
528.429	100.5
528.644	95.5
528.859	91.5
529.074	114.5
529.289	122.5
529.503	158.5
529.718	97.5
529.933	78.5
530.148	90.5
530.363	102.5
530.577	91.5
530.792	106.5
531.007	102.5
531.221	86.5
531.436	101.5
531.651	96.5
531.865	90.5
532.08	93.5
532.295	94.5
532.509	87.5
532.724	88.5
532.938	101.5
533.153	104.5
533.367	104.5
533.582	86.5
533.796	104.5
534.011	95.5
534.225	90.5
