Data from Uncirc_1994_H10_HRD10591_00036.txt Node
Date: Wed Jan 03 11:39:28 EST 2024
User: Yrep
Spectrometer: HR+D1059
Trigger mode: 1
Integration Time (sec): 1.000000E-1
Scans to average: 1
Electric dark correction enabled: true
Nonlinearity correction enabled: false
Boxcar width: 0
XAxis mode: Wavelengths
Number of Pixels in Spectrum: 2048
>>>>>Begin Spectral Data<<<<<
223.165	3.44
223.4	3.44
223.635	3.44
223.869	-19.56
224.104	-24.56
224.338	-9.56
224.573	-29.56
224.808	-20.56
225.042	-18.56
225.277	-6.56
225.511	9.44
225.746	1.44
225.98	7.44
226.215	17.44
226.449	14.44
226.683	8.44
226.918	33.44
227.152	33.44
227.387	27.44
227.621	50.44
227.856	44.44
228.09	60.44
228.324	50.44
228.559	38.44
228.793	66.44
229.027	55.44
229.262	69.44
229.496	87.44
229.73	79.44
229.964	80.44
230.199	64.44
230.433	71.44
230.667	72.44
230.901	64.44
231.136	91.44
231.37	89.44
231.604	79.44
231.838	67.44
232.072	74.44
232.306	67.44
232.541	68.44
232.775	88.44
233.009	71.44
233.243	82.44
233.477	84.44
233.711	68.44
233.945	84.44
234.179	89.44
234.413	71.44
234.647	64.44
234.881	77.44
235.115	69.44
235.349	84.44
235.583	62.44
235.817	71.44
236.051	81.44
236.285	85.44
236.519	71.44
236.753	71.44
236.987	68.44
237.221	87.44
237.455	93.44
237.689	86.44
237.922	72.44
238.156	75.44
238.39	82.44
238.624	68.44
238.858	77.44
239.091	84.44
239.325	84.44
239.559	78.44
239.793	79.44
240.027	60.44
240.26	76.44
240.494	82.44
240.728	71.44
240.961	71.44
241.195	76.44
241.429	77.44
241.662	87.44
241.896	75.44
242.13	92.44
242.363	71.44
242.597	68.44
242.83	79.44
243.064	71.44
243.298	76.44
243.531	84.44
243.765	73.44
243.998	82.44
244.232	77.44
244.465	75.44
244.699	93.44
244.932	66.44
245.166	85.44
245.399	87.44
245.633	84.44
245.866	73.44
246.099	69.44
246.333	91.44
246.566	62.44
246.8	76.44
247.033	92.44
247.266	78.44
247.5	79.44
247.733	85.44
247.966	82.44
248.2	85.44
248.433	80.44
248.666	76.44
248.899	84.44
249.133	83.44
249.366	79.44
249.599	88.44
249.832	78.44
250.066	84.44
250.299	83.44
250.532	86.44
250.765	74.44
250.998	65.44
251.231	73.44
251.465	87.44
251.698	81.44
251.931	75.44
252.164	89.44
252.397	78.44
252.63	79.44
252.863	83.44
253.096	90.44
253.329	81.44
253.562	77.44
253.795	85.44
254.028	72.44
254.261	100.44
254.494	72.44
254.727	81.44
254.96	80.44
255.193	84.44
255.426	79.44
255.659	83.44
255.892	64.44
256.124	84.44
256.357	74.44
256.59	83.44
256.823	66.44
257.056	83.44
257.289	81.44
257.521	78.44
257.754	81.44
257.987	89.44
258.22	81.44
258.452	74.44
258.685	71.44
258.918	88.44
259.151	87.44
259.383	92.44
259.616	73.44
259.849	72.44
260.081	76.44
260.314	103.44
260.547	77.44
260.779	80.44
261.012	94.44
261.244	84.44
261.477	98.44
261.71	78.44
261.942	108.44
262.175	113.44
262.407	93.44
262.64	86.44
262.872	76.44
263.105	73.44
263.337	91.44
263.57	91.44
263.802	94.44
264.035	77.44
264.267	81.44
264.499	84.44
264.732	75.44
264.964	72.44
265.197	75.44
265.429	68.44
265.661	69.44
265.894	76.44
266.126	87.44
266.358	82.44
266.591	101.44
266.823	79.44
267.055	81.44
267.287	83.44
267.52	67.44
267.752	85.44
267.984	98.44
268.216	82.44
268.448	73.44
268.681	83.44
268.913	79.44
269.145	77.44
269.377	73.44
269.609	71.44
269.841	61.44
270.073	70.44
270.306	88.44
270.538	82.44
270.77	76.44
271.002	95.44
271.234	85.44
271.466	81.44
271.698	89.44
271.93	95.44
272.162	76.44
272.394	91.44
272.626	86.44
272.858	81.44
273.09	86.44
273.322	77.44
273.553	88.44
273.785	78.44
274.017	77.44
274.249	81.44
274.481	83.44
274.713	77.44
274.945	80.44
275.176	84.44
275.408	103.44
275.64	70.44
275.872	77.44
276.104	77.44
276.335	92.44
276.567	101.44
276.799	95.44
277.031	104.44
277.262	90.44
277.494	81.44
277.726	80.44
277.957	79.44
278.189	76.44
278.421	84.44
278.652	95.44
278.884	94.44
279.115	88.44
279.347	94.44
279.579	80.44
279.81	78.44
280.042	95.44
280.273	94.44
280.505	88.44
280.736	99.44
280.968	88.44
281.199	73.44
281.431	84.44
281.662	74.44
281.894	92.44
282.125	112.44
282.356	117.44
282.588	110.44
282.819	107.44
283.051	87.44
283.282	73.44
283.513	88.44
283.745	99.44
283.976	83.44
284.207	82.44
284.439	105.44
284.67	99.44
284.901	78.44
285.132	84.44
285.364	81.44
285.595	94.44
285.826	76.44
286.057	95.44
286.288	93.44
286.52	88.44
286.751	76.44
286.982	93.44
287.213	76.44
287.444	79.44
287.675	100.44
287.906	83.44
288.138	87.44
288.369	99.44
288.6	93.44
288.831	88.44
289.062	80.44
289.293	97.44
289.524	83.44
289.755	91.44
289.986	88.44
290.217	82.44
290.448	75.44
290.679	69.44
290.91	79.44
291.141	74.44
291.371	78.44
291.602	81.44
291.833	95.44
292.064	103.44
292.295	88.44
292.526	95.44
292.757	77.44
292.987	74.44
293.218	96.44
293.449	71.44
293.68	90.44
293.91	74.44
294.141	89.44
294.372	84.44
294.603	93.44
294.833	97.44
295.064	83.44
295.295	77.44
295.525	87.44
295.756	87.44
295.987	107.44
296.217	124.44
296.448	112.44
296.679	82.44
296.909	82.44
297.14	86.44
297.37	92.44
297.601	101.44
297.831	89.44
298.062	100.44
298.292	93.44
298.523	85.44
298.753	82.44
298.984	95.44
299.214	90.44
299.445	85.44
299.675	90.44
299.905	95.44
300.136	92.44
300.366	94.44
300.597	105.44
300.827	98.44
301.057	99.44
301.288	118.44
301.518	91.44
301.748	87.44
301.979	94.44
302.209	78.44
302.439	85.44
302.669	87.44
302.9	106.44
303.13	99.44
303.36	91.44
303.59	100.44
303.82	106.44
304.051	100.44
304.281	93.44
304.511	95.44
304.741	96.44
304.971	77.44
305.201	86.44
305.431	99.44
305.661	100.44
305.891	87.44
306.121	88.44
306.352	104.44
306.582	108.44
306.812	99.44
307.042	94.44
307.272	82.44
307.502	96.44
307.731	87.44
307.961	93.44
308.191	88.44
308.421	68.44
308.651	85.44
308.881	100.44
309.111	94.44
309.341	98.44
309.571	77.44
309.8	83.44
310.03	100.44
310.26	111.44
310.49	112.44
310.72	82.44
310.949	103.44
311.179	83.44
311.409	84.44
311.639	87.44
311.868	93.44
312.098	79.44
312.328	100.44
312.557	105.44
312.787	94.44
313.017	86.44
313.246	89.44
313.476	87.44
313.706	88.44
313.935	91.44
314.165	86.44
314.394	94.44
314.624	101.44
314.853	96.44
315.083	86.44
315.312	106.44
315.542	77.44
315.771	92.44
316.001	93.44
316.23	86.44
316.46	78.44
316.689	87.44
316.919	88.44
317.148	96.44
317.377	90.44
317.607	82.44
317.836	89.44
318.065	81.44
318.295	73.44
318.524	96.44
318.753	81.44
318.983	86.44
319.212	83.44
319.441	111.44
319.67	95.44
319.9	89.44
320.129	92.44
320.358	95.44
320.587	92.44
320.816	95.44
321.046	101.44
321.275	92.44
321.504	93.44
321.733	85.44
321.962	93.44
322.191	106.44
322.42	99.44
322.649	108.44
322.878	97.44
323.108	97.44
323.337	113.44
323.566	119.44
323.795	143.44
324.024	181.44
324.253	385.44
324.482	725.44
324.71	1455.44
324.939	1873.44
325.168	716.44
325.397	217.44
325.626	140.44
325.855	122.44
326.084	114.44
326.313	116.44
326.542	145.44
326.77	208.44
326.999	409.44
327.228	817.44
327.457	1468.44
327.686	1173.44
327.914	327.44
328.143	176.44
328.372	129.44
328.6	115.44
328.829	101.44
329.058	106.44
329.287	115.44
329.515	97.44
329.744	101.44
329.972	100.44
330.201	93.44
330.43	99.44
330.658	115.44
330.887	124.44
331.115	139.44
331.344	103.44
331.572	97.44
331.801	93.44
332.03	101.44
332.258	84.44
332.486	95.44
332.715	102.44
332.943	110.44
333.172	105.44
333.4	93.44
333.629	93.44
333.857	106.44
334.085	99.44
334.314	84.44
334.542	84.44
334.771	93.44
334.999	92.44
335.227	92.44
335.455	80.44
335.684	96.44
335.912	104.44
336.14	93.44
336.369	84.44
336.597	82.44
336.825	102.44
337.053	101.44
337.281	77.44
337.51	79.44
337.738	88.44
337.966	84.44
338.194	81.44
338.422	93.44
338.65	95.44
338.878	105.44
339.106	85.44
339.334	97.44
339.562	96.44
339.79	95.44
340.018	101.44
340.246	84.44
340.474	97.44
340.702	97.44
340.93	97.44
341.158	96.44
341.386	79.44
341.614	79.44
341.842	85.44
342.07	92.44
342.298	100.44
342.526	100.44
342.754	91.44
342.981	79.44
343.209	97.44
343.437	96.44
343.665	89.44
343.893	95.44
344.12	78.44
344.348	89.44
344.576	97.44
344.804	83.44
345.031	93.44
345.259	97.44
345.487	81.44
345.714	88.44
345.942	104.44
346.17	92.44
346.397	83.44
346.625	80.44
346.853	89.44
347.08	85.44
347.308	97.44
347.535	95.44
347.763	102.44
347.99	90.44
348.218	93.44
348.445	98.44
348.673	97.44
348.9	97.44
349.128	99.44
349.355	109.44
349.583	81.44
349.81	85.44
350.037	100.44
350.265	98.44
350.492	99.44
350.72	85.44
350.947	111.44
351.174	104.44
351.402	105.44
351.629	93.44
351.856	103.44
352.083	96.44
352.311	100.44
352.538	99.44
352.765	111.44
352.992	105.44
353.22	106.44
353.447	100.44
353.674	102.44
353.901	95.44
354.128	101.44
354.355	100.44
354.583	74.44
354.81	87.44
355.037	96.44
355.264	91.44
355.491	97.44
355.718	85.44
355.945	98.44
356.172	95.44
356.399	98.44
356.626	104.44
356.853	87.44
357.08	93.44
357.307	87.44
357.534	95.44
357.761	97.44
357.988	104.44
358.215	106.44
358.441	95.44
358.668	92.44
358.895	94.44
359.122	87.44
359.349	80.44
359.576	81.44
359.802	96.44
360.029	101.44
360.256	104.44
360.483	103.44
360.709	99.44
360.936	97.44
361.163	81.44
361.39	89.44
361.616	80.44
361.843	83.44
362.07	86.44
362.296	95.44
362.523	88.44
362.749	90.44
362.976	79.44
363.203	83.44
363.429	73.44
363.656	93.44
363.882	92.44
364.109	92.44
364.335	91.44
364.562	96.44
364.788	98.44
365.015	86.44
365.241	95.44
365.468	109.44
365.694	109.44
365.92	99.44
366.147	83.44
366.373	81.44
366.599	94.44
366.826	101.44
367.052	78.44
367.278	91.44
367.505	87.44
367.731	82.44
367.957	96.44
368.184	91.44
368.41	98.44
368.636	107.44
368.862	115.44
369.089	107.44
369.315	87.44
369.541	100.44
369.767	89.44
369.993	89.44
370.219	95.44
370.445	93.44
370.672	93.44
370.898	88.44
371.124	91.44
371.35	95.44
371.576	90.44
371.802	88.44
372.028	92.44
372.254	87.44
372.48	83.44
372.706	101.44
372.932	71.44
373.158	83.44
373.384	96.44
373.61	88.44
373.835	82.44
374.061	93.44
374.287	79.44
374.513	94.44
374.739	88.44
374.965	90.44
375.191	83.44
375.416	104.44
375.642	104.44
375.868	92.44
376.094	93.44
376.319	97.44
376.545	84.44
376.771	99.44
376.997	104.44
377.222	88.44
377.448	82.44
377.674	86.44
377.899	87.44
378.125	81.44
378.35	97.44
378.576	99.44
378.802	92.44
379.027	83.44
379.253	101.44
379.478	94.44
379.704	91.44
379.929	92.44
380.155	99.44
380.38	95.44
380.606	97.44
380.831	101.44
381.057	99.44
381.282	79.44
381.507	109.44
381.733	89.44
381.958	90.44
382.184	99.44
382.409	82.44
382.634	98.44
382.86	92.44
383.085	104.44
383.31	107.44
383.535	92.44
383.761	91.44
383.986	106.44
384.211	93.44
384.436	96.44
384.662	98.44
384.887	84.44
385.112	120.44
385.337	99.44
385.562	104.44
385.787	93.44
386.013	101.44
386.238	107.44
386.463	115.44
386.688	100.44
386.913	105.44
387.138	97.44
387.363	106.44
387.588	97.44
387.813	107.44
388.038	91.44
388.263	110.44
388.488	95.44
388.713	107.44
388.938	102.44
389.163	89.44
389.387	102.44
389.612	86.44
389.837	89.44
390.062	100.44
390.287	108.44
390.512	106.44
390.736	97.44
390.961	85.44
391.186	104.44
391.411	89.44
391.636	95.44
391.86	69.44
392.085	80.44
392.31	69.44
392.534	77.44
392.759	84.44
392.984	91.44
393.208	87.44
393.433	99.44
393.658	94.44
393.882	94.44
394.107	88.44
394.331	93.44
394.556	91.44
394.78	97.44
395.005	79.44
395.229	83.44
395.454	75.44
395.678	97.44
395.903	90.44
396.127	87.44
396.352	83.44
396.576	75.44
396.801	82.44
397.025	107.44
397.249	90.44
397.474	103.44
397.698	91.44
397.922	95.44
398.147	96.44
398.371	83.44
398.595	79.44
398.82	90.44
399.044	90.44
399.268	77.44
399.492	92.44
399.717	85.44
399.941	91.44
400.165	92.44
400.389	77.44
400.613	88.44
400.837	75.44
401.062	93.44
401.286	92.44
401.51	103.44
401.734	93.44
401.958	104.44
402.182	123.44
402.406	138.44
402.63	116.44
402.854	87.44
403.078	84.44
403.302	83.44
403.526	75.44
403.75	87.44
403.974	86.44
404.198	88.44
404.422	84.44
404.645	85.44
404.869	80.44
405.093	89.44
405.317	93.44
405.541	89.44
405.765	110.44
405.988	110.44
406.212	151.44
406.436	196.44
406.66	130.44
406.883	93.44
407.107	98.44
407.331	104.44
407.555	107.44
407.778	108.44
408.002	89.44
408.226	85.44
408.449	101.44
408.673	92.44
408.896	86.44
409.12	91.44
409.344	95.44
409.567	88.44
409.791	88.44
410.014	84.44
410.238	94.44
410.461	94.44
410.685	89.44
410.908	96.44
411.132	121.44
411.355	95.44
411.578	79.44
411.802	97.44
412.025	93.44
412.249	82.44
412.472	99.44
412.695	78.44
412.919	86.44
413.142	85.44
413.365	88.44
413.589	93.44
413.812	89.44
414.035	94.44
414.258	99.44
414.482	92.44
414.705	89.44
414.928	87.44
415.151	98.44
415.374	93.44
415.597	71.44
415.821	88.44
416.044	71.44
416.267	85.44
416.49	91.44
416.713	97.44
416.936	92.44
417.159	80.44
417.382	89.44
417.605	92.44
417.828	80.44
418.051	92.44
418.274	92.44
418.497	94.44
418.72	86.44
418.943	80.44
419.166	106.44
419.389	93.44
419.611	82.44
419.834	85.44
420.057	91.44
420.28	91.44
420.503	95.44
420.726	89.44
420.948	90.44
421.171	93.44
421.394	96.44
421.617	93.44
421.839	106.44
422.062	97.44
422.285	111.44
422.507	99.44
422.73	96.44
422.953	104.44
423.175	88.44
423.398	99.44
423.621	91.44
423.843	91.44
424.066	84.44
424.288	89.44
424.511	99.44
424.733	86.44
424.956	101.44
425.178	84.44
425.401	106.44
425.623	107.44
425.846	95.44
426.068	99.44
426.291	82.44
426.513	88.44
426.735	99.44
426.958	79.44
427.18	112.44
427.402	134.44
427.625	141.44
427.847	129.44
428.069	101.44
428.292	88.44
428.514	95.44
428.736	85.44
428.958	69.44
429.181	90.44
429.403	89.44
429.625	87.44
429.847	93.44
430.069	108.44
430.292	81.44
430.514	97.44
430.736	84.44
430.958	97.44
431.18	91.44
431.402	93.44
431.624	88.44
431.846	93.44
432.068	97.44
432.29	76.44
432.512	96.44
432.734	84.44
432.956	87.44
433.178	121.44
433.4	109.44
433.622	96.44
433.844	108.44
434.066	116.44
434.287	107.44
434.509	93.44
434.731	83.44
434.953	95.44
435.175	104.44
435.397	97.44
435.618	88.44
435.84	95.44
436.062	109.44
436.284	112.44
436.505	89.44
436.727	99.44
436.949	91.44
437.17	88.44
437.392	89.44
437.614	97.44
437.835	108.44
438.057	111.44
438.278	107.44
438.5	99.44
438.721	117.44
438.943	106.44
439.165	88.44
439.386	88.44
439.608	82.44
439.829	91.44
440.05	114.44
440.272	134.44
440.493	103.44
440.715	82.44
440.936	92.44
441.158	92.44
441.379	79.44
441.6	95.44
441.822	98.44
442.043	104.44
442.264	105.44
442.486	98.44
442.707	76.44
442.928	101.44
443.149	113.44
443.371	114.44
443.592	111.44
443.813	91.44
444.034	111.44
444.255	98.44
444.476	79.44
444.698	99.44
444.919	90.44
445.14	136.44
445.361	104.44
445.582	101.44
445.803	124.44
446.024	130.44
446.245	122.44
446.466	97.44
446.687	95.44
446.908	86.44
447.129	86.44
447.35	95.44
447.571	95.44
447.792	90.44
448.013	93.44
448.234	101.44
448.455	109.44
448.675	98.44
448.896	124.44
449.117	103.44
449.338	96.44
449.559	111.44
449.779	124.44
450	93.44
450.221	94.44
450.442	87.44
450.662	84.44
450.883	101.44
451.104	122.44
451.324	96.44
451.545	81.44
451.766	72.44
451.986	92.44
452.207	98.44
452.428	104.44
452.648	92.44
452.869	112.44
453.089	101.44
453.31	104.44
453.53	83.44
453.751	104.44
453.971	115.44
454.192	106.44
454.412	89.44
454.633	86.44
454.853	101.44
455.073	88.44
455.294	95.44
455.514	105.44
455.734	92.44
455.955	82.44
456.175	99.44
456.395	91.44
456.616	86.44
456.836	93.44
457.056	100.44
457.276	74.44
457.497	75.44
457.717	82.44
457.937	99.44
458.157	88.44
458.377	98.44
458.598	96.44
458.818	133.44
459.038	141.44
459.258	100.44
459.478	84.44
459.698	95.44
459.918	81.44
460.138	85.44
460.358	88.44
460.578	79.44
460.798	90.44
461.018	88.44
461.238	71.44
461.458	80.44
461.678	80.44
461.898	98.44
462.118	83.44
462.338	90.44
462.558	95.44
462.777	84.44
462.997	91.44
463.217	84.44
463.437	91.44
463.657	82.44
463.876	80.44
464.096	80.44
464.316	81.44
464.536	84.44
464.755	78.44
464.975	99.44
465.195	145.44
465.414	143.44
465.634	91.44
465.854	75.44
466.073	97.44
466.293	91.44
466.512	82.44
466.732	72.44
466.951	74.44
467.171	89.44
467.391	87.44
467.61	85.44
467.829	73.44
468.049	86.44
468.268	99.44
468.488	98.44
468.707	83.44
468.927	84.44
469.146	80.44
469.365	88.44
469.585	91.44
469.804	87.44
470.023	89.44
470.243	96.44
470.462	95.44
470.681	100.44
470.901	89.44
471.12	84.44
471.339	83.44
471.558	87.44
471.777	84.44
471.997	87.44
472.216	88.44
472.435	95.44
472.654	94.44
472.873	88.44
473.092	89.44
473.311	88.44
473.53	73.44
473.749	90.44
473.968	88.44
474.187	117.44
474.406	100.44
474.625	99.44
474.844	91.44
475.063	82.44
475.282	81.44
475.501	88.44
475.72	92.44
475.939	85.44
476.158	84.44
476.377	93.44
476.596	84.44
476.814	94.44
477.033	113.44
477.252	89.44
477.471	98.44
477.69	99.44
477.908	91.44
478.127	85.44
478.346	77.44
478.564	88.44
478.783	96.44
479.002	100.44
479.22	96.44
479.439	90.44
479.658	109.44
479.876	87.44
480.095	81.44
480.313	89.44
480.532	74.44
480.751	87.44
480.969	87.44
481.188	89.44
481.406	81.44
481.624	103.44
481.843	87.44
482.061	79.44
482.28	92.44
482.498	90.44
482.717	87.44
482.935	105.44
483.153	93.44
483.372	91.44
483.59	92.44
483.808	94.44
484.027	99.44
484.245	96.44
484.463	84.44
484.681	95.44
484.9	88.44
485.118	91.44
485.336	100.44
485.554	84.44
485.772	101.44
485.99	114.44
486.209	97.44
486.427	103.44
486.645	115.44
486.863	116.44
487.081	101.44
487.299	92.44
487.517	95.44
487.735	93.44
487.953	88.44
488.171	99.44
488.389	99.44
488.607	103.44
488.825	96.44
489.043	93.44
489.261	85.44
489.479	89.44
489.696	101.44
489.914	92.44
490.132	83.44
490.35	79.44
490.568	81.44
490.786	83.44
491.003	90.44
491.221	91.44
491.439	93.44
491.657	98.44
491.874	77.44
492.092	85.44
492.31	90.44
492.527	83.44
492.745	82.44
492.963	82.44
493.18	98.44
493.398	88.44
493.615	88.44
493.833	94.44
494.05	90.44
494.268	88.44
494.485	88.44
494.703	83.44
494.92	92.44
495.138	94.44
495.355	99.44
495.573	91.44
495.79	95.44
496.008	77.44
496.225	99.44
496.442	76.44
496.66	101.44
496.877	89.44
497.094	85.44
497.312	90.44
497.529	88.44
497.746	73.44
497.963	89.44
498.181	89.44
498.398	90.44
498.615	102.44
498.832	85.44
499.049	96.44
499.267	98.44
499.484	97.44
499.701	103.44
499.918	79.44
500.135	92.44
500.352	79.44
500.569	95.44
500.786	83.44
501.003	91.44
501.22	85.44
501.437	82.44
501.654	90.44
501.871	108.44
502.088	105.44
502.305	91.44
502.522	70.44
502.739	100.44
502.956	83.44
503.172	96.44
503.389	93.44
503.606	96.44
503.823	92.44
504.04	84.44
504.256	80.44
504.473	83.44
504.69	89.44
504.907	100.44
505.123	71.44
505.34	80.44
505.557	98.44
505.773	98.44
505.99	100.44
506.207	83.44
506.423	77.44
506.64	95.44
506.856	90.44
507.073	89.44
507.289	83.44
507.506	104.44
507.722	91.44
507.939	110.44
508.155	99.44
508.372	98.44
508.588	98.44
508.805	97.44
509.021	78.44
509.238	104.44
509.454	92.44
509.67	90.44
509.887	106.44
510.103	139.44
510.319	196.44
510.536	731.44
510.752	2173.44
510.968	625.44
511.184	164.44
511.401	112.44
511.617	106.44
511.833	92.44
512.049	105.44
512.265	96.44
512.481	87.44
512.698	81.44
512.914	106.44
513.13	81.44
513.346	99.44
513.562	93.44
513.778	88.44
513.994	105.44
514.21	106.44
514.426	99.44
514.642	123.44
514.858	120.44
515.074	161.44
515.29	408.44
515.506	1266.44
515.721	495.44
515.937	132.44
516.153	110.44
516.369	96.44
