Data from Uncirc_1994_H10_HRD10591_00028.txt Node
Date: Wed Jan 03 11:39:26 EST 2024
User: Yrep
Spectrometer: HR+D1059
Trigger mode: 1
Integration Time (sec): 1.000000E-1
Scans to average: 1
Electric dark correction enabled: true
Nonlinearity correction enabled: false
Boxcar width: 0
XAxis mode: Wavelengths
Number of Pixels in Spectrum: 2048
>>>>>Begin Spectral Data<<<<<
223.165	-31.69
223.4	-31.69
223.635	-31.69
223.869	-3.69
224.104	-22.69
224.338	-10.69
224.573	-24.69
224.808	-11.69
225.042	-8.69
225.277	0.31
225.511	3.31
225.746	7.31
225.98	1.31
226.215	10.31
226.449	21.31
226.683	25.31
226.918	22.31
227.152	22.31
227.387	44.31
227.621	28.31
227.856	63.31
228.09	41.31
228.324	64.31
228.559	54.31
228.793	58.31
229.027	69.31
229.262	60.31
229.496	60.31
229.73	80.31
229.964	78.31
230.199	74.31
230.433	67.31
230.667	84.31
230.901	73.31
231.136	89.31
231.37	94.31
231.604	80.31
231.838	83.31
232.072	77.31
232.306	76.31
232.541	88.31
232.775	81.31
233.009	81.31
233.243	81.31
233.477	79.31
233.711	84.31
233.945	81.31
234.179	87.31
234.413	73.31
234.647	79.31
234.881	88.31
235.115	85.31
235.349	82.31
235.583	86.31
235.817	83.31
236.051	70.31
236.285	84.31
236.519	80.31
236.753	82.31
236.987	70.31
237.221	74.31
237.455	92.31
237.689	69.31
237.922	77.31
238.156	82.31
238.39	85.31
238.624	76.31
238.858	88.31
239.091	83.31
239.325	65.31
239.559	77.31
239.793	69.31
240.027	76.31
240.26	82.31
240.494	90.31
240.728	77.31
240.961	79.31
241.195	79.31
241.429	86.31
241.662	79.31
241.896	86.31
242.13	63.31
242.363	86.31
242.597	93.31
242.83	77.31
243.064	80.31
243.298	80.31
243.531	64.31
243.765	74.31
243.998	81.31
244.232	78.31
244.465	89.31
244.699	93.31
244.932	78.31
245.166	87.31
245.399	72.31
245.633	84.31
245.866	78.31
246.099	77.31
246.333	68.31
246.566	88.31
246.8	70.31
247.033	80.31
247.266	82.31
247.5	78.31
247.733	84.31
247.966	97.31
248.2	92.31
248.433	86.31
248.666	69.31
248.899	84.31
249.133	89.31
249.366	99.31
249.599	77.31
249.832	75.31
250.066	96.31
250.299	69.31
250.532	82.31
250.765	86.31
250.998	88.31
251.231	69.31
251.465	88.31
251.698	85.31
251.931	84.31
252.164	85.31
252.397	80.31
252.63	84.31
252.863	92.31
253.096	93.31
253.329	82.31
253.562	69.31
253.795	64.31
254.028	83.31
254.261	82.31
254.494	77.31
254.727	83.31
254.96	91.31
255.193	100.31
255.426	98.31
255.659	85.31
255.892	88.31
256.124	76.31
256.357	76.31
256.59	78.31
256.823	89.31
257.056	78.31
257.289	74.31
257.521	85.31
257.754	92.31
257.987	89.31
258.22	85.31
258.452	87.31
258.685	86.31
258.918	94.31
259.151	89.31
259.383	84.31
259.616	96.31
259.849	84.31
260.081	83.31
260.314	80.31
260.547	90.31
260.779	75.31
261.012	84.31
261.244	97.31
261.477	93.31
261.71	99.31
261.942	97.31
262.175	115.31
262.407	84.31
262.64	75.31
262.872	75.31
263.105	73.31
263.337	79.31
263.57	79.31
263.802	88.31
264.035	85.31
264.267	72.31
264.499	99.31
264.732	87.31
264.964	81.31
265.197	72.31
265.429	68.31
265.661	78.31
265.894	84.31
266.126	94.31
266.358	83.31
266.591	88.31
266.823	89.31
267.055	113.31
267.287	90.31
267.52	79.31
267.752	97.31
267.984	93.31
268.216	79.31
268.448	72.31
268.681	72.31
268.913	87.31
269.145	84.31
269.377	95.31
269.609	74.31
269.841	74.31
270.073	97.31
270.306	89.31
270.538	76.31
270.77	83.31
271.002	86.31
271.234	97.31
271.466	88.31
271.698	88.31
271.93	89.31
272.162	92.31
272.394	89.31
272.626	84.31
272.858	91.31
273.09	85.31
273.322	72.31
273.553	77.31
273.785	90.31
274.017	77.31
274.249	70.31
274.481	80.31
274.713	92.31
274.945	75.31
275.176	82.31
275.408	99.31
275.64	72.31
275.872	92.31
276.104	68.31
276.335	86.31
276.567	92.31
276.799	101.31
277.031	108.31
277.262	84.31
277.494	80.31
277.726	83.31
277.957	88.31
278.189	81.31
278.421	83.31
278.652	92.31
278.884	95.31
279.115	87.31
279.347	91.31
279.579	84.31
279.81	76.31
280.042	94.31
280.273	75.31
280.505	76.31
280.736	92.31
280.968	90.31
281.199	79.31
281.431	81.31
281.662	92.31
281.894	97.31
282.125	103.31
282.356	122.31
282.588	132.31
282.819	123.31
283.051	85.31
283.282	90.31
283.513	95.31
283.745	98.31
283.976	80.31
284.207	84.31
284.439	83.31
284.67	84.31
284.901	83.31
285.132	75.31
285.364	86.31
285.595	82.31
285.826	84.31
286.057	78.31
286.288	84.31
286.52	78.31
286.751	93.31
286.982	84.31
287.213	81.31
287.444	92.31
287.675	88.31
287.906	101.31
288.138	98.31
288.369	93.31
288.6	81.31
288.831	86.31
289.062	100.31
289.293	103.31
289.524	101.31
289.755	87.31
289.986	74.31
290.217	106.31
290.448	90.31
290.679	85.31
290.91	85.31
291.141	84.31
291.371	89.31
291.602	83.31
291.833	90.31
292.064	87.31
292.295	86.31
292.526	88.31
292.757	92.31
292.987	74.31
293.218	106.31
293.449	97.31
293.68	100.31
293.91	84.31
294.141	90.31
294.372	78.31
294.603	94.31
294.833	83.31
295.064	105.31
295.295	85.31
295.525	103.31
295.756	82.31
295.987	115.31
296.217	131.31
296.448	118.31
296.679	92.31
296.909	104.31
297.14	112.31
297.37	102.31
297.601	85.31
297.831	107.31
298.062	86.31
298.292	86.31
298.523	82.31
298.753	97.31
298.984	97.31
299.214	93.31
299.445	79.31
299.675	97.31
299.905	100.31
300.136	97.31
300.366	82.31
300.597	74.31
300.827	96.31
301.057	96.31
301.288	117.31
301.518	80.31
301.748	86.31
301.979	102.31
302.209	89.31
302.439	92.31
302.669	95.31
302.9	86.31
303.13	93.31
303.36	106.31
303.59	104.31
303.82	114.31
304.051	99.31
304.281	84.31
304.511	88.31
304.741	81.31
304.971	85.31
305.201	88.31
305.431	91.31
305.661	102.31
305.891	92.31
306.121	94.31
306.352	92.31
306.582	103.31
306.812	107.31
307.042	73.31
307.272	94.31
307.502	99.31
307.731	107.31
307.961	89.31
308.191	82.31
308.421	88.31
308.651	96.31
308.881	100.31
309.111	90.31
309.341	96.31
309.571	89.31
309.8	92.31
310.03	92.31
310.26	93.31
310.49	99.31
310.72	98.31
310.949	97.31
311.179	96.31
311.409	105.31
311.639	100.31
311.868	105.31
312.098	94.31
312.328	97.31
312.557	102.31
312.787	83.31
313.017	86.31
313.246	96.31
313.476	92.31
313.706	103.31
313.935	99.31
314.165	89.31
314.394	104.31
314.624	88.31
314.853	103.31
315.083	78.31
315.312	94.31
315.542	95.31
315.771	93.31
316.001	93.31
316.23	94.31
316.46	107.31
316.689	96.31
316.919	87.31
317.148	101.31
317.377	96.31
317.607	80.31
317.836	89.31
318.065	99.31
318.295	85.31
318.524	85.31
318.753	105.31
318.983	89.31
319.212	93.31
319.441	95.31
319.67	100.31
319.9	89.31
320.129	96.31
320.358	91.31
320.587	78.31
320.816	106.31
321.046	102.31
321.275	99.31
321.504	101.31
321.733	100.31
321.962	101.31
322.191	102.31
322.42	97.31
322.649	105.31
322.878	104.31
323.108	112.31
323.337	130.31
323.566	124.31
323.795	120.31
324.024	188.31
324.253	354.31
324.482	728.31
324.71	1512.31
324.939	1964.31
325.168	741.31
325.397	229.31
325.626	146.31
325.855	117.31
326.084	126.31
326.313	123.31
326.542	137.31
326.77	211.31
326.999	404.31
327.228	829.31
327.457	1445.31
327.686	1172.31
327.914	348.31
328.143	176.31
328.372	134.31
328.6	129.31
328.829	107.31
329.058	108.31
329.287	124.31
329.515	105.31
329.744	93.31
329.972	104.31
330.201	89.31
330.43	113.31
330.658	119.31
330.887	136.31
331.115	103.31
331.344	97.31
331.572	101.31
331.801	107.31
332.03	99.31
332.258	93.31
332.486	100.31
332.715	84.31
332.943	86.31
333.172	99.31
333.4	106.31
333.629	113.31
333.857	119.31
334.085	107.31
334.314	99.31
334.542	101.31
334.771	86.31
334.999	98.31
335.227	104.31
335.455	100.31
335.684	101.31
335.912	97.31
336.14	81.31
336.369	95.31
336.597	103.31
336.825	101.31
337.053	92.31
337.281	113.31
337.51	93.31
337.738	97.31
337.966	96.31
338.194	88.31
338.422	90.31
338.65	86.31
338.878	83.31
339.106	80.31
339.334	93.31
339.562	90.31
339.79	89.31
340.018	98.31
340.246	96.31
340.474	78.31
340.702	89.31
340.93	104.31
341.158	99.31
341.386	95.31
341.614	99.31
341.842	89.31
342.07	76.31
342.298	94.31
342.526	95.31
342.754	98.31
342.981	85.31
343.209	95.31
343.437	97.31
343.665	92.31
343.893	88.31
344.12	99.31
344.348	90.31
344.576	89.31
344.804	107.31
345.031	92.31
345.259	101.31
345.487	110.31
345.714	96.31
345.942	89.31
346.17	86.31
346.397	100.31
346.625	104.31
346.853	88.31
347.08	81.31
347.308	96.31
347.535	100.31
347.763	93.31
347.99	98.31
348.218	92.31
348.445	95.31
348.673	100.31
348.9	109.31
349.128	97.31
349.355	100.31
349.583	117.31
349.81	94.31
350.037	102.31
350.265	85.31
350.492	97.31
350.72	104.31
350.947	115.31
351.174	100.31
351.402	102.31
351.629	100.31
351.856	101.31
352.083	106.31
352.311	104.31
352.538	96.31
352.765	101.31
352.992	117.31
353.22	118.31
353.447	116.31
353.674	106.31
353.901	79.31
354.128	110.31
354.355	110.31
354.583	102.31
354.81	105.31
355.037	98.31
355.264	97.31
355.491	104.31
355.718	94.31
355.945	89.31
356.172	94.31
356.399	96.31
356.626	92.31
356.853	99.31
357.08	88.31
357.307	93.31
357.534	86.31
357.761	100.31
357.988	96.31
358.215	94.31
358.441	92.31
358.668	90.31
358.895	103.31
359.122	90.31
359.349	96.31
359.576	98.31
359.802	90.31
360.029	109.31
360.256	97.31
360.483	105.31
360.709	97.31
360.936	87.31
361.163	95.31
361.39	105.31
361.616	101.31
361.843	108.31
362.07	96.31
362.296	91.31
362.523	100.31
362.749	85.31
362.976	91.31
363.203	92.31
363.429	95.31
363.656	97.31
363.882	90.31
364.109	90.31
364.335	92.31
364.562	83.31
364.788	82.31
365.015	96.31
365.241	93.31
365.468	107.31
365.694	101.31
365.92	107.31
366.147	101.31
366.373	95.31
366.599	100.31
366.826	97.31
367.052	85.31
367.278	98.31
367.505	82.31
367.731	83.31
367.957	90.31
368.184	79.31
368.41	97.31
368.636	97.31
368.862	115.31
369.089	114.31
369.315	100.31
369.541	105.31
369.767	95.31
369.993	78.31
370.219	90.31
370.445	99.31
370.672	99.31
370.898	108.31
371.124	84.31
371.35	98.31
371.576	85.31
371.802	93.31
372.028	76.31
372.254	84.31
372.48	86.31
372.706	81.31
372.932	89.31
373.158	95.31
373.384	112.31
373.61	100.31
373.835	95.31
374.061	91.31
374.287	89.31
374.513	97.31
374.739	99.31
374.965	93.31
375.191	96.31
375.416	84.31
375.642	99.31
375.868	97.31
376.094	92.31
376.319	85.31
376.545	103.31
376.771	97.31
376.997	92.31
377.222	100.31
377.448	101.31
377.674	69.31
377.899	91.31
378.125	93.31
378.35	79.31
378.576	84.31
378.802	89.31
379.027	94.31
379.253	82.31
379.478	89.31
379.704	113.31
379.929	92.31
380.155	93.31
380.38	117.31
380.606	93.31
380.831	94.31
381.057	88.31
381.282	91.31
381.507	99.31
381.733	94.31
381.958	77.31
382.184	85.31
382.409	94.31
382.634	96.31
382.86	107.31
383.085	115.31
383.31	102.31
383.535	99.31
383.761	90.31
383.986	108.31
384.211	113.31
384.436	95.31
384.662	92.31
384.887	117.31
385.112	113.31
385.337	108.31
385.562	109.31
385.787	96.31
386.013	101.31
386.238	105.31
386.463	110.31
386.688	106.31
386.913	96.31
387.138	96.31
387.363	96.31
387.588	107.31
387.813	106.31
388.038	96.31
388.263	97.31
388.488	124.31
388.713	92.31
388.938	95.31
389.163	104.31
389.387	96.31
389.612	88.31
389.837	96.31
390.062	94.31
390.287	105.31
390.512	77.31
390.736	84.31
390.961	109.31
391.186	88.31
391.411	85.31
391.636	94.31
391.86	96.31
392.085	95.31
392.31	70.31
392.534	91.31
392.759	93.31
392.984	86.31
393.208	93.31
393.433	102.31
393.658	96.31
393.882	80.31
394.107	87.31
394.331	83.31
394.556	70.31
394.78	96.31
395.005	96.31
395.229	87.31
395.454	82.31
395.678	80.31
395.903	86.31
396.127	92.31
396.352	87.31
396.576	97.31
396.801	104.31
397.025	90.31
397.249	84.31
397.474	95.31
397.698	89.31
397.922	94.31
398.147	88.31
398.371	94.31
398.595	100.31
398.82	106.31
399.044	96.31
399.268	93.31
399.492	89.31
399.717	86.31
399.941	106.31
400.165	92.31
400.389	96.31
400.613	99.31
400.837	92.31
401.062	94.31
401.286	101.31
401.51	86.31
401.734	85.31
401.958	97.31
402.182	116.31
402.406	155.31
402.63	102.31
402.854	94.31
403.078	82.31
403.302	90.31
403.526	94.31
403.75	81.31
403.974	81.31
404.198	85.31
404.422	98.31
404.645	91.31
404.869	102.31
405.093	106.31
405.317	91.31
405.541	100.31
405.765	101.31
405.988	121.31
406.212	166.31
406.436	204.31
406.66	150.31
406.883	98.31
407.107	97.31
407.331	102.31
407.555	97.31
407.778	95.31
408.002	98.31
408.226	108.31
408.449	101.31
408.673	95.31
408.896	114.31
409.12	97.31
409.344	98.31
409.567	83.31
409.791	100.31
410.014	92.31
410.238	111.31
410.461	84.31
410.685	86.31
410.908	107.31
411.132	100.31
411.355	100.31
411.578	92.31
411.802	87.31
412.025	93.31
412.249	76.31
412.472	94.31
412.695	85.31
412.919	84.31
413.142	103.31
413.365	91.31
413.589	97.31
413.812	92.31
414.035	89.31
414.258	108.31
414.482	85.31
414.705	92.31
414.928	109.31
415.151	103.31
415.374	98.31
415.597	85.31
415.821	92.31
416.044	66.31
416.267	94.31
416.49	98.31
416.713	105.31
416.936	102.31
417.159	84.31
417.382	94.31
417.605	94.31
417.828	81.31
418.051	96.31
418.274	103.31
418.497	84.31
418.72	76.31
418.943	92.31
419.166	88.31
419.389	88.31
419.611	95.31
419.834	95.31
420.057	94.31
420.28	93.31
420.503	93.31
420.726	95.31
420.948	94.31
421.171	102.31
421.394	83.31
421.617	96.31
421.839	98.31
422.062	100.31
422.285	105.31
422.507	96.31
422.73	105.31
422.953	88.31
423.175	102.31
423.398	100.31
423.621	99.31
423.843	82.31
424.066	96.31
424.288	79.31
424.511	98.31
424.733	97.31
424.956	100.31
425.178	94.31
425.401	105.31
425.623	93.31
425.846	98.31
426.068	82.31
426.291	84.31
426.513	93.31
426.735	95.31
426.958	80.31
427.18	96.31
427.402	126.31
427.625	168.31
427.847	128.31
428.069	101.31
428.292	98.31
428.514	85.31
428.736	88.31
428.958	85.31
429.181	90.31
429.403	93.31
429.625	90.31
429.847	101.31
430.069	105.31
430.292	97.31
430.514	81.31
430.736	91.31
430.958	93.31
431.18	76.31
431.402	97.31
431.624	78.31
431.846	84.31
432.068	84.31
432.29	86.31
432.512	94.31
432.734	91.31
432.956	90.31
433.178	108.31
433.4	102.31
433.622	93.31
433.844	95.31
434.066	88.31
434.287	78.31
434.509	97.31
434.731	92.31
434.953	76.31
435.175	93.31
435.397	99.31
435.618	109.31
435.84	106.31
436.062	109.31
436.284	112.31
436.505	103.31
436.727	102.31
436.949	88.31
437.17	92.31
437.392	85.31
437.614	91.31
437.835	112.31
438.057	106.31
438.278	102.31
438.5	106.31
438.721	122.31
438.943	105.31
439.165	68.31
439.386	92.31
439.608	87.31
439.829	97.31
440.05	125.31
440.272	128.31
440.493	92.31
440.715	80.31
440.936	77.31
441.158	72.31
441.379	96.31
441.6	93.31
441.822	105.31
442.043	116.31
442.264	117.31
442.486	105.31
442.707	97.31
442.928	109.31
443.149	128.31
443.371	128.31
443.592	109.31
443.813	102.31
444.034	105.31
444.255	97.31
444.476	93.31
444.698	99.31
444.919	78.31
445.14	136.31
445.361	118.31
445.582	126.31
445.803	119.31
446.024	116.31
446.245	121.31
446.466	99.31
446.687	102.31
446.908	89.31
447.129	94.31
447.35	111.31
447.571	121.31
447.792	99.31
448.013	104.31
448.234	104.31
448.455	102.31
448.675	115.31
448.896	118.31
449.117	96.31
449.338	108.31
449.559	128.31
449.779	120.31
450	98.31
450.221	94.31
450.442	86.31
450.662	93.31
450.883	96.31
451.104	100.31
451.324	95.31
451.545	89.31
451.766	101.31
451.986	96.31
452.207	91.31
452.428	102.31
452.648	104.31
452.869	108.31
453.089	115.31
453.31	108.31
453.53	94.31
453.751	79.31
453.971	80.31
454.192	105.31
454.412	94.31
454.633	94.31
454.853	88.31
455.073	89.31
455.294	93.31
455.514	109.31
455.734	96.31
455.955	82.31
456.175	84.31
456.395	79.31
456.616	76.31
456.836	94.31
457.056	95.31
457.276	87.31
457.497	79.31
457.717	88.31
457.937	80.31
458.157	84.31
458.377	96.31
458.598	111.31
458.818	117.31
459.038	160.31
459.258	116.31
459.478	100.31
459.698	83.31
459.918	87.31
460.138	90.31
460.358	75.31
460.578	94.31
460.798	98.31
461.018	86.31
461.238	100.31
461.458	97.31
461.678	92.31
461.898	87.31
462.118	80.31
462.338	75.31
462.558	91.31
462.777	86.31
462.997	86.31
463.217	82.31
463.437	97.31
463.657	86.31
463.876	97.31
464.096	91.31
464.316	95.31
464.536	88.31
464.755	80.31
464.975	102.31
465.195	159.31
465.414	139.31
465.634	102.31
465.854	91.31
466.073	93.31
466.293	86.31
466.512	91.31
466.732	91.31
466.951	88.31
467.171	84.31
467.391	91.31
467.61	108.31
467.829	95.31
468.049	102.31
468.268	85.31
468.488	68.31
468.707	84.31
468.927	101.31
469.146	87.31
469.365	84.31
469.585	86.31
469.804	84.31
470.023	96.31
470.243	104.31
470.462	104.31
470.681	99.31
470.901	90.31
471.12	81.31
471.339	96.31
471.558	92.31
471.777	87.31
471.997	95.31
472.216	102.31
472.435	89.31
472.654	80.31
472.873	93.31
473.092	80.31
473.311	90.31
473.53	111.31
473.749	94.31
473.968	98.31
474.187	96.31
474.406	107.31
474.625	84.31
474.844	97.31
475.063	80.31
475.282	79.31
475.501	92.31
475.72	93.31
475.939	88.31
476.158	96.31
476.377	88.31
476.596	104.31
476.814	94.31
477.033	94.31
477.252	82.31
477.471	95.31
477.69	94.31
477.908	83.31
478.127	98.31
478.346	91.31
478.564	87.31
478.783	85.31
479.002	109.31
479.22	93.31
479.439	94.31
479.658	105.31
479.876	90.31
480.095	89.31
480.313	93.31
480.532	81.31
480.751	91.31
480.969	106.31
481.188	104.31
481.406	87.31
481.624	92.31
481.843	87.31
482.061	96.31
482.28	107.31
482.498	94.31
482.717	83.31
482.935	83.31
483.153	80.31
483.372	96.31
483.59	99.31
483.808	79.31
484.027	92.31
484.245	101.31
484.463	88.31
484.681	98.31
484.9	83.31
485.118	102.31
485.336	92.31
485.554	95.31
485.772	91.31
485.99	95.31
486.209	101.31
486.427	102.31
486.645	98.31
486.863	106.31
487.081	84.31
487.299	96.31
487.517	90.31
487.735	107.31
487.953	106.31
488.171	88.31
488.389	91.31
488.607	94.31
488.825	88.31
489.043	88.31
489.261	84.31
489.479	96.31
489.696	103.31
489.914	82.31
490.132	100.31
490.35	106.31
490.568	94.31
490.786	103.31
491.003	84.31
491.221	82.31
491.439	95.31
491.657	88.31
491.874	88.31
492.092	97.31
492.31	97.31
492.527	80.31
492.745	89.31
492.963	86.31
493.18	87.31
493.398	97.31
493.615	103.31
493.833	87.31
494.05	100.31
494.268	85.31
494.485	97.31
494.703	94.31
494.92	85.31
495.138	99.31
495.355	99.31
495.573	95.31
495.79	94.31
496.008	86.31
496.225	85.31
496.442	80.31
496.66	96.31
496.877	91.31
497.094	92.31
497.312	92.31
497.529	98.31
497.746	90.31
497.963	93.31
498.181	97.31
498.398	84.31
498.615	116.31
498.832	103.31
499.049	93.31
499.267	97.31
499.484	91.31
499.701	85.31
499.918	92.31
500.135	88.31
500.352	89.31
500.569	88.31
500.786	98.31
501.003	96.31
501.22	99.31
501.437	92.31
501.654	100.31
501.871	106.31
502.088	82.31
502.305	89.31
502.522	87.31
502.739	94.31
502.956	93.31
503.172	85.31
503.389	101.31
503.606	102.31
503.823	99.31
504.04	90.31
504.256	89.31
504.473	89.31
504.69	83.31
504.907	98.31
505.123	98.31
505.34	91.31
505.557	91.31
505.773	90.31
505.99	82.31
506.207	77.31
506.423	96.31
506.64	93.31
506.856	102.31
507.073	96.31
507.289	93.31
507.506	98.31
507.722	116.31
507.939	110.31
508.155	97.31
508.372	97.31
508.588	106.31
508.805	92.31
509.021	108.31
509.238	95.31
509.454	105.31
509.67	92.31
509.887	108.31
510.103	112.31
510.319	209.31
510.536	748.31
510.752	2306.31
510.968	622.31
511.184	152.31
511.401	113.31
511.617	109.31
511.833	80.31
512.049	85.31
512.265	74.31
512.481	92.31
512.698	93.31
512.914	97.31
513.13	93.31
513.346	96.31
513.562	96.31
513.778	97.31
513.994	97.31
514.21	101.31
514.426	103.31
514.642	136.31
514.858	115.31
515.074	148.31
515.29	432.31
