Data from Uncirc_1994_H10_HRD10591_00013.txt Node
Date: Wed Jan 03 11:39:23 EST 2024
User: Yrep
Spectrometer: HR+D1059
Trigger mode: 1
Integration Time (sec): 1.000000E-1
Scans to average: 1
Electric dark correction enabled: true
Nonlinearity correction enabled: false
Boxcar width: 0
XAxis mode: Wavelengths
Number of Pixels in Spectrum: 2048
>>>>>Begin Spectral Data<<<<<
223.165	-8.12
223.4	-8.12
223.635	-8.12
223.869	-19.12
224.104	-19.12
224.338	-15.12
224.573	-11.12
224.808	-20.12
225.042	-16.12
225.277	-7.12
225.511	7.88
225.746	5.88
225.98	-7.12
226.215	6.88
226.449	26.88
226.683	17.88
226.918	28.88
227.152	28.88
227.387	39.88
227.621	34.88
227.856	53.88
228.09	47.88
228.324	50.88
228.559	70.88
228.793	48.88
229.027	60.88
229.262	71.88
229.496	65.88
229.73	84.88
229.964	88.88
230.199	77.88
230.433	65.88
230.667	80.88
230.901	65.88
231.136	63.88
231.37	88.88
231.604	71.88
231.838	78.88
232.072	77.88
232.306	100.88
232.541	85.88
232.775	72.88
233.009	78.88
233.243	76.88
233.477	72.88
233.711	81.88
233.945	71.88
234.179	84.88
234.413	75.88
234.647	70.88
234.881	80.88
235.115	72.88
235.349	74.88
235.583	77.88
235.817	70.88
236.051	88.88
236.285	67.88
236.519	87.88
236.753	81.88
236.987	72.88
237.221	74.88
237.455	74.88
237.689	77.88
237.922	74.88
238.156	81.88
238.39	72.88
238.624	79.88
238.858	79.88
239.091	64.88
239.325	56.88
239.559	73.88
239.793	80.88
240.027	78.88
240.26	72.88
240.494	79.88
240.728	65.88
240.961	67.88
241.195	72.88
241.429	78.88
241.662	73.88
241.896	78.88
242.13	65.88
242.363	76.88
242.597	76.88
242.83	78.88
243.064	70.88
243.298	73.88
243.531	91.88
243.765	90.88
243.998	83.88
244.232	87.88
244.465	83.88
244.699	87.88
244.932	65.88
245.166	87.88
245.399	72.88
245.633	68.88
245.866	70.88
246.099	58.88
246.333	71.88
246.566	68.88
246.8	65.88
247.033	82.88
247.266	86.88
247.5	70.88
247.733	76.88
247.966	75.88
248.2	80.88
248.433	73.88
248.666	74.88
248.899	81.88
249.133	91.88
249.366	95.88
249.599	97.88
249.832	72.88
250.066	82.88
250.299	73.88
250.532	78.88
250.765	83.88
250.998	90.88
251.231	83.88
251.465	70.88
251.698	93.88
251.931	88.88
252.164	86.88
252.397	74.88
252.63	81.88
252.863	72.88
253.096	91.88
253.329	72.88
253.562	86.88
253.795	83.88
254.028	72.88
254.261	74.88
254.494	72.88
254.727	67.88
254.96	67.88
255.193	90.88
255.426	83.88
255.659	77.88
255.892	81.88
256.124	74.88
256.357	66.88
256.59	77.88
256.823	84.88
257.056	86.88
257.289	92.88
257.521	81.88
257.754	78.88
257.987	88.88
258.22	67.88
258.452	90.88
258.685	77.88
258.918	89.88
259.151	72.88
259.383	105.88
259.616	86.88
259.849	82.88
260.081	86.88
260.314	70.88
260.547	81.88
260.779	78.88
261.012	73.88
261.244	93.88
261.477	89.88
261.71	86.88
261.942	116.88
262.175	104.88
262.407	94.88
262.64	84.88
262.872	82.88
263.105	76.88
263.337	87.88
263.57	94.88
263.802	80.88
264.035	99.88
264.267	91.88
264.499	73.88
264.732	83.88
264.964	76.88
265.197	89.88
265.429	91.88
265.661	82.88
265.894	75.88
266.126	76.88
266.358	78.88
266.591	86.88
266.823	77.88
267.055	81.88
267.287	72.88
267.52	76.88
267.752	76.88
267.984	93.88
268.216	94.88
268.448	85.88
268.681	78.88
268.913	94.88
269.145	84.88
269.377	81.88
269.609	78.88
269.841	75.88
270.073	76.88
270.306	76.88
270.538	91.88
270.77	80.88
271.002	80.88
271.234	78.88
271.466	86.88
271.698	82.88
271.93	86.88
272.162	83.88
272.394	97.88
272.626	95.88
272.858	89.88
273.09	82.88
273.322	93.88
273.553	74.88
273.785	88.88
274.017	86.88
274.249	96.88
274.481	94.88
274.713	91.88
274.945	102.88
275.176	86.88
275.408	87.88
275.64	81.88
275.872	94.88
276.104	91.88
276.335	82.88
276.567	92.88
276.799	89.88
277.031	89.88
277.262	80.88
277.494	75.88
277.726	81.88
277.957	78.88
278.189	89.88
278.421	88.88
278.652	95.88
278.884	78.88
279.115	93.88
279.347	86.88
279.579	83.88
279.81	94.88
280.042	70.88
280.273	79.88
280.505	95.88
280.736	71.88
280.968	88.88
281.199	90.88
281.431	73.88
281.662	90.88
281.894	93.88
282.125	111.88
282.356	105.88
282.588	137.88
282.819	94.88
283.051	92.88
283.282	88.88
283.513	99.88
283.745	93.88
283.976	91.88
284.207	86.88
284.439	86.88
284.67	89.88
284.901	86.88
285.132	86.88
285.364	76.88
285.595	86.88
285.826	85.88
286.057	89.88
286.288	84.88
286.52	94.88
286.751	88.88
286.982	80.88
287.213	86.88
287.444	90.88
287.675	89.88
287.906	91.88
288.138	75.88
288.369	85.88
288.6	94.88
288.831	71.88
289.062	91.88
289.293	90.88
289.524	80.88
289.755	82.88
289.986	91.88
290.217	81.88
290.448	86.88
290.679	79.88
290.91	92.88
291.141	82.88
291.371	77.88
291.602	99.88
291.833	89.88
292.064	84.88
292.295	83.88
292.526	96.88
292.757	92.88
292.987	78.88
293.218	97.88
293.449	102.88
293.68	74.88
293.91	76.88
294.141	85.88
294.372	97.88
294.603	98.88
294.833	92.88
295.064	97.88
295.295	89.88
295.525	88.88
295.756	92.88
295.987	118.88
296.217	135.88
296.448	117.88
296.679	87.88
296.909	87.88
297.14	79.88
297.37	87.88
297.601	80.88
297.831	70.88
298.062	93.88
298.292	80.88
298.523	94.88
298.753	82.88
298.984	87.88
299.214	86.88
299.445	104.88
299.675	100.88
299.905	96.88
300.136	83.88
300.366	89.88
300.597	82.88
300.827	90.88
301.057	100.88
301.288	110.88
301.518	91.88
301.748	99.88
301.979	102.88
302.209	100.88
302.439	92.88
302.669	90.88
302.9	94.88
303.13	94.88
303.36	107.88
303.59	100.88
303.82	79.88
304.051	90.88
304.281	86.88
304.511	93.88
304.741	98.88
304.971	92.88
305.201	86.88
305.431	91.88
305.661	80.88
305.891	90.88
306.121	96.88
306.352	105.88
306.582	107.88
306.812	93.88
307.042	100.88
307.272	74.88
307.502	90.88
307.731	98.88
307.961	92.88
308.191	87.88
308.421	87.88
308.651	102.88
308.881	93.88
309.111	84.88
309.341	88.88
309.571	97.88
309.8	100.88
310.03	87.88
310.26	84.88
310.49	103.88
310.72	93.88
310.949	103.88
311.179	109.88
311.409	106.88
311.639	91.88
311.868	83.88
312.098	90.88
312.328	89.88
312.557	100.88
312.787	97.88
313.017	95.88
313.246	86.88
313.476	82.88
313.706	86.88
313.935	95.88
314.165	86.88
314.394	90.88
314.624	109.88
314.853	106.88
315.083	79.88
315.312	94.88
315.542	97.88
315.771	87.88
316.001	76.88
316.23	91.88
316.46	103.88
316.689	91.88
316.919	86.88
317.148	98.88
317.377	101.88
317.607	94.88
317.836	87.88
318.065	84.88
318.295	72.88
318.524	94.88
318.753	82.88
318.983	92.88
319.212	102.88
319.441	100.88
319.67	119.88
319.9	99.88
320.129	108.88
320.358	93.88
320.587	98.88
320.816	88.88
321.046	97.88
321.275	103.88
321.504	109.88
321.733	95.88
321.962	98.88
322.191	93.88
322.42	93.88
322.649	120.88
322.878	102.88
323.108	100.88
323.337	104.88
323.566	120.88
323.795	135.88
324.024	190.88
324.253	346.88
324.482	768.88
324.71	1527.88
324.939	1988.88
325.168	734.88
325.397	230.88
325.626	136.88
325.855	132.88
326.084	120.88
326.313	128.88
326.542	162.88
326.77	209.88
326.999	418.88
327.228	858.88
327.457	1551.88
327.686	1217.88
327.914	351.88
328.143	158.88
328.372	120.88
328.6	112.88
328.829	119.88
329.058	126.88
329.287	122.88
329.515	96.88
329.744	92.88
329.972	103.88
330.201	90.88
330.43	100.88
330.658	114.88
330.887	121.88
331.115	110.88
331.344	95.88
331.572	89.88
331.801	82.88
332.03	114.88
332.258	103.88
332.486	84.88
332.715	102.88
332.943	92.88
333.172	100.88
333.4	96.88
333.629	97.88
333.857	99.88
334.085	95.88
334.314	87.88
334.542	100.88
334.771	88.88
334.999	85.88
335.227	79.88
335.455	87.88
335.684	89.88
335.912	92.88
336.14	79.88
336.369	104.88
336.597	104.88
336.825	99.88
337.053	105.88
337.281	96.88
337.51	84.88
337.738	79.88
337.966	91.88
338.194	97.88
338.422	79.88
338.65	82.88
338.878	90.88
339.106	93.88
339.334	88.88
339.562	99.88
339.79	102.88
340.018	79.88
340.246	84.88
340.474	90.88
340.702	87.88
340.93	79.88
341.158	92.88
341.386	96.88
341.614	84.88
341.842	79.88
342.07	80.88
342.298	90.88
342.526	72.88
342.754	88.88
342.981	76.88
343.209	100.88
343.437	94.88
343.665	91.88
343.893	85.88
344.12	88.88
344.348	86.88
344.576	86.88
344.804	98.88
345.031	112.88
345.259	90.88
345.487	112.88
345.714	91.88
345.942	82.88
346.17	95.88
346.397	90.88
346.625	95.88
346.853	87.88
347.08	83.88
347.308	98.88
347.535	100.88
347.763	102.88
347.99	107.88
348.218	99.88
348.445	95.88
348.673	83.88
348.9	72.88
349.128	106.88
349.355	94.88
349.583	95.88
349.81	86.88
350.037	91.88
350.265	70.88
350.492	85.88
350.72	82.88
350.947	98.88
351.174	106.88
351.402	108.88
351.629	104.88
351.856	91.88
352.083	97.88
352.311	94.88
352.538	79.88
352.765	106.88
352.992	123.88
353.22	112.88
353.447	105.88
353.674	92.88
353.901	93.88
354.128	91.88
354.355	88.88
354.583	108.88
354.81	100.88
355.037	82.88
355.264	91.88
355.491	90.88
355.718	83.88
355.945	93.88
356.172	96.88
356.399	98.88
356.626	73.88
356.853	81.88
357.08	91.88
357.307	101.88
357.534	79.88
357.761	91.88
357.988	97.88
358.215	89.88
358.441	86.88
358.668	97.88
358.895	93.88
359.122	77.88
359.349	90.88
359.576	89.88
359.802	84.88
360.029	87.88
360.256	88.88
360.483	90.88
360.709	75.88
360.936	87.88
361.163	102.88
361.39	103.88
361.616	93.88
361.843	89.88
362.07	93.88
362.296	93.88
362.523	107.88
362.749	102.88
362.976	84.88
363.203	81.88
363.429	95.88
363.656	109.88
363.882	82.88
364.109	74.88
364.335	98.88
364.562	91.88
364.788	89.88
365.015	90.88
365.241	118.88
365.468	114.88
365.694	95.88
365.92	94.88
366.147	67.88
366.373	83.88
366.599	82.88
366.826	95.88
367.052	88.88
367.278	79.88
367.505	81.88
367.731	87.88
367.957	93.88
368.184	85.88
368.41	95.88
368.636	103.88
368.862	107.88
369.089	94.88
369.315	86.88
369.541	95.88
369.767	84.88
369.993	80.88
370.219	88.88
370.445	77.88
370.672	81.88
370.898	91.88
371.124	92.88
371.35	93.88
371.576	82.88
371.802	88.88
372.028	82.88
372.254	85.88
372.48	85.88
372.706	82.88
372.932	80.88
373.158	84.88
373.384	94.88
373.61	104.88
373.835	83.88
374.061	78.88
374.287	110.88
374.513	83.88
374.739	92.88
374.965	90.88
375.191	88.88
375.416	81.88
375.642	97.88
375.868	76.88
376.094	79.88
376.319	89.88
376.545	93.88
376.771	92.88
376.997	95.88
377.222	96.88
377.448	76.88
377.674	95.88
377.899	86.88
378.125	87.88
378.35	92.88
378.576	99.88
378.802	73.88
379.027	101.88
379.253	86.88
379.478	95.88
379.704	94.88
379.929	98.88
380.155	73.88
380.38	90.88
380.606	95.88
380.831	109.88
381.057	100.88
381.282	94.88
381.507	88.88
381.733	94.88
381.958	90.88
382.184	98.88
382.409	92.88
382.634	108.88
382.86	101.88
383.085	102.88
383.31	87.88
383.535	108.88
383.761	110.88
383.986	96.88
384.211	89.88
384.436	95.88
384.662	115.88
384.887	97.88
385.112	98.88
385.337	100.88
385.562	107.88
385.787	96.88
386.013	114.88
386.238	123.88
386.463	92.88
386.688	112.88
386.913	81.88
387.138	98.88
387.363	100.88
387.588	98.88
387.813	99.88
388.038	106.88
388.263	106.88
388.488	106.88
388.713	107.88
388.938	96.88
389.163	102.88
389.387	92.88
389.612	91.88
389.837	84.88
390.062	96.88
390.287	94.88
390.512	105.88
390.736	90.88
390.961	91.88
391.186	81.88
391.411	81.88
391.636	86.88
391.86	107.88
392.085	86.88
392.31	83.88
392.534	73.88
392.759	90.88
392.984	98.88
393.208	102.88
393.433	118.88
393.658	82.88
393.882	91.88
394.107	89.88
394.331	87.88
394.556	86.88
394.78	82.88
395.005	91.88
395.229	74.88
395.454	82.88
395.678	84.88
395.903	90.88
396.127	91.88
396.352	67.88
396.576	98.88
396.801	89.88
397.025	83.88
397.249	90.88
397.474	79.88
397.698	91.88
397.922	88.88
398.147	86.88
398.371	91.88
398.595	89.88
398.82	86.88
399.044	91.88
399.268	73.88
399.492	75.88
399.717	99.88
399.941	80.88
400.165	83.88
400.389	91.88
400.613	82.88
400.837	83.88
401.062	92.88
401.286	89.88
401.51	78.88
401.734	92.88
401.958	88.88
402.182	113.88
402.406	143.88
402.63	108.88
402.854	80.88
403.078	96.88
403.302	84.88
403.526	100.88
403.75	94.88
403.974	99.88
404.198	83.88
404.422	81.88
404.645	83.88
404.869	84.88
405.093	99.88
405.317	79.88
405.541	90.88
405.765	94.88
405.988	103.88
406.212	143.88
406.436	203.88
406.66	148.88
406.883	88.88
407.107	81.88
407.331	88.88
407.555	92.88
407.778	91.88
408.002	107.88
408.226	94.88
408.449	86.88
408.673	89.88
408.896	86.88
409.12	99.88
409.344	85.88
409.567	83.88
409.791	107.88
410.014	93.88
410.238	101.88
410.461	94.88
410.685	83.88
410.908	100.88
411.132	105.88
411.355	82.88
411.578	77.88
411.802	88.88
412.025	98.88
412.249	81.88
412.472	78.88
412.695	106.88
412.919	87.88
413.142	98.88
413.365	86.88
413.589	98.88
413.812	90.88
414.035	86.88
414.258	88.88
414.482	91.88
414.705	90.88
414.928	96.88
415.151	94.88
415.374	91.88
415.597	83.88
415.821	89.88
416.044	84.88
416.267	87.88
416.49	98.88
416.713	98.88
416.936	91.88
417.159	81.88
417.382	82.88
417.605	68.88
417.828	89.88
418.051	93.88
418.274	88.88
418.497	83.88
418.72	95.88
418.943	75.88
419.166	86.88
419.389	86.88
419.611	84.88
419.834	82.88
420.057	102.88
420.28	81.88
420.503	84.88
420.726	87.88
420.948	84.88
421.171	84.88
421.394	92.88
421.617	86.88
421.839	88.88
422.062	80.88
422.285	95.88
422.507	99.88
422.73	91.88
422.953	98.88
423.175	91.88
423.398	78.88
423.621	83.88
423.843	76.88
424.066	82.88
424.288	82.88
424.511	94.88
424.733	100.88
424.956	107.88
425.178	95.88
425.401	109.88
425.623	98.88
425.846	86.88
426.068	92.88
426.291	89.88
426.513	82.88
426.735	80.88
426.958	83.88
427.18	92.88
427.402	125.88
427.625	159.88
427.847	102.88
428.069	96.88
428.292	82.88
428.514	76.88
428.736	88.88
428.958	90.88
429.181	82.88
429.403	76.88
429.625	81.88
429.847	96.88
430.069	88.88
430.292	86.88
430.514	88.88
430.736	77.88
430.958	93.88
431.18	79.88
431.402	81.88
431.624	85.88
431.846	75.88
432.068	74.88
432.29	84.88
432.512	83.88
432.734	71.88
432.956	92.88
433.178	99.88
433.4	95.88
433.622	86.88
433.844	96.88
434.066	89.88
434.287	92.88
434.509	84.88
434.731	94.88
434.953	77.88
435.175	77.88
435.397	91.88
435.618	91.88
435.84	100.88
436.062	111.88
436.284	110.88
436.505	74.88
436.727	99.88
436.949	73.88
437.17	86.88
437.392	86.88
437.614	99.88
437.835	112.88
438.057	106.88
438.278	106.88
438.5	99.88
438.721	108.88
438.943	94.88
439.165	91.88
439.386	94.88
439.608	95.88
439.829	98.88
440.05	117.88
440.272	119.88
440.493	77.88
440.715	86.88
440.936	90.88
441.158	92.88
441.379	82.88
441.6	92.88
441.822	91.88
442.043	102.88
442.264	94.88
442.486	101.88
442.707	86.88
442.928	99.88
443.149	125.88
443.371	110.88
443.592	110.88
443.813	115.88
444.034	95.88
444.255	86.88
444.476	89.88
444.698	82.88
444.919	88.88
445.14	131.88
445.361	107.88
445.582	104.88
445.803	121.88
446.024	119.88
446.245	126.88
446.466	107.88
446.687	82.88
446.908	94.88
447.129	98.88
447.35	79.88
447.571	92.88
447.792	85.88
448.013	105.88
448.234	87.88
448.455	100.88
448.675	118.88
448.896	111.88
449.117	109.88
449.338	99.88
449.559	123.88
449.779	122.88
450	100.88
450.221	76.88
450.442	91.88
450.662	97.88
450.883	108.88
451.104	102.88
451.324	86.88
451.545	94.88
451.766	88.88
451.986	86.88
452.207	85.88
452.428	87.88
452.648	92.88
452.869	100.88
453.089	98.88
453.31	103.88
453.53	89.88
453.751	80.88
453.971	90.88
454.192	96.88
454.412	94.88
454.633	74.88
454.853	80.88
455.073	87.88
455.294	85.88
455.514	96.88
455.734	93.88
455.955	90.88
456.175	84.88
456.395	89.88
456.616	88.88
456.836	93.88
457.056	97.88
457.276	97.88
457.497	92.88
457.717	80.88
457.937	86.88
458.157	74.88
458.377	87.88
458.598	100.88
458.818	132.88
459.038	154.88
459.258	105.88
459.478	83.88
459.698	88.88
459.918	88.88
460.138	84.88
460.358	73.88
460.578	88.88
460.798	86.88
461.018	85.88
461.238	91.88
461.458	85.88
461.678	94.88
461.898	103.88
462.118	78.88
462.338	78.88
462.558	103.88
462.777	74.88
462.997	87.88
463.217	88.88
463.437	87.88
463.657	76.88
463.876	81.88
464.096	79.88
464.316	80.88
464.536	97.88
464.755	92.88
464.975	103.88
465.195	123.88
465.414	134.88
465.634	86.88
465.854	87.88
466.073	85.88
466.293	73.88
466.512	87.88
466.732	87.88
466.951	81.88
467.171	89.88
467.391	84.88
467.61	87.88
467.829	84.88
468.049	82.88
468.268	90.88
468.488	72.88
468.707	85.88
468.927	83.88
469.146	95.88
469.365	74.88
469.585	88.88
469.804	100.88
470.023	84.88
470.243	83.88
470.462	90.88
470.681	116.88
470.901	90.88
471.12	88.88
471.339	77.88
471.558	98.88
471.777	86.88
471.997	88.88
472.216	87.88
472.435	81.88
472.654	89.88
472.873	79.88
473.092	81.88
473.311	81.88
473.53	82.88
473.749	89.88
473.968	100.88
474.187	106.88
474.406	90.88
474.625	85.88
474.844	66.88
475.063	88.88
475.282	85.88
475.501	91.88
475.72	87.88
475.939	97.88
476.158	78.88
476.377	80.88
476.596	87.88
476.814	74.88
477.033	92.88
477.252	88.88
477.471	95.88
477.69	79.88
477.908	78.88
478.127	96.88
478.346	89.88
478.564	76.88
478.783	90.88
479.002	83.88
479.22	103.88
479.439	78.88
479.658	83.88
479.876	94.88
480.095	78.88
480.313	73.88
480.532	100.88
480.751	91.88
480.969	93.88
481.188	98.88
481.406	86.88
481.624	99.88
481.843	90.88
482.061	80.88
482.28	88.88
482.498	83.88
482.717	99.88
482.935	79.88
483.153	99.88
483.372	84.88
483.59	93.88
483.808	84.88
484.027	95.88
484.245	102.88
484.463	91.88
484.681	90.88
484.9	93.88
485.118	102.88
485.336	95.88
485.554	91.88
485.772	91.88
485.99	92.88
486.209	84.88
486.427	97.88
486.645	97.88
486.863	106.88
487.081	87.88
487.299	99.88
487.517	96.88
487.735	91.88
487.953	89.88
488.171	85.88
488.389	99.88
488.607	91.88
488.825	84.88
489.043	93.88
489.261	91.88
489.479	88.88
489.696	98.88
489.914	93.88
490.132	87.88
490.35	82.88
490.568	90.88
490.786	90.88
491.003	84.88
491.221	96.88
491.439	102.88
491.657	92.88
491.874	102.88
492.092	78.88
492.31	87.88
492.527	92.88
492.745	90.88
492.963	84.88
493.18	88.88
493.398	88.88
493.615	97.88
493.833	93.88
494.05	95.88
494.268	84.88
494.485	89.88
494.703	85.88
494.92	82.88
495.138	80.88
495.355	87.88
495.573	99.88
495.79	93.88
496.008	93.88
496.225	88.88
496.442	90.88
496.66	103.88
496.877	99.88
497.094	89.88
497.312	91.88
497.529	93.88
497.746	84.88
497.963	90.88
498.181	99.88
498.398	94.88
498.615	111.88
498.832	113.88
499.049	93.88
499.267	102.88
499.484	94.88
499.701	104.88
499.918	91.88
500.135	88.88
500.352	104.88
500.569	90.88
500.786	96.88
501.003	91.88
501.22	83.88
501.437	91.88
501.654	95.88
501.871	89.88
502.088	84.88
502.305	109.88
502.522	99.88
502.739	89.88
502.956	103.88
503.172	90.88
503.389	99.88
503.606	106.88
503.823	94.88
504.04	87.88
504.256	87.88
504.473	96.88
504.69	84.88
504.907	99.88
505.123	82.88
505.34	86.88
505.557	89.88
505.773	81.88
505.99	89.88
506.207	95.88
506.423	95.88
506.64	79.88
506.856	93.88
507.073	102.88
507.289	103.88
507.506	99.88
507.722	107.88
507.939	93.88
508.155	96.88
508.372	86.88
508.588	98.88
508.805	106.88
509.021	89.88
509.238	89.88
509.454	99.88
509.67	102.88
509.887	102.88
510.103	131.88
510.319	195.88
510.536	658.88
510.752	2043.88
510.968	541.88
511.184	158.88
511.401	113.88
511.617	93.88
511.833	96.88
512.049	93.88
512.265	88.88
512.481	102.88
512.698	84.88
512.914	106.88
513.13	88.88
513.346	104.88
513.562	94.88
513.778	96.88
513.994	110.88
514.21	101.88
514.426	109.88
514.642	117.88
514.858	95.88
515.074	143.88
515.29	391.88
515.506	1178.88
515.721	441.88
515.937	143.88
516.153	98.88
516.369	84.88
516.585	96.88
