Data from Uncirc_1994_H10_HRD10591_00049.txt Node
Date: Wed Jan 03 11:39:30 EST 2024
User: Yrep
Spectrometer: HR+D1059
Trigger mode: 1
Integration Time (sec): 1.000000E-1
Scans to average: 1
Electric dark correction enabled: true
Nonlinearity correction enabled: false
Boxcar width: 0
XAxis mode: Wavelengths
Number of Pixels in Spectrum: 2048
>>>>>Begin Spectral Data<<<<<
223.165	-21
223.4	-21
223.635	-21
223.869	-19
224.104	-16
224.338	-12
224.573	-26
224.808	-5
225.042	-3
225.277	-12
225.511	-4
225.746	10
225.98	8
226.215	16
226.449	4
226.683	15
226.918	26
227.152	39
227.387	34
227.621	41
227.856	53
228.09	52
228.324	41
228.559	74
228.793	64
229.027	60
229.262	62
229.496	68
229.73	79
229.964	87
230.199	73
230.433	68
230.667	87
230.901	74
231.136	85
231.37	77
231.604	69
231.838	75
232.072	88
232.306	85
232.541	76
232.775	73
233.009	78
233.243	92
233.477	80
233.711	84
233.945	92
234.179	85
234.413	82
234.647	83
234.881	82
235.115	78
235.349	67
235.583	85
235.817	77
236.051	79
236.285	90
236.519	85
236.753	74
236.987	84
237.221	77
237.455	84
237.689	97
237.922	73
238.156	69
238.39	67
238.624	73
238.858	76
239.091	78
239.325	81
239.559	88
239.793	93
240.027	80
240.26	82
240.494	65
240.728	72
240.961	78
241.195	81
241.429	89
241.662	67
241.896	75
242.13	72
242.363	76
242.597	89
242.83	87
243.064	60
243.298	72
243.531	68
243.765	78
243.998	78
244.232	88
244.465	76
244.699	79
244.932	82
245.166	87
245.399	88
245.633	85
245.866	61
246.099	86
246.333	74
246.566	54
246.8	67
247.033	67
247.266	75
247.5	82
247.733	72
247.966	85
248.2	82
248.433	83
248.666	80
248.899	81
249.133	85
249.366	96
249.599	84
249.832	83
250.066	76
250.299	77
250.532	82
250.765	81
250.998	77
251.231	77
251.465	91
251.698	84
251.931	88
252.164	88
252.397	74
252.63	83
252.863	79
253.096	78
253.329	86
253.562	75
253.795	81
254.028	81
254.261	75
254.494	83
254.727	96
254.96	77
255.193	80
255.426	88
255.659	84
255.892	83
256.124	80
256.357	77
256.59	80
256.823	84
257.056	68
257.289	84
257.521	83
257.754	86
257.987	73
258.22	82
258.452	79
258.685	77
258.918	64
259.151	84
259.383	70
259.616	97
259.849	72
260.081	75
260.314	69
260.547	90
260.779	72
261.012	84
261.244	79
261.477	88
261.71	108
261.942	109
262.175	105
262.407	96
262.64	94
262.872	93
263.105	87
263.337	77
263.57	81
263.802	76
264.035	78
264.267	83
264.499	85
264.732	69
264.964	86
265.197	90
265.429	84
265.661	99
265.894	86
266.126	91
266.358	84
266.591	83
266.823	96
267.055	89
267.287	66
267.52	72
267.752	88
267.984	81
268.216	92
268.448	85
268.681	79
268.913	89
269.145	77
269.377	66
269.609	80
269.841	82
270.073	77
270.306	76
270.538	84
270.77	69
271.002	79
271.234	100
271.466	86
271.698	92
271.93	87
272.162	73
272.394	85
272.626	82
272.858	94
273.09	84
273.322	93
273.553	89
273.785	89
274.017	92
274.249	82
274.481	88
274.713	92
274.945	88
275.176	74
275.408	94
275.64	92
275.872	82
276.104	84
276.335	76
276.567	102
276.799	109
277.031	93
277.262	89
277.494	97
277.726	78
277.957	83
278.189	83
278.421	94
278.652	97
278.884	88
279.115	83
279.347	88
279.579	92
279.81	94
280.042	84
280.273	82
280.505	99
280.736	93
280.968	90
281.199	82
281.431	95
281.662	66
281.894	99
282.125	93
282.356	140
282.588	134
282.819	116
283.051	84
283.282	95
283.513	93
283.745	80
283.976	84
284.207	90
284.439	75
284.67	90
284.901	85
285.132	89
285.364	80
285.595	91
285.826	102
286.057	86
286.288	77
286.52	90
286.751	90
286.982	101
287.213	82
287.444	70
287.675	80
287.906	100
288.138	94
288.369	97
288.6	94
288.831	84
289.062	96
289.293	74
289.524	83
289.755	83
289.986	70
290.217	82
290.448	86
290.679	86
290.91	100
291.141	93
291.371	95
291.602	81
291.833	91
292.064	72
292.295	93
292.526	86
292.757	100
292.987	86
293.218	84
293.449	67
293.68	88
293.91	84
294.141	87
294.372	91
294.603	70
294.833	95
295.064	85
295.295	89
295.525	98
295.756	113
295.987	88
296.217	124
296.448	127
296.679	96
296.909	93
297.14	93
297.37	90
297.601	90
297.831	88
298.062	93
298.292	85
298.523	84
298.753	90
298.984	86
299.214	80
299.445	86
299.675	80
299.905	92
300.136	94
300.366	90
300.597	94
300.827	103
301.057	88
301.288	98
301.518	85
301.748	90
301.979	101
302.209	93
302.439	85
302.669	97
302.9	95
303.13	92
303.36	91
303.59	83
303.82	99
304.051	96
304.281	93
304.511	90
304.741	93
304.971	86
305.201	76
305.431	89
305.661	83
305.891	93
306.121	96
306.352	96
306.582	90
306.812	99
307.042	97
307.272	73
307.502	101
307.731	92
307.961	98
308.191	78
308.421	97
308.651	102
308.881	101
309.111	97
309.341	101
309.571	92
309.8	97
310.03	110
310.26	76
310.49	79
310.72	96
310.949	104
311.179	102
311.409	96
311.639	114
311.868	101
312.098	84
312.328	102
312.557	98
312.787	91
313.017	104
313.246	86
313.476	83
313.706	96
313.935	103
314.165	108
314.394	100
314.624	99
314.853	114
315.083	116
315.312	108
315.542	94
315.771	96
316.001	94
316.23	90
316.46	79
316.689	88
316.919	89
317.148	101
317.377	104
317.607	99
317.836	95
318.065	86
318.295	86
318.524	84
318.753	93
318.983	83
319.212	97
319.441	100
319.67	104
319.9	95
320.129	80
320.358	110
320.587	94
320.816	91
321.046	100
321.275	90
321.504	98
321.733	83
321.962	91
322.191	106
322.42	97
322.649	103
322.878	102
323.108	99
323.337	128
323.566	132
323.795	144
324.024	185
324.253	357
324.482	776
324.71	1497
324.939	2015
325.168	742
325.397	220
325.626	134
325.855	126
326.084	119
326.313	122
326.542	133
326.77	212
326.999	406
327.228	859
327.457	1613
327.686	1242
327.914	340
328.143	188
328.372	119
328.6	130
328.829	103
329.058	116
329.287	117
329.515	93
329.744	96
329.972	102
330.201	111
330.43	109
330.658	116
330.887	130
331.115	129
331.344	95
331.572	106
331.801	100
332.03	111
332.258	97
332.486	93
332.715	118
332.943	91
333.172	96
333.4	90
333.629	106
333.857	112
334.085	109
334.314	108
334.542	100
334.771	91
334.999	91
335.227	97
335.455	94
335.684	85
335.912	99
336.14	106
336.369	94
336.597	95
336.825	102
337.053	81
337.281	87
337.51	94
337.738	98
337.966	98
338.194	102
338.422	100
338.65	82
338.878	106
339.106	90
339.334	77
339.562	92
339.79	94
340.018	99
340.246	95
340.474	95
340.702	98
340.93	91
341.158	104
341.386	106
341.614	97
341.842	108
342.07	89
342.298	88
342.526	94
342.754	83
342.981	102
343.209	90
343.437	110
343.665	87
343.893	89
344.12	108
344.348	79
344.576	89
344.804	99
345.031	89
345.259	94
345.487	105
345.714	92
345.942	92
346.17	78
346.397	94
346.625	91
346.853	90
347.08	103
347.308	101
347.535	94
347.763	93
347.99	91
348.218	99
348.445	97
348.673	79
348.9	91
349.128	97
349.355	88
349.583	92
349.81	95
350.037	95
350.265	98
350.492	100
350.72	91
350.947	102
351.174	101
351.402	91
351.629	99
351.856	101
352.083	114
352.311	94
352.538	103
352.765	113
352.992	124
353.22	98
353.447	99
353.674	113
353.901	96
354.128	97
354.355	87
354.583	116
354.81	99
355.037	102
355.264	100
355.491	100
355.718	102
355.945	103
356.172	102
356.399	100
356.626	91
356.853	81
357.08	107
357.307	67
357.534	82
357.761	88
357.988	93
358.215	106
358.441	88
358.668	98
358.895	87
359.122	87
359.349	95
359.576	90
359.802	103
360.029	97
360.256	97
360.483	83
360.709	93
360.936	99
361.163	94
361.39	95
361.616	96
361.843	95
362.07	93
362.296	95
362.523	93
362.749	95
362.976	91
363.203	98
363.429	92
363.656	86
363.882	88
364.109	108
364.335	112
364.562	94
364.788	82
365.015	100
365.241	101
365.468	107
365.694	99
365.92	93
366.147	97
366.373	90
366.599	95
366.826	89
367.052	94
367.278	102
367.505	99
367.731	79
367.957	94
368.184	101
368.41	92
368.636	114
368.862	114
369.089	92
369.315	92
369.541	96
369.767	86
369.993	97
370.219	85
370.445	94
370.672	92
370.898	94
371.124	83
371.35	87
371.576	92
371.802	93
372.028	90
372.254	100
372.48	86
372.706	85
372.932	92
373.158	104
373.384	81
373.61	89
373.835	78
374.061	98
374.287	102
374.513	99
374.739	77
374.965	89
375.191	77
375.416	81
375.642	93
375.868	90
376.094	90
376.319	97
376.545	91
376.771	109
376.997	92
377.222	78
377.448	99
377.674	97
377.899	79
378.125	77
378.35	106
378.576	84
378.802	77
379.027	87
379.253	102
379.478	101
379.704	91
379.929	92
380.155	89
380.38	95
380.606	104
380.831	86
381.057	102
381.282	94
381.507	93
381.733	84
381.958	108
382.184	105
382.409	100
382.634	106
382.86	96
383.085	98
383.31	108
383.535	94
383.761	94
383.986	99
384.211	72
384.436	115
384.662	88
384.887	107
385.112	92
385.337	93
385.562	97
385.787	101
386.013	110
386.238	103
386.463	102
386.688	107
386.913	90
387.138	99
387.363	89
387.588	94
387.813	100
388.038	97
388.263	109
388.488	105
388.713	111
388.938	85
389.163	80
389.387	80
389.612	102
389.837	80
390.062	103
390.287	108
390.512	95
390.736	86
390.961	96
391.186	96
391.411	101
391.636	82
391.86	91
392.085	77
392.31	90
392.534	77
392.759	91
392.984	77
393.208	101
393.433	88
393.658	95
393.882	83
394.107	102
394.331	82
394.556	93
394.78	75
395.005	92
395.229	88
395.454	91
395.678	89
395.903	82
396.127	89
396.352	93
396.576	90
396.801	82
397.025	95
397.249	83
397.474	96
397.698	100
397.922	86
398.147	92
398.371	96
398.595	89
398.82	84
399.044	90
399.268	94
399.492	82
399.717	90
399.941	84
400.165	100
400.389	97
400.613	74
400.837	78
401.062	78
401.286	90
401.51	102
401.734	89
401.958	109
402.182	102
402.406	141
402.63	119
402.854	99
403.078	73
403.302	88
403.526	86
403.75	94
403.974	79
404.198	92
404.422	102
404.645	88
404.869	101
405.093	100
405.317	91
405.541	93
405.765	111
405.988	96
406.212	156
406.436	197
406.66	118
406.883	96
407.107	88
407.331	100
407.555	94
407.778	112
408.002	97
408.226	75
408.449	84
408.673	85
408.896	85
409.12	98
409.344	103
409.567	92
409.791	80
410.014	93
410.238	84
410.461	83
410.685	86
410.908	94
411.132	105
411.355	96
411.578	91
411.802	102
412.025	77
412.249	86
412.472	83
412.695	97
412.919	94
413.142	92
413.365	88
413.589	87
413.812	85
414.035	91
414.258	91
414.482	85
414.705	89
414.928	80
415.151	85
415.374	97
415.597	91
415.821	91
416.044	75
416.267	84
416.49	88
416.713	84
416.936	104
417.159	85
417.382	98
417.605	97
417.828	83
418.051	88
418.274	93
418.497	81
418.72	88
418.943	81
419.166	95
419.389	93
419.611	92
419.834	99
420.057	107
420.28	87
420.503	92
420.726	83
420.948	92
421.171	87
421.394	87
421.617	84
421.839	88
422.062	88
422.285	86
422.507	97
422.73	91
422.953	85
423.175	94
423.398	84
423.621	86
423.843	85
424.066	80
424.288	96
424.511	74
424.733	96
424.956	110
425.178	91
425.401	101
425.623	105
425.846	82
426.068	92
426.291	86
426.513	90
426.735	93
426.958	82
427.18	110
427.402	116
427.625	154
427.847	122
428.069	97
428.292	77
428.514	87
428.736	82
428.958	84
429.181	83
429.403	75
429.625	84
429.847	84
430.069	102
430.292	73
430.514	94
430.736	96
430.958	107
431.18	92
431.402	93
431.624	81
431.846	84
432.068	74
432.29	70
432.512	75
432.734	95
432.956	89
433.178	98
433.4	90
433.622	91
433.844	86
434.066	72
434.287	86
434.509	96
434.731	94
434.953	94
435.175	90
435.397	90
435.618	99
435.84	95
436.062	112
436.284	107
436.505	99
436.727	109
436.949	97
437.17	95
437.392	96
437.614	82
437.835	97
438.057	119
438.278	101
438.5	110
438.721	125
438.943	115
439.165	101
439.386	88
439.608	94
439.829	102
440.05	108
440.272	123
440.493	108
440.715	113
440.936	82
441.158	88
441.379	85
441.6	89
441.822	90
442.043	81
442.264	91
442.486	97
442.707	85
442.928	98
443.149	125
443.371	137
443.592	96
443.813	95
444.034	119
444.255	113
444.476	90
444.698	92
444.919	95
445.14	125
445.361	129
445.582	109
445.803	128
446.024	121
446.245	103
446.466	109
446.687	91
446.908	90
447.129	84
447.35	92
447.571	80
447.792	103
448.013	108
448.234	102
448.455	116
448.675	105
448.896	117
449.117	98
449.338	110
449.559	129
449.779	124
450	88
450.221	93
450.442	94
450.662	94
450.883	102
451.104	109
451.324	93
451.545	81
451.766	91
451.986	82
452.207	89
452.428	110
452.648	96
452.869	97
453.089	96
453.31	114
453.53	76
453.751	83
453.971	87
454.192	101
454.412	101
454.633	87
454.853	88
455.073	91
455.294	80
455.514	102
455.734	88
455.955	81
456.175	90
456.395	89
456.616	91
456.836	85
457.056	86
457.276	86
457.497	82
457.717	85
457.937	98
458.157	88
458.377	105
458.598	103
458.818	141
459.038	137
459.258	104
459.478	92
459.698	86
459.918	102
460.138	94
460.358	102
460.578	97
460.798	83
461.018	73
461.238	80
461.458	89
461.678	80
461.898	72
462.118	64
462.338	96
462.558	95
462.777	99
462.997	74
463.217	99
463.437	104
463.657	78
463.876	93
464.096	102
464.316	83
464.536	90
464.755	91
464.975	112
465.195	147
465.414	146
465.634	92
465.854	83
466.073	85
466.293	93
466.512	76
466.732	82
466.951	90
467.171	88
467.391	95
467.61	99
467.829	95
468.049	84
468.268	86
468.488	63
468.707	75
468.927	80
469.146	96
469.365	85
469.585	84
469.804	96
470.023	86
470.243	93
470.462	83
470.681	98
470.901	85
471.12	85
471.339	88
471.558	99
471.777	94
471.997	83
472.216	77
472.435	94
472.654	97
472.873	100
473.092	91
473.311	85
473.53	92
473.749	102
473.968	91
474.187	92
474.406	89
474.625	86
474.844	84
475.063	98
475.282	89
475.501	74
475.72	81
475.939	88
476.158	82
476.377	86
476.596	86
476.814	76
477.033	97
477.252	86
477.471	84
477.69	98
477.908	92
478.127	92
478.346	80
478.564	88
478.783	97
479.002	80
479.22	92
479.439	88
479.658	99
479.876	101
480.095	88
480.313	103
480.532	99
480.751	91
480.969	83
481.188	98
481.406	82
481.624	98
481.843	101
482.061	79
482.28	82
482.498	83
482.717	88
482.935	80
483.153	93
483.372	85
483.59	77
483.808	82
484.027	98
484.245	98
484.463	101
484.681	101
484.9	101
485.118	96
485.336	102
485.554	96
485.772	111
485.99	100
486.209	108
486.427	99
486.645	109
486.863	111
487.081	99
487.299	100
487.517	93
487.735	87
487.953	94
488.171	97
488.389	107
488.607	95
488.825	92
489.043	97
489.261	84
489.479	80
489.696	85
489.914	85
490.132	79
490.35	106
490.568	86
490.786	94
491.003	83
491.221	88
491.439	88
491.657	100
491.874	90
492.092	95
492.31	93
492.527	89
492.745	79
492.963	86
493.18	90
493.398	90
493.615	100
493.833	99
494.05	91
494.268	99
494.485	74
494.703	97
494.92	96
495.138	84
495.355	96
495.573	95
495.79	94
496.008	87
496.225	86
496.442	102
496.66	104
496.877	87
497.094	104
497.312	86
497.529	93
497.746	92
497.963	99
498.181	93
498.398	100
498.615	113
498.832	112
499.049	98
499.267	74
499.484	86
499.701	87
499.918	92
500.135	90
500.352	96
500.569	93
500.786	89
501.003	101
501.22	72
501.437	72
501.654	91
501.871	96
502.088	91
502.305	89
502.522	90
502.739	96
502.956	96
503.172	93
503.389	84
503.606	96
503.823	92
504.04	97
504.256	98
504.473	96
504.69	85
504.907	104
505.123	99
505.34	81
505.557	92
505.773	100
505.99	104
506.207	98
506.423	98
506.64	96
506.856	84
507.073	87
507.289	106
507.506	109
507.722	120
507.939	112
508.155	91
508.372	94
508.588	81
508.805	97
509.021	105
509.238	101
509.454	104
509.67	96
509.887	107
510.103	136
510.319	201
510.536	700
510.752	2115
510.968	607
511.184	161
511.401	115
511.617	99
511.833	96
512.049	91
512.265	97
512.481	79
512.698	97
512.914	101
513.13	97
513.346	87
513.562	106
513.778	88
513.994	82
514.21	97
514.426	123
514.642	122
514.858	123
515.074	136
515.29	394
515.506	1260
515.721	448
515.937	143
516.153	107
516.369	101
516.585	96
516.801	92
517.016	91
517.232	98
517.448	98
517.664	83
517.879	86
518.095	95
518.311	83
518.527	88
518.742	91
518.958	101
519.173	93
519.389	97
519.605	98
519.82	99
520.036	102
520.251	112
520.467	109
520.682	109
520.898	121
521.113	111
521.329	130
521.544	193
521.76	493
521.975	2058
522.19	1260
522.406	266
522.621	118
522.836	99
523.052	89
523.267	93
523.482	97
523.698	98
523.913	129
524.128	96
524.343	92
524.559	103
524.774	92
524.989	111
525.204	112
525.419	105
525.634	82
525.849	85
526.064	96
526.28	85
526.495	90
526.71	109
526.925	84
527.14	85
527.355	97
527.57	76
527.785	83
527.999	81
528.214	92
528.429	94
528.644	90
528.859	85
529.074	90
529.289	115
529.503	152
529.718	105
529.933	83
530.148	91
530.363	87
530.577	92
530.792	85
531.007	90
531.221	90
531.436	102
531.651	104
531.865	97
532.08	85
532.295	92
532.509	98
532.724	89
532.938	81
533.153	89
533.367	85
533.582	99
533.796	94
534.011	79
534.225	98
534.44	95
534.654	103
534.868	94
535.083	96
535.297	96
535.511	101
535.726	103
535.94	102
536.154	90
536.369	84
536.583	103
536.797	91
537.011	106
537.225	88
537.44	79
537.654	96
537.868	104
538.082	102
538.296	72
538.51	90
538.724	86
538.938	96
539.153	84
539.367	102
539.581	79
539.795	90
540.009	92
540.222	85
540.436	98
540.65	98
540.864	73
541.078	89
541.292	91
541.506	84
541.72	87
541.934	90
542.147	98
542.361	87
542.575	69
542.789	82
543.002	88
543.216	97
543.43	98
543.644	95
543.857	81
544.071	103
544.285	75
544.498	98
544.712	100
544.925	99
545.139	80
545.352	92
545.566	87
545.779	84
545.993	94
546.206	81
546.42	84
546.633	91
546.847	89
547.06	90
547.274	81
547.487	96
547.7	77
547.914	78
548.127	89
548.34	96
548.554	89
548.767	92
548.98	88
549.193	89
549.407	97
549.62	91
549.833	75
550.046	92
550.259	84
550.473	83
550.686	92
550.899	85
551.112	80
551.325	94
551.538	81
551.751	93
551.964	77
552.177	84
552.39	96
552.603	82
552.816	92
553.029	93
553.242	74
553.455	80
553.667	99
553.88	102
554.093	84
554.306	102
554.519	88
554.732	106
554.944	88
555.157	88
555.37	99
555.583	101
555.795	93
556.008	99
556.221	93
556.433	88
556.646	86
556.859	92
557.071	91
557.284	96
557.496	91
557.709	99
557.921	94
558.134	86
558.346	82
558.559	96
558.771	88
558.984	103
559.196	96
559.409	78
559.621	81
559.833	93
560.046	87
560.258	88
560.47	104
560.683	83
560.895	94
561.107	95
561.32	83
561.532	93
561.744	93
561.956	96
562.168	92
562.381	83
562.593	94
562.805	84
563.017	90
563.229	104
563.441	97
563.653	94
563.865	92
564.077	96
564.289	97
564.501	91
564.713	93
564.925	92
565.137	110
565.349	93
565.561	101
565.773	94
565.985	77
566.197	86
566.408	91
566.62	87
566.832	89
567.044	98
567.255	73
567.467	81
567.679	82
567.891	92
568.102	81
568.314	96
568.526	76
568.737	89
568.949	91
569.161	81
569.372	88
569.584	81
569.795	101
570.007	112
570.218	224
570.43	129
570.641	84
570.853	98
571.064	69
571.276	70
571.487	92
571.698	94
571.91	86
572.121	94
572.333	86
572.544	80
572.755	84
572.966	80
573.178	86
573.389	97
573.6	87
573.811	88
574.023	88
574.234	83
574.445	82
574.656	83
574.867	80
575.078	94
575.289	86
575.501	97
575.712	82
575.923	84
576.134	84
576.345	83
576.556	86
576.767	101
576.978	89
577.188	91
577.399	94
577.61	92
577.821	115
578.032	102
578.243	248
578.454	698
578.665	203
578.875	98
579.086	98
579.297	102
579.508	100
579.718	95
579.929	96
580.14	84
580.35	106
580.561	88
580.772	85
580.982	78
581.193	91
581.403	94
581.614	103
581.825	84
582.035	77
582.246	90
582.456	88
582.667	76
582.877	83
583.087	93
583.298	82
583.508	103
583.719	84
583.929	80
584.139	85
584.35	94
584.56	89
