Data from Uncirc_1994_H10_HRD10591_00029.txt Node
Date: Wed Jan 03 11:39:26 EST 2024
User: Yrep
Spectrometer: HR+D1059
Trigger mode: 1
Integration Time (sec): 1.000000E-1
Scans to average: 1
Electric dark correction enabled: true
Nonlinearity correction enabled: false
Boxcar width: 0
XAxis mode: Wavelengths
Number of Pixels in Spectrum: 2048
>>>>>Begin Spectral Data<<<<<
223.165	-23.06
223.4	-23.06
223.635	-23.06
223.869	-21.06
224.104	-25.06
224.338	-5.06
224.573	-6.06
224.808	-20.06
225.042	-16.06
225.277	3.94
225.511	-10.06
225.746	-1.06
225.98	12.94
226.215	7.94
226.449	20.94
226.683	12.94
226.918	30.94
227.152	37.94
227.387	39.94
227.621	36.94
227.856	47.94
228.09	44.94
228.324	42.94
228.559	59.94
228.793	62.94
229.027	55.94
229.262	68.94
229.496	70.94
229.73	84.94
229.964	76.94
230.199	69.94
230.433	65.94
230.667	72.94
230.901	89.94
231.136	88.94
231.37	59.94
231.604	85.94
231.838	77.94
232.072	96.94
232.306	78.94
232.541	69.94
232.775	85.94
233.009	92.94
233.243	76.94
233.477	69.94
233.711	77.94
233.945	84.94
234.179	82.94
234.413	91.94
234.647	90.94
234.881	83.94
235.115	78.94
235.349	64.94
235.583	76.94
235.817	68.94
236.051	82.94
236.285	74.94
236.519	76.94
236.753	87.94
236.987	78.94
237.221	72.94
237.455	70.94
237.689	74.94
237.922	67.94
238.156	69.94
238.39	60.94
238.624	83.94
238.858	87.94
239.091	84.94
239.325	81.94
239.559	75.94
239.793	74.94
240.027	94.94
240.26	83.94
240.494	84.94
240.728	75.94
240.961	70.94
241.195	85.94
241.429	88.94
241.662	80.94
241.896	89.94
242.13	80.94
242.363	70.94
242.597	74.94
242.83	86.94
243.064	82.94
243.298	75.94
243.531	79.94
243.765	88.94
243.998	68.94
244.232	88.94
244.465	80.94
244.699	93.94
244.932	88.94
245.166	87.94
245.399	74.94
245.633	85.94
245.866	76.94
246.099	74.94
246.333	83.94
246.566	74.94
246.8	86.94
247.033	81.94
247.266	84.94
247.5	81.94
247.733	73.94
247.966	88.94
248.2	80.94
248.433	90.94
248.666	87.94
248.899	65.94
249.133	81.94
249.366	86.94
249.599	89.94
249.832	89.94
250.066	86.94
250.299	69.94
250.532	75.94
250.765	76.94
250.998	89.94
251.231	84.94
251.465	86.94
251.698	89.94
251.931	75.94
252.164	75.94
252.397	87.94
252.63	69.94
252.863	86.94
253.096	91.94
253.329	84.94
253.562	88.94
253.795	89.94
254.028	78.94
254.261	78.94
254.494	84.94
254.727	86.94
254.96	83.94
255.193	80.94
255.426	85.94
255.659	77.94
255.892	77.94
256.124	80.94
256.357	76.94
256.59	83.94
256.823	91.94
257.056	78.94
257.289	77.94
257.521	93.94
257.754	82.94
257.987	86.94
258.22	68.94
258.452	80.94
258.685	85.94
258.918	76.94
259.151	82.94
259.383	84.94
259.616	81.94
259.849	99.94
260.081	89.94
260.314	88.94
260.547	88.94
260.779	78.94
261.012	86.94
261.244	92.94
261.477	93.94
261.71	78.94
261.942	112.94
262.175	104.94
262.407	76.94
262.64	86.94
262.872	70.94
263.105	82.94
263.337	87.94
263.57	77.94
263.802	86.94
264.035	96.94
264.267	84.94
264.499	78.94
264.732	86.94
264.964	89.94
265.197	80.94
265.429	95.94
265.661	88.94
265.894	90.94
266.126	84.94
266.358	81.94
266.591	77.94
266.823	82.94
267.055	74.94
267.287	81.94
267.52	88.94
267.752	87.94
267.984	77.94
268.216	90.94
268.448	91.94
268.681	84.94
268.913	69.94
269.145	81.94
269.377	78.94
269.609	87.94
269.841	89.94
270.073	85.94
270.306	92.94
270.538	75.94
270.77	81.94
271.002	89.94
271.234	94.94
271.466	93.94
271.698	84.94
271.93	82.94
272.162	77.94
272.394	85.94
272.626	79.94
272.858	77.94
273.09	76.94
273.322	89.94
273.553	84.94
273.785	78.94
274.017	94.94
274.249	84.94
274.481	92.94
274.713	95.94
274.945	97.94
275.176	100.94
275.408	108.94
275.64	94.94
275.872	92.94
276.104	84.94
276.335	93.94
276.567	79.94
276.799	97.94
277.031	98.94
277.262	94.94
277.494	80.94
277.726	102.94
277.957	89.94
278.189	81.94
278.421	79.94
278.652	96.94
278.884	76.94
279.115	91.94
279.347	80.94
279.579	93.94
279.81	102.94
280.042	84.94
280.273	83.94
280.505	84.94
280.736	85.94
280.968	90.94
281.199	84.94
281.431	83.94
281.662	102.94
281.894	92.94
282.125	99.94
282.356	108.94
282.588	128.94
282.819	112.94
283.051	80.94
283.282	83.94
283.513	88.94
283.745	93.94
283.976	82.94
284.207	81.94
284.439	83.94
284.67	89.94
284.901	85.94
285.132	86.94
285.364	86.94
285.595	82.94
285.826	99.94
286.057	97.94
286.288	76.94
286.52	93.94
286.751	78.94
286.982	78.94
287.213	96.94
287.444	88.94
287.675	92.94
287.906	88.94
288.138	97.94
288.369	99.94
288.6	83.94
288.831	82.94
289.062	78.94
289.293	95.94
289.524	88.94
289.755	88.94
289.986	98.94
290.217	84.94
290.448	77.94
290.679	86.94
290.91	79.94
291.141	84.94
291.371	88.94
291.602	83.94
291.833	84.94
292.064	103.94
292.295	89.94
292.526	80.94
292.757	83.94
292.987	88.94
293.218	101.94
293.449	91.94
293.68	97.94
293.91	86.94
294.141	90.94
294.372	91.94
294.603	90.94
294.833	65.94
295.064	92.94
295.295	93.94
295.525	93.94
295.756	100.94
295.987	121.94
296.217	141.94
296.448	121.94
296.679	100.94
296.909	88.94
297.14	82.94
297.37	92.94
297.601	98.94
297.831	88.94
298.062	100.94
298.292	82.94
298.523	80.94
298.753	94.94
298.984	80.94
299.214	86.94
299.445	83.94
299.675	95.94
299.905	88.94
300.136	94.94
300.366	101.94
300.597	89.94
300.827	97.94
301.057	89.94
301.288	97.94
301.518	87.94
301.748	101.94
301.979	97.94
302.209	104.94
302.439	93.94
302.669	82.94
302.9	84.94
303.13	93.94
303.36	91.94
303.59	99.94
303.82	112.94
304.051	86.94
304.281	97.94
304.511	88.94
304.741	95.94
304.971	89.94
305.201	89.94
305.431	82.94
305.661	92.94
305.891	102.94
306.121	81.94
306.352	102.94
306.582	98.94
306.812	105.94
307.042	85.94
307.272	85.94
307.502	90.94
307.731	107.94
307.961	98.94
308.191	79.94
308.421	91.94
308.651	89.94
308.881	92.94
309.111	91.94
309.341	98.94
309.571	111.94
309.8	97.94
310.03	109.94
310.26	92.94
310.49	103.94
310.72	102.94
310.949	92.94
311.179	106.94
311.409	83.94
311.639	96.94
311.868	98.94
312.098	110.94
312.328	101.94
312.557	111.94
312.787	90.94
313.017	82.94
313.246	92.94
313.476	99.94
313.706	77.94
313.935	88.94
314.165	116.94
314.394	99.94
314.624	100.94
314.853	90.94
315.083	108.94
315.312	98.94
315.542	104.94
315.771	90.94
316.001	95.94
316.23	87.94
316.46	101.94
316.689	91.94
316.919	93.94
317.148	89.94
317.377	85.94
317.607	92.94
317.836	88.94
318.065	92.94
318.295	109.94
318.524	78.94
318.753	82.94
318.983	79.94
319.212	95.94
319.441	116.94
319.67	102.94
319.9	92.94
320.129	109.94
320.358	100.94
320.587	108.94
320.816	110.94
321.046	111.94
321.275	93.94
321.504	87.94
321.733	94.94
321.962	107.94
322.191	111.94
322.42	100.94
322.649	104.94
322.878	104.94
323.108	118.94
323.337	90.94
323.566	125.94
323.795	152.94
324.024	204.94
324.253	375.94
324.482	758.94
324.71	1526.94
324.939	1978.94
325.168	750.94
325.397	231.94
325.626	139.94
325.855	128.94
326.084	136.94
326.313	121.94
326.542	147.94
326.77	222.94
326.999	402.94
327.228	842.94
327.457	1550.94
327.686	1220.94
327.914	342.94
328.143	177.94
328.372	141.94
328.6	129.94
328.829	104.94
329.058	121.94
329.287	129.94
329.515	114.94
329.744	109.94
329.972	106.94
330.201	107.94
330.43	107.94
330.658	121.94
330.887	121.94
331.115	104.94
331.344	102.94
331.572	96.94
331.801	93.94
332.03	105.94
332.258	105.94
332.486	87.94
332.715	96.94
332.943	92.94
333.172	83.94
333.4	105.94
333.629	113.94
333.857	121.94
334.085	106.94
334.314	100.94
334.542	100.94
334.771	96.94
334.999	89.94
335.227	91.94
335.455	99.94
335.684	99.94
335.912	91.94
336.14	92.94
336.369	101.94
336.597	99.94
336.825	97.94
337.053	99.94
337.281	101.94
337.51	96.94
337.738	105.94
337.966	97.94
338.194	99.94
338.422	111.94
338.65	88.94
338.878	85.94
339.106	99.94
339.334	95.94
339.562	90.94
339.79	97.94
340.018	83.94
340.246	104.94
340.474	99.94
340.702	106.94
340.93	82.94
341.158	93.94
341.386	91.94
341.614	97.94
341.842	92.94
342.07	92.94
342.298	91.94
342.526	91.94
342.754	88.94
342.981	86.94
343.209	94.94
343.437	99.94
343.665	81.94
343.893	96.94
344.12	95.94
344.348	105.94
344.576	97.94
344.804	99.94
345.031	82.94
345.259	96.94
345.487	95.94
345.714	89.94
345.942	108.94
346.17	105.94
346.397	86.94
346.625	93.94
346.853	81.94
347.08	80.94
347.308	92.94
347.535	94.94
347.763	102.94
347.99	108.94
348.218	103.94
348.445	100.94
348.673	99.94
348.9	90.94
349.128	93.94
349.355	91.94
349.583	90.94
349.81	86.94
350.037	95.94
350.265	91.94
350.492	97.94
350.72	82.94
350.947	96.94
351.174	97.94
351.402	111.94
351.629	107.94
351.856	106.94
352.083	96.94
352.311	108.94
352.538	102.94
352.765	98.94
352.992	105.94
353.22	113.94
353.447	99.94
353.674	104.94
353.901	88.94
354.128	101.94
354.355	103.94
354.583	101.94
354.81	102.94
355.037	104.94
355.264	95.94
355.491	98.94
355.718	100.94
355.945	99.94
356.172	108.94
356.399	111.94
356.626	106.94
356.853	95.94
357.08	101.94
357.307	96.94
357.534	107.94
357.761	99.94
357.988	100.94
358.215	92.94
358.441	89.94
358.668	90.94
358.895	89.94
359.122	94.94
359.349	77.94
359.576	82.94
359.802	86.94
360.029	107.94
360.256	100.94
360.483	97.94
360.709	93.94
360.936	92.94
361.163	104.94
361.39	92.94
361.616	102.94
361.843	97.94
362.07	105.94
362.296	101.94
362.523	83.94
362.749	80.94
362.976	82.94
363.203	96.94
363.429	91.94
363.656	100.94
363.882	73.94
364.109	90.94
364.335	95.94
364.562	100.94
364.788	101.94
365.015	86.94
365.241	80.94
365.468	101.94
365.694	109.94
365.92	86.94
366.147	89.94
366.373	90.94
366.599	82.94
366.826	97.94
367.052	83.94
367.278	101.94
367.505	104.94
367.731	93.94
367.957	76.94
368.184	97.94
368.41	95.94
368.636	107.94
368.862	117.94
369.089	104.94
369.315	95.94
369.541	88.94
369.767	85.94
369.993	88.94
370.219	91.94
370.445	105.94
370.672	93.94
370.898	91.94
371.124	95.94
371.35	92.94
371.576	86.94
371.802	94.94
372.028	76.94
372.254	93.94
372.48	69.94
372.706	86.94
372.932	93.94
373.158	85.94
373.384	100.94
373.61	100.94
373.835	91.94
374.061	80.94
374.287	86.94
374.513	88.94
374.739	91.94
374.965	92.94
375.191	95.94
375.416	87.94
375.642	80.94
375.868	88.94
376.094	79.94
376.319	103.94
376.545	85.94
376.771	79.94
376.997	99.94
377.222	90.94
377.448	91.94
377.674	78.94
377.899	96.94
378.125	99.94
378.35	104.94
378.576	95.94
378.802	87.94
379.027	106.94
379.253	83.94
379.478	88.94
379.704	109.94
379.929	99.94
380.155	79.94
380.38	82.94
380.606	90.94
380.831	81.94
381.057	91.94
381.282	101.94
381.507	93.94
381.733	100.94
381.958	94.94
382.184	103.94
382.409	100.94
382.634	109.94
382.86	101.94
383.085	105.94
383.31	105.94
383.535	96.94
383.761	90.94
383.986	117.94
384.211	94.94
384.436	83.94
384.662	94.94
384.887	98.94
385.112	101.94
385.337	93.94
385.562	92.94
385.787	96.94
386.013	122.94
386.238	95.94
386.463	96.94
386.688	101.94
386.913	101.94
387.138	99.94
387.363	108.94
387.588	101.94
387.813	107.94
388.038	95.94
388.263	116.94
388.488	99.94
388.713	104.94
388.938	94.94
389.163	104.94
389.387	91.94
389.612	96.94
389.837	112.94
390.062	96.94
390.287	88.94
390.512	93.94
390.736	105.94
390.961	92.94
391.186	101.94
391.411	92.94
391.636	95.94
391.86	92.94
392.085	92.94
392.31	82.94
392.534	87.94
392.759	74.94
392.984	88.94
393.208	88.94
393.433	108.94
393.658	100.94
393.882	83.94
394.107	78.94
394.331	89.94
394.556	80.94
394.78	97.94
395.005	85.94
395.229	78.94
395.454	79.94
395.678	89.94
395.903	99.94
396.127	88.94
396.352	91.94
396.576	89.94
396.801	99.94
397.025	101.94
397.249	83.94
397.474	86.94
397.698	99.94
397.922	99.94
398.147	93.94
398.371	86.94
398.595	88.94
398.82	88.94
399.044	97.94
399.268	98.94
399.492	90.94
399.717	85.94
399.941	97.94
400.165	101.94
400.389	94.94
400.613	82.94
400.837	90.94
401.062	83.94
401.286	88.94
401.51	97.94
401.734	87.94
401.958	95.94
402.182	113.94
402.406	153.94
402.63	96.94
402.854	96.94
403.078	89.94
403.302	94.94
403.526	90.94
403.75	92.94
403.974	88.94
404.198	97.94
404.422	96.94
404.645	100.94
404.869	84.94
405.093	96.94
405.317	101.94
405.541	95.94
405.765	98.94
405.988	128.94
406.212	160.94
406.436	185.94
406.66	148.94
406.883	106.94
407.107	91.94
407.331	110.94
407.555	101.94
407.778	105.94
408.002	84.94
408.226	77.94
408.449	89.94
408.673	98.94
408.896	84.94
409.12	88.94
409.344	108.94
409.567	87.94
409.791	96.94
410.014	100.94
410.238	98.94
410.461	88.94
410.685	100.94
410.908	99.94
411.132	102.94
411.355	97.94
411.578	93.94
411.802	80.94
412.025	93.94
412.249	97.94
412.472	107.94
412.695	93.94
412.919	85.94
413.142	102.94
413.365	87.94
413.589	84.94
413.812	83.94
414.035	82.94
414.258	82.94
414.482	92.94
414.705	99.94
414.928	87.94
415.151	102.94
415.374	81.94
415.597	88.94
415.821	88.94
416.044	88.94
416.267	90.94
416.49	95.94
416.713	87.94
416.936	100.94
417.159	91.94
417.382	90.94
417.605	85.94
417.828	109.94
418.051	79.94
418.274	78.94
418.497	89.94
418.72	85.94
418.943	90.94
419.166	82.94
419.389	86.94
419.611	84.94
419.834	85.94
420.057	90.94
420.28	74.94
420.503	73.94
420.726	87.94
420.948	85.94
421.171	90.94
421.394	89.94
421.617	90.94
421.839	88.94
422.062	89.94
422.285	91.94
422.507	103.94
422.73	109.94
422.953	112.94
423.175	100.94
423.398	94.94
423.621	97.94
423.843	102.94
424.066	83.94
424.288	87.94
424.511	77.94
424.733	99.94
424.956	107.94
425.178	103.94
425.401	113.94
425.623	106.94
425.846	82.94
426.068	103.94
426.291	77.94
426.513	83.94
426.735	83.94
426.958	81.94
427.18	98.94
427.402	140.94
427.625	146.94
427.847	109.94
428.069	89.94
428.292	90.94
428.514	76.94
428.736	77.94
428.958	89.94
429.181	88.94
429.403	98.94
429.625	99.94
429.847	86.94
430.069	98.94
430.292	108.94
430.514	79.94
430.736	82.94
430.958	91.94
431.18	74.94
431.402	72.94
431.624	73.94
431.846	76.94
432.068	86.94
432.29	88.94
432.512	93.94
432.734	78.94
432.956	98.94
433.178	97.94
433.4	93.94
433.622	101.94
433.844	86.94
434.066	92.94
434.287	103.94
434.509	79.94
434.731	88.94
434.953	91.94
435.175	96.94
435.397	95.94
435.618	96.94
435.84	86.94
436.062	115.94
436.284	112.94
436.505	95.94
436.727	84.94
436.949	80.94
437.17	88.94
437.392	84.94
437.614	82.94
437.835	107.94
438.057	102.94
438.278	105.94
438.5	110.94
438.721	109.94
438.943	100.94
439.165	86.94
439.386	86.94
439.608	109.94
439.829	94.94
440.05	120.94
440.272	137.94
440.493	107.94
440.715	80.94
440.936	89.94
441.158	93.94
441.379	89.94
441.6	82.94
441.822	78.94
442.043	100.94
442.264	86.94
442.486	100.94
442.707	83.94
442.928	98.94
443.149	124.94
443.371	133.94
443.592	107.94
443.813	110.94
444.034	102.94
444.255	84.94
444.476	99.94
444.698	86.94
444.919	92.94
445.14	120.94
445.361	123.94
445.582	119.94
445.803	130.94
446.024	125.94
446.245	130.94
446.466	115.94
446.687	97.94
446.908	82.94
447.129	89.94
447.35	93.94
447.571	92.94
447.792	92.94
448.013	92.94
448.234	108.94
448.455	108.94
448.675	106.94
448.896	106.94
449.117	110.94
449.338	105.94
449.559	129.94
449.779	152.94
450	99.94
450.221	99.94
450.442	95.94
450.662	103.94
450.883	120.94
451.104	108.94
451.324	96.94
451.545	90.94
451.766	100.94
451.986	90.94
452.207	80.94
452.428	85.94
452.648	91.94
452.869	91.94
453.089	100.94
453.31	105.94
453.53	95.94
453.751	89.94
453.971	91.94
454.192	94.94
454.412	95.94
454.633	90.94
454.853	89.94
455.073	92.94
455.294	79.94
455.514	104.94
455.734	93.94
455.955	91.94
456.175	79.94
456.395	80.94
456.616	83.94
456.836	88.94
457.056	88.94
457.276	88.94
457.497	86.94
457.717	95.94
457.937	93.94
458.157	100.94
458.377	97.94
458.598	107.94
458.818	135.94
459.038	144.94
459.258	116.94
459.478	101.94
459.698	85.94
459.918	77.94
460.138	90.94
460.358	74.94
460.578	75.94
460.798	96.94
461.018	86.94
461.238	76.94
461.458	87.94
461.678	86.94
461.898	85.94
462.118	93.94
462.338	93.94
462.558	83.94
462.777	92.94
462.997	76.94
463.217	76.94
463.437	78.94
463.657	83.94
463.876	80.94
464.096	86.94
464.316	92.94
464.536	102.94
464.755	90.94
464.975	111.94
465.195	171.94
465.414	152.94
465.634	99.94
465.854	88.94
466.073	97.94
466.293	79.94
466.512	82.94
466.732	76.94
466.951	98.94
467.171	100.94
467.391	84.94
467.61	97.94
467.829	97.94
468.049	94.94
468.268	87.94
468.488	99.94
468.707	82.94
468.927	83.94
469.146	86.94
469.365	81.94
469.585	81.94
469.804	93.94
470.023	93.94
470.243	88.94
470.462	104.94
470.681	98.94
470.901	88.94
471.12	94.94
471.339	86.94
471.558	66.94
471.777	81.94
471.997	83.94
472.216	87.94
472.435	85.94
472.654	78.94
472.873	80.94
473.092	86.94
473.311	87.94
473.53	65.94
473.749	89.94
473.968	86.94
474.187	99.94
474.406	94.94
474.625	81.94
474.844	86.94
475.063	81.94
475.282	85.94
475.501	86.94
475.72	88.94
475.939	87.94
476.158	85.94
476.377	84.94
476.596	89.94
476.814	93.94
477.033	97.94
477.252	86.94
477.471	88.94
477.69	97.94
477.908	95.94
478.127	94.94
478.346	92.94
478.564	105.94
478.783	93.94
479.002	88.94
479.22	97.94
479.439	89.94
479.658	95.94
479.876	89.94
480.095	84.94
480.313	85.94
480.532	83.94
480.751	98.94
480.969	92.94
481.188	95.94
481.406	105.94
481.624	93.94
481.843	107.94
482.061	76.94
482.28	93.94
482.498	90.94
482.717	88.94
482.935	73.94
483.153	91.94
483.372	90.94
483.59	88.94
483.808	83.94
484.027	91.94
484.245	86.94
484.463	94.94
484.681	96.94
484.9	84.94
485.118	86.94
485.336	102.94
485.554	100.94
485.772	109.94
485.99	100.94
486.209	102.94
486.427	83.94
486.645	106.94
486.863	105.94
487.081	91.94
487.299	96.94
487.517	88.94
487.735	85.94
487.953	90.94
488.171	89.94
488.389	105.94
488.607	108.94
488.825	111.94
489.043	91.94
489.261	91.94
489.479	83.94
489.696	87.94
489.914	86.94
490.132	95.94
490.35	80.94
490.568	90.94
490.786	97.94
491.003	88.94
491.221	94.94
491.439	92.94
491.657	96.94
491.874	88.94
492.092	83.94
492.31	92.94
492.527	93.94
492.745	92.94
492.963	84.94
493.18	88.94
493.398	90.94
493.615	101.94
493.833	90.94
494.05	96.94
494.268	76.94
494.485	86.94
494.703	88.94
494.92	94.94
495.138	89.94
495.355	95.94
495.573	93.94
495.79	85.94
496.008	84.94
496.225	102.94
496.442	81.94
496.66	92.94
496.877	85.94
497.094	102.94
497.312	96.94
497.529	83.94
497.746	96.94
497.963	102.94
498.181	101.94
498.398	113.94
498.615	113.94
498.832	98.94
499.049	85.94
499.267	97.94
499.484	84.94
499.701	85.94
499.918	88.94
500.135	92.94
500.352	89.94
500.569	85.94
500.786	92.94
501.003	98.94
501.22	84.94
501.437	107.94
501.654	93.94
501.871	106.94
502.088	88.94
502.305	92.94
502.522	80.94
502.739	97.94
502.956	85.94
503.172	101.94
503.389	97.94
503.606	106.94
503.823	84.94
504.04	88.94
504.256	91.94
504.473	89.94
504.69	90.94
504.907	85.94
505.123	95.94
505.34	92.94
505.557	99.94
505.773	94.94
505.99	92.94
506.207	84.94
506.423	89.94
506.64	95.94
506.856	85.94
507.073	102.94
507.289	98.94
507.506	89.94
507.722	103.94
507.939	97.94
508.155	104.94
508.372	92.94
508.588	91.94
508.805	103.94
509.021	92.94
509.238	100.94
509.454	90.94
509.67	116.94
509.887	112.94
510.103	118.94
510.319	196.94
510.536	766.94
510.752	2317.94
510.968	647.94
511.184	153.94
511.401	111.94
511.617	93.94
511.833	91.94
512.049	82.94
512.265	80.94
512.481	86.94
512.698	98.94
512.914	85.94
513.13	98.94
513.346	101.94
513.562	83.94
513.778	96.94
513.994	99.94
514.21	104.94
514.426	124.94
514.642	126.94
514.858	125.94
515.074	170.94
515.29	435.94
515.506	1387.94
