Data from Uncirc_1994_H10_HRD10591_00084.txt Node
Date: Wed Jan 03 11:39:37 EST 2024
User: Yrep
Spectrometer: HR+D1059
Trigger mode: 1
Integration Time (sec): 1.000000E-1
Scans to average: 1
Electric dark correction enabled: true
Nonlinearity correction enabled: false
Boxcar width: 0
XAxis mode: Wavelengths
Number of Pixels in Spectrum: 2048
>>>>>Begin Spectral Data<<<<<
223.165	-17.44
223.4	-17.44
223.635	-17.44
223.869	-6.44
224.104	-15.44
224.338	-18.44
224.573	-23.44
224.808	-19.44
225.042	-16.44
225.277	3.56
225.511	9.56
225.746	8.56
225.98	2.56
226.215	8.56
226.449	5.56
226.683	30.56
226.918	26.56
227.152	21.56
227.387	48.56
227.621	36.56
227.856	40.56
228.09	56.56
228.324	54.56
228.559	67.56
228.793	69.56
229.027	57.56
229.262	73.56
229.496	86.56
229.73	69.56
229.964	82.56
230.199	85.56
230.433	68.56
230.667	78.56
230.901	84.56
231.136	80.56
231.37	76.56
231.604	89.56
231.838	88.56
232.072	81.56
232.306	94.56
232.541	94.56
232.775	85.56
233.009	74.56
233.243	72.56
233.477	76.56
233.711	82.56
233.945	80.56
234.179	80.56
234.413	75.56
234.647	85.56
234.881	74.56
235.115	83.56
235.349	86.56
235.583	76.56
235.817	85.56
236.051	80.56
236.285	85.56
236.519	76.56
236.753	82.56
236.987	80.56
237.221	90.56
237.455	97.56
237.689	81.56
237.922	73.56
238.156	81.56
238.39	73.56
238.624	79.56
238.858	80.56
239.091	76.56
239.325	76.56
239.559	66.56
239.793	82.56
240.027	83.56
240.26	89.56
240.494	72.56
240.728	75.56
240.961	81.56
241.195	82.56
241.429	69.56
241.662	78.56
241.896	90.56
242.13	79.56
242.363	79.56
242.597	83.56
242.83	77.56
243.064	78.56
243.298	86.56
243.531	76.56
243.765	86.56
243.998	72.56
244.232	90.56
244.465	92.56
244.699	85.56
244.932	76.56
245.166	81.56
245.399	76.56
245.633	82.56
245.866	84.56
246.099	77.56
246.333	93.56
246.566	78.56
246.8	81.56
247.033	72.56
247.266	79.56
247.5	79.56
247.733	90.56
247.966	79.56
248.2	81.56
248.433	85.56
248.666	80.56
248.899	66.56
249.133	83.56
249.366	99.56
249.599	93.56
249.832	79.56
250.066	77.56
250.299	82.56
250.532	76.56
250.765	87.56
250.998	83.56
251.231	57.56
251.465	88.56
251.698	72.56
251.931	84.56
252.164	83.56
252.397	88.56
252.63	90.56
252.863	77.56
253.096	77.56
253.329	81.56
253.562	88.56
253.795	80.56
254.028	78.56
254.261	83.56
254.494	82.56
254.727	77.56
254.96	93.56
255.193	83.56
255.426	77.56
255.659	80.56
255.892	76.56
256.124	85.56
256.357	90.56
256.59	79.56
256.823	80.56
257.056	81.56
257.289	78.56
257.521	96.56
257.754	92.56
257.987	93.56
258.22	91.56
258.452	84.56
258.685	89.56
258.918	86.56
259.151	81.56
259.383	92.56
259.616	67.56
259.849	90.56
260.081	69.56
260.314	93.56
260.547	78.56
260.779	92.56
261.012	90.56
261.244	88.56
261.477	91.56
261.71	86.56
261.942	98.56
262.175	113.56
262.407	95.56
262.64	82.56
262.872	100.56
263.105	97.56
263.337	91.56
263.57	84.56
263.802	78.56
264.035	99.56
264.267	90.56
264.499	81.56
264.732	90.56
264.964	78.56
265.197	76.56
265.429	78.56
265.661	81.56
265.894	57.56
266.126	102.56
266.358	96.56
266.591	79.56
266.823	89.56
267.055	85.56
267.287	68.56
267.52	83.56
267.752	101.56
267.984	85.56
268.216	91.56
268.448	90.56
268.681	84.56
268.913	68.56
269.145	82.56
269.377	89.56
269.609	74.56
269.841	83.56
270.073	85.56
270.306	80.56
270.538	88.56
270.77	78.56
271.002	99.56
271.234	96.56
271.466	89.56
271.698	81.56
271.93	90.56
272.162	91.56
272.394	93.56
272.626	79.56
272.858	96.56
273.09	87.56
273.322	101.56
273.553	78.56
273.785	85.56
274.017	69.56
274.249	82.56
274.481	80.56
274.713	94.56
274.945	74.56
275.176	79.56
275.408	101.56
275.64	84.56
275.872	80.56
276.104	85.56
276.335	88.56
276.567	103.56
276.799	97.56
277.031	107.56
277.262	88.56
277.494	70.56
277.726	83.56
277.957	69.56
278.189	79.56
278.421	86.56
278.652	88.56
278.884	93.56
279.115	98.56
279.347	85.56
279.579	72.56
279.81	93.56
280.042	82.56
280.273	83.56
280.505	102.56
280.736	79.56
280.968	97.56
281.199	85.56
281.431	92.56
281.662	82.56
281.894	88.56
282.125	93.56
282.356	108.56
282.588	126.56
282.819	120.56
283.051	99.56
283.282	89.56
283.513	96.56
283.745	89.56
283.976	99.56
284.207	78.56
284.439	67.56
284.67	85.56
284.901	82.56
285.132	88.56
285.364	82.56
285.595	100.56
285.826	93.56
286.057	82.56
286.288	98.56
286.52	90.56
286.751	77.56
286.982	86.56
287.213	84.56
287.444	76.56
287.675	99.56
287.906	91.56
288.138	79.56
288.369	89.56
288.6	93.56
288.831	75.56
289.062	90.56
289.293	108.56
289.524	92.56
289.755	77.56
289.986	88.56
290.217	76.56
290.448	96.56
290.679	88.56
290.91	89.56
291.141	92.56
291.371	94.56
291.602	87.56
291.833	83.56
292.064	79.56
292.295	98.56
292.526	93.56
292.757	86.56
292.987	93.56
293.218	98.56
293.449	89.56
293.68	91.56
293.91	95.56
294.141	94.56
294.372	82.56
294.603	83.56
294.833	87.56
295.064	98.56
295.295	78.56
295.525	92.56
295.756	87.56
295.987	99.56
296.217	126.56
296.448	116.56
296.679	93.56
296.909	86.56
297.14	90.56
297.37	84.56
297.601	64.56
297.831	86.56
298.062	102.56
298.292	92.56
298.523	102.56
298.753	93.56
298.984	89.56
299.214	88.56
299.445	89.56
299.675	102.56
299.905	94.56
300.136	96.56
300.366	82.56
300.597	94.56
300.827	89.56
301.057	100.56
301.288	104.56
301.518	101.56
301.748	83.56
301.979	102.56
302.209	92.56
302.439	81.56
302.669	92.56
302.9	92.56
303.13	86.56
303.36	91.56
303.59	96.56
303.82	112.56
304.051	86.56
304.281	97.56
304.511	93.56
304.741	88.56
304.971	74.56
305.201	91.56
305.431	96.56
305.661	90.56
305.891	109.56
306.121	100.56
306.352	99.56
306.582	117.56
306.812	96.56
307.042	97.56
307.272	96.56
307.502	99.56
307.731	94.56
307.961	97.56
308.191	90.56
308.421	86.56
308.651	93.56
308.881	96.56
309.111	94.56
309.341	100.56
309.571	94.56
309.8	93.56
310.03	102.56
310.26	96.56
310.49	95.56
310.72	103.56
310.949	99.56
311.179	106.56
311.409	99.56
311.639	98.56
311.868	108.56
312.098	77.56
312.328	92.56
312.557	106.56
312.787	103.56
313.017	94.56
313.246	86.56
313.476	80.56
313.706	88.56
313.935	89.56
314.165	94.56
314.394	90.56
314.624	91.56
314.853	86.56
315.083	95.56
315.312	104.56
315.542	91.56
315.771	92.56
316.001	97.56
316.23	104.56
316.46	93.56
316.689	97.56
316.919	85.56
317.148	93.56
317.377	97.56
317.607	90.56
317.836	92.56
318.065	84.56
318.295	100.56
318.524	97.56
318.753	97.56
318.983	94.56
319.212	100.56
319.441	106.56
319.67	91.56
319.9	77.56
320.129	88.56
320.358	102.56
320.587	102.56
320.816	94.56
321.046	108.56
321.275	104.56
321.504	109.56
321.733	91.56
321.962	102.56
322.191	103.56
322.42	110.56
322.649	102.56
322.878	105.56
323.108	113.56
323.337	121.56
323.566	120.56
323.795	130.56
324.024	204.56
324.253	399.56
324.482	844.56
324.71	1669.56
324.939	2212.56
325.168	811.56
325.397	254.56
325.626	164.56
325.855	125.56
326.084	131.56
326.313	138.56
326.542	157.56
326.77	233.56
326.999	440.56
327.228	941.56
327.457	1703.56
327.686	1331.56
327.914	357.56
328.143	190.56
328.372	137.56
328.6	123.56
328.829	115.56
329.058	121.56
329.287	118.56
329.515	108.56
329.744	115.56
329.972	98.56
330.201	86.56
330.43	109.56
330.658	120.56
330.887	137.56
331.115	105.56
331.344	101.56
331.572	100.56
331.801	112.56
332.03	96.56
332.258	96.56
332.486	91.56
332.715	77.56
332.943	91.56
333.172	101.56
333.4	89.56
333.629	104.56
333.857	106.56
334.085	92.56
334.314	98.56
334.542	94.56
334.771	106.56
334.999	100.56
335.227	91.56
335.455	90.56
335.684	98.56
335.912	101.56
336.14	102.56
336.369	96.56
336.597	109.56
336.825	101.56
337.053	98.56
337.281	112.56
337.51	76.56
337.738	90.56
337.966	89.56
338.194	91.56
338.422	98.56
338.65	111.56
338.878	92.56
339.106	90.56
339.334	89.56
339.562	91.56
339.79	90.56
340.018	88.56
340.246	98.56
340.474	88.56
340.702	100.56
340.93	101.56
341.158	98.56
341.386	87.56
341.614	90.56
341.842	98.56
342.07	79.56
342.298	98.56
342.526	85.56
342.754	84.56
342.981	101.56
343.209	92.56
343.437	96.56
343.665	93.56
343.893	103.56
344.12	85.56
344.348	82.56
344.576	100.56
344.804	97.56
345.031	92.56
345.259	106.56
345.487	98.56
345.714	97.56
345.942	81.56
346.17	97.56
346.397	89.56
346.625	92.56
346.853	85.56
347.08	93.56
347.308	83.56
347.535	101.56
347.763	97.56
347.99	101.56
348.218	98.56
348.445	106.56
348.673	96.56
348.9	94.56
349.128	105.56
349.355	100.56
349.583	94.56
349.81	72.56
350.037	85.56
350.265	99.56
350.492	90.56
350.72	105.56
350.947	110.56
351.174	99.56
351.402	108.56
351.629	103.56
351.856	88.56
352.083	98.56
352.311	113.56
352.538	111.56
352.765	102.56
352.992	112.56
353.22	105.56
353.447	91.56
353.674	96.56
353.901	102.56
354.128	101.56
354.355	93.56
354.583	95.56
354.81	98.56
355.037	98.56
355.264	92.56
355.491	93.56
355.718	82.56
355.945	85.56
356.172	91.56
356.399	82.56
356.626	77.56
356.853	88.56
357.08	93.56
357.307	85.56
357.534	91.56
357.761	95.56
357.988	91.56
358.215	102.56
358.441	85.56
358.668	108.56
358.895	81.56
359.122	79.56
359.349	88.56
359.576	88.56
359.802	94.56
360.029	104.56
360.256	93.56
360.483	91.56
360.709	92.56
360.936	100.56
361.163	87.56
361.39	93.56
361.616	104.56
361.843	86.56
362.07	106.56
362.296	92.56
362.523	99.56
362.749	87.56
362.976	88.56
363.203	92.56
363.429	85.56
363.656	99.56
363.882	85.56
364.109	100.56
364.335	85.56
364.562	84.56
364.788	90.56
365.015	88.56
365.241	90.56
365.468	112.56
365.694	96.56
365.92	100.56
366.147	96.56
366.373	89.56
366.599	84.56
366.826	81.56
367.052	87.56
367.278	99.56
367.505	82.56
367.731	101.56
367.957	95.56
368.184	94.56
368.41	99.56
368.636	111.56
368.862	119.56
369.089	111.56
369.315	94.56
369.541	86.56
369.767	88.56
369.993	94.56
370.219	90.56
370.445	92.56
370.672	89.56
370.898	84.56
371.124	89.56
371.35	85.56
371.576	76.56
371.802	90.56
372.028	85.56
372.254	88.56
372.48	90.56
372.706	84.56
372.932	96.56
373.158	105.56
373.384	82.56
373.61	86.56
373.835	95.56
374.061	74.56
374.287	96.56
374.513	96.56
374.739	92.56
374.965	93.56
375.191	94.56
375.416	82.56
375.642	85.56
375.868	88.56
376.094	90.56
376.319	91.56
376.545	96.56
376.771	93.56
376.997	88.56
377.222	95.56
377.448	93.56
377.674	82.56
377.899	81.56
378.125	93.56
378.35	92.56
378.576	81.56
378.802	92.56
379.027	90.56
379.253	98.56
379.478	92.56
379.704	92.56
379.929	93.56
380.155	100.56
380.38	95.56
380.606	76.56
380.831	96.56
381.057	98.56
381.282	85.56
381.507	96.56
381.733	99.56
381.958	89.56
382.184	82.56
382.409	88.56
382.634	89.56
382.86	103.56
383.085	91.56
383.31	96.56
383.535	111.56
383.761	93.56
383.986	77.56
384.211	95.56
384.436	102.56
384.662	109.56
384.887	100.56
385.112	115.56
385.337	105.56
385.562	89.56
385.787	105.56
386.013	101.56
386.238	96.56
386.463	115.56
386.688	106.56
386.913	93.56
387.138	98.56
387.363	95.56
387.588	92.56
387.813	97.56
388.038	104.56
388.263	98.56
388.488	98.56
388.713	99.56
388.938	99.56
389.163	93.56
389.387	93.56
389.612	98.56
389.837	86.56
390.062	93.56
390.287	90.56
390.512	90.56
390.736	94.56
390.961	92.56
391.186	96.56
391.411	92.56
391.636	84.56
391.86	88.56
392.085	82.56
392.31	88.56
392.534	92.56
392.759	80.56
392.984	88.56
393.208	83.56
393.433	72.56
393.658	78.56
393.882	82.56
394.107	81.56
394.331	82.56
394.556	77.56
394.78	78.56
395.005	85.56
395.229	89.56
395.454	88.56
395.678	77.56
395.903	80.56
396.127	90.56
396.352	78.56
396.576	95.56
396.801	89.56
397.025	80.56
397.249	86.56
397.474	92.56
397.698	69.56
397.922	90.56
398.147	75.56
398.371	85.56
398.595	80.56
398.82	92.56
399.044	89.56
399.268	95.56
399.492	89.56
399.717	111.56
399.941	91.56
400.165	96.56
400.389	92.56
400.613	84.56
400.837	88.56
401.062	99.56
401.286	91.56
401.51	87.56
401.734	100.56
401.958	98.56
402.182	133.56
402.406	158.56
402.63	113.56
402.854	83.56
403.078	99.56
403.302	94.56
403.526	93.56
403.75	86.56
403.974	95.56
404.198	90.56
404.422	85.56
404.645	88.56
404.869	86.56
405.093	78.56
405.317	110.56
405.541	102.56
405.765	110.56
405.988	126.56
406.212	160.56
406.436	225.56
406.66	152.56
406.883	112.56
407.107	98.56
407.331	107.56
407.555	95.56
407.778	89.56
408.002	92.56
408.226	89.56
408.449	93.56
408.673	100.56
408.896	96.56
409.12	90.56
409.344	99.56
409.567	84.56
409.791	97.56
410.014	91.56
410.238	90.56
410.461	81.56
410.685	91.56
410.908	104.56
411.132	94.56
411.355	93.56
411.578	86.56
411.802	82.56
412.025	83.56
412.249	94.56
412.472	85.56
412.695	95.56
412.919	74.56
413.142	90.56
413.365	88.56
413.589	89.56
413.812	97.56
414.035	106.56
414.258	93.56
414.482	84.56
414.705	88.56
414.928	93.56
415.151	88.56
415.374	90.56
415.597	102.56
415.821	94.56
416.044	80.56
416.267	98.56
416.49	92.56
416.713	94.56
416.936	80.56
417.159	84.56
417.382	97.56
417.605	84.56
417.828	86.56
418.051	102.56
418.274	91.56
418.497	81.56
418.72	80.56
418.943	85.56
419.166	87.56
419.389	79.56
419.611	77.56
419.834	86.56
420.057	78.56
420.28	90.56
420.503	90.56
420.726	83.56
420.948	90.56
421.171	92.56
421.394	86.56
421.617	80.56
421.839	78.56
422.062	92.56
422.285	98.56
422.507	99.56
422.73	95.56
422.953	96.56
423.175	105.56
423.398	92.56
423.621	99.56
423.843	91.56
424.066	97.56
424.288	84.56
424.511	91.56
424.733	105.56
424.956	107.56
425.178	97.56
425.401	108.56
425.623	96.56
425.846	89.56
426.068	89.56
426.291	99.56
426.513	89.56
426.735	83.56
426.958	92.56
427.18	108.56
427.402	133.56
427.625	163.56
427.847	126.56
428.069	102.56
428.292	82.56
428.514	88.56
428.736	82.56
428.958	85.56
429.181	92.56
429.403	93.56
429.625	94.56
429.847	96.56
430.069	92.56
430.292	92.56
430.514	89.56
430.736	91.56
430.958	79.56
431.18	77.56
431.402	78.56
431.624	82.56
431.846	81.56
432.068	91.56
432.29	88.56
432.512	91.56
432.734	85.56
432.956	91.56
433.178	85.56
433.4	102.56
433.622	94.56
433.844	97.56
434.066	88.56
434.287	91.56
434.509	83.56
434.731	88.56
434.953	90.56
435.175	77.56
435.397	100.56
435.618	109.56
435.84	91.56
436.062	126.56
436.284	115.56
436.505	96.56
436.727	101.56
436.949	91.56
437.17	80.56
437.392	92.56
437.614	97.56
437.835	105.56
438.057	125.56
438.278	113.56
438.5	110.56
438.721	127.56
438.943	114.56
439.165	89.56
439.386	76.56
439.608	89.56
439.829	99.56
440.05	128.56
440.272	142.56
440.493	80.56
440.715	90.56
440.936	88.56
441.158	88.56
441.379	102.56
441.6	103.56
441.822	94.56
442.043	93.56
442.264	88.56
442.486	97.56
442.707	92.56
442.928	108.56
443.149	115.56
443.371	127.56
443.592	106.56
443.813	114.56
444.034	104.56
444.255	108.56
444.476	89.56
444.698	76.56
444.919	91.56
445.14	130.56
445.361	116.56
445.582	111.56
445.803	127.56
446.024	110.56
446.245	123.56
446.466	104.56
446.687	95.56
446.908	78.56
447.129	84.56
447.35	85.56
447.571	86.56
447.792	93.56
448.013	88.56
448.234	106.56
448.455	98.56
448.675	123.56
448.896	131.56
449.117	108.56
449.338	106.56
449.559	124.56
449.779	124.56
450	99.56
450.221	101.56
450.442	99.56
450.662	78.56
450.883	102.56
451.104	105.56
451.324	88.56
451.545	88.56
451.766	83.56
451.986	98.56
452.207	84.56
452.428	96.56
452.648	98.56
452.869	97.56
453.089	121.56
453.31	112.56
453.53	92.56
453.751	83.56
453.971	105.56
454.192	113.56
454.412	89.56
454.633	94.56
454.853	99.56
455.073	92.56
455.294	85.56
455.514	97.56
455.734	94.56
455.955	69.56
456.175	85.56
456.395	84.56
456.616	81.56
456.836	93.56
457.056	83.56
457.276	87.56
457.497	88.56
457.717	93.56
457.937	88.56
458.157	96.56
458.377	93.56
458.598	115.56
458.818	154.56
459.038	144.56
459.258	107.56
459.478	97.56
459.698	81.56
459.918	86.56
460.138	95.56
460.358	94.56
460.578	85.56
460.798	97.56
461.018	75.56
461.238	85.56
461.458	94.56
461.678	85.56
461.898	84.56
462.118	85.56
462.338	99.56
462.558	93.56
462.777	92.56
462.997	85.56
463.217	84.56
463.437	88.56
463.657	84.56
463.876	83.56
464.096	91.56
464.316	88.56
464.536	84.56
464.755	89.56
464.975	108.56
465.195	152.56
465.414	164.56
465.634	86.56
465.854	77.56
466.073	84.56
466.293	83.56
466.512	94.56
466.732	98.56
466.951	86.56
467.171	70.56
467.391	93.56
467.61	96.56
467.829	93.56
468.049	96.56
468.268	89.56
468.488	87.56
468.707	76.56
468.927	74.56
469.146	75.56
469.365	82.56
469.585	83.56
469.804	87.56
470.023	100.56
470.243	94.56
470.462	105.56
470.681	108.56
470.901	92.56
471.12	81.56
471.339	96.56
471.558	78.56
471.777	91.56
471.997	95.56
472.216	80.56
472.435	92.56
472.654	90.56
472.873	91.56
473.092	92.56
473.311	83.56
473.53	81.56
473.749	88.56
473.968	102.56
474.187	100.56
474.406	99.56
474.625	76.56
474.844	92.56
475.063	75.56
475.282	95.56
475.501	93.56
475.72	88.56
475.939	83.56
476.158	104.56
476.377	90.56
476.596	93.56
476.814	102.56
477.033	83.56
477.252	81.56
477.471	84.56
477.69	75.56
477.908	97.56
478.127	93.56
478.346	86.56
478.564	90.56
478.783	93.56
479.002	91.56
479.22	92.56
479.439	100.56
479.658	112.56
479.876	100.56
480.095	91.56
480.313	92.56
480.532	88.56
480.751	90.56
480.969	95.56
481.188	96.56
481.406	113.56
481.624	92.56
481.843	80.56
482.061	86.56
482.28	88.56
482.498	87.56
482.717	88.56
482.935	91.56
483.153	94.56
483.372	81.56
483.59	105.56
483.808	80.56
484.027	86.56
484.245	95.56
484.463	84.56
484.681	78.56
484.9	85.56
485.118	96.56
485.336	85.56
485.554	98.56
485.772	98.56
485.99	102.56
486.209	97.56
486.427	104.56
486.645	110.56
486.863	111.56
487.081	97.56
487.299	95.56
487.517	95.56
487.735	95.56
487.953	106.56
488.171	97.56
488.389	94.56
488.607	105.56
488.825	85.56
489.043	81.56
489.261	74.56
489.479	82.56
489.696	93.56
489.914	93.56
490.132	85.56
490.35	90.56
490.568	83.56
490.786	85.56
491.003	96.56
491.221	88.56
491.439	86.56
491.657	81.56
491.874	108.56
492.092	79.56
492.31	88.56
492.527	93.56
492.745	100.56
492.963	85.56
493.18	109.56
493.398	84.56
493.615	94.56
493.833	94.56
494.05	91.56
494.268	93.56
494.485	99.56
494.703	93.56
494.92	100.56
495.138	94.56
495.355	88.56
495.573	93.56
495.79	88.56
496.008	83.56
496.225	90.56
496.442	101.56
496.66	89.56
496.877	90.56
497.094	80.56
497.312	78.56
497.529	77.56
497.746	101.56
497.963	99.56
498.181	101.56
498.398	92.56
498.615	112.56
498.832	112.56
499.049	97.56
499.267	97.56
499.484	81.56
499.701	65.56
499.918	85.56
500.135	90.56
500.352	81.56
500.569	80.56
500.786	93.56
501.003	101.56
501.22	91.56
501.437	76.56
501.654	99.56
501.871	97.56
502.088	94.56
502.305	89.56
502.522	102.56
502.739	101.56
502.956	85.56
503.172	79.56
503.389	100.56
503.606	102.56
503.823	100.56
504.04	92.56
504.256	85.56
504.473	95.56
504.69	86.56
504.907	92.56
505.123	90.56
505.34	89.56
505.557	86.56
505.773	94.56
505.99	90.56
506.207	101.56
506.423	100.56
506.64	105.56
506.856	86.56
507.073	89.56
507.289	106.56
507.506	97.56
507.722	104.56
507.939	116.56
508.155	86.56
508.372	78.56
508.588	101.56
508.805	100.56
509.021	106.56
509.238	107.56
509.454	97.56
509.67	99.56
509.887	115.56
510.103	138.56
510.319	220.56
510.536	769.56
510.752	2368.56
510.968	638.56
511.184	157.56
511.401	114.56
511.617	98.56
511.833	100.56
512.049	104.56
512.265	92.56
512.481	81.56
512.698	84.56
512.914	100.56
513.13	94.56
513.346	88.56
513.562	98.56
513.778	100.56
513.994	101.56
514.21	113.56
514.426	124.56
514.642	125.56
514.858	110.56
515.074	154.56
515.29	439.56
515.506	1449.56
515.721	523.56
515.937	160.56
