Data from Uncirc_1994_H10_HRD10591_00004.txt Node
Date: Wed Jan 03 11:39:21 EST 2024
User: Yrep
Spectrometer: HR+D1059
Trigger mode: 1
Integration Time (sec): 1.000000E-1
Scans to average: 1
Electric dark correction enabled: true
Nonlinearity correction enabled: false
Boxcar width: 0
XAxis mode: Wavelengths
Number of Pixels in Spectrum: 2048
>>>>>Begin Spectral Data<<<<<
223.165	-19.06
223.4	-19.06
223.635	-19.06
223.869	-31.06
224.104	-23.06
224.338	-10.06
224.573	-23.06
224.808	-15.06
225.042	-1.06
225.277	-12.06
225.511	3.94
225.746	9.94
225.98	-1.06
226.215	19.94
226.449	27.94
226.683	15.94
226.918	31.94
227.152	25.94
227.387	33.94
227.621	18.94
227.856	38.94
228.09	41.94
228.324	35.94
228.559	37.94
228.793	51.94
229.027	59.94
229.262	55.94
229.496	62.94
229.73	69.94
229.964	73.94
230.199	74.94
230.433	85.94
230.667	80.94
230.901	75.94
231.136	56.94
231.37	85.94
231.604	76.94
231.838	83.94
232.072	73.94
232.306	73.94
232.541	92.94
232.775	65.94
233.009	84.94
233.243	78.94
233.477	94.94
233.711	80.94
233.945	75.94
234.179	70.94
234.413	80.94
234.647	69.94
234.881	89.94
235.115	63.94
235.349	75.94
235.583	68.94
235.817	76.94
236.051	81.94
236.285	67.94
236.519	62.94
236.753	80.94
236.987	67.94
237.221	73.94
237.455	72.94
237.689	72.94
237.922	69.94
238.156	65.94
238.39	76.94
238.624	72.94
238.858	72.94
239.091	69.94
239.325	76.94
239.559	75.94
239.793	88.94
240.027	73.94
240.26	92.94
240.494	79.94
240.728	73.94
240.961	73.94
241.195	72.94
241.429	68.94
241.662	64.94
241.896	73.94
242.13	83.94
242.363	85.94
242.597	69.94
242.83	78.94
243.064	75.94
243.298	79.94
243.531	73.94
243.765	70.94
243.998	68.94
244.232	64.94
244.465	96.94
244.699	87.94
244.932	75.94
245.166	73.94
245.399	76.94
245.633	78.94
245.866	72.94
246.099	67.94
246.333	67.94
246.566	72.94
246.8	65.94
247.033	64.94
247.266	76.94
247.5	76.94
247.733	77.94
247.966	68.94
248.2	79.94
248.433	75.94
248.666	80.94
248.899	79.94
249.133	73.94
249.366	85.94
249.599	102.94
249.832	67.94
250.066	83.94
250.299	84.94
250.532	71.94
250.765	84.94
250.998	87.94
251.231	63.94
251.465	72.94
251.698	77.94
251.931	91.94
252.164	79.94
252.397	78.94
252.63	61.94
252.863	61.94
253.096	68.94
253.329	76.94
253.562	70.94
253.795	68.94
254.028	83.94
254.261	79.94
254.494	81.94
254.727	66.94
254.96	60.94
255.193	69.94
255.426	82.94
255.659	74.94
255.892	77.94
256.124	75.94
256.357	79.94
256.59	84.94
256.823	77.94
257.056	65.94
257.289	74.94
257.521	69.94
257.754	71.94
257.987	77.94
258.22	77.94
258.452	87.94
258.685	83.94
258.918	94.94
259.151	84.94
259.383	83.94
259.616	72.94
259.849	74.94
260.081	74.94
260.314	71.94
260.547	84.94
260.779	69.94
261.012	75.94
261.244	71.94
261.477	77.94
261.71	88.94
261.942	82.94
262.175	89.94
262.407	71.94
262.64	69.94
262.872	73.94
263.105	82.94
263.337	84.94
263.57	87.94
263.802	77.94
264.035	74.94
264.267	72.94
264.499	78.94
264.732	79.94
264.964	83.94
265.197	80.94
265.429	71.94
265.661	83.94
265.894	78.94
266.126	66.94
266.358	71.94
266.591	79.94
266.823	75.94
267.055	76.94
267.287	75.94
267.52	74.94
267.752	85.94
267.984	73.94
268.216	80.94
268.448	91.94
268.681	83.94
268.913	80.94
269.145	67.94
269.377	75.94
269.609	85.94
269.841	77.94
270.073	77.94
270.306	78.94
270.538	78.94
270.77	89.94
271.002	83.94
271.234	92.94
271.466	73.94
271.698	75.94
271.93	69.94
272.162	75.94
272.394	81.94
272.626	95.94
272.858	72.94
273.09	72.94
273.322	80.94
273.553	76.94
273.785	88.94
274.017	86.94
274.249	84.94
274.481	84.94
274.713	77.94
274.945	77.94
275.176	80.94
275.408	84.94
275.64	86.94
275.872	85.94
276.104	71.94
276.335	76.94
276.567	96.94
276.799	92.94
277.031	83.94
277.262	89.94
277.494	76.94
277.726	89.94
277.957	83.94
278.189	87.94
278.421	83.94
278.652	99.94
278.884	77.94
279.115	79.94
279.347	87.94
279.579	85.94
279.81	85.94
280.042	80.94
280.273	81.94
280.505	67.94
280.736	77.94
280.968	73.94
281.199	81.94
281.431	87.94
281.662	80.94
281.894	93.94
282.125	94.94
282.356	117.94
282.588	127.94
282.819	107.94
283.051	83.94
283.282	84.94
283.513	67.94
283.745	79.94
283.976	85.94
284.207	83.94
284.439	78.94
284.67	77.94
284.901	75.94
285.132	72.94
285.364	65.94
285.595	86.94
285.826	87.94
286.057	84.94
286.288	75.94
286.52	92.94
286.751	93.94
286.982	81.94
287.213	89.94
287.444	94.94
287.675	87.94
287.906	82.94
288.138	75.94
288.369	95.94
288.6	85.94
288.831	91.94
289.062	79.94
289.293	82.94
289.524	87.94
289.755	75.94
289.986	83.94
290.217	81.94
290.448	82.94
290.679	93.94
290.91	92.94
291.141	72.94
291.371	87.94
291.602	87.94
291.833	69.94
292.064	86.94
292.295	96.94
292.526	86.94
292.757	89.94
292.987	72.94
293.218	80.94
293.449	84.94
293.68	81.94
293.91	75.94
294.141	88.94
294.372	85.94
294.603	90.94
294.833	94.94
295.064	76.94
295.295	76.94
295.525	89.94
295.756	96.94
295.987	105.94
296.217	132.94
296.448	107.94
296.679	89.94
296.909	91.94
297.14	75.94
297.37	84.94
297.601	83.94
297.831	86.94
298.062	91.94
298.292	91.94
298.523	87.94
298.753	83.94
298.984	81.94
299.214	92.94
299.445	74.94
299.675	90.94
299.905	92.94
300.136	82.94
300.366	69.94
300.597	75.94
300.827	76.94
301.057	87.94
301.288	101.94
301.518	84.94
301.748	88.94
301.979	87.94
302.209	100.94
302.439	92.94
302.669	87.94
302.9	84.94
303.13	71.94
303.36	88.94
303.59	84.94
303.82	105.94
304.051	86.94
304.281	98.94
304.511	70.94
304.741	90.94
304.971	96.94
305.201	85.94
305.431	85.94
305.661	69.94
305.891	85.94
306.121	81.94
306.352	92.94
306.582	89.94
306.812	76.94
307.042	78.94
307.272	81.94
307.502	85.94
307.731	89.94
307.961	86.94
308.191	77.94
308.421	74.94
308.651	86.94
308.881	80.94
309.111	74.94
309.341	96.94
309.571	97.94
309.8	96.94
310.03	93.94
310.26	103.94
310.49	94.94
310.72	92.94
310.949	100.94
311.179	106.94
311.409	74.94
311.639	87.94
311.868	95.94
312.098	90.94
312.328	92.94
312.557	95.94
312.787	84.94
313.017	96.94
313.246	82.94
313.476	84.94
313.706	87.94
313.935	87.94
314.165	99.94
314.394	82.94
314.624	88.94
314.853	97.94
315.083	91.94
315.312	88.94
315.542	88.94
315.771	85.94
316.001	69.94
316.23	93.94
316.46	97.94
316.689	86.94
316.919	84.94
317.148	86.94
317.377	86.94
317.607	103.94
317.836	85.94
318.065	99.94
318.295	79.94
318.524	87.94
318.753	92.94
318.983	88.94
319.212	99.94
319.441	90.94
319.67	89.94
319.9	89.94
320.129	96.94
320.358	95.94
320.587	90.94
320.816	80.94
321.046	88.94
321.275	88.94
321.504	83.94
321.733	85.94
321.962	96.94
322.191	98.94
322.42	87.94
322.649	103.94
322.878	103.94
323.108	105.94
323.337	106.94
323.566	114.94
323.795	133.94
324.024	173.94
324.253	359.94
324.482	715.94
324.71	1465.94
324.939	1879.94
325.168	716.94
325.397	207.94
325.626	141.94
325.855	108.94
326.084	117.94
326.313	131.94
326.542	152.94
326.77	202.94
326.999	415.94
327.228	826.94
327.457	1498.94
327.686	1138.94
327.914	335.94
328.143	167.94
328.372	133.94
328.6	113.94
328.829	111.94
329.058	106.94
329.287	127.94
329.515	92.94
329.744	94.94
329.972	94.94
330.201	107.94
330.43	103.94
330.658	106.94
330.887	115.94
331.115	93.94
331.344	79.94
331.572	78.94
331.801	92.94
332.03	91.94
332.258	97.94
332.486	93.94
332.715	92.94
332.943	76.94
333.172	88.94
333.4	92.94
333.629	98.94
333.857	100.94
334.085	102.94
334.314	104.94
334.542	91.94
334.771	79.94
334.999	90.94
335.227	82.94
335.455	97.94
335.684	99.94
335.912	103.94
336.14	97.94
336.369	83.94
336.597	103.94
336.825	83.94
337.053	85.94
337.281	88.94
337.51	80.94
337.738	90.94
337.966	80.94
338.194	99.94
338.422	85.94
338.65	91.94
338.878	96.94
339.106	101.94
339.334	83.94
339.562	94.94
339.79	84.94
340.018	89.94
340.246	94.94
340.474	88.94
340.702	94.94
340.93	100.94
341.158	106.94
341.386	90.94
341.614	96.94
341.842	89.94
342.07	80.94
342.298	84.94
342.526	77.94
342.754	95.94
342.981	91.94
343.209	94.94
343.437	98.94
343.665	77.94
343.893	89.94
344.12	85.94
344.348	90.94
344.576	94.94
344.804	83.94
345.031	83.94
345.259	101.94
345.487	95.94
345.714	100.94
345.942	79.94
346.17	87.94
346.397	79.94
346.625	83.94
346.853	85.94
347.08	98.94
347.308	85.94
347.535	97.94
347.763	89.94
347.99	83.94
348.218	95.94
348.445	96.94
348.673	87.94
348.9	83.94
349.128	90.94
349.355	87.94
349.583	77.94
349.81	76.94
350.037	91.94
350.265	91.94
350.492	87.94
350.72	88.94
350.947	80.94
351.174	112.94
351.402	109.94
351.629	92.94
351.856	95.94
352.083	101.94
352.311	92.94
352.538	89.94
352.765	100.94
352.992	107.94
353.22	101.94
353.447	97.94
353.674	92.94
353.901	100.94
354.128	110.94
354.355	89.94
354.583	106.94
354.81	106.94
355.037	95.94
355.264	81.94
355.491	99.94
355.718	86.94
355.945	95.94
356.172	102.94
356.399	87.94
356.626	89.94
356.853	87.94
357.08	84.94
357.307	92.94
357.534	69.94
357.761	87.94
357.988	94.94
358.215	104.94
358.441	107.94
358.668	81.94
358.895	86.94
359.122	100.94
359.349	92.94
359.576	88.94
359.802	94.94
360.029	103.94
360.256	110.94
360.483	92.94
360.709	79.94
360.936	85.94
361.163	84.94
361.39	95.94
361.616	87.94
361.843	84.94
362.07	85.94
362.296	80.94
362.523	95.94
362.749	87.94
362.976	78.94
363.203	86.94
363.429	91.94
363.656	81.94
363.882	79.94
364.109	77.94
364.335	90.94
364.562	97.94
364.788	91.94
365.015	92.94
365.241	93.94
365.468	98.94
365.694	95.94
365.92	91.94
366.147	92.94
366.373	77.94
366.599	91.94
366.826	75.94
367.052	88.94
367.278	92.94
367.505	75.94
367.731	89.94
367.957	84.94
368.184	83.94
368.41	105.94
368.636	114.94
368.862	124.94
369.089	100.94
369.315	84.94
369.541	81.94
369.767	94.94
369.993	92.94
370.219	91.94
370.445	83.94
370.672	104.94
370.898	75.94
371.124	89.94
371.35	83.94
371.576	81.94
371.802	83.94
372.028	95.94
372.254	94.94
372.48	92.94
372.706	92.94
372.932	80.94
373.158	96.94
373.384	79.94
373.61	88.94
373.835	84.94
374.061	95.94
374.287	80.94
374.513	83.94
374.739	79.94
374.965	86.94
375.191	76.94
375.416	69.94
375.642	79.94
375.868	87.94
376.094	86.94
376.319	86.94
376.545	78.94
376.771	88.94
376.997	86.94
377.222	75.94
377.448	85.94
377.674	87.94
377.899	86.94
378.125	92.94
378.35	79.94
378.576	85.94
378.802	84.94
379.027	84.94
379.253	92.94
379.478	91.94
379.704	91.94
379.929	89.94
380.155	90.94
380.38	91.94
380.606	86.94
380.831	78.94
381.057	93.94
381.282	85.94
381.507	86.94
381.733	94.94
381.958	95.94
382.184	93.94
382.409	99.94
382.634	80.94
382.86	87.94
383.085	97.94
383.31	88.94
383.535	89.94
383.761	108.94
383.986	104.94
384.211	96.94
384.436	92.94
384.662	91.94
384.887	95.94
385.112	93.94
385.337	103.94
385.562	97.94
385.787	93.94
386.013	94.94
386.238	98.94
386.463	91.94
386.688	95.94
386.913	92.94
387.138	93.94
387.363	101.94
387.588	92.94
387.813	94.94
388.038	95.94
388.263	115.94
388.488	109.94
388.713	97.94
388.938	81.94
389.163	96.94
389.387	92.94
389.612	103.94
389.837	96.94
390.062	101.94
390.287	87.94
390.512	99.94
390.736	90.94
390.961	93.94
391.186	92.94
391.411	89.94
391.636	83.94
391.86	79.94
392.085	81.94
392.31	78.94
392.534	85.94
392.759	80.94
392.984	83.94
393.208	87.94
393.433	111.94
393.658	91.94
393.882	72.94
394.107	74.94
394.331	63.94
394.556	77.94
394.78	83.94
395.005	83.94
395.229	87.94
395.454	83.94
395.678	93.94
395.903	84.94
396.127	99.94
396.352	97.94
396.576	88.94
396.801	84.94
397.025	91.94
397.249	101.94
397.474	92.94
397.698	78.94
397.922	83.94
398.147	93.94
398.371	77.94
398.595	92.94
398.82	75.94
399.044	69.94
399.268	80.94
399.492	97.94
399.717	104.94
399.941	85.94
400.165	94.94
400.389	91.94
400.613	78.94
400.837	79.94
401.062	74.94
401.286	73.94
401.51	93.94
401.734	91.94
401.958	94.94
402.182	103.94
402.406	130.94
402.63	95.94
402.854	79.94
403.078	73.94
403.302	93.94
403.526	97.94
403.75	68.94
403.974	87.94
404.198	93.94
404.422	90.94
404.645	85.94
404.869	69.94
405.093	85.94
405.317	101.94
405.541	75.94
405.765	107.94
405.988	102.94
406.212	155.94
406.436	180.94
406.66	114.94
406.883	98.94
407.107	78.94
407.331	86.94
407.555	87.94
407.778	95.94
408.002	68.94
408.226	80.94
408.449	93.94
408.673	96.94
408.896	84.94
409.12	90.94
409.344	78.94
409.567	99.94
409.791	87.94
410.014	96.94
410.238	95.94
410.461	89.94
410.685	96.94
410.908	85.94
411.132	78.94
411.355	87.94
411.578	95.94
411.802	94.94
412.025	69.94
412.249	79.94
412.472	90.94
412.695	89.94
412.919	80.94
413.142	85.94
413.365	77.94
413.589	77.94
413.812	80.94
414.035	80.94
414.258	76.94
414.482	87.94
414.705	88.94
414.928	71.94
415.151	106.94
415.374	86.94
415.597	93.94
415.821	92.94
416.044	78.94
416.267	85.94
416.49	80.94
416.713	79.94
416.936	88.94
417.159	81.94
417.382	84.94
417.605	86.94
417.828	88.94
418.051	78.94
418.274	81.94
418.497	76.94
418.72	84.94
418.943	81.94
419.166	97.94
419.389	98.94
419.611	82.94
419.834	92.94
420.057	87.94
420.28	72.94
420.503	83.94
420.726	77.94
420.948	93.94
421.171	81.94
421.394	80.94
421.617	82.94
421.839	86.94
422.062	73.94
422.285	76.94
422.507	83.94
422.73	102.94
422.953	89.94
423.175	97.94
423.398	84.94
423.621	70.94
423.843	74.94
424.066	85.94
424.288	91.94
424.511	80.94
424.733	91.94
424.956	99.94
425.178	83.94
425.401	93.94
425.623	92.94
425.846	83.94
426.068	83.94
426.291	82.94
426.513	86.94
426.735	99.94
426.958	85.94
427.18	100.94
427.402	125.94
427.625	135.94
427.847	126.94
428.069	83.94
428.292	81.94
428.514	78.94
428.736	90.94
428.958	86.94
429.181	77.94
429.403	76.94
429.625	88.94
429.847	83.94
430.069	89.94
430.292	94.94
430.514	73.94
430.736	80.94
430.958	87.94
431.18	81.94
431.402	71.94
431.624	85.94
431.846	80.94
432.068	95.94
432.29	81.94
432.512	95.94
432.734	85.94
432.956	94.94
433.178	88.94
433.4	91.94
433.622	99.94
433.844	72.94
434.066	97.94
434.287	85.94
434.509	78.94
434.731	76.94
434.953	84.94
435.175	101.94
435.397	92.94
435.618	89.94
435.84	100.94
436.062	110.94
436.284	105.94
436.505	90.94
436.727	108.94
436.949	90.94
437.17	73.94
437.392	90.94
437.614	87.94
437.835	81.94
438.057	109.94
438.278	97.94
438.5	86.94
438.721	108.94
438.943	89.94
439.165	79.94
439.386	90.94
439.608	78.94
439.829	84.94
440.05	108.94
440.272	114.94
440.493	89.94
440.715	79.94
440.936	90.94
441.158	95.94
441.379	82.94
441.6	101.94
441.822	90.94
442.043	83.94
442.264	103.94
442.486	97.94
442.707	87.94
442.928	112.94
443.149	102.94
443.371	118.94
443.592	91.94
443.813	102.94
444.034	102.94
444.255	91.94
444.476	78.94
444.698	78.94
444.919	87.94
445.14	120.94
445.361	111.94
445.582	101.94
445.803	124.94
446.024	118.94
446.245	116.94
446.466	101.94
446.687	73.94
446.908	87.94
447.129	78.94
447.35	68.94
447.571	100.94
447.792	77.94
448.013	87.94
448.234	93.94
448.455	99.94
448.675	108.94
448.896	107.94
449.117	95.94
449.338	84.94
449.559	112.94
449.779	104.94
450	84.94
450.221	90.94
450.442	89.94
450.662	89.94
450.883	96.94
451.104	101.94
451.324	71.94
451.545	92.94
451.766	102.94
451.986	87.94
452.207	76.94
452.428	98.94
452.648	89.94
452.869	85.94
453.089	102.94
453.31	118.94
453.53	91.94
453.751	88.94
453.971	91.94
454.192	84.94
454.412	85.94
454.633	87.94
454.853	90.94
455.073	84.94
455.294	71.94
455.514	96.94
455.734	85.94
455.955	73.94
456.175	87.94
456.395	81.94
456.616	79.94
456.836	87.94
457.056	77.94
457.276	86.94
457.497	87.94
457.717	78.94
457.937	87.94
458.157	85.94
458.377	93.94
458.598	98.94
458.818	143.94
459.038	145.94
459.258	104.94
459.478	73.94
459.698	70.94
459.918	76.94
460.138	87.94
460.358	97.94
460.578	82.94
460.798	75.94
461.018	87.94
461.238	89.94
461.458	80.94
461.678	83.94
461.898	90.94
462.118	85.94
462.338	76.94
462.558	85.94
462.777	79.94
462.997	84.94
463.217	77.94
463.437	88.94
463.657	86.94
463.876	69.94
464.096	83.94
464.316	86.94
464.536	89.94
464.755	94.94
464.975	107.94
465.195	142.94
465.414	120.94
465.634	86.94
465.854	84.94
466.073	84.94
466.293	88.94
466.512	71.94
466.732	83.94
466.951	95.94
467.171	87.94
467.391	88.94
467.61	103.94
467.829	95.94
468.049	82.94
468.268	93.94
468.488	78.94
468.707	80.94
468.927	76.94
469.146	77.94
469.365	85.94
469.585	73.94
469.804	100.94
470.023	99.94
470.243	83.94
470.462	88.94
470.681	99.94
470.901	81.94
471.12	73.94
471.339	89.94
471.558	83.94
471.777	88.94
471.997	80.94
472.216	79.94
472.435	79.94
472.654	59.94
472.873	89.94
473.092	88.94
473.311	83.94
473.53	77.94
473.749	83.94
473.968	86.94
474.187	97.94
474.406	87.94
474.625	84.94
474.844	90.94
475.063	80.94
475.282	83.94
475.501	81.94
475.72	84.94
475.939	76.94
476.158	86.94
476.377	87.94
476.596	88.94
476.814	93.94
477.033	72.94
477.252	77.94
477.471	80.94
477.69	90.94
477.908	83.94
478.127	72.94
478.346	70.94
478.564	84.94
478.783	86.94
479.002	92.94
479.22	97.94
479.439	111.94
479.658	84.94
479.876	85.94
480.095	79.94
480.313	96.94
480.532	89.94
480.751	86.94
480.969	100.94
481.188	99.94
481.406	95.94
481.624	96.94
481.843	87.94
482.061	82.94
482.28	74.94
482.498	79.94
482.717	80.94
482.935	73.94
483.153	75.94
483.372	67.94
483.59	71.94
483.808	85.94
484.027	85.94
484.245	72.94
484.463	88.94
484.681	93.94
484.9	87.94
485.118	80.94
485.336	93.94
485.554	89.94
485.772	94.94
485.99	106.94
486.209	105.94
486.427	95.94
486.645	96.94
486.863	99.94
487.081	87.94
487.299	97.94
487.517	101.94
487.735	78.94
487.953	88.94
488.171	98.94
488.389	90.94
488.607	88.94
488.825	84.94
489.043	73.94
489.261	87.94
489.479	79.94
489.696	84.94
489.914	80.94
490.132	85.94
490.35	89.94
490.568	86.94
490.786	86.94
491.003	86.94
491.221	77.94
491.439	73.94
491.657	90.94
491.874	83.94
492.092	86.94
492.31	92.94
492.527	105.94
492.745	89.94
492.963	88.94
493.18	88.94
493.398	84.94
493.615	90.94
493.833	83.94
494.05	89.94
494.268	76.94
494.485	86.94
494.703	90.94
494.92	89.94
495.138	96.94
495.355	94.94
495.573	91.94
495.79	91.94
496.008	97.94
496.225	89.94
496.442	74.94
496.66	87.94
496.877	95.94
497.094	89.94
497.312	102.94
497.529	89.94
497.746	98.94
497.963	85.94
498.181	85.94
498.398	86.94
498.615	104.94
498.832	103.94
499.049	96.94
499.267	83.94
499.484	91.94
499.701	79.94
499.918	79.94
500.135	79.94
500.352	73.94
500.569	87.94
500.786	80.94
501.003	84.94
501.22	75.94
501.437	71.94
501.654	91.94
501.871	98.94
502.088	85.94
502.305	77.94
502.522	91.94
502.739	80.94
502.956	81.94
503.172	91.94
503.389	96.94
503.606	85.94
503.823	83.94
504.04	86.94
504.256	75.94
504.473	76.94
504.69	80.94
504.907	79.94
505.123	90.94
505.34	88.94
505.557	83.94
505.773	80.94
505.99	86.94
506.207	92.94
506.423	81.94
506.64	82.94
506.856	79.94
507.073	89.94
507.289	91.94
507.506	83.94
507.722	107.94
507.939	109.94
508.155	92.94
508.372	97.94
508.588	86.94
508.805	89.94
509.021	91.94
509.238	92.94
509.454	89.94
509.67	99.94
509.887	99.94
510.103	125.94
510.319	199.94
510.536	684.94
510.752	2008.94
510.968	539.94
511.184	140.94
511.401	95.94
511.617	101.94
511.833	85.94
512.049	94.94
512.265	79.94
512.481	84.94
512.698	96.94
512.914	87.94
513.13	82.94
513.346	77.94
513.562	91.94
513.778	87.94
513.994	85.94
514.21	105.94
514.426	114.94
514.642	123.94
514.858	124.94
515.074	133.94
515.29	382.94
515.506	1203.94
515.721	460.94
515.937	137.94
516.153	104.94
516.369	87.94
516.585	78.94
516.801	92.94
517.016	80.94
517.232	87.94
517.448	89.94
517.664	86.94
