Data from Uncirc_1994_H10_HRD10591_00083.txt Node
Date: Wed Jan 03 11:39:37 EST 2024
User: Yrep
Spectrometer: HR+D1059
Trigger mode: 1
Integration Time (sec): 1.000000E-1
Scans to average: 1
Electric dark correction enabled: true
Nonlinearity correction enabled: false
Boxcar width: 0
XAxis mode: Wavelengths
Number of Pixels in Spectrum: 2048
>>>>>Begin Spectral Data<<<<<
223.165	-24.44
223.4	-24.44
223.635	-24.44
223.869	-25.44
224.104	-19.44
224.338	-15.44
224.573	-8.44
224.808	-23.44
225.042	-2.44
225.277	-7.44
225.511	-1.44
225.746	1.56
225.98	-4.44
226.215	24.56
226.449	28.56
226.683	17.56
226.918	24.56
227.152	35.56
227.387	52.56
227.621	39.56
227.856	46.56
228.09	52.56
228.324	43.56
228.559	62.56
228.793	53.56
229.027	67.56
229.262	61.56
229.496	79.56
229.73	70.56
229.964	82.56
230.199	69.56
230.433	64.56
230.667	84.56
230.901	80.56
231.136	90.56
231.37	74.56
231.604	88.56
231.838	91.56
232.072	88.56
232.306	98.56
232.541	81.56
232.775	92.56
233.009	95.56
233.243	76.56
233.477	78.56
233.711	91.56
233.945	79.56
234.179	86.56
234.413	74.56
234.647	79.56
234.881	67.56
235.115	69.56
235.349	78.56
235.583	88.56
235.817	82.56
236.051	86.56
236.285	73.56
236.519	93.56
236.753	76.56
236.987	89.56
237.221	76.56
237.455	88.56
237.689	82.56
237.922	77.56
238.156	89.56
238.39	66.56
238.624	86.56
238.858	76.56
239.091	74.56
239.325	79.56
239.559	85.56
239.793	76.56
240.027	74.56
240.26	74.56
240.494	73.56
240.728	82.56
240.961	68.56
241.195	76.56
241.429	74.56
241.662	88.56
241.896	97.56
242.13	86.56
242.363	82.56
242.597	71.56
242.83	73.56
243.064	68.56
243.298	82.56
243.531	92.56
243.765	70.56
243.998	70.56
244.232	85.56
244.465	84.56
244.699	78.56
244.932	89.56
245.166	86.56
245.399	73.56
245.633	87.56
245.866	89.56
246.099	87.56
246.333	77.56
246.566	81.56
246.8	67.56
247.033	82.56
247.266	78.56
247.5	81.56
247.733	85.56
247.966	76.56
248.2	63.56
248.433	76.56
248.666	93.56
248.899	80.56
249.133	81.56
249.366	100.56
249.599	97.56
249.832	83.56
250.066	75.56
250.299	71.56
250.532	85.56
250.765	95.56
250.998	62.56
251.231	76.56
251.465	83.56
251.698	84.56
251.931	91.56
252.164	76.56
252.397	81.56
252.63	86.56
252.863	77.56
253.096	84.56
253.329	70.56
253.562	77.56
253.795	78.56
254.028	82.56
254.261	92.56
254.494	88.56
254.727	79.56
254.96	83.56
255.193	82.56
255.426	79.56
255.659	79.56
255.892	85.56
256.124	100.56
256.357	83.56
256.59	84.56
256.823	73.56
257.056	86.56
257.289	76.56
257.521	90.56
257.754	96.56
257.987	74.56
258.22	70.56
258.452	80.56
258.685	78.56
258.918	74.56
259.151	74.56
259.383	95.56
259.616	69.56
259.849	90.56
260.081	82.56
260.314	85.56
260.547	90.56
260.779	89.56
261.012	84.56
261.244	82.56
261.477	78.56
261.71	93.56
261.942	102.56
262.175	105.56
262.407	92.56
262.64	89.56
262.872	84.56
263.105	72.56
263.337	78.56
263.57	88.56
263.802	80.56
264.035	67.56
264.267	88.56
264.499	85.56
264.732	73.56
264.964	73.56
265.197	62.56
265.429	69.56
265.661	80.56
265.894	80.56
266.126	74.56
266.358	92.56
266.591	90.56
266.823	99.56
267.055	84.56
267.287	89.56
267.52	86.56
267.752	98.56
267.984	85.56
268.216	86.56
268.448	103.56
268.681	98.56
268.913	73.56
269.145	86.56
269.377	80.56
269.609	84.56
269.841	84.56
270.073	91.56
270.306	83.56
270.538	91.56
270.77	81.56
271.002	87.56
271.234	80.56
271.466	81.56
271.698	84.56
271.93	84.56
272.162	94.56
272.394	101.56
272.626	97.56
272.858	99.56
273.09	92.56
273.322	101.56
273.553	94.56
273.785	93.56
274.017	92.56
274.249	79.56
274.481	77.56
274.713	77.56
274.945	76.56
275.176	83.56
275.408	84.56
275.64	90.56
275.872	76.56
276.104	91.56
276.335	97.56
276.567	105.56
276.799	122.56
277.031	109.56
277.262	92.56
277.494	90.56
277.726	98.56
277.957	84.56
278.189	88.56
278.421	104.56
278.652	85.56
278.884	93.56
279.115	84.56
279.347	75.56
279.579	88.56
279.81	84.56
280.042	79.56
280.273	82.56
280.505	85.56
280.736	76.56
280.968	89.56
281.199	90.56
281.431	102.56
281.662	87.56
281.894	88.56
282.125	95.56
282.356	106.56
282.588	131.56
282.819	118.56
283.051	89.56
283.282	95.56
283.513	83.56
283.745	105.56
283.976	88.56
284.207	81.56
284.439	89.56
284.67	104.56
284.901	100.56
285.132	82.56
285.364	95.56
285.595	76.56
285.826	94.56
286.057	91.56
286.288	80.56
286.52	90.56
286.751	95.56
286.982	84.56
287.213	80.56
287.444	89.56
287.675	87.56
287.906	98.56
288.138	93.56
288.369	100.56
288.6	97.56
288.831	77.56
289.062	92.56
289.293	81.56
289.524	93.56
289.755	77.56
289.986	95.56
290.217	90.56
290.448	84.56
290.679	84.56
290.91	96.56
291.141	86.56
291.371	81.56
291.602	80.56
291.833	72.56
292.064	77.56
292.295	103.56
292.526	104.56
292.757	94.56
292.987	86.56
293.218	82.56
293.449	82.56
293.68	91.56
293.91	86.56
294.141	92.56
294.372	93.56
294.603	106.56
294.833	83.56
295.064	83.56
295.295	88.56
295.525	106.56
295.756	99.56
295.987	97.56
296.217	138.56
296.448	110.56
296.679	106.56
296.909	85.56
297.14	94.56
297.37	100.56
297.601	96.56
297.831	95.56
298.062	100.56
298.292	81.56
298.523	91.56
298.753	81.56
298.984	100.56
299.214	84.56
299.445	85.56
299.675	98.56
299.905	107.56
300.136	90.56
300.366	88.56
300.597	94.56
300.827	95.56
301.057	86.56
301.288	101.56
301.518	85.56
301.748	81.56
301.979	100.56
302.209	100.56
302.439	90.56
302.669	92.56
302.9	85.56
303.13	72.56
303.36	78.56
303.59	83.56
303.82	106.56
304.051	96.56
304.281	97.56
304.511	96.56
304.741	104.56
304.971	89.56
305.201	91.56
305.431	94.56
305.661	87.56
305.891	95.56
306.121	94.56
306.352	108.56
306.582	99.56
306.812	89.56
307.042	95.56
307.272	101.56
307.502	94.56
307.731	96.56
307.961	87.56
308.191	109.56
308.421	98.56
308.651	81.56
308.881	97.56
309.111	91.56
309.341	92.56
309.571	91.56
309.8	98.56
310.03	95.56
310.26	109.56
310.49	82.56
310.72	94.56
310.949	97.56
311.179	92.56
311.409	90.56
311.639	100.56
311.868	93.56
312.098	90.56
312.328	94.56
312.557	97.56
312.787	105.56
313.017	100.56
313.246	102.56
313.476	94.56
313.706	95.56
313.935	96.56
314.165	119.56
314.394	110.56
314.624	78.56
314.853	113.56
315.083	95.56
315.312	110.56
315.542	82.56
315.771	102.56
316.001	99.56
316.23	100.56
316.46	84.56
316.689	102.56
316.919	105.56
317.148	86.56
317.377	93.56
317.607	92.56
317.836	92.56
318.065	86.56
318.295	81.56
318.524	85.56
318.753	99.56
318.983	103.56
319.212	103.56
319.441	120.56
319.67	107.56
319.9	91.56
320.129	90.56
320.358	102.56
320.587	105.56
320.816	100.56
321.046	102.56
321.275	88.56
321.504	105.56
321.733	100.56
321.962	96.56
322.191	98.56
322.42	113.56
322.649	107.56
322.878	120.56
323.108	112.56
323.337	111.56
323.566	118.56
323.795	152.56
324.024	198.56
324.253	360.56
324.482	804.56
324.71	1700.56
324.939	2193.56
325.168	792.56
325.397	242.56
325.626	147.56
325.855	125.56
326.084	123.56
326.313	135.56
326.542	165.56
326.77	234.56
326.999	448.56
327.228	931.56
327.457	1675.56
327.686	1300.56
327.914	352.56
328.143	191.56
328.372	129.56
328.6	120.56
328.829	97.56
329.058	122.56
329.287	128.56
329.515	94.56
329.744	100.56
329.972	101.56
330.201	109.56
330.43	99.56
330.658	116.56
330.887	135.56
331.115	113.56
331.344	95.56
331.572	99.56
331.801	100.56
332.03	94.56
332.258	114.56
332.486	86.56
332.715	91.56
332.943	95.56
333.172	98.56
333.4	92.56
333.629	98.56
333.857	107.56
334.085	102.56
334.314	101.56
334.542	102.56
334.771	111.56
334.999	97.56
335.227	97.56
335.455	106.56
335.684	104.56
335.912	91.56
336.14	105.56
336.369	95.56
336.597	102.56
336.825	110.56
337.053	95.56
337.281	92.56
337.51	93.56
337.738	109.56
337.966	85.56
338.194	91.56
338.422	106.56
338.65	86.56
338.878	93.56
339.106	84.56
339.334	98.56
339.562	84.56
339.79	73.56
340.018	97.56
340.246	93.56
340.474	94.56
340.702	92.56
340.93	101.56
341.158	86.56
341.386	84.56
341.614	110.56
341.842	96.56
342.07	87.56
342.298	91.56
342.526	83.56
342.754	97.56
342.981	104.56
343.209	98.56
343.437	113.56
343.665	95.56
343.893	98.56
344.12	79.56
344.348	100.56
344.576	93.56
344.804	101.56
345.031	96.56
345.259	96.56
345.487	102.56
345.714	100.56
345.942	100.56
346.17	96.56
346.397	108.56
346.625	91.56
346.853	105.56
347.08	86.56
347.308	92.56
347.535	92.56
347.763	94.56
347.99	83.56
348.218	92.56
348.445	104.56
348.673	112.56
348.9	91.56
349.128	93.56
349.355	87.56
349.583	94.56
349.81	95.56
350.037	94.56
350.265	95.56
350.492	99.56
350.72	102.56
350.947	108.56
351.174	88.56
351.402	89.56
351.629	96.56
351.856	113.56
352.083	103.56
352.311	70.56
352.538	101.56
352.765	108.56
352.992	123.56
353.22	110.56
353.447	108.56
353.674	102.56
353.901	97.56
354.128	102.56
354.355	93.56
354.583	89.56
354.81	105.56
355.037	100.56
355.264	89.56
355.491	88.56
355.718	97.56
355.945	98.56
356.172	106.56
356.399	108.56
356.626	97.56
356.853	78.56
357.08	90.56
357.307	97.56
357.534	81.56
357.761	98.56
357.988	97.56
358.215	100.56
358.441	107.56
358.668	93.56
358.895	98.56
359.122	82.56
359.349	77.56
359.576	84.56
359.802	97.56
360.029	108.56
360.256	108.56
360.483	100.56
360.709	91.56
360.936	101.56
361.163	100.56
361.39	98.56
361.616	97.56
361.843	95.56
362.07	97.56
362.296	104.56
362.523	86.56
362.749	94.56
362.976	92.56
363.203	97.56
363.429	83.56
363.656	88.56
363.882	99.56
364.109	94.56
364.335	85.56
364.562	88.56
364.788	89.56
365.015	104.56
365.241	108.56
365.468	111.56
365.694	97.56
365.92	90.56
366.147	88.56
366.373	85.56
366.599	97.56
366.826	105.56
367.052	85.56
367.278	83.56
367.505	85.56
367.731	92.56
367.957	94.56
368.184	98.56
368.41	99.56
368.636	102.56
368.862	102.56
369.089	92.56
369.315	85.56
369.541	93.56
369.767	84.56
369.993	97.56
370.219	97.56
370.445	91.56
370.672	101.56
370.898	91.56
371.124	94.56
371.35	69.56
371.576	80.56
371.802	105.56
372.028	102.56
372.254	93.56
372.48	93.56
372.706	86.56
372.932	66.56
373.158	85.56
373.384	89.56
373.61	93.56
373.835	106.56
374.061	84.56
374.287	75.56
374.513	81.56
374.739	80.56
374.965	84.56
375.191	85.56
375.416	84.56
375.642	98.56
375.868	83.56
376.094	88.56
376.319	85.56
376.545	92.56
376.771	83.56
376.997	93.56
377.222	92.56
377.448	96.56
377.674	89.56
377.899	102.56
378.125	85.56
378.35	93.56
378.576	83.56
378.802	90.56
379.027	86.56
379.253	80.56
379.478	99.56
379.704	86.56
379.929	89.56
380.155	100.56
380.38	93.56
380.606	93.56
380.831	64.56
381.057	86.56
381.282	94.56
381.507	94.56
381.733	97.56
381.958	95.56
382.184	91.56
382.409	90.56
382.634	108.56
382.86	93.56
383.085	96.56
383.31	108.56
383.535	111.56
383.761	89.56
383.986	105.56
384.211	98.56
384.436	97.56
384.662	105.56
384.887	100.56
385.112	104.56
385.337	100.56
385.562	100.56
385.787	115.56
386.013	113.56
386.238	104.56
386.463	106.56
386.688	103.56
386.913	110.56
387.138	102.56
387.363	85.56
387.588	98.56
387.813	93.56
388.038	99.56
388.263	109.56
388.488	108.56
388.713	106.56
388.938	89.56
389.163	80.56
389.387	89.56
389.612	103.56
389.837	92.56
390.062	89.56
390.287	90.56
390.512	93.56
390.736	102.56
390.961	94.56
391.186	105.56
391.411	101.56
391.636	98.56
391.86	86.56
392.085	85.56
392.31	80.56
392.534	90.56
392.759	84.56
392.984	86.56
393.208	78.56
393.433	98.56
393.658	90.56
393.882	93.56
394.107	87.56
394.331	84.56
394.556	83.56
394.78	103.56
395.005	91.56
395.229	88.56
395.454	75.56
395.678	78.56
395.903	92.56
396.127	94.56
396.352	97.56
396.576	72.56
396.801	102.56
397.025	89.56
397.249	92.56
397.474	91.56
397.698	101.56
397.922	81.56
398.147	85.56
398.371	106.56
398.595	94.56
398.82	85.56
399.044	80.56
399.268	81.56
399.492	82.56
399.717	86.56
399.941	94.56
400.165	103.56
400.389	94.56
400.613	84.56
400.837	84.56
401.062	92.56
401.286	80.56
401.51	83.56
401.734	88.56
401.958	92.56
402.182	128.56
402.406	154.56
402.63	108.56
402.854	94.56
403.078	77.56
403.302	100.56
403.526	97.56
403.75	98.56
403.974	90.56
404.198	88.56
404.422	83.56
404.645	74.56
404.869	104.56
405.093	96.56
405.317	98.56
405.541	96.56
405.765	92.56
405.988	118.56
406.212	171.56
406.436	210.56
406.66	127.56
406.883	90.56
407.107	91.56
407.331	94.56
407.555	101.56
407.778	107.56
408.002	100.56
408.226	91.56
408.449	90.56
408.673	96.56
408.896	83.56
409.12	96.56
409.344	108.56
409.567	95.56
409.791	91.56
410.014	98.56
410.238	90.56
410.461	105.56
410.685	81.56
410.908	87.56
411.132	108.56
411.355	101.56
411.578	101.56
411.802	95.56
412.025	95.56
412.249	80.56
412.472	83.56
412.695	85.56
412.919	83.56
413.142	81.56
413.365	91.56
413.589	99.56
413.812	94.56
414.035	100.56
414.258	82.56
414.482	93.56
414.705	86.56
414.928	86.56
415.151	91.56
415.374	97.56
415.597	80.56
415.821	94.56
416.044	92.56
416.267	90.56
416.49	81.56
416.713	93.56
416.936	87.56
417.159	109.56
417.382	92.56
417.605	104.56
417.828	98.56
418.051	102.56
418.274	85.56
418.497	99.56
418.72	69.56
418.943	90.56
419.166	96.56
419.389	101.56
419.611	102.56
419.834	94.56
420.057	84.56
420.28	110.56
420.503	72.56
420.726	94.56
420.948	85.56
421.171	98.56
421.394	84.56
421.617	96.56
421.839	73.56
422.062	89.56
422.285	96.56
422.507	85.56
422.73	97.56
422.953	84.56
423.175	99.56
423.398	86.56
423.621	86.56
423.843	90.56
424.066	75.56
424.288	85.56
424.511	91.56
424.733	93.56
424.956	105.56
425.178	92.56
425.401	101.56
425.623	101.56
425.846	89.56
426.068	95.56
426.291	94.56
426.513	90.56
426.735	88.56
426.958	96.56
427.18	114.56
427.402	120.56
427.625	160.56
427.847	110.56
428.069	101.56
428.292	75.56
428.514	81.56
428.736	83.56
428.958	74.56
429.181	100.56
429.403	99.56
429.625	89.56
429.847	89.56
430.069	98.56
430.292	96.56
430.514	90.56
430.736	86.56
430.958	82.56
431.18	82.56
431.402	93.56
431.624	82.56
431.846	86.56
432.068	88.56
432.29	106.56
432.512	88.56
432.734	85.56
432.956	101.56
433.178	101.56
433.4	104.56
433.622	112.56
433.844	94.56
434.066	79.56
434.287	101.56
434.509	80.56
434.731	99.56
434.953	91.56
435.175	91.56
435.397	79.56
435.618	85.56
435.84	105.56
436.062	126.56
436.284	110.56
436.505	105.56
436.727	102.56
436.949	99.56
437.17	93.56
437.392	97.56
437.614	94.56
437.835	113.56
438.057	108.56
438.278	95.56
438.5	103.56
438.721	128.56
438.943	93.56
439.165	94.56
439.386	85.56
439.608	96.56
439.829	109.56
440.05	122.56
440.272	131.56
440.493	101.56
440.715	81.56
440.936	97.56
441.158	70.56
441.379	90.56
441.6	103.56
441.822	106.56
442.043	99.56
442.264	95.56
442.486	98.56
442.707	86.56
442.928	90.56
443.149	137.56
443.371	132.56
443.592	115.56
443.813	121.56
444.034	117.56
444.255	101.56
444.476	88.56
444.698	80.56
444.919	97.56
445.14	139.56
445.361	116.56
445.582	120.56
445.803	125.56
446.024	123.56
446.245	128.56
446.466	119.56
446.687	96.56
446.908	90.56
447.129	82.56
447.35	91.56
447.571	90.56
447.792	89.56
448.013	97.56
448.234	99.56
448.455	124.56
448.675	118.56
448.896	115.56
449.117	113.56
449.338	107.56
449.559	137.56
449.779	124.56
450	98.56
450.221	84.56
450.442	86.56
450.662	97.56
450.883	106.56
451.104	106.56
451.324	98.56
451.545	82.56
451.766	85.56
451.986	91.56
452.207	97.56
452.428	80.56
452.648	87.56
452.869	122.56
453.089	112.56
453.31	110.56
453.53	96.56
453.751	99.56
453.971	108.56
454.192	99.56
454.412	85.56
454.633	95.56
454.853	94.56
455.073	75.56
455.294	89.56
455.514	94.56
455.734	98.56
455.955	95.56
456.175	74.56
456.395	85.56
456.616	79.56
456.836	88.56
457.056	99.56
457.276	92.56
457.497	82.56
457.717	81.56
457.937	100.56
458.157	90.56
458.377	91.56
458.598	99.56
458.818	141.56
459.038	149.56
459.258	110.56
459.478	79.56
459.698	79.56
459.918	90.56
460.138	86.56
460.358	101.56
460.578	92.56
460.798	105.56
461.018	78.56
461.238	84.56
461.458	76.56
461.678	87.56
461.898	94.56
462.118	77.56
462.338	78.56
462.558	76.56
462.777	94.56
462.997	87.56
463.217	85.56
463.437	90.56
463.657	99.56
463.876	86.56
464.096	99.56
464.316	110.56
464.536	90.56
464.755	104.56
464.975	109.56
465.195	155.56
465.414	158.56
465.634	90.56
465.854	93.56
466.073	79.56
466.293	88.56
466.512	93.56
466.732	87.56
466.951	95.56
467.171	93.56
467.391	96.56
467.61	100.56
467.829	99.56
468.049	89.56
468.268	87.56
468.488	96.56
468.707	82.56
468.927	60.56
469.146	88.56
469.365	90.56
469.585	95.56
469.804	94.56
470.023	109.56
470.243	91.56
470.462	96.56
470.681	107.56
470.901	81.56
471.12	85.56
471.339	88.56
471.558	98.56
471.777	92.56
471.997	97.56
472.216	90.56
472.435	99.56
472.654	96.56
472.873	87.56
473.092	87.56
473.311	82.56
473.53	85.56
473.749	82.56
473.968	105.56
474.187	99.56
474.406	88.56
474.625	80.56
474.844	86.56
475.063	80.56
475.282	80.56
475.501	76.56
475.72	76.56
475.939	84.56
476.158	81.56
476.377	94.56
476.596	97.56
476.814	86.56
477.033	94.56
477.252	112.56
477.471	84.56
477.69	85.56
477.908	89.56
478.127	88.56
478.346	89.56
478.564	87.56
478.783	98.56
479.002	90.56
479.22	87.56
479.439	96.56
479.658	121.56
479.876	94.56
480.095	97.56
480.313	93.56
480.532	74.56
480.751	89.56
480.969	83.56
481.188	94.56
481.406	97.56
481.624	98.56
481.843	76.56
482.061	84.56
482.28	78.56
482.498	99.56
482.717	79.56
482.935	86.56
483.153	80.56
483.372	84.56
483.59	88.56
483.808	94.56
484.027	86.56
484.245	95.56
484.463	69.56
484.681	92.56
484.9	74.56
485.118	96.56
485.336	86.56
485.554	88.56
485.772	80.56
485.99	104.56
486.209	112.56
486.427	97.56
486.645	98.56
486.863	106.56
487.081	111.56
487.299	108.56
487.517	101.56
487.735	87.56
487.953	87.56
488.171	92.56
488.389	101.56
488.607	96.56
488.825	101.56
489.043	85.56
489.261	95.56
489.479	94.56
489.696	102.56
489.914	73.56
490.132	97.56
490.35	83.56
490.568	81.56
490.786	80.56
491.003	81.56
491.221	78.56
491.439	92.56
491.657	92.56
491.874	76.56
492.092	85.56
492.31	95.56
492.527	95.56
492.745	101.56
492.963	73.56
493.18	90.56
493.398	90.56
493.615	99.56
493.833	91.56
494.05	96.56
494.268	83.56
494.485	100.56
494.703	86.56
494.92	90.56
495.138	116.56
495.355	93.56
495.573	81.56
495.79	86.56
496.008	101.56
496.225	85.56
496.442	94.56
496.66	83.56
496.877	80.56
497.094	95.56
497.312	90.56
497.529	91.56
497.746	97.56
497.963	92.56
498.181	98.56
498.398	91.56
498.615	106.56
498.832	105.56
499.049	91.56
499.267	90.56
499.484	91.56
499.701	98.56
499.918	86.56
500.135	94.56
500.352	92.56
500.569	87.56
500.786	83.56
501.003	84.56
501.22	93.56
501.437	76.56
501.654	100.56
501.871	118.56
502.088	90.56
502.305	102.56
502.522	94.56
502.739	99.56
502.956	90.56
503.172	88.56
503.389	90.56
503.606	89.56
503.823	98.56
504.04	91.56
504.256	95.56
504.473	95.56
504.69	95.56
504.907	75.56
505.123	85.56
505.34	95.56
505.557	90.56
505.773	90.56
505.99	79.56
506.207	102.56
506.423	83.56
506.64	87.56
506.856	89.56
507.073	100.56
507.289	92.56
507.506	93.56
507.722	125.56
507.939	91.56
508.155	82.56
508.372	105.56
508.588	101.56
508.805	86.56
509.021	83.56
509.238	101.56
509.454	95.56
509.67	83.56
509.887	116.56
510.103	124.56
510.319	209.56
510.536	754.56
510.752	2299.56
510.968	632.56
511.184	148.56
511.401	99.56
511.617	90.56
511.833	99.56
512.049	102.56
512.265	78.56
512.481	92.56
512.698	79.56
512.914	98.56
513.13	95.56
513.346	94.56
513.562	96.56
513.778	93.56
513.994	100.56
514.21	99.56
514.426	108.56
514.642	117.56
514.858	111.56
515.074	162.56
515.29	438.56
515.506	1389.56
