Data from Uncirc_1994_H10_HRD10591_00090.txt Node
Date: Wed Jan 03 11:39:38 EST 2024
User: Yrep
Spectrometer: HR+D1059
Trigger mode: 1
Integration Time (sec): 1.000000E-1
Scans to average: 1
Electric dark correction enabled: true
Nonlinearity correction enabled: false
Boxcar width: 0
XAxis mode: Wavelengths
Number of Pixels in Spectrum: 2048
>>>>>Begin Spectral Data<<<<<
223.165	-5.69
223.4	-5.69
223.635	-5.69
223.869	-12.69
224.104	-26.69
224.338	-20.69
224.573	-10.69
224.808	-7.69
225.042	-14.69
225.277	3.31
225.511	6.31
225.746	7.31
225.98	10.31
226.215	8.31
226.449	10.31
226.683	25.31
226.918	13.31
227.152	14.31
227.387	26.31
227.621	33.31
227.856	37.31
228.09	44.31
228.324	48.31
228.559	55.31
228.793	62.31
229.027	55.31
229.262	68.31
229.496	74.31
229.73	89.31
229.964	76.31
230.199	78.31
230.433	74.31
230.667	87.31
230.901	75.31
231.136	84.31
231.37	92.31
231.604	96.31
231.838	94.31
232.072	69.31
232.306	90.31
232.541	86.31
232.775	80.31
233.009	77.31
233.243	76.31
233.477	74.31
233.711	80.31
233.945	86.31
234.179	82.31
234.413	81.31
234.647	78.31
234.881	80.31
235.115	78.31
235.349	88.31
235.583	76.31
235.817	70.31
236.051	76.31
236.285	86.31
236.519	78.31
236.753	91.31
236.987	89.31
237.221	98.31
237.455	100.31
237.689	75.31
237.922	66.31
238.156	78.31
238.39	77.31
238.624	71.31
238.858	82.31
239.091	76.31
239.325	72.31
239.559	79.31
239.793	83.31
240.027	93.31
240.26	64.31
240.494	86.31
240.728	71.31
240.961	96.31
241.195	75.31
241.429	63.31
241.662	77.31
241.896	71.31
242.13	83.31
242.363	82.31
242.597	75.31
242.83	72.31
243.064	83.31
243.298	78.31
243.531	84.31
243.765	71.31
243.998	87.31
244.232	85.31
244.465	91.31
244.699	72.31
244.932	86.31
245.166	84.31
245.399	78.31
245.633	78.31
245.866	83.31
246.099	84.31
246.333	78.31
246.566	83.31
246.8	78.31
247.033	77.31
247.266	68.31
247.5	79.31
247.733	91.31
247.966	82.31
248.2	78.31
248.433	84.31
248.666	81.31
248.899	87.31
249.133	64.31
249.366	87.31
249.599	90.31
249.832	90.31
250.066	79.31
250.299	76.31
250.532	83.31
250.765	85.31
250.998	70.31
251.231	80.31
251.465	81.31
251.698	82.31
251.931	82.31
252.164	82.31
252.397	79.31
252.63	62.31
252.863	85.31
253.096	72.31
253.329	102.31
253.562	86.31
253.795	87.31
254.028	78.31
254.261	75.31
254.494	90.31
254.727	87.31
254.96	80.31
255.193	92.31
255.426	81.31
255.659	83.31
255.892	88.31
256.124	88.31
256.357	78.31
256.59	98.31
256.823	74.31
257.056	83.31
257.289	82.31
257.521	80.31
257.754	90.31
257.987	87.31
258.22	80.31
258.452	78.31
258.685	76.31
258.918	86.31
259.151	87.31
259.383	82.31
259.616	87.31
259.849	90.31
260.081	91.31
260.314	66.31
260.547	80.31
260.779	80.31
261.012	92.31
261.244	87.31
261.477	84.31
261.71	94.31
261.942	102.31
262.175	124.31
262.407	88.31
262.64	69.31
262.872	87.31
263.105	86.31
263.337	94.31
263.57	97.31
263.802	93.31
264.035	90.31
264.267	95.31
264.499	94.31
264.732	63.31
264.964	78.31
265.197	90.31
265.429	96.31
265.661	97.31
265.894	92.31
266.126	100.31
266.358	84.31
266.591	86.31
266.823	92.31
267.055	75.31
267.287	87.31
267.52	90.31
267.752	102.31
267.984	88.31
268.216	94.31
268.448	87.31
268.681	101.31
268.913	87.31
269.145	81.31
269.377	86.31
269.609	87.31
269.841	96.31
270.073	97.31
270.306	77.31
270.538	78.31
270.77	74.31
271.002	90.31
271.234	87.31
271.466	93.31
271.698	90.31
271.93	61.31
272.162	96.31
272.394	104.31
272.626	82.31
272.858	72.31
273.09	79.31
273.322	84.31
273.553	88.31
273.785	88.31
274.017	85.31
274.249	94.31
274.481	79.31
274.713	77.31
274.945	87.31
275.176	92.31
275.408	87.31
275.64	86.31
275.872	76.31
276.104	97.31
276.335	87.31
276.567	91.31
276.799	120.31
277.031	101.31
277.262	85.31
277.494	99.31
277.726	101.31
277.957	91.31
278.189	71.31
278.421	81.31
278.652	101.31
278.884	79.31
279.115	92.31
279.347	80.31
279.579	83.31
279.81	85.31
280.042	87.31
280.273	87.31
280.505	90.31
280.736	74.31
280.968	91.31
281.199	91.31
281.431	91.31
281.662	93.31
281.894	87.31
282.125	102.31
282.356	113.31
282.588	141.31
282.819	116.31
283.051	99.31
283.282	95.31
283.513	87.31
283.745	98.31
283.976	99.31
284.207	91.31
284.439	79.31
284.67	92.31
284.901	92.31
285.132	72.31
285.364	71.31
285.595	77.31
285.826	82.31
286.057	82.31
286.288	78.31
286.52	92.31
286.751	90.31
286.982	93.31
287.213	86.31
287.444	91.31
287.675	78.31
287.906	96.31
288.138	97.31
288.369	96.31
288.6	108.31
288.831	97.31
289.062	109.31
289.293	86.31
289.524	86.31
289.755	94.31
289.986	95.31
290.217	75.31
290.448	98.31
290.679	92.31
290.91	90.31
291.141	83.31
291.371	83.31
291.602	77.31
291.833	98.31
292.064	98.31
292.295	79.31
292.526	92.31
292.757	88.31
292.987	82.31
293.218	89.31
293.449	94.31
293.68	95.31
293.91	86.31
294.141	92.31
294.372	102.31
294.603	102.31
294.833	80.31
295.064	87.31
295.295	90.31
295.525	93.31
295.756	96.31
295.987	107.31
296.217	142.31
296.448	116.31
296.679	100.31
296.909	82.31
297.14	83.31
297.37	93.31
297.601	95.31
297.831	102.31
298.062	109.31
298.292	84.31
298.523	83.31
298.753	108.31
298.984	93.31
299.214	92.31
299.445	98.31
299.675	100.31
299.905	100.31
300.136	86.31
300.366	96.31
300.597	97.31
300.827	78.31
301.057	97.31
301.288	102.31
301.518	88.31
301.748	83.31
301.979	100.31
302.209	96.31
302.439	108.31
302.669	103.31
302.9	72.31
303.13	84.31
303.36	95.31
303.59	92.31
303.82	86.31
304.051	96.31
304.281	87.31
304.511	101.31
304.741	86.31
304.971	94.31
305.201	99.31
305.431	89.31
305.661	86.31
305.891	98.31
306.121	95.31
306.352	106.31
306.582	110.31
306.812	102.31
307.042	104.31
307.272	107.31
307.502	83.31
307.731	105.31
307.961	88.31
308.191	92.31
308.421	102.31
308.651	88.31
308.881	95.31
309.111	96.31
309.341	103.31
309.571	103.31
309.8	104.31
310.03	92.31
310.26	95.31
310.49	93.31
310.72	86.31
310.949	106.31
311.179	98.31
311.409	111.31
311.639	96.31
311.868	95.31
312.098	91.31
312.328	97.31
312.557	109.31
312.787	103.31
313.017	107.31
313.246	98.31
313.476	94.31
313.706	79.31
313.935	93.31
314.165	97.31
314.394	101.31
314.624	104.31
314.853	109.31
315.083	101.31
315.312	86.31
315.542	77.31
315.771	90.31
316.001	71.31
316.23	87.31
316.46	102.31
316.689	84.31
316.919	103.31
317.148	101.31
317.377	96.31
317.607	90.31
317.836	91.31
318.065	99.31
318.295	94.31
318.524	79.31
318.753	99.31
318.983	102.31
319.212	100.31
319.441	111.31
319.67	111.31
319.9	100.31
320.129	95.31
320.358	103.31
320.587	84.31
320.816	98.31
321.046	109.31
321.275	99.31
321.504	108.31
321.733	108.31
321.962	111.31
322.191	106.31
322.42	99.31
322.649	114.31
322.878	119.31
323.108	118.31
323.337	131.31
323.566	146.31
323.795	148.31
324.024	212.31
324.253	420.31
324.482	867.31
324.71	1729.31
324.939	2318.31
325.168	799.31
325.397	233.31
325.626	142.31
325.855	123.31
326.084	127.31
326.313	127.31
326.542	144.31
326.77	230.31
326.999	454.31
327.228	964.31
327.457	1816.31
327.686	1438.31
327.914	382.31
328.143	161.31
328.372	144.31
328.6	125.31
328.829	130.31
329.058	133.31
329.287	125.31
329.515	114.31
329.744	101.31
329.972	96.31
330.201	102.31
330.43	116.31
330.658	111.31
330.887	146.31
331.115	121.31
331.344	82.31
331.572	114.31
331.801	105.31
332.03	99.31
332.258	114.31
332.486	99.31
332.715	100.31
332.943	92.31
333.172	107.31
333.4	93.31
333.629	101.31
333.857	103.31
334.085	98.31
334.314	102.31
334.542	101.31
334.771	95.31
334.999	109.31
335.227	86.31
335.455	94.31
335.684	98.31
335.912	107.31
336.14	98.31
336.369	107.31
336.597	111.31
336.825	106.31
337.053	81.31
337.281	99.31
337.51	92.31
337.738	94.31
337.966	117.31
338.194	94.31
338.422	101.31
338.65	85.31
338.878	88.31
339.106	95.31
339.334	100.31
339.562	83.31
339.79	86.31
340.018	87.31
340.246	86.31
340.474	102.31
340.702	84.31
340.93	95.31
341.158	78.31
341.386	102.31
341.614	100.31
341.842	94.31
342.07	98.31
342.298	96.31
342.526	100.31
342.754	100.31
342.981	95.31
343.209	88.31
343.437	104.31
343.665	84.31
343.893	85.31
344.12	100.31
344.348	90.31
344.576	102.31
344.804	94.31
345.031	106.31
345.259	95.31
345.487	88.31
345.714	98.31
345.942	103.31
346.17	95.31
346.397	109.31
346.625	98.31
346.853	90.31
347.08	91.31
347.308	91.31
347.535	93.31
347.763	108.31
347.99	92.31
348.218	85.31
348.445	108.31
348.673	87.31
348.9	92.31
349.128	86.31
349.355	95.31
349.583	95.31
349.81	106.31
350.037	98.31
350.265	87.31
350.492	111.31
350.72	102.31
350.947	109.31
351.174	117.31
351.402	113.31
351.629	100.31
351.856	108.31
352.083	97.31
352.311	113.31
352.538	106.31
352.765	107.31
352.992	110.31
353.22	106.31
353.447	112.31
353.674	107.31
353.901	107.31
354.128	92.31
354.355	99.31
354.583	103.31
354.81	87.31
355.037	88.31
355.264	93.31
355.491	98.31
355.718	90.31
355.945	104.31
356.172	95.31
356.399	94.31
356.626	96.31
356.853	88.31
357.08	82.31
357.307	93.31
357.534	98.31
357.761	91.31
357.988	100.31
358.215	96.31
358.441	100.31
358.668	98.31
358.895	103.31
359.122	91.31
359.349	94.31
359.576	93.31
359.802	111.31
360.029	107.31
360.256	116.31
360.483	100.31
360.709	100.31
360.936	103.31
361.163	94.31
361.39	99.31
361.616	96.31
361.843	98.31
362.07	103.31
362.296	102.31
362.523	79.31
362.749	108.31
362.976	87.31
363.203	91.31
363.429	82.31
363.656	85.31
363.882	102.31
364.109	104.31
364.335	78.31
364.562	93.31
364.788	80.31
365.015	85.31
365.241	107.31
365.468	104.31
365.694	91.31
365.92	98.31
366.147	101.31
366.373	88.31
366.599	78.31
366.826	108.31
367.052	98.31
367.278	93.31
367.505	87.31
367.731	83.31
367.957	67.31
368.184	97.31
368.41	118.31
368.636	104.31
368.862	103.31
369.089	109.31
369.315	102.31
369.541	93.31
369.767	106.31
369.993	78.31
370.219	98.31
370.445	98.31
370.672	99.31
370.898	85.31
371.124	96.31
371.35	99.31
371.576	107.31
371.802	94.31
372.028	86.31
372.254	84.31
372.48	91.31
372.706	87.31
372.932	96.31
373.158	81.31
373.384	86.31
373.61	106.31
373.835	76.31
374.061	86.31
374.287	88.31
374.513	92.31
374.739	100.31
374.965	90.31
375.191	99.31
375.416	117.31
375.642	93.31
375.868	86.31
376.094	80.31
376.319	98.31
376.545	85.31
376.771	87.31
376.997	86.31
377.222	78.31
377.448	87.31
377.674	106.31
377.899	95.31
378.125	93.31
378.35	100.31
378.576	89.31
378.802	95.31
379.027	82.31
379.253	90.31
379.478	97.31
379.704	100.31
379.929	103.31
380.155	105.31
380.38	93.31
380.606	93.31
380.831	86.31
381.057	85.31
381.282	93.31
381.507	95.31
381.733	91.31
381.958	86.31
382.184	103.31
382.409	86.31
382.634	103.31
382.86	91.31
383.085	94.31
383.31	103.31
383.535	104.31
383.761	100.31
383.986	96.31
384.211	88.31
384.436	100.31
384.662	92.31
384.887	112.31
385.112	92.31
385.337	106.31
385.562	98.31
385.787	97.31
386.013	111.31
386.238	109.31
386.463	108.31
386.688	104.31
386.913	103.31
387.138	107.31
387.363	99.31
387.588	101.31
387.813	99.31
388.038	94.31
388.263	113.31
388.488	104.31
388.713	93.31
388.938	105.31
389.163	95.31
389.387	98.31
389.612	85.31
389.837	95.31
390.062	103.31
390.287	96.31
390.512	102.31
390.736	79.31
390.961	90.31
391.186	94.31
391.411	98.31
391.636	98.31
391.86	95.31
392.085	81.31
392.31	76.31
392.534	97.31
392.759	84.31
392.984	100.31
393.208	102.31
393.433	93.31
393.658	85.31
393.882	88.31
394.107	95.31
394.331	78.31
394.556	80.31
394.78	94.31
395.005	93.31
395.229	89.31
395.454	79.31
395.678	97.31
395.903	108.31
396.127	101.31
396.352	87.31
396.576	88.31
396.801	77.31
397.025	103.31
397.249	105.31
397.474	89.31
397.698	94.31
397.922	97.31
398.147	79.31
398.371	84.31
398.595	83.31
398.82	84.31
399.044	83.31
399.268	95.31
399.492	74.31
399.717	83.31
399.941	97.31
400.165	90.31
400.389	91.31
400.613	90.31
400.837	89.31
401.062	90.31
401.286	85.31
401.51	105.31
401.734	90.31
401.958	103.31
402.182	122.31
402.406	158.31
402.63	99.31
402.854	110.31
403.078	94.31
403.302	97.31
403.526	109.31
403.75	91.31
403.974	85.31
404.198	95.31
404.422	88.31
404.645	100.31
404.869	85.31
405.093	94.31
405.317	103.31
405.541	95.31
405.765	86.31
405.988	113.31
406.212	160.31
406.436	226.31
406.66	140.31
406.883	110.31
407.107	98.31
407.331	98.31
407.555	108.31
407.778	95.31
408.002	102.31
408.226	101.31
408.449	98.31
408.673	100.31
408.896	106.31
409.12	96.31
409.344	97.31
409.567	95.31
409.791	79.31
410.014	91.31
410.238	102.31
410.461	92.31
410.685	103.31
410.908	100.31
411.132	103.31
411.355	102.31
411.578	96.31
411.802	100.31
412.025	85.31
412.249	107.31
412.472	93.31
412.695	90.31
412.919	83.31
413.142	91.31
413.365	93.31
413.589	98.31
413.812	80.31
414.035	84.31
414.258	107.31
414.482	104.31
414.705	102.31
414.928	92.31
415.151	94.31
415.374	89.31
415.597	79.31
415.821	98.31
416.044	84.31
416.267	89.31
416.49	90.31
416.713	92.31
416.936	99.31
417.159	82.31
417.382	90.31
417.605	93.31
417.828	112.31
418.051	93.31
418.274	86.31
418.497	80.31
418.72	91.31
418.943	92.31
419.166	93.31
419.389	94.31
419.611	93.31
419.834	85.31
420.057	81.31
420.28	93.31
420.503	96.31
420.726	96.31
420.948	92.31
421.171	107.31
421.394	106.31
421.617	92.31
421.839	82.31
422.062	83.31
422.285	93.31
422.507	104.31
422.73	108.31
422.953	78.31
423.175	84.31
423.398	85.31
423.621	91.31
423.843	102.31
424.066	86.31
424.288	84.31
424.511	83.31
424.733	96.31
424.956	119.31
425.178	108.31
425.401	111.31
425.623	114.31
425.846	108.31
426.068	86.31
426.291	92.31
426.513	92.31
426.735	87.31
426.958	94.31
427.18	95.31
427.402	127.31
427.625	168.31
427.847	126.31
428.069	99.31
428.292	92.31
428.514	90.31
428.736	93.31
428.958	87.31
429.181	87.31
429.403	99.31
429.625	85.31
429.847	79.31
430.069	99.31
430.292	100.31
430.514	86.31
430.736	90.31
430.958	102.31
431.18	90.31
431.402	82.31
431.624	95.31
431.846	84.31
432.068	96.31
432.29	90.31
432.512	97.31
432.734	93.31
432.956	94.31
433.178	77.31
433.4	94.31
433.622	85.31
433.844	78.31
434.066	98.31
434.287	88.31
434.509	95.31
434.731	88.31
434.953	85.31
435.175	94.31
435.397	92.31
435.618	99.31
435.84	103.31
436.062	120.31
436.284	104.31
436.505	111.31
436.727	106.31
436.949	83.31
437.17	90.31
437.392	86.31
437.614	90.31
437.835	105.31
438.057	111.31
438.278	107.31
438.5	106.31
438.721	124.31
438.943	106.31
439.165	103.31
439.386	97.31
439.608	104.31
439.829	102.31
440.05	115.31
440.272	140.31
440.493	83.31
440.715	84.31
440.936	87.31
441.158	78.31
441.379	84.31
441.6	98.31
441.822	74.31
442.043	109.31
442.264	107.31
442.486	97.31
442.707	99.31
442.928	109.31
443.149	112.31
443.371	117.31
443.592	107.31
443.813	115.31
444.034	116.31
444.255	94.31
444.476	108.31
444.698	94.31
444.919	93.31
445.14	130.31
445.361	120.31
445.582	127.31
445.803	135.31
446.024	121.31
446.245	138.31
446.466	110.31
446.687	97.31
446.908	92.31
447.129	83.31
447.35	88.31
447.571	91.31
447.792	99.31
448.013	84.31
448.234	103.31
448.455	108.31
448.675	126.31
448.896	135.31
449.117	91.31
449.338	90.31
449.559	142.31
449.779	121.31
450	97.31
450.221	95.31
450.442	95.31
450.662	100.31
450.883	111.31
451.104	109.31
451.324	99.31
451.545	96.31
451.766	98.31
451.986	90.31
452.207	100.31
452.428	98.31
452.648	109.31
452.869	122.31
453.089	117.31
453.31	114.31
453.53	95.31
453.751	89.31
453.971	90.31
454.192	104.31
454.412	99.31
454.633	87.31
454.853	108.31
455.073	103.31
455.294	92.31
455.514	93.31
455.734	97.31
455.955	88.31
456.175	103.31
456.395	105.31
456.616	95.31
456.836	85.31
457.056	96.31
457.276	78.31
457.497	92.31
457.717	84.31
457.937	100.31
458.157	103.31
458.377	92.31
458.598	99.31
458.818	139.31
459.038	151.31
459.258	133.31
459.478	102.31
459.698	91.31
459.918	94.31
460.138	107.31
460.358	82.31
460.578	108.31
460.798	98.31
461.018	84.31
461.238	90.31
461.458	94.31
461.678	92.31
461.898	85.31
462.118	83.31
462.338	88.31
462.558	102.31
462.777	85.31
462.997	89.31
463.217	81.31
463.437	94.31
463.657	87.31
463.876	99.31
464.096	85.31
464.316	100.31
464.536	80.31
464.755	91.31
464.975	99.31
465.195	168.31
465.414	155.31
465.634	102.31
465.854	98.31
466.073	85.31
466.293	90.31
466.512	83.31
466.732	90.31
466.951	102.31
467.171	101.31
467.391	100.31
467.61	111.31
467.829	102.31
468.049	101.31
468.268	101.31
468.488	98.31
468.707	88.31
468.927	83.31
469.146	96.31
469.365	91.31
469.585	90.31
469.804	106.31
470.023	91.31
470.243	86.31
470.462	90.31
470.681	105.31
470.901	86.31
471.12	100.31
471.339	107.31
471.558	96.31
471.777	101.31
471.997	70.31
472.216	79.31
472.435	90.31
472.654	88.31
472.873	90.31
473.092	86.31
473.311	87.31
473.53	69.31
473.749	97.31
473.968	102.31
474.187	103.31
474.406	94.31
474.625	94.31
474.844	95.31
475.063	99.31
475.282	93.31
475.501	95.31
475.72	89.31
475.939	79.31
476.158	90.31
476.377	92.31
476.596	93.31
476.814	92.31
477.033	99.31
477.252	83.31
477.471	83.31
477.69	105.31
477.908	90.31
478.127	91.31
478.346	94.31
478.564	95.31
478.783	100.31
479.002	94.31
479.22	95.31
479.439	99.31
479.658	105.31
479.876	86.31
480.095	83.31
480.313	86.31
480.532	79.31
480.751	88.31
480.969	96.31
481.188	92.31
481.406	84.31
481.624	97.31
481.843	82.31
482.061	86.31
482.28	94.31
482.498	93.31
482.717	82.31
482.935	105.31
483.153	91.31
483.372	93.31
483.59	90.31
483.808	96.31
484.027	86.31
484.245	99.31
484.463	101.31
484.681	92.31
484.9	87.31
485.118	100.31
485.336	103.31
485.554	102.31
485.772	95.31
485.99	93.31
486.209	103.31
486.427	108.31
486.645	106.31
486.863	108.31
487.081	98.31
487.299	96.31
487.517	91.31
487.735	91.31
487.953	99.31
488.171	103.31
488.389	98.31
488.607	92.31
488.825	94.31
489.043	94.31
489.261	82.31
489.479	91.31
489.696	90.31
489.914	97.31
490.132	109.31
490.35	97.31
490.568	80.31
490.786	103.31
491.003	87.31
491.221	99.31
491.439	100.31
491.657	99.31
491.874	98.31
492.092	95.31
492.31	81.31
492.527	88.31
492.745	94.31
492.963	92.31
493.18	107.31
493.398	94.31
493.615	97.31
493.833	108.31
494.05	86.31
494.268	95.31
494.485	84.31
494.703	93.31
494.92	97.31
495.138	92.31
495.355	92.31
495.573	90.31
495.79	92.31
496.008	101.31
496.225	91.31
496.442	104.31
496.66	88.31
496.877	98.31
497.094	100.31
497.312	98.31
497.529	91.31
497.746	91.31
497.963	99.31
498.181	110.31
498.398	96.31
498.615	103.31
498.832	105.31
499.049	105.31
499.267	86.31
499.484	90.31
499.701	104.31
499.918	91.31
500.135	86.31
500.352	96.31
500.569	81.31
500.786	102.31
501.003	89.31
501.22	92.31
501.437	96.31
501.654	109.31
501.871	115.31
502.088	100.31
502.305	96.31
502.522	95.31
502.739	96.31
502.956	90.31
503.172	95.31
503.389	106.31
503.606	112.31
503.823	102.31
504.04	99.31
504.256	87.31
504.473	80.31
504.69	94.31
504.907	99.31
505.123	92.31
505.34	95.31
505.557	88.31
505.773	92.31
505.99	79.31
506.207	91.31
506.423	96.31
506.64	104.31
506.856	91.31
507.073	88.31
507.289	104.31
507.506	104.31
507.722	132.31
507.939	126.31
508.155	100.31
508.372	99.31
508.588	93.31
508.805	96.31
509.021	115.31
509.238	97.31
509.454	107.31
509.67	99.31
509.887	106.31
510.103	133.31
510.319	218.31
510.536	775.31
510.752	2475.31
510.968	643.31
511.184	161.31
511.401	106.31
511.617	106.31
511.833	99.31
512.049	99.31
512.265	84.31
512.481	90.31
512.698	89.31
512.914	98.31
513.13	93.31
513.346	113.31
513.562	96.31
513.778	94.31
513.994	110.31
514.21	99.31
514.426	118.31
514.642	145.31
