Data from Uncirc_1994_H10_HRD10591_00038.txt Node
Date: Wed Jan 03 11:39:28 EST 2024
User: Yrep
Spectrometer: HR+D1059
Trigger mode: 1
Integration Time (sec): 1.000000E-1
Scans to average: 1
Electric dark correction enabled: true
Nonlinearity correction enabled: false
Boxcar width: 0
XAxis mode: Wavelengths
Number of Pixels in Spectrum: 2048
>>>>>Begin Spectral Data<<<<<
223.165	-16.81
223.4	-16.81
223.635	-16.81
223.869	-27.81
224.104	-28.81
224.338	-16.81
224.573	-24.81
224.808	-2.81
225.042	3.19
225.277	-3.81
225.511	9.19
225.746	-1.81
225.98	3.19
226.215	21.19
226.449	24.19
226.683	21.19
226.918	17.19
227.152	24.19
227.387	31.19
227.621	33.19
227.856	45.19
228.09	40.19
228.324	43.19
228.559	58.19
228.793	62.19
229.027	59.19
229.262	78.19
229.496	75.19
229.73	75.19
229.964	77.19
230.199	67.19
230.433	81.19
230.667	71.19
230.901	82.19
231.136	68.19
231.37	78.19
231.604	81.19
231.838	71.19
232.072	59.19
232.306	71.19
232.541	87.19
232.775	91.19
233.009	81.19
233.243	72.19
233.477	91.19
233.711	82.19
233.945	84.19
234.179	79.19
234.413	90.19
234.647	83.19
234.881	82.19
235.115	69.19
235.349	87.19
235.583	90.19
235.817	83.19
236.051	83.19
236.285	79.19
236.519	73.19
236.753	66.19
236.987	79.19
237.221	83.19
237.455	68.19
237.689	75.19
237.922	66.19
238.156	87.19
238.39	79.19
238.624	62.19
238.858	73.19
239.091	103.19
239.325	74.19
239.559	78.19
239.793	95.19
240.027	77.19
240.26	74.19
240.494	74.19
240.728	84.19
240.961	85.19
241.195	79.19
241.429	87.19
241.662	77.19
241.896	85.19
242.13	56.19
242.363	81.19
242.597	80.19
242.83	79.19
243.064	81.19
243.298	72.19
243.531	79.19
243.765	84.19
243.998	61.19
244.232	67.19
244.465	75.19
244.699	77.19
244.932	80.19
245.166	72.19
245.399	99.19
245.633	71.19
245.866	65.19
246.099	85.19
246.333	67.19
246.566	71.19
246.8	68.19
247.033	82.19
247.266	77.19
247.5	74.19
247.733	89.19
247.966	80.19
248.2	79.19
248.433	73.19
248.666	72.19
248.899	93.19
249.133	96.19
249.366	92.19
249.599	91.19
249.832	82.19
250.066	71.19
250.299	78.19
250.532	84.19
250.765	68.19
250.998	96.19
251.231	69.19
251.465	66.19
251.698	89.19
251.931	85.19
252.164	77.19
252.397	87.19
252.63	67.19
252.863	65.19
253.096	79.19
253.329	92.19
253.562	84.19
253.795	80.19
254.028	74.19
254.261	81.19
254.494	75.19
254.727	85.19
254.96	82.19
255.193	78.19
255.426	85.19
255.659	84.19
255.892	82.19
256.124	82.19
256.357	83.19
256.59	79.19
256.823	73.19
257.056	78.19
257.289	93.19
257.521	75.19
257.754	82.19
257.987	88.19
258.22	92.19
258.452	78.19
258.685	83.19
258.918	85.19
259.151	83.19
259.383	94.19
259.616	84.19
259.849	77.19
260.081	74.19
260.314	92.19
260.547	75.19
260.779	76.19
261.012	85.19
261.244	85.19
261.477	91.19
261.71	104.19
261.942	99.19
262.175	101.19
262.407	79.19
262.64	80.19
262.872	83.19
263.105	84.19
263.337	80.19
263.57	87.19
263.802	79.19
264.035	73.19
264.267	80.19
264.499	90.19
264.732	94.19
264.964	79.19
265.197	97.19
265.429	92.19
265.661	83.19
265.894	82.19
266.126	85.19
266.358	86.19
266.591	89.19
266.823	80.19
267.055	81.19
267.287	84.19
267.52	95.19
267.752	93.19
267.984	78.19
268.216	87.19
268.448	88.19
268.681	82.19
268.913	85.19
269.145	79.19
269.377	79.19
269.609	77.19
269.841	87.19
270.073	93.19
270.306	78.19
270.538	83.19
270.77	85.19
271.002	71.19
271.234	87.19
271.466	82.19
271.698	75.19
271.93	84.19
272.162	85.19
272.394	77.19
272.626	86.19
272.858	70.19
273.09	76.19
273.322	76.19
273.553	90.19
273.785	89.19
274.017	92.19
274.249	69.19
274.481	79.19
274.713	79.19
274.945	85.19
275.176	79.19
275.408	88.19
275.64	81.19
275.872	101.19
276.104	81.19
276.335	78.19
276.567	88.19
276.799	111.19
277.031	90.19
277.262	76.19
277.494	74.19
277.726	87.19
277.957	105.19
278.189	94.19
278.421	83.19
278.652	80.19
278.884	88.19
279.115	85.19
279.347	90.19
279.579	88.19
279.81	72.19
280.042	77.19
280.273	86.19
280.505	96.19
280.736	91.19
280.968	81.19
281.199	83.19
281.431	89.19
281.662	96.19
281.894	96.19
282.125	96.19
282.356	119.19
282.588	123.19
282.819	111.19
283.051	93.19
283.282	89.19
283.513	84.19
283.745	101.19
283.976	71.19
284.207	88.19
284.439	78.19
284.67	77.19
284.901	84.19
285.132	91.19
285.364	87.19
285.595	96.19
285.826	96.19
286.057	80.19
286.288	96.19
286.52	90.19
286.751	96.19
286.982	84.19
287.213	85.19
287.444	91.19
287.675	80.19
287.906	89.19
288.138	94.19
288.369	92.19
288.6	111.19
288.831	94.19
289.062	96.19
289.293	101.19
289.524	92.19
289.755	94.19
289.986	104.19
290.217	92.19
290.448	81.19
290.679	86.19
290.91	89.19
291.141	80.19
291.371	101.19
291.602	88.19
291.833	99.19
292.064	93.19
292.295	99.19
292.526	85.19
292.757	92.19
292.987	91.19
293.218	85.19
293.449	86.19
293.68	87.19
293.91	84.19
294.141	81.19
294.372	94.19
294.603	88.19
294.833	89.19
295.064	87.19
295.295	87.19
295.525	95.19
295.756	110.19
295.987	109.19
296.217	114.19
296.448	128.19
296.679	94.19
296.909	93.19
297.14	100.19
297.37	85.19
297.601	90.19
297.831	84.19
298.062	86.19
298.292	83.19
298.523	95.19
298.753	85.19
298.984	98.19
299.214	84.19
299.445	97.19
299.675	76.19
299.905	92.19
300.136	93.19
300.366	91.19
300.597	76.19
300.827	77.19
301.057	87.19
301.288	96.19
301.518	86.19
301.748	101.19
301.979	100.19
302.209	84.19
302.439	95.19
302.669	119.19
302.9	90.19
303.13	103.19
303.36	98.19
303.59	118.19
303.82	108.19
304.051	99.19
304.281	105.19
304.511	105.19
304.741	89.19
304.971	98.19
305.201	89.19
305.431	92.19
305.661	87.19
305.891	91.19
306.121	104.19
306.352	81.19
306.582	94.19
306.812	82.19
307.042	94.19
307.272	93.19
307.502	85.19
307.731	93.19
307.961	87.19
308.191	96.19
308.421	87.19
308.651	83.19
308.881	107.19
309.111	108.19
309.341	83.19
309.571	107.19
309.8	103.19
310.03	94.19
310.26	83.19
310.49	92.19
310.72	94.19
310.949	105.19
311.179	92.19
311.409	103.19
311.639	106.19
311.868	104.19
312.098	92.19
312.328	100.19
312.557	96.19
312.787	96.19
313.017	98.19
313.246	94.19
313.476	94.19
313.706	100.19
313.935	102.19
314.165	100.19
314.394	93.19
314.624	101.19
314.853	86.19
315.083	71.19
315.312	84.19
315.542	93.19
315.771	92.19
316.001	79.19
316.23	82.19
316.46	83.19
316.689	96.19
316.919	78.19
317.148	97.19
317.377	94.19
317.607	83.19
317.836	98.19
318.065	83.19
318.295	89.19
318.524	99.19
318.753	95.19
318.983	92.19
319.212	93.19
319.441	120.19
319.67	109.19
319.9	95.19
320.129	107.19
320.358	88.19
320.587	90.19
320.816	95.19
321.046	99.19
321.275	96.19
321.504	97.19
321.733	106.19
321.962	113.19
322.191	99.19
322.42	92.19
322.649	102.19
322.878	124.19
323.108	89.19
323.337	111.19
323.566	125.19
323.795	144.19
324.024	187.19
324.253	368.19
324.482	791.19
324.71	1625.19
324.939	2107.19
325.168	793.19
325.397	225.19
325.626	149.19
325.855	135.19
326.084	122.19
326.313	149.19
326.542	161.19
326.77	211.19
326.999	431.19
327.228	945.19
327.457	1672.19
327.686	1313.19
327.914	373.19
328.143	191.19
328.372	139.19
328.6	123.19
328.829	104.19
329.058	126.19
329.287	127.19
329.515	108.19
329.744	98.19
329.972	107.19
330.201	105.19
330.43	109.19
330.658	117.19
330.887	141.19
331.115	127.19
331.344	103.19
331.572	110.19
331.801	104.19
332.03	113.19
332.258	89.19
332.486	94.19
332.715	92.19
332.943	93.19
333.172	79.19
333.4	89.19
333.629	112.19
333.857	111.19
334.085	109.19
334.314	84.19
334.542	111.19
334.771	98.19
334.999	105.19
335.227	87.19
335.455	99.19
335.684	104.19
335.912	91.19
336.14	89.19
336.369	101.19
336.597	91.19
336.825	103.19
337.053	97.19
337.281	80.19
337.51	92.19
337.738	96.19
337.966	97.19
338.194	109.19
338.422	86.19
338.65	81.19
338.878	82.19
339.106	74.19
339.334	103.19
339.562	104.19
339.79	108.19
340.018	92.19
340.246	92.19
340.474	98.19
340.702	81.19
340.93	84.19
341.158	92.19
341.386	101.19
341.614	96.19
341.842	99.19
342.07	80.19
342.298	91.19
342.526	83.19
342.754	80.19
342.981	86.19
343.209	80.19
343.437	97.19
343.665	91.19
343.893	81.19
344.12	101.19
344.348	98.19
344.576	89.19
344.804	86.19
345.031	98.19
345.259	98.19
345.487	73.19
345.714	92.19
345.942	108.19
346.17	102.19
346.397	90.19
346.625	105.19
346.853	96.19
347.08	110.19
347.308	99.19
347.535	96.19
347.763	95.19
347.99	80.19
348.218	98.19
348.445	93.19
348.673	104.19
348.9	99.19
349.128	96.19
349.355	89.19
349.583	91.19
349.81	97.19
350.037	107.19
350.265	98.19
350.492	89.19
350.72	89.19
350.947	104.19
351.174	108.19
351.402	108.19
351.629	96.19
351.856	110.19
352.083	105.19
352.311	99.19
352.538	104.19
352.765	115.19
352.992	118.19
353.22	106.19
353.447	94.19
353.674	97.19
353.901	67.19
354.128	89.19
354.355	102.19
354.583	103.19
354.81	114.19
355.037	95.19
355.264	98.19
355.491	107.19
355.718	85.19
355.945	90.19
356.172	82.19
356.399	104.19
356.626	100.19
356.853	98.19
357.08	89.19
357.307	99.19
357.534	99.19
357.761	84.19
357.988	92.19
358.215	105.19
358.441	89.19
358.668	94.19
358.895	87.19
359.122	91.19
359.349	84.19
359.576	76.19
359.802	109.19
360.029	117.19
360.256	101.19
360.483	96.19
360.709	72.19
360.936	92.19
361.163	83.19
361.39	95.19
361.616	92.19
361.843	88.19
362.07	96.19
362.296	97.19
362.523	87.19
362.749	89.19
362.976	91.19
363.203	98.19
363.429	105.19
363.656	92.19
363.882	81.19
364.109	89.19
364.335	89.19
364.562	98.19
364.788	104.19
365.015	101.19
365.241	97.19
365.468	121.19
365.694	101.19
365.92	91.19
366.147	85.19
366.373	105.19
366.599	77.19
366.826	101.19
367.052	103.19
367.278	83.19
367.505	92.19
367.731	96.19
367.957	83.19
368.184	107.19
368.41	90.19
368.636	112.19
368.862	126.19
369.089	111.19
369.315	99.19
369.541	107.19
369.767	85.19
369.993	109.19
370.219	93.19
370.445	92.19
370.672	86.19
370.898	101.19
371.124	95.19
371.35	83.19
371.576	95.19
371.802	83.19
372.028	81.19
372.254	79.19
372.48	74.19
372.706	75.19
372.932	86.19
373.158	93.19
373.384	106.19
373.61	105.19
373.835	91.19
374.061	100.19
374.287	83.19
374.513	78.19
374.739	85.19
374.965	91.19
375.191	87.19
375.416	98.19
375.642	91.19
375.868	88.19
376.094	101.19
376.319	85.19
376.545	95.19
376.771	88.19
376.997	76.19
377.222	95.19
377.448	83.19
377.674	82.19
377.899	92.19
378.125	81.19
378.35	82.19
378.576	98.19
378.802	79.19
379.027	96.19
379.253	103.19
379.478	88.19
379.704	94.19
379.929	86.19
380.155	104.19
380.38	100.19
380.606	79.19
380.831	94.19
381.057	93.19
381.282	101.19
381.507	101.19
381.733	84.19
381.958	89.19
382.184	101.19
382.409	100.19
382.634	89.19
382.86	93.19
383.085	90.19
383.31	95.19
383.535	107.19
383.761	99.19
383.986	90.19
384.211	94.19
384.436	90.19
384.662	108.19
384.887	98.19
385.112	97.19
385.337	99.19
385.562	89.19
385.787	107.19
386.013	93.19
386.238	97.19
386.463	114.19
386.688	105.19
386.913	97.19
387.138	106.19
387.363	95.19
387.588	97.19
387.813	84.19
388.038	108.19
388.263	112.19
388.488	104.19
388.713	82.19
388.938	90.19
389.163	92.19
389.387	93.19
389.612	87.19
389.837	91.19
390.062	106.19
390.287	96.19
390.512	97.19
390.736	106.19
390.961	88.19
391.186	94.19
391.411	98.19
391.636	91.19
391.86	75.19
392.085	90.19
392.31	76.19
392.534	92.19
392.759	83.19
392.984	91.19
393.208	88.19
393.433	93.19
393.658	97.19
393.882	87.19
394.107	94.19
394.331	96.19
394.556	97.19
394.78	94.19
395.005	77.19
395.229	94.19
395.454	92.19
395.678	91.19
395.903	91.19
396.127	93.19
396.352	89.19
396.576	90.19
396.801	102.19
397.025	88.19
397.249	85.19
397.474	93.19
397.698	91.19
397.922	81.19
398.147	84.19
398.371	88.19
398.595	83.19
398.82	81.19
399.044	82.19
399.268	89.19
399.492	96.19
399.717	95.19
399.941	92.19
400.165	93.19
400.389	92.19
400.613	77.19
400.837	83.19
401.062	83.19
401.286	83.19
401.51	79.19
401.734	95.19
401.958	92.19
402.182	126.19
402.406	158.19
402.63	111.19
402.854	109.19
403.078	92.19
403.302	85.19
403.526	80.19
403.75	90.19
403.974	65.19
404.198	87.19
404.422	77.19
404.645	90.19
404.869	105.19
405.093	100.19
405.317	85.19
405.541	94.19
405.765	109.19
405.988	124.19
406.212	175.19
406.436	220.19
406.66	142.19
406.883	101.19
407.107	91.19
407.331	95.19
407.555	95.19
407.778	84.19
408.002	80.19
408.226	104.19
408.449	99.19
408.673	79.19
408.896	84.19
409.12	101.19
409.344	84.19
409.567	80.19
409.791	97.19
410.014	94.19
410.238	81.19
410.461	98.19
410.685	96.19
410.908	104.19
411.132	105.19
411.355	87.19
411.578	84.19
411.802	77.19
412.025	74.19
412.249	75.19
412.472	94.19
412.695	94.19
412.919	72.19
413.142	76.19
413.365	87.19
413.589	105.19
413.812	79.19
414.035	79.19
414.258	83.19
414.482	85.19
414.705	95.19
414.928	88.19
415.151	95.19
415.374	84.19
415.597	101.19
415.821	78.19
416.044	88.19
416.267	100.19
416.49	81.19
416.713	79.19
416.936	98.19
417.159	76.19
417.382	86.19
417.605	82.19
417.828	107.19
418.051	121.19
418.274	91.19
418.497	95.19
418.72	90.19
418.943	97.19
419.166	90.19
419.389	97.19
419.611	92.19
419.834	87.19
420.057	93.19
420.28	93.19
420.503	87.19
420.726	79.19
420.948	88.19
421.171	100.19
421.394	106.19
421.617	90.19
421.839	87.19
422.062	94.19
422.285	94.19
422.507	106.19
422.73	94.19
422.953	109.19
423.175	96.19
423.398	87.19
423.621	78.19
423.843	76.19
424.066	86.19
424.288	88.19
424.511	87.19
424.733	89.19
424.956	113.19
425.178	105.19
425.401	103.19
425.623	93.19
425.846	107.19
426.068	105.19
426.291	99.19
426.513	92.19
426.735	99.19
426.958	91.19
427.18	107.19
427.402	145.19
427.625	155.19
427.847	112.19
428.069	91.19
428.292	95.19
428.514	83.19
428.736	79.19
428.958	76.19
429.181	101.19
429.403	101.19
429.625	94.19
429.847	93.19
430.069	95.19
430.292	96.19
430.514	86.19
430.736	83.19
430.958	99.19
431.18	85.19
431.402	81.19
431.624	90.19
431.846	80.19
432.068	81.19
432.29	95.19
432.512	87.19
432.734	82.19
432.956	84.19
433.178	106.19
433.4	105.19
433.622	84.19
433.844	81.19
434.066	85.19
434.287	80.19
434.509	80.19
434.731	91.19
434.953	91.19
435.175	90.19
435.397	103.19
435.618	97.19
435.84	97.19
436.062	120.19
436.284	115.19
436.505	110.19
436.727	104.19
436.949	111.19
437.17	85.19
437.392	80.19
437.614	91.19
437.835	101.19
438.057	115.19
438.278	116.19
438.5	100.19
438.721	119.19
438.943	106.19
439.165	88.19
439.386	87.19
439.608	98.19
439.829	101.19
440.05	122.19
440.272	142.19
440.493	108.19
440.715	90.19
440.936	89.19
441.158	85.19
441.379	81.19
441.6	101.19
441.822	103.19
442.043	91.19
442.264	106.19
442.486	90.19
442.707	97.19
442.928	102.19
443.149	115.19
443.371	139.19
443.592	104.19
443.813	108.19
444.034	110.19
444.255	94.19
444.476	94.19
444.698	88.19
444.919	88.19
445.14	123.19
445.361	128.19
445.582	108.19
445.803	122.19
446.024	126.19
446.245	128.19
446.466	113.19
446.687	96.19
446.908	98.19
447.129	85.19
447.35	82.19
447.571	92.19
447.792	101.19
448.013	104.19
448.234	108.19
448.455	96.19
448.675	121.19
448.896	111.19
449.117	90.19
449.338	112.19
449.559	115.19
449.779	142.19
450	93.19
450.221	94.19
450.442	101.19
450.662	101.19
450.883	101.19
451.104	92.19
451.324	89.19
451.545	88.19
451.766	80.19
451.986	90.19
452.207	90.19
452.428	100.19
452.648	91.19
452.869	115.19
453.089	128.19
453.31	109.19
453.53	88.19
453.751	86.19
453.971	97.19
454.192	123.19
454.412	91.19
454.633	79.19
454.853	89.19
455.073	85.19
455.294	97.19
455.514	97.19
455.734	100.19
455.955	81.19
456.175	80.19
456.395	89.19
456.616	101.19
456.836	88.19
457.056	94.19
457.276	94.19
457.497	92.19
457.717	76.19
457.937	83.19
458.157	85.19
458.377	80.19
458.598	102.19
458.818	138.19
459.038	157.19
459.258	107.19
459.478	89.19
459.698	88.19
459.918	92.19
460.138	87.19
460.358	87.19
460.578	75.19
460.798	83.19
461.018	81.19
461.238	100.19
461.458	97.19
461.678	87.19
461.898	82.19
462.118	87.19
462.338	81.19
462.558	73.19
462.777	86.19
462.997	89.19
463.217	85.19
463.437	98.19
463.657	97.19
463.876	87.19
464.096	98.19
464.316	94.19
464.536	99.19
464.755	84.19
464.975	109.19
465.195	168.19
465.414	141.19
465.634	101.19
465.854	97.19
466.073	91.19
466.293	94.19
466.512	87.19
466.732	79.19
466.951	104.19
467.171	106.19
467.391	96.19
467.61	91.19
467.829	93.19
468.049	83.19
468.268	85.19
468.488	80.19
468.707	92.19
468.927	83.19
469.146	98.19
469.365	78.19
469.585	84.19
469.804	91.19
470.023	80.19
470.243	92.19
470.462	96.19
470.681	110.19
470.901	92.19
471.12	97.19
471.339	97.19
471.558	96.19
471.777	76.19
471.997	75.19
472.216	89.19
472.435	82.19
472.654	78.19
472.873	94.19
473.092	92.19
473.311	87.19
473.53	93.19
473.749	95.19
473.968	84.19
474.187	116.19
474.406	96.19
474.625	88.19
474.844	86.19
475.063	96.19
475.282	87.19
475.501	83.19
475.72	81.19
475.939	81.19
476.158	84.19
476.377	91.19
476.596	105.19
476.814	90.19
477.033	97.19
477.252	97.19
477.471	85.19
477.69	85.19
477.908	83.19
478.127	83.19
478.346	79.19
478.564	87.19
478.783	100.19
479.002	88.19
479.22	91.19
479.439	95.19
479.658	99.19
479.876	78.19
480.095	88.19
480.313	97.19
480.532	77.19
480.751	87.19
480.969	97.19
481.188	102.19
481.406	84.19
481.624	88.19
481.843	88.19
482.061	98.19
482.28	88.19
482.498	83.19
482.717	82.19
482.935	98.19
483.153	88.19
483.372	88.19
483.59	99.19
483.808	93.19
484.027	77.19
484.245	99.19
484.463	86.19
484.681	106.19
484.9	81.19
485.118	77.19
485.336	67.19
485.554	92.19
485.772	101.19
485.99	101.19
486.209	95.19
486.427	113.19
486.645	101.19
486.863	105.19
487.081	107.19
487.299	75.19
487.517	81.19
487.735	104.19
487.953	84.19
488.171	81.19
488.389	105.19
488.607	103.19
488.825	84.19
489.043	87.19
489.261	83.19
489.479	95.19
489.696	101.19
489.914	84.19
490.132	81.19
490.35	77.19
490.568	92.19
490.786	88.19
491.003	82.19
491.221	75.19
491.439	89.19
491.657	93.19
491.874	98.19
492.092	90.19
492.31	94.19
492.527	79.19
492.745	94.19
492.963	95.19
493.18	88.19
493.398	92.19
493.615	97.19
493.833	83.19
494.05	91.19
494.268	95.19
494.485	98.19
494.703	96.19
494.92	81.19
495.138	83.19
495.355	70.19
495.573	99.19
495.79	103.19
496.008	87.19
496.225	99.19
496.442	87.19
496.66	80.19
496.877	95.19
497.094	101.19
497.312	96.19
497.529	93.19
497.746	77.19
497.963	77.19
498.181	100.19
498.398	102.19
498.615	115.19
498.832	111.19
499.049	92.19
499.267	83.19
499.484	109.19
499.701	94.19
499.918	94.19
500.135	97.19
500.352	86.19
500.569	83.19
500.786	89.19
501.003	94.19
501.22	86.19
501.437	101.19
501.654	93.19
501.871	95.19
502.088	84.19
502.305	89.19
502.522	83.19
502.739	89.19
502.956	95.19
503.172	90.19
503.389	96.19
503.606	100.19
503.823	100.19
504.04	91.19
504.256	84.19
504.473	91.19
504.69	88.19
504.907	96.19
505.123	80.19
505.34	86.19
505.557	104.19
505.773	80.19
505.99	83.19
506.207	85.19
506.423	100.19
506.64	93.19
506.856	87.19
507.073	92.19
507.289	99.19
507.506	94.19
507.722	108.19
507.939	103.19
508.155	100.19
508.372	84.19
508.588	75.19
508.805	98.19
509.021	94.19
509.238	95.19
509.454	98.19
509.67	105.19
509.887	107.19
510.103	125.19
510.319	215.19
510.536	768.19
510.752	2339.19
510.968	664.19
511.184	153.19
511.401	116.19
511.617	107.19
511.833	92.19
512.049	95.19
512.265	90.19
512.481	89.19
512.698	91.19
512.914	93.19
513.13	97.19
513.346	92.19
513.562	100.19
513.778	88.19
513.994	95.19
514.21	120.19
514.426	113.19
514.642	159.19
514.858	133.19
515.074	162.19
515.29	427.19
515.506	1486.19
515.721	530.19
