Data from Uncirc_1994_H10_HRD10591_00099.txt Node
Date: Wed Jan 03 11:39:40 EST 2024
User: Yrep
Spectrometer: HR+D1059
Trigger mode: 1
Integration Time (sec): 1.000000E-1
Scans to average: 1
Electric dark correction enabled: true
Nonlinearity correction enabled: false
Boxcar width: 0
XAxis mode: Wavelengths
Number of Pixels in Spectrum: 2048
>>>>>Begin Spectral Data<<<<<
223.165	-19.06
223.4	-19.06
223.635	-19.06
223.869	-5.06
224.104	-1.06
224.338	-20.06
224.573	-11.06
224.808	-27.06
225.042	-11.06
225.277	-12.06
225.511	4.94
225.746	3.94
225.98	-0.06
226.215	13.94
226.449	12.94
226.683	24.94
226.918	23.94
227.152	21.94
227.387	24.94
227.621	33.94
227.856	38.94
228.09	30.94
228.324	44.94
228.559	49.94
228.793	54.94
229.027	59.94
229.262	67.94
229.496	74.94
229.73	86.94
229.964	67.94
230.199	67.94
230.433	64.94
230.667	62.94
230.901	73.94
231.136	83.94
231.37	55.94
231.604	83.94
231.838	83.94
232.072	87.94
232.306	69.94
232.541	77.94
232.775	83.94
233.009	94.94
233.243	74.94
233.477	89.94
233.711	87.94
233.945	81.94
234.179	75.94
234.413	71.94
234.647	85.94
234.881	77.94
235.115	90.94
235.349	82.94
235.583	91.94
235.817	84.94
236.051	70.94
236.285	82.94
236.519	76.94
236.753	83.94
236.987	88.94
237.221	78.94
237.455	62.94
237.689	77.94
237.922	73.94
238.156	81.94
238.39	60.94
238.624	71.94
238.858	75.94
239.091	86.94
239.325	76.94
239.559	71.94
239.793	65.94
240.027	71.94
240.26	74.94
240.494	73.94
240.728	61.94
240.961	76.94
241.195	71.94
241.429	83.94
241.662	75.94
241.896	70.94
242.13	70.94
242.363	69.94
242.597	69.94
242.83	89.94
243.064	67.94
243.298	87.94
243.531	70.94
243.765	74.94
243.998	68.94
244.232	70.94
244.465	65.94
244.699	85.94
244.932	74.94
245.166	73.94
245.399	74.94
245.633	78.94
245.866	65.94
246.099	64.94
246.333	72.94
246.566	71.94
246.8	77.94
247.033	79.94
247.266	74.94
247.5	84.94
247.733	72.94
247.966	85.94
248.2	88.94
248.433	78.94
248.666	69.94
248.899	84.94
249.133	79.94
249.366	91.94
249.599	89.94
249.832	85.94
250.066	69.94
250.299	71.94
250.532	72.94
250.765	69.94
250.998	91.94
251.231	90.94
251.465	62.94
251.698	68.94
251.931	76.94
252.164	73.94
252.397	86.94
252.63	79.94
252.863	63.94
253.096	77.94
253.329	91.94
253.562	73.94
253.795	81.94
254.028	83.94
254.261	73.94
254.494	80.94
254.727	72.94
254.96	63.94
255.193	67.94
255.426	83.94
255.659	72.94
255.892	77.94
256.124	82.94
256.357	85.94
256.59	78.94
256.823	79.94
257.056	88.94
257.289	75.94
257.521	76.94
257.754	63.94
257.987	59.94
258.22	79.94
258.452	73.94
258.685	71.94
258.918	65.94
259.151	77.94
259.383	89.94
259.616	69.94
259.849	83.94
260.081	78.94
260.314	73.94
260.547	76.94
260.779	76.94
261.012	90.94
261.244	80.94
261.477	91.94
261.71	90.94
261.942	102.94
262.175	104.94
262.407	85.94
262.64	77.94
262.872	75.94
263.105	76.94
263.337	80.94
263.57	80.94
263.802	80.94
264.035	68.94
264.267	72.94
264.499	86.94
264.732	76.94
264.964	76.94
265.197	77.94
265.429	88.94
265.661	94.94
265.894	70.94
266.126	86.94
266.358	104.94
266.591	89.94
266.823	96.94
267.055	71.94
267.287	71.94
267.52	97.94
267.752	77.94
267.984	75.94
268.216	84.94
268.448	64.94
268.681	77.94
268.913	76.94
269.145	68.94
269.377	72.94
269.609	70.94
269.841	78.94
270.073	88.94
270.306	79.94
270.538	81.94
270.77	66.94
271.002	79.94
271.234	89.94
271.466	96.94
271.698	76.94
271.93	88.94
272.162	84.94
272.394	85.94
272.626	79.94
272.858	81.94
273.09	67.94
273.322	82.94
273.553	81.94
273.785	80.94
274.017	73.94
274.249	80.94
274.481	74.94
274.713	70.94
274.945	85.94
275.176	80.94
275.408	88.94
275.64	79.94
275.872	62.94
276.104	59.94
276.335	92.94
276.567	91.94
276.799	85.94
277.031	98.94
277.262	88.94
277.494	85.94
277.726	77.94
277.957	86.94
278.189	80.94
278.421	82.94
278.652	81.94
278.884	79.94
279.115	83.94
279.347	86.94
279.579	84.94
279.81	74.94
280.042	76.94
280.273	90.94
280.505	81.94
280.736	75.94
280.968	88.94
281.199	80.94
281.431	71.94
281.662	84.94
281.894	103.94
282.125	97.94
282.356	115.94
282.588	127.94
282.819	105.94
283.051	79.94
283.282	102.94
283.513	86.94
283.745	86.94
283.976	71.94
284.207	88.94
284.439	68.94
284.67	93.94
284.901	68.94
285.132	91.94
285.364	86.94
285.595	89.94
285.826	72.94
286.057	83.94
286.288	68.94
286.52	80.94
286.751	78.94
286.982	80.94
287.213	86.94
287.444	90.94
287.675	73.94
287.906	74.94
288.138	88.94
288.369	82.94
288.6	89.94
288.831	82.94
289.062	95.94
289.293	86.94
289.524	78.94
289.755	73.94
289.986	84.94
290.217	87.94
290.448	84.94
290.679	88.94
290.91	72.94
291.141	81.94
291.371	80.94
291.602	89.94
291.833	98.94
292.064	83.94
292.295	88.94
292.526	76.94
292.757	76.94
292.987	84.94
293.218	91.94
293.449	86.94
293.68	87.94
293.91	78.94
294.141	92.94
294.372	85.94
294.603	78.94
294.833	77.94
295.064	83.94
295.295	79.94
295.525	85.94
295.756	90.94
295.987	121.94
296.217	147.94
296.448	112.94
296.679	88.94
296.909	93.94
297.14	85.94
297.37	74.94
297.601	85.94
297.831	85.94
298.062	97.94
298.292	92.94
298.523	92.94
298.753	89.94
298.984	78.94
299.214	97.94
299.445	85.94
299.675	94.94
299.905	90.94
300.136	85.94
300.366	86.94
300.597	85.94
300.827	95.94
301.057	99.94
301.288	93.94
301.518	97.94
301.748	72.94
301.979	86.94
302.209	88.94
302.439	92.94
302.669	91.94
302.9	84.94
303.13	87.94
303.36	88.94
303.59	80.94
303.82	97.94
304.051	86.94
304.281	96.94
304.511	96.94
304.741	82.94
304.971	79.94
305.201	87.94
305.431	89.94
305.661	92.94
305.891	92.94
306.121	93.94
306.352	86.94
306.582	105.94
306.812	76.94
307.042	81.94
307.272	82.94
307.502	97.94
307.731	91.94
307.961	84.94
308.191	92.94
308.421	88.94
308.651	95.94
308.881	105.94
309.111	76.94
309.341	84.94
309.571	93.94
309.8	79.94
310.03	95.94
310.26	82.94
310.49	99.94
310.72	92.94
310.949	85.94
311.179	81.94
311.409	103.94
311.639	87.94
311.868	84.94
312.098	78.94
312.328	86.94
312.557	102.94
312.787	93.94
313.017	87.94
313.246	83.94
313.476	98.94
313.706	84.94
313.935	89.94
314.165	100.94
314.394	98.94
314.624	94.94
314.853	83.94
315.083	84.94
315.312	101.94
315.542	91.94
315.771	78.94
316.001	89.94
316.23	85.94
316.46	81.94
316.689	92.94
316.919	88.94
317.148	89.94
317.377	103.94
317.607	94.94
317.836	92.94
318.065	90.94
318.295	90.94
318.524	93.94
318.753	83.94
318.983	87.94
319.212	91.94
319.441	101.94
319.67	107.94
319.9	102.94
320.129	85.94
320.358	89.94
320.587	102.94
320.816	85.94
321.046	94.94
321.275	93.94
321.504	89.94
321.733	105.94
321.962	100.94
322.191	104.94
322.42	104.94
322.649	100.94
322.878	107.94
323.108	94.94
323.337	125.94
323.566	112.94
323.795	141.94
324.024	210.94
324.253	391.94
324.482	852.94
324.71	1716.94
324.939	2207.94
325.168	835.94
325.397	254.94
325.626	140.94
325.855	118.94
326.084	107.94
326.313	117.94
326.542	153.94
326.77	237.94
326.999	465.94
327.228	944.94
327.457	1752.94
327.686	1357.94
327.914	362.94
328.143	196.94
328.372	153.94
328.6	105.94
328.829	113.94
329.058	120.94
329.287	108.94
329.515	103.94
329.744	103.94
329.972	85.94
330.201	103.94
330.43	107.94
330.658	109.94
330.887	135.94
331.115	109.94
331.344	100.94
331.572	95.94
331.801	107.94
332.03	102.94
332.258	83.94
332.486	98.94
332.715	93.94
332.943	75.94
333.172	88.94
333.4	89.94
333.629	86.94
333.857	100.94
334.085	96.94
334.314	97.94
334.542	100.94
334.771	92.94
334.999	97.94
335.227	101.94
335.455	102.94
335.684	113.94
335.912	96.94
336.14	100.94
336.369	97.94
336.597	97.94
336.825	93.94
337.053	69.94
337.281	96.94
337.51	87.94
337.738	90.94
337.966	101.94
338.194	97.94
338.422	94.94
338.65	83.94
338.878	88.94
339.106	95.94
339.334	99.94
339.562	76.94
339.79	87.94
340.018	99.94
340.246	95.94
340.474	97.94
340.702	83.94
340.93	81.94
341.158	88.94
341.386	95.94
341.614	91.94
341.842	89.94
342.07	93.94
342.298	93.94
342.526	83.94
342.754	92.94
342.981	94.94
343.209	91.94
343.437	100.94
343.665	79.94
343.893	79.94
344.12	101.94
344.348	81.94
344.576	89.94
344.804	87.94
345.031	87.94
345.259	82.94
345.487	87.94
345.714	91.94
345.942	85.94
346.17	91.94
346.397	99.94
346.625	70.94
346.853	92.94
347.08	90.94
347.308	91.94
347.535	85.94
347.763	95.94
347.99	97.94
348.218	100.94
348.445	108.94
348.673	94.94
348.9	90.94
349.128	90.94
349.355	91.94
349.583	95.94
349.81	97.94
350.037	87.94
350.265	91.94
350.492	84.94
350.72	86.94
350.947	103.94
351.174	95.94
351.402	101.94
351.629	89.94
351.856	101.94
352.083	97.94
352.311	113.94
352.538	103.94
352.765	106.94
352.992	109.94
353.22	102.94
353.447	99.94
353.674	97.94
353.901	87.94
354.128	88.94
354.355	91.94
354.583	110.94
354.81	104.94
355.037	73.94
355.264	85.94
355.491	92.94
355.718	83.94
355.945	85.94
356.172	81.94
356.399	81.94
356.626	88.94
356.853	100.94
357.08	91.94
357.307	103.94
357.534	91.94
357.761	86.94
357.988	79.94
358.215	84.94
358.441	83.94
358.668	79.94
358.895	91.94
359.122	79.94
359.349	93.94
359.576	94.94
359.802	103.94
360.029	101.94
360.256	103.94
360.483	88.94
360.709	71.94
360.936	79.94
361.163	80.94
361.39	89.94
361.616	74.94
361.843	83.94
362.07	87.94
362.296	94.94
362.523	93.94
362.749	81.94
362.976	98.94
363.203	89.94
363.429	77.94
363.656	88.94
363.882	86.94
364.109	91.94
364.335	88.94
364.562	78.94
364.788	92.94
365.015	79.94
365.241	94.94
365.468	102.94
365.694	102.94
365.92	80.94
366.147	90.94
366.373	84.94
366.599	81.94
366.826	89.94
367.052	81.94
367.278	83.94
367.505	75.94
367.731	80.94
367.957	91.94
368.184	93.94
368.41	112.94
368.636	101.94
368.862	107.94
369.089	94.94
369.315	71.94
369.541	96.94
369.767	82.94
369.993	89.94
370.219	83.94
370.445	95.94
370.672	85.94
370.898	91.94
371.124	87.94
371.35	89.94
371.576	73.94
371.802	86.94
372.028	92.94
372.254	80.94
372.48	81.94
372.706	78.94
372.932	74.94
373.158	101.94
373.384	88.94
373.61	84.94
373.835	94.94
374.061	83.94
374.287	79.94
374.513	80.94
374.739	87.94
374.965	83.94
375.191	94.94
375.416	85.94
375.642	73.94
375.868	73.94
376.094	91.94
376.319	75.94
376.545	84.94
376.771	84.94
376.997	80.94
377.222	76.94
377.448	92.94
377.674	72.94
377.899	83.94
378.125	90.94
378.35	93.94
378.576	87.94
378.802	78.94
379.027	84.94
379.253	82.94
379.478	78.94
379.704	83.94
379.929	77.94
380.155	84.94
380.38	95.94
380.606	100.94
380.831	89.94
381.057	87.94
381.282	73.94
381.507	86.94
381.733	87.94
381.958	92.94
382.184	90.94
382.409	91.94
382.634	91.94
382.86	89.94
383.085	78.94
383.31	94.94
383.535	103.94
383.761	95.94
383.986	93.94
384.211	92.94
384.436	97.94
384.662	92.94
384.887	104.94
385.112	100.94
385.337	96.94
385.562	84.94
385.787	92.94
386.013	100.94
386.238	117.94
386.463	106.94
386.688	92.94
386.913	86.94
387.138	102.94
387.363	108.94
387.588	101.94
387.813	100.94
388.038	95.94
388.263	111.94
388.488	107.94
388.713	91.94
388.938	93.94
389.163	93.94
389.387	81.94
389.612	91.94
389.837	83.94
390.062	90.94
390.287	98.94
390.512	88.94
390.736	71.94
390.961	80.94
391.186	82.94
391.411	90.94
391.636	79.94
391.86	97.94
392.085	88.94
392.31	78.94
392.534	86.94
392.759	85.94
392.984	86.94
393.208	88.94
393.433	83.94
393.658	89.94
393.882	76.94
394.107	79.94
394.331	86.94
394.556	77.94
394.78	69.94
395.005	96.94
395.229	80.94
395.454	89.94
395.678	81.94
395.903	67.94
396.127	95.94
396.352	90.94
396.576	86.94
396.801	83.94
397.025	87.94
397.249	92.94
397.474	78.94
397.698	73.94
397.922	96.94
398.147	87.94
398.371	71.94
398.595	84.94
398.82	83.94
399.044	77.94
399.268	87.94
399.492	71.94
399.717	80.94
399.941	92.94
400.165	84.94
400.389	79.94
400.613	75.94
400.837	69.94
401.062	80.94
401.286	101.94
401.51	80.94
401.734	83.94
401.958	93.94
402.182	119.94
402.406	156.94
402.63	112.94
402.854	96.94
403.078	84.94
403.302	80.94
403.526	97.94
403.75	84.94
403.974	73.94
404.198	74.94
404.422	81.94
404.645	81.94
404.869	80.94
405.093	72.94
405.317	84.94
405.541	91.94
405.765	81.94
405.988	116.94
406.212	167.94
406.436	217.94
406.66	143.94
406.883	85.94
407.107	87.94
407.331	102.94
407.555	88.94
407.778	94.94
408.002	73.94
408.226	88.94
408.449	76.94
408.673	86.94
408.896	92.94
409.12	99.94
409.344	79.94
409.567	77.94
409.791	77.94
410.014	90.94
410.238	80.94
410.461	84.94
410.685	88.94
410.908	85.94
411.132	90.94
411.355	82.94
411.578	85.94
411.802	90.94
412.025	81.94
412.249	71.94
412.472	78.94
412.695	100.94
412.919	82.94
413.142	79.94
413.365	75.94
413.589	80.94
413.812	79.94
414.035	83.94
414.258	73.94
414.482	96.94
414.705	80.94
414.928	78.94
415.151	84.94
415.374	89.94
415.597	86.94
415.821	70.94
416.044	84.94
416.267	91.94
416.49	87.94
416.713	86.94
416.936	74.94
417.159	81.94
417.382	70.94
417.605	100.94
417.828	95.94
418.051	98.94
418.274	94.94
418.497	80.94
418.72	84.94
418.943	89.94
419.166	83.94
419.389	86.94
419.611	85.94
419.834	80.94
420.057	80.94
420.28	83.94
420.503	79.94
420.726	93.94
420.948	93.94
421.171	81.94
421.394	87.94
421.617	91.94
421.839	89.94
422.062	67.94
422.285	84.94
422.507	82.94
422.73	88.94
422.953	87.94
423.175	93.94
423.398	78.94
423.621	83.94
423.843	87.94
424.066	80.94
424.288	76.94
424.511	80.94
424.733	91.94
424.956	97.94
425.178	94.94
425.401	94.94
425.623	94.94
425.846	94.94
426.068	85.94
426.291	77.94
426.513	94.94
426.735	74.94
426.958	92.94
427.18	92.94
427.402	144.94
427.625	144.94
427.847	118.94
428.069	99.94
428.292	81.94
428.514	72.94
428.736	78.94
428.958	75.94
429.181	105.94
429.403	87.94
429.625	83.94
429.847	91.94
430.069	86.94
430.292	86.94
430.514	87.94
430.736	87.94
430.958	84.94
431.18	63.94
431.402	86.94
431.624	69.94
431.846	79.94
432.068	85.94
432.29	84.94
432.512	84.94
432.734	90.94
432.956	87.94
433.178	94.94
433.4	103.94
433.622	63.94
433.844	82.94
434.066	85.94
434.287	97.94
434.509	78.94
434.731	88.94
434.953	92.94
435.175	94.94
435.397	95.94
435.618	95.94
435.84	104.94
436.062	132.94
436.284	101.94
436.505	86.94
436.727	94.94
436.949	79.94
437.17	80.94
437.392	89.94
437.614	83.94
437.835	75.94
438.057	106.94
438.278	97.94
438.5	93.94
438.721	98.94
438.943	95.94
439.165	90.94
439.386	78.94
439.608	93.94
439.829	83.94
440.05	118.94
440.272	131.94
440.493	95.94
440.715	83.94
440.936	87.94
441.158	90.94
441.379	79.94
441.6	89.94
441.822	89.94
442.043	102.94
442.264	101.94
442.486	79.94
442.707	83.94
442.928	111.94
443.149	121.94
443.371	132.94
443.592	83.94
443.813	108.94
444.034	107.94
444.255	93.94
444.476	88.94
444.698	91.94
444.919	87.94
445.14	137.94
445.361	114.94
445.582	105.94
445.803	136.94
446.024	133.94
446.245	120.94
446.466	97.94
446.687	89.94
446.908	77.94
447.129	73.94
447.35	83.94
447.571	84.94
447.792	103.94
448.013	91.94
448.234	96.94
448.455	89.94
448.675	113.94
448.896	96.94
449.117	86.94
449.338	96.94
449.559	110.94
449.779	114.94
450	105.94
450.221	87.94
450.442	84.94
450.662	82.94
450.883	105.94
451.104	115.94
451.324	83.94
451.545	83.94
451.766	93.94
451.986	78.94
452.207	88.94
452.428	88.94
452.648	95.94
452.869	104.94
453.089	83.94
453.31	110.94
453.53	80.94
453.751	93.94
453.971	105.94
454.192	110.94
454.412	85.94
454.633	91.94
454.853	88.94
455.073	89.94
455.294	85.94
455.514	81.94
455.734	86.94
455.955	81.94
456.175	76.94
456.395	81.94
456.616	85.94
456.836	83.94
457.056	72.94
457.276	77.94
457.497	63.94
457.717	88.94
457.937	91.94
458.157	90.94
458.377	81.94
458.598	103.94
458.818	162.94
459.038	157.94
459.258	113.94
459.478	91.94
459.698	88.94
459.918	73.94
460.138	73.94
460.358	77.94
460.578	77.94
460.798	85.94
461.018	72.94
461.238	71.94
461.458	68.94
461.678	77.94
461.898	82.94
462.118	82.94
462.338	76.94
462.558	73.94
462.777	70.94
462.997	63.94
463.217	91.94
463.437	91.94
463.657	81.94
463.876	92.94
464.096	97.94
464.316	77.94
464.536	84.94
464.755	92.94
464.975	92.94
465.195	149.94
465.414	155.94
465.634	87.94
465.854	95.94
466.073	89.94
466.293	83.94
466.512	69.94
466.732	87.94
466.951	70.94
467.171	95.94
467.391	85.94
467.61	91.94
467.829	97.94
468.049	85.94
468.268	75.94
468.488	73.94
468.707	78.94
468.927	80.94
469.146	89.94
469.365	93.94
469.585	91.94
469.804	95.94
470.023	80.94
470.243	100.94
470.462	101.94
470.681	104.94
470.901	73.94
471.12	84.94
471.339	89.94
471.558	88.94
471.777	87.94
471.997	81.94
472.216	78.94
472.435	90.94
472.654	79.94
472.873	97.94
473.092	78.94
473.311	76.94
473.53	80.94
473.749	92.94
473.968	90.94
474.187	117.94
474.406	91.94
474.625	81.94
474.844	81.94
475.063	76.94
475.282	83.94
475.501	83.94
475.72	87.94
475.939	75.94
476.158	77.94
476.377	81.94
476.596	85.94
476.814	81.94
477.033	95.94
477.252	80.94
477.471	94.94
477.69	100.94
477.908	76.94
478.127	93.94
478.346	85.94
478.564	93.94
478.783	85.94
479.002	88.94
479.22	85.94
479.439	102.94
479.658	93.94
479.876	72.94
480.095	86.94
480.313	87.94
480.532	87.94
480.751	88.94
480.969	81.94
481.188	95.94
481.406	87.94
481.624	74.94
481.843	82.94
482.061	80.94
482.28	84.94
482.498	81.94
482.717	83.94
482.935	92.94
483.153	87.94
483.372	81.94
483.59	82.94
483.808	86.94
484.027	76.94
484.245	101.94
484.463	89.94
484.681	106.94
484.9	101.94
485.118	81.94
485.336	86.94
485.554	107.94
485.772	85.94
485.99	108.94
486.209	81.94
486.427	93.94
486.645	103.94
486.863	119.94
487.081	102.94
487.299	94.94
487.517	95.94
487.735	86.94
487.953	99.94
488.171	99.94
488.389	73.94
488.607	89.94
488.825	84.94
489.043	79.94
489.261	81.94
489.479	99.94
489.696	77.94
489.914	87.94
490.132	69.94
490.35	76.94
490.568	84.94
490.786	74.94
491.003	83.94
491.221	79.94
491.439	73.94
491.657	85.94
491.874	78.94
492.092	81.94
492.31	100.94
492.527	66.94
492.745	79.94
492.963	97.94
493.18	84.94
493.398	87.94
493.615	106.94
493.833	90.94
494.05	92.94
494.268	70.94
494.485	81.94
494.703	71.94
494.92	86.94
495.138	75.94
495.355	85.94
495.573	91.94
495.79	85.94
496.008	68.94
496.225	84.94
496.442	72.94
496.66	87.94
496.877	74.94
497.094	103.94
497.312	87.94
497.529	86.94
497.746	78.94
497.963	71.94
498.181	84.94
498.398	87.94
498.615	97.94
498.832	96.94
499.049	84.94
499.267	83.94
499.484	98.94
499.701	87.94
499.918	85.94
500.135	71.94
500.352	98.94
500.569	83.94
500.786	97.94
501.003	84.94
501.22	85.94
501.437	83.94
501.654	83.94
501.871	108.94
502.088	94.94
502.305	87.94
502.522	83.94
502.739	86.94
502.956	87.94
503.172	83.94
503.389	105.94
503.606	98.94
503.823	95.94
504.04	100.94
504.256	93.94
504.473	99.94
504.69	72.94
504.907	92.94
505.123	83.94
505.34	72.94
505.557	88.94
505.773	89.94
505.99	94.94
506.207	84.94
506.423	97.94
506.64	77.94
506.856	85.94
507.073	97.94
507.289	83.94
507.506	92.94
507.722	120.94
507.939	111.94
508.155	104.94
508.372	90.94
508.588	95.94
508.805	83.94
509.021	86.94
509.238	92.94
509.454	90.94
509.67	103.94
509.887	104.94
510.103	132.94
510.319	211.94
510.536	802.94
510.752	2547.94
510.968	686.94
511.184	164.94
511.401	116.94
511.617	100.94
511.833	86.94
512.049	90.94
512.265	82.94
512.481	91.94
512.698	95.94
512.914	85.94
513.13	88.94
513.346	80.94
513.562	80.94
513.778	96.94
513.994	94.94
514.21	103.94
514.426	108.94
514.642	133.94
514.858	122.94
515.074	153.94
515.29	477.94
515.506	1531.94
515.721	553.94
515.937	141.94
516.153	102.94
516.369	96.94
516.585	92.94
516.801	96.94
517.016	84.94
517.232	99.94
