Data from Uncirc_1994_H10_HRD10591_00046.txt Node
Date: Wed Jan 03 11:39:30 EST 2024
User: Yrep
Spectrometer: HR+D1059
Trigger mode: 1
Integration Time (sec): 1.000000E-1
Scans to average: 1
Electric dark correction enabled: true
Nonlinearity correction enabled: false
Boxcar width: 0
XAxis mode: Wavelengths
Number of Pixels in Spectrum: 2048
>>>>>Begin Spectral Data<<<<<
223.165	-16.38
223.4	-16.38
223.635	-16.38
223.869	-26.38
224.104	-7.38
224.338	-16.38
224.573	-31.38
224.808	-18.38
225.042	-2.38
225.277	6.62
225.511	-1.38
225.746	2.62
225.98	20.62
226.215	11.62
226.449	13.62
226.683	4.62
226.918	31.62
227.152	28.62
227.387	12.62
227.621	38.62
227.856	39.62
228.09	44.62
228.324	48.62
228.559	65.62
228.793	47.62
229.027	61.62
229.262	59.62
229.496	65.62
229.73	89.62
229.964	77.62
230.199	65.62
230.433	71.62
230.667	81.62
230.901	83.62
231.136	71.62
231.37	68.62
231.604	75.62
231.838	81.62
232.072	84.62
232.306	65.62
232.541	81.62
232.775	70.62
233.009	68.62
233.243	56.62
233.477	61.62
233.711	90.62
233.945	75.62
234.179	82.62
234.413	76.62
234.647	68.62
234.881	86.62
235.115	64.62
235.349	75.62
235.583	84.62
235.817	72.62
236.051	75.62
236.285	78.62
236.519	74.62
236.753	70.62
236.987	57.62
237.221	81.62
237.455	97.62
237.689	61.62
237.922	68.62
238.156	78.62
238.39	70.62
238.624	65.62
238.858	70.62
239.091	70.62
239.325	67.62
239.559	78.62
239.793	78.62
240.027	82.62
240.26	75.62
240.494	73.62
240.728	70.62
240.961	74.62
241.195	71.62
241.429	69.62
241.662	77.62
241.896	79.62
242.13	74.62
242.363	72.62
242.597	77.62
242.83	72.62
243.064	79.62
243.298	65.62
243.531	52.62
243.765	82.62
243.998	78.62
244.232	88.62
244.465	98.62
244.699	86.62
244.932	77.62
245.166	78.62
245.399	73.62
245.633	73.62
245.866	80.62
246.099	81.62
246.333	70.62
246.566	72.62
246.8	68.62
247.033	64.62
247.266	71.62
247.5	73.62
247.733	74.62
247.966	74.62
248.2	75.62
248.433	79.62
248.666	85.62
248.899	74.62
249.133	81.62
249.366	75.62
249.599	82.62
249.832	73.62
250.066	81.62
250.299	73.62
250.532	66.62
250.765	78.62
250.998	71.62
251.231	89.62
251.465	84.62
251.698	82.62
251.931	76.62
252.164	59.62
252.397	76.62
252.63	77.62
252.863	68.62
253.096	65.62
253.329	80.62
253.562	82.62
253.795	67.62
254.028	79.62
254.261	73.62
254.494	72.62
254.727	81.62
254.96	90.62
255.193	70.62
255.426	68.62
255.659	76.62
255.892	72.62
256.124	77.62
256.357	81.62
256.59	79.62
256.823	75.62
257.056	95.62
257.289	77.62
257.521	80.62
257.754	64.62
257.987	59.62
258.22	80.62
258.452	80.62
258.685	90.62
258.918	93.62
259.151	78.62
259.383	80.62
259.616	79.62
259.849	65.62
260.081	76.62
260.314	84.62
260.547	68.62
260.779	57.62
261.012	83.62
261.244	85.62
261.477	80.62
261.71	81.62
261.942	112.62
262.175	90.62
262.407	99.62
262.64	96.62
262.872	70.62
263.105	88.62
263.337	82.62
263.57	62.62
263.802	75.62
264.035	86.62
264.267	72.62
264.499	84.62
264.732	74.62
264.964	84.62
265.197	91.62
265.429	91.62
265.661	72.62
265.894	96.62
266.126	76.62
266.358	75.62
266.591	80.62
266.823	85.62
267.055	75.62
267.287	82.62
267.52	74.62
267.752	70.62
267.984	72.62
268.216	79.62
268.448	83.62
268.681	74.62
268.913	74.62
269.145	82.62
269.377	82.62
269.609	81.62
269.841	77.62
270.073	87.62
270.306	89.62
270.538	77.62
270.77	65.62
271.002	88.62
271.234	59.62
271.466	89.62
271.698	78.62
271.93	80.62
272.162	67.62
272.394	81.62
272.626	83.62
272.858	72.62
273.09	84.62
273.322	69.62
273.553	65.62
273.785	78.62
274.017	86.62
274.249	86.62
274.481	89.62
274.713	81.62
274.945	79.62
275.176	81.62
275.408	83.62
275.64	69.62
275.872	96.62
276.104	79.62
276.335	84.62
276.567	96.62
276.799	95.62
277.031	95.62
277.262	92.62
277.494	78.62
277.726	73.62
277.957	81.62
278.189	78.62
278.421	82.62
278.652	85.62
278.884	81.62
279.115	89.62
279.347	92.62
279.579	86.62
279.81	80.62
280.042	89.62
280.273	84.62
280.505	96.62
280.736	70.62
280.968	70.62
281.199	86.62
281.431	77.62
281.662	82.62
281.894	70.62
282.125	80.62
282.356	102.62
282.588	123.62
282.819	105.62
283.051	82.62
283.282	88.62
283.513	76.62
283.745	70.62
283.976	90.62
284.207	81.62
284.439	94.62
284.67	86.62
284.901	82.62
285.132	85.62
285.364	76.62
285.595	94.62
285.826	79.62
286.057	66.62
286.288	76.62
286.52	92.62
286.751	93.62
286.982	74.62
287.213	76.62
287.444	76.62
287.675	72.62
287.906	96.62
288.138	84.62
288.369	83.62
288.6	94.62
288.831	68.62
289.062	82.62
289.293	79.62
289.524	84.62
289.755	79.62
289.986	75.62
290.217	66.62
290.448	81.62
290.679	84.62
290.91	82.62
291.141	84.62
291.371	91.62
291.602	75.62
291.833	91.62
292.064	75.62
292.295	93.62
292.526	86.62
292.757	90.62
292.987	86.62
293.218	80.62
293.449	98.62
293.68	92.62
293.91	73.62
294.141	93.62
294.372	84.62
294.603	89.62
294.833	88.62
295.064	92.62
295.295	89.62
295.525	91.62
295.756	101.62
295.987	93.62
296.217	101.62
296.448	109.62
296.679	85.62
296.909	85.62
297.14	71.62
297.37	63.62
297.601	77.62
297.831	87.62
298.062	87.62
298.292	91.62
298.523	98.62
298.753	87.62
298.984	101.62
299.214	85.62
299.445	86.62
299.675	87.62
299.905	88.62
300.136	80.62
300.366	82.62
300.597	92.62
300.827	91.62
301.057	95.62
301.288	86.62
301.518	88.62
301.748	92.62
301.979	98.62
302.209	84.62
302.439	98.62
302.669	77.62
302.9	80.62
303.13	97.62
303.36	96.62
303.59	95.62
303.82	96.62
304.051	93.62
304.281	87.62
304.511	90.62
304.741	89.62
304.971	73.62
305.201	78.62
305.431	79.62
305.661	80.62
305.891	79.62
306.121	96.62
306.352	96.62
306.582	106.62
306.812	93.62
307.042	80.62
307.272	97.62
307.502	85.62
307.731	97.62
307.961	95.62
308.191	96.62
308.421	92.62
308.651	93.62
308.881	98.62
309.111	86.62
309.341	112.62
309.571	110.62
309.8	89.62
310.03	79.62
310.26	91.62
310.49	89.62
310.72	106.62
310.949	94.62
311.179	94.62
311.409	101.62
311.639	87.62
311.868	97.62
312.098	97.62
312.328	86.62
312.557	78.62
312.787	88.62
313.017	97.62
313.246	97.62
313.476	87.62
313.706	79.62
313.935	80.62
314.165	70.62
314.394	102.62
314.624	94.62
314.853	88.62
315.083	81.62
315.312	76.62
315.542	71.62
315.771	94.62
316.001	96.62
316.23	96.62
316.46	88.62
316.689	83.62
316.919	92.62
317.148	94.62
317.377	94.62
317.607	89.62
317.836	76.62
318.065	89.62
318.295	88.62
318.524	86.62
318.753	74.62
318.983	74.62
319.212	96.62
319.441	84.62
319.67	91.62
319.9	92.62
320.129	85.62
320.358	77.62
320.587	89.62
320.816	79.62
321.046	99.62
321.275	102.62
321.504	92.62
321.733	89.62
321.962	85.62
322.191	101.62
322.42	84.62
322.649	100.62
322.878	101.62
323.108	98.62
323.337	111.62
323.566	149.62
323.795	140.62
324.024	188.62
324.253	346.62
324.482	704.62
324.71	1478.62
324.939	1950.62
325.168	748.62
325.397	220.62
325.626	145.62
325.855	119.62
326.084	107.62
326.313	106.62
326.542	144.62
326.77	208.62
326.999	409.62
327.228	842.62
327.457	1524.62
327.686	1194.62
327.914	319.62
328.143	159.62
328.372	123.62
328.6	98.62
328.829	116.62
329.058	123.62
329.287	96.62
329.515	102.62
329.744	83.62
329.972	93.62
330.201	84.62
330.43	102.62
330.658	118.62
330.887	114.62
331.115	102.62
331.344	88.62
331.572	80.62
331.801	93.62
332.03	81.62
332.258	85.62
332.486	97.62
332.715	88.62
332.943	93.62
333.172	96.62
333.4	90.62
333.629	102.62
333.857	114.62
334.085	101.62
334.314	92.62
334.542	97.62
334.771	98.62
334.999	85.62
335.227	75.62
335.455	90.62
335.684	96.62
335.912	82.62
336.14	90.62
336.369	95.62
336.597	94.62
336.825	92.62
337.053	102.62
337.281	78.62
337.51	89.62
337.738	80.62
337.966	95.62
338.194	93.62
338.422	82.62
338.65	93.62
338.878	89.62
339.106	84.62
339.334	79.62
339.562	104.62
339.79	84.62
340.018	74.62
340.246	90.62
340.474	94.62
340.702	88.62
340.93	89.62
341.158	94.62
341.386	88.62
341.614	107.62
341.842	89.62
342.07	105.62
342.298	92.62
342.526	89.62
342.754	80.62
342.981	77.62
343.209	85.62
343.437	89.62
343.665	79.62
343.893	89.62
344.12	90.62
344.348	78.62
344.576	101.62
344.804	98.62
345.031	81.62
345.259	91.62
345.487	102.62
345.714	76.62
345.942	95.62
346.17	87.62
346.397	95.62
346.625	90.62
346.853	103.62
347.08	94.62
347.308	95.62
347.535	72.62
347.763	98.62
347.99	97.62
348.218	88.62
348.445	94.62
348.673	107.62
348.9	90.62
349.128	93.62
349.355	91.62
349.583	99.62
349.81	102.62
350.037	93.62
350.265	103.62
350.492	90.62
350.72	102.62
350.947	92.62
351.174	96.62
351.402	110.62
351.629	95.62
351.856	107.62
352.083	96.62
352.311	108.62
352.538	103.62
352.765	109.62
352.992	102.62
353.22	96.62
353.447	100.62
353.674	94.62
353.901	101.62
354.128	102.62
354.355	78.62
354.583	85.62
354.81	91.62
355.037	81.62
355.264	93.62
355.491	84.62
355.718	84.62
355.945	79.62
356.172	90.62
356.399	85.62
356.626	95.62
356.853	91.62
357.08	88.62
357.307	95.62
357.534	92.62
357.761	82.62
357.988	85.62
358.215	102.62
358.441	99.62
358.668	90.62
358.895	86.62
359.122	95.62
359.349	90.62
359.576	77.62
359.802	82.62
360.029	79.62
360.256	99.62
360.483	84.62
360.709	87.62
360.936	89.62
361.163	107.62
361.39	79.62
361.616	86.62
361.843	88.62
362.07	86.62
362.296	85.62
362.523	89.62
362.749	96.62
362.976	87.62
363.203	102.62
363.429	88.62
363.656	109.62
363.882	85.62
364.109	80.62
364.335	93.62
364.562	91.62
364.788	88.62
365.015	88.62
365.241	92.62
365.468	93.62
365.694	96.62
365.92	88.62
366.147	85.62
366.373	78.62
366.599	89.62
366.826	85.62
367.052	84.62
367.278	94.62
367.505	97.62
367.731	94.62
367.957	89.62
368.184	81.62
368.41	93.62
368.636	95.62
368.862	110.62
369.089	98.62
369.315	93.62
369.541	88.62
369.767	91.62
369.993	84.62
370.219	80.62
370.445	92.62
370.672	85.62
370.898	80.62
371.124	80.62
371.35	85.62
371.576	82.62
371.802	85.62
372.028	88.62
372.254	96.62
372.48	71.62
372.706	91.62
372.932	85.62
373.158	73.62
373.384	101.62
373.61	80.62
373.835	84.62
374.061	95.62
374.287	82.62
374.513	70.62
374.739	89.62
374.965	85.62
375.191	81.62
375.416	97.62
375.642	83.62
375.868	90.62
376.094	85.62
376.319	91.62
376.545	88.62
376.771	80.62
376.997	80.62
377.222	98.62
377.448	94.62
377.674	84.62
377.899	68.62
378.125	84.62
378.35	88.62
378.576	76.62
378.802	76.62
379.027	70.62
379.253	93.62
379.478	95.62
379.704	92.62
379.929	85.62
380.155	105.62
380.38	72.62
380.606	83.62
380.831	87.62
381.057	113.62
381.282	102.62
381.507	81.62
381.733	84.62
381.958	79.62
382.184	82.62
382.409	93.62
382.634	107.62
382.86	96.62
383.085	94.62
383.31	104.62
383.535	88.62
383.761	90.62
383.986	92.62
384.211	105.62
384.436	90.62
384.662	109.62
384.887	87.62
385.112	88.62
385.337	104.62
385.562	98.62
385.787	85.62
386.013	98.62
386.238	103.62
386.463	98.62
386.688	114.62
386.913	88.62
387.138	102.62
387.363	77.62
387.588	90.62
387.813	83.62
388.038	93.62
388.263	91.62
388.488	106.62
388.713	97.62
388.938	92.62
389.163	93.62
389.387	96.62
389.612	91.62
389.837	76.62
390.062	82.62
390.287	88.62
390.512	93.62
390.736	93.62
390.961	79.62
391.186	95.62
391.411	86.62
391.636	88.62
391.86	84.62
392.085	77.62
392.31	76.62
392.534	86.62
392.759	90.62
392.984	81.62
393.208	84.62
393.433	91.62
393.658	89.62
393.882	79.62
394.107	76.62
394.331	88.62
394.556	70.62
394.78	98.62
395.005	84.62
395.229	86.62
395.454	80.62
395.678	78.62
395.903	76.62
396.127	84.62
396.352	94.62
396.576	98.62
396.801	89.62
397.025	98.62
397.249	83.62
397.474	92.62
397.698	79.62
397.922	90.62
398.147	91.62
398.371	73.62
398.595	89.62
398.82	87.62
399.044	93.62
399.268	94.62
399.492	86.62
399.717	86.62
399.941	86.62
400.165	107.62
400.389	79.62
400.613	77.62
400.837	84.62
401.062	89.62
401.286	73.62
401.51	77.62
401.734	81.62
401.958	99.62
402.182	109.62
402.406	150.62
402.63	105.62
402.854	94.62
403.078	88.62
403.302	83.62
403.526	79.62
403.75	92.62
403.974	77.62
404.198	79.62
404.422	86.62
404.645	80.62
404.869	99.62
405.093	81.62
405.317	82.62
405.541	93.62
405.765	85.62
405.988	103.62
406.212	162.62
406.436	198.62
406.66	135.62
406.883	93.62
407.107	92.62
407.331	94.62
407.555	98.62
407.778	90.62
408.002	97.62
408.226	79.62
408.449	88.62
408.673	80.62
408.896	86.62
409.12	88.62
409.344	87.62
409.567	83.62
409.791	89.62
410.014	99.62
410.238	96.62
410.461	102.62
410.685	88.62
410.908	101.62
411.132	106.62
411.355	92.62
411.578	92.62
411.802	83.62
412.025	73.62
412.249	85.62
412.472	87.62
412.695	89.62
412.919	80.62
413.142	92.62
413.365	80.62
413.589	94.62
413.812	87.62
414.035	92.62
414.258	93.62
414.482	98.62
414.705	98.62
414.928	87.62
415.151	89.62
415.374	112.62
415.597	79.62
415.821	76.62
416.044	97.62
416.267	83.62
416.49	87.62
416.713	87.62
416.936	96.62
417.159	96.62
417.382	95.62
417.605	92.62
417.828	85.62
418.051	81.62
418.274	89.62
418.497	65.62
418.72	94.62
418.943	80.62
419.166	80.62
419.389	91.62
419.611	92.62
419.834	83.62
420.057	81.62
420.28	97.62
420.503	84.62
420.726	91.62
420.948	86.62
421.171	95.62
421.394	93.62
421.617	88.62
421.839	78.62
422.062	77.62
422.285	90.62
422.507	87.62
422.73	95.62
422.953	98.62
423.175	85.62
423.398	93.62
423.621	93.62
423.843	76.62
424.066	78.62
424.288	78.62
424.511	80.62
424.733	110.62
424.956	112.62
425.178	98.62
425.401	95.62
425.623	94.62
425.846	86.62
426.068	90.62
426.291	79.62
426.513	94.62
426.735	97.62
426.958	88.62
427.18	109.62
427.402	123.62
427.625	137.62
427.847	106.62
428.069	104.62
428.292	84.62
428.514	78.62
428.736	72.62
428.958	76.62
429.181	86.62
429.403	86.62
429.625	88.62
429.847	94.62
430.069	96.62
430.292	103.62
430.514	88.62
430.736	81.62
430.958	81.62
431.18	71.62
431.402	89.62
431.624	100.62
431.846	72.62
432.068	78.62
432.29	98.62
432.512	78.62
432.734	86.62
432.956	81.62
433.178	89.62
433.4	107.62
433.622	93.62
433.844	73.62
434.066	73.62
434.287	83.62
434.509	88.62
434.731	76.62
434.953	88.62
435.175	93.62
435.397	91.62
435.618	87.62
435.84	99.62
436.062	107.62
436.284	107.62
436.505	85.62
436.727	78.62
436.949	77.62
437.17	84.62
437.392	95.62
437.614	87.62
437.835	91.62
438.057	110.62
438.278	111.62
438.5	102.62
438.721	113.62
438.943	101.62
439.165	78.62
439.386	80.62
439.608	93.62
439.829	85.62
440.05	110.62
440.272	137.62
440.493	104.62
440.715	90.62
440.936	84.62
441.158	89.62
441.379	96.62
441.6	91.62
441.822	79.62
442.043	95.62
442.264	84.62
442.486	97.62
442.707	83.62
442.928	101.62
443.149	114.62
443.371	116.62
443.592	105.62
443.813	110.62
444.034	104.62
444.255	77.62
444.476	82.62
444.698	84.62
444.919	94.62
445.14	112.62
445.361	118.62
445.582	115.62
445.803	125.62
446.024	121.62
446.245	107.62
446.466	112.62
446.687	86.62
446.908	85.62
447.129	87.62
447.35	83.62
447.571	95.62
447.792	93.62
448.013	107.62
448.234	101.62
448.455	88.62
448.675	98.62
448.896	104.62
449.117	98.62
449.338	100.62
449.559	127.62
449.779	123.62
450	85.62
450.221	81.62
450.442	85.62
450.662	75.62
450.883	85.62
451.104	101.62
451.324	85.62
451.545	88.62
451.766	66.62
451.986	95.62
452.207	83.62
452.428	92.62
452.648	102.62
452.869	108.62
453.089	110.62
453.31	92.62
453.53	91.62
453.751	75.62
453.971	103.62
454.192	107.62
454.412	90.62
454.633	84.62
454.853	90.62
455.073	77.62
455.294	82.62
455.514	85.62
455.734	89.62
455.955	96.62
456.175	78.62
456.395	86.62
456.616	80.62
456.836	78.62
457.056	77.62
457.276	87.62
457.497	84.62
457.717	88.62
457.937	84.62
458.157	82.62
458.377	89.62
458.598	108.62
458.818	135.62
459.038	137.62
459.258	108.62
459.478	81.62
459.698	78.62
459.918	85.62
460.138	81.62
460.358	80.62
460.578	70.62
460.798	84.62
461.018	80.62
461.238	85.62
461.458	76.62
461.678	87.62
461.898	93.62
462.118	71.62
462.338	93.62
462.558	90.62
462.777	77.62
462.997	83.62
463.217	69.62
463.437	79.62
463.657	77.62
463.876	76.62
464.096	89.62
464.316	92.62
464.536	87.62
464.755	86.62
464.975	112.62
465.195	134.62
465.414	137.62
465.634	96.62
465.854	81.62
466.073	80.62
466.293	81.62
466.512	74.62
466.732	94.62
466.951	85.62
467.171	88.62
467.391	75.62
467.61	102.62
467.829	73.62
468.049	78.62
468.268	77.62
468.488	90.62
468.707	75.62
468.927	79.62
469.146	70.62
469.365	84.62
469.585	81.62
469.804	91.62
470.023	98.62
470.243	95.62
470.462	90.62
470.681	113.62
470.901	85.62
471.12	90.62
471.339	83.62
471.558	77.62
471.777	81.62
471.997	89.62
472.216	102.62
472.435	86.62
472.654	93.62
472.873	78.62
473.092	77.62
473.311	81.62
473.53	85.62
473.749	77.62
473.968	94.62
474.187	101.62
474.406	107.62
474.625	90.62
474.844	98.62
475.063	82.62
475.282	89.62
475.501	85.62
475.72	85.62
475.939	93.62
476.158	98.62
476.377	100.62
476.596	89.62
476.814	89.62
477.033	91.62
477.252	85.62
477.471	92.62
477.69	97.62
477.908	95.62
478.127	93.62
478.346	91.62
478.564	82.62
478.783	92.62
479.002	88.62
479.22	76.62
479.439	98.62
479.658	101.62
479.876	98.62
480.095	90.62
480.313	94.62
480.532	99.62
480.751	81.62
480.969	89.62
481.188	96.62
481.406	98.62
481.624	103.62
481.843	96.62
482.061	86.62
482.28	76.62
482.498	87.62
482.717	89.62
482.935	87.62
483.153	76.62
483.372	86.62
483.59	89.62
483.808	79.62
484.027	85.62
484.245	99.62
484.463	100.62
484.681	90.62
484.9	96.62
485.118	98.62
485.336	101.62
485.554	102.62
485.772	102.62
485.99	107.62
486.209	92.62
486.427	98.62
486.645	110.62
486.863	110.62
487.081	98.62
487.299	94.62
487.517	88.62
487.735	73.62
487.953	87.62
488.171	84.62
488.389	95.62
488.607	101.62
488.825	94.62
489.043	89.62
489.261	102.62
489.479	97.62
489.696	83.62
489.914	99.62
490.132	72.62
490.35	89.62
490.568	84.62
490.786	87.62
491.003	107.62
491.221	95.62
491.439	86.62
491.657	92.62
491.874	92.62
492.092	91.62
492.31	92.62
492.527	84.62
492.745	90.62
492.963	98.62
493.18	92.62
493.398	94.62
493.615	103.62
493.833	93.62
494.05	82.62
494.268	87.62
494.485	87.62
494.703	94.62
494.92	87.62
495.138	91.62
495.355	83.62
495.573	88.62
495.79	88.62
496.008	75.62
496.225	78.62
496.442	85.62
496.66	89.62
496.877	86.62
497.094	102.62
497.312	83.62
497.529	94.62
497.746	79.62
497.963	75.62
498.181	86.62
498.398	95.62
498.615	94.62
498.832	96.62
499.049	82.62
499.267	79.62
499.484	90.62
499.701	88.62
499.918	92.62
500.135	93.62
500.352	97.62
500.569	90.62
500.786	92.62
501.003	92.62
501.22	77.62
501.437	80.62
501.654	81.62
501.871	98.62
502.088	91.62
502.305	88.62
502.522	87.62
502.739	73.62
502.956	84.62
503.172	100.62
503.389	101.62
503.606	89.62
503.823	84.62
504.04	81.62
504.256	88.62
504.473	79.62
504.69	87.62
504.907	89.62
505.123	91.62
505.34	82.62
505.557	96.62
505.773	90.62
505.99	86.62
506.207	85.62
506.423	80.62
506.64	86.62
506.856	96.62
507.073	92.62
507.289	85.62
507.506	93.62
507.722	105.62
507.939	97.62
508.155	86.62
508.372	96.62
508.588	94.62
508.805	97.62
509.021	93.62
509.238	97.62
509.454	88.62
509.67	92.62
509.887	97.62
510.103	120.62
510.319	210.62
510.536	692.62
510.752	2094.62
510.968	565.62
511.184	135.62
511.401	106.62
511.617	103.62
511.833	96.62
512.049	101.62
512.265	93.62
512.481	98.62
512.698	78.62
512.914	78.62
513.13	85.62
513.346	100.62
513.562	88.62
513.778	94.62
513.994	87.62
514.21	81.62
514.426	119.62
514.642	147.62
514.858	104.62
515.074	148.62
515.29	394.62
515.506	1233.62
515.721	453.62
515.937	141.62
516.153	128.62
516.369	101.62
516.585	87.62
516.801	84.62
517.016	91.62
517.232	93.62
