Data from Uncirc_1994_H10_HRD10591_00054.txt Node
Date: Wed Jan 03 11:39:31 EST 2024
User: Yrep
Spectrometer: HR+D1059
Trigger mode: 1
Integration Time (sec): 1.000000E-1
Scans to average: 1
Electric dark correction enabled: true
Nonlinearity correction enabled: false
Boxcar width: 0
XAxis mode: Wavelengths
Number of Pixels in Spectrum: 2048
>>>>>Begin Spectral Data<<<<<
223.165	-23.06
223.4	-23.06
223.635	-23.06
223.869	-14.06
224.104	-15.06
224.338	-18.06
224.573	-5.06
224.808	-8.06
225.042	-17.06
225.277	-8.06
225.511	12.94
225.746	1.94
225.98	5.94
226.215	24.94
226.449	6.94
226.683	9.94
226.918	17.94
227.152	27.94
227.387	43.94
227.621	55.94
227.856	43.94
228.09	55.94
228.324	45.94
228.559	52.94
228.793	65.94
229.027	57.94
229.262	67.94
229.496	79.94
229.73	85.94
229.964	90.94
230.199	81.94
230.433	79.94
230.667	84.94
230.901	72.94
231.136	75.94
231.37	75.94
231.604	86.94
231.838	85.94
232.072	79.94
232.306	91.94
232.541	75.94
232.775	82.94
233.009	74.94
233.243	81.94
233.477	72.94
233.711	88.94
233.945	92.94
234.179	73.94
234.413	83.94
234.647	83.94
234.881	70.94
235.115	86.94
235.349	91.94
235.583	90.94
235.817	79.94
236.051	81.94
236.285	88.94
236.519	77.94
236.753	79.94
236.987	90.94
237.221	74.94
237.455	68.94
237.689	82.94
237.922	86.94
238.156	67.94
238.39	67.94
238.624	73.94
238.858	96.94
239.091	74.94
239.325	74.94
239.559	86.94
239.793	84.94
240.027	96.94
240.26	79.94
240.494	88.94
240.728	79.94
240.961	80.94
241.195	86.94
241.429	97.94
241.662	70.94
241.896	86.94
242.13	83.94
242.363	94.94
242.597	78.94
242.83	86.94
243.064	84.94
243.298	81.94
243.531	77.94
243.765	84.94
243.998	66.94
244.232	84.94
244.465	79.94
244.699	80.94
244.932	70.94
245.166	89.94
245.399	75.94
245.633	81.94
245.866	73.94
246.099	69.94
246.333	82.94
246.566	86.94
246.8	80.94
247.033	78.94
247.266	79.94
247.5	83.94
247.733	77.94
247.966	91.94
248.2	74.94
248.433	90.94
248.666	96.94
248.899	85.94
249.133	70.94
249.366	105.94
249.599	92.94
249.832	90.94
250.066	78.94
250.299	70.94
250.532	80.94
250.765	77.94
250.998	86.94
251.231	86.94
251.465	82.94
251.698	97.94
251.931	77.94
252.164	81.94
252.397	80.94
252.63	73.94
252.863	74.94
253.096	92.94
253.329	80.94
253.562	88.94
253.795	81.94
254.028	87.94
254.261	100.94
254.494	81.94
254.727	87.94
254.96	97.94
255.193	96.94
255.426	72.94
255.659	95.94
255.892	89.94
256.124	80.94
256.357	79.94
256.59	95.94
256.823	95.94
257.056	93.94
257.289	77.94
257.521	96.94
257.754	84.94
257.987	81.94
258.22	82.94
258.452	91.94
258.685	86.94
258.918	87.94
259.151	78.94
259.383	86.94
259.616	69.94
259.849	85.94
260.081	92.94
260.314	90.94
260.547	78.94
260.779	80.94
261.012	85.94
261.244	92.94
261.477	96.94
261.71	84.94
261.942	109.94
262.175	111.94
262.407	98.94
262.64	77.94
262.872	83.94
263.105	89.94
263.337	86.94
263.57	92.94
263.802	84.94
264.035	89.94
264.267	77.94
264.499	77.94
264.732	87.94
264.964	96.94
265.197	87.94
265.429	85.94
265.661	84.94
265.894	97.94
266.126	90.94
266.358	89.94
266.591	74.94
266.823	90.94
267.055	96.94
267.287	90.94
267.52	78.94
267.752	89.94
267.984	90.94
268.216	79.94
268.448	91.94
268.681	89.94
268.913	95.94
269.145	102.94
269.377	90.94
269.609	86.94
269.841	95.94
270.073	94.94
270.306	65.94
270.538	93.94
270.77	81.94
271.002	89.94
271.234	90.94
271.466	101.94
271.698	93.94
271.93	93.94
272.162	100.94
272.394	85.94
272.626	95.94
272.858	91.94
273.09	86.94
273.322	100.94
273.553	86.94
273.785	87.94
274.017	83.94
274.249	86.94
274.481	72.94
274.713	87.94
274.945	85.94
275.176	77.94
275.408	100.94
275.64	87.94
275.872	75.94
276.104	96.94
276.335	89.94
276.567	90.94
276.799	101.94
277.031	98.94
277.262	98.94
277.494	92.94
277.726	84.94
277.957	98.94
278.189	89.94
278.421	85.94
278.652	91.94
278.884	95.94
279.115	87.94
279.347	98.94
279.579	86.94
279.81	91.94
280.042	94.94
280.273	83.94
280.505	86.94
280.736	96.94
280.968	97.94
281.199	83.94
281.431	82.94
281.662	88.94
281.894	93.94
282.125	87.94
282.356	117.94
282.588	144.94
282.819	106.94
283.051	93.94
283.282	81.94
283.513	86.94
283.745	85.94
283.976	96.94
284.207	89.94
284.439	81.94
284.67	74.94
284.901	90.94
285.132	79.94
285.364	98.94
285.595	86.94
285.826	86.94
286.057	91.94
286.288	83.94
286.52	87.94
286.751	81.94
286.982	92.94
287.213	96.94
287.444	103.94
287.675	87.94
287.906	93.94
288.138	87.94
288.369	106.94
288.6	84.94
288.831	95.94
289.062	85.94
289.293	94.94
289.524	95.94
289.755	94.94
289.986	95.94
290.217	79.94
290.448	83.94
290.679	81.94
290.91	98.94
291.141	99.94
291.371	91.94
291.602	85.94
291.833	78.94
292.064	92.94
292.295	88.94
292.526	93.94
292.757	80.94
292.987	94.94
293.218	92.94
293.449	85.94
293.68	91.94
293.91	89.94
294.141	83.94
294.372	91.94
294.603	98.94
294.833	89.94
295.064	74.94
295.295	90.94
295.525	84.94
295.756	108.94
295.987	109.94
296.217	137.94
296.448	109.94
296.679	90.94
296.909	89.94
297.14	98.94
297.37	96.94
297.601	87.94
297.831	89.94
298.062	89.94
298.292	90.94
298.523	83.94
298.753	79.94
298.984	80.94
299.214	101.94
299.445	84.94
299.675	103.94
299.905	87.94
300.136	79.94
300.366	89.94
300.597	100.94
300.827	93.94
301.057	94.94
301.288	103.94
301.518	84.94
301.748	92.94
301.979	90.94
302.209	94.94
302.439	82.94
302.669	82.94
302.9	88.94
303.13	99.94
303.36	92.94
303.59	97.94
303.82	107.94
304.051	86.94
304.281	98.94
304.511	98.94
304.741	82.94
304.971	96.94
305.201	75.94
305.431	92.94
305.661	83.94
305.891	99.94
306.121	91.94
306.352	90.94
306.582	95.94
306.812	85.94
307.042	104.94
307.272	87.94
307.502	89.94
307.731	90.94
307.961	87.94
308.191	89.94
308.421	101.94
308.651	98.94
308.881	86.94
309.111	92.94
309.341	90.94
309.571	105.94
309.8	100.94
310.03	100.94
310.26	103.94
310.49	104.94
310.72	89.94
310.949	109.94
311.179	93.94
311.409	87.94
311.639	103.94
311.868	107.94
312.098	106.94
312.328	98.94
312.557	99.94
312.787	108.94
313.017	95.94
313.246	106.94
313.476	85.94
313.706	95.94
313.935	95.94
314.165	109.94
314.394	97.94
314.624	87.94
314.853	109.94
315.083	79.94
315.312	90.94
315.542	93.94
315.771	91.94
316.001	97.94
316.23	89.94
316.46	91.94
316.689	86.94
316.919	84.94
317.148	79.94
317.377	97.94
317.607	96.94
317.836	84.94
318.065	91.94
318.295	100.94
318.524	87.94
318.753	82.94
318.983	92.94
319.212	95.94
319.441	100.94
319.67	102.94
319.9	97.94
320.129	100.94
320.358	96.94
320.587	91.94
320.816	93.94
321.046	105.94
321.275	96.94
321.504	98.94
321.733	103.94
321.962	113.94
322.191	103.94
322.42	98.94
322.649	113.94
322.878	99.94
323.108	108.94
323.337	125.94
323.566	120.94
323.795	141.94
324.024	208.94
324.253	359.94
324.482	751.94
324.71	1552.94
324.939	1963.94
325.168	739.94
325.397	221.94
325.626	134.94
325.855	127.94
326.084	122.94
326.313	127.94
326.542	154.94
326.77	219.94
326.999	438.94
327.228	865.94
327.457	1551.94
327.686	1261.94
327.914	348.94
328.143	179.94
328.372	143.94
328.6	110.94
328.829	115.94
329.058	121.94
329.287	121.94
329.515	108.94
329.744	103.94
329.972	104.94
330.201	108.94
330.43	112.94
330.658	115.94
330.887	126.94
331.115	112.94
331.344	117.94
331.572	102.94
331.801	97.94
332.03	99.94
332.258	91.94
332.486	101.94
332.715	93.94
332.943	93.94
333.172	91.94
333.4	98.94
333.629	98.94
333.857	118.94
334.085	109.94
334.314	96.94
334.542	97.94
334.771	78.94
334.999	96.94
335.227	89.94
335.455	87.94
335.684	89.94
335.912	100.94
336.14	101.94
336.369	93.94
336.597	98.94
336.825	113.94
337.053	97.94
337.281	103.94
337.51	94.94
337.738	95.94
337.966	91.94
338.194	94.94
338.422	107.94
338.65	88.94
338.878	90.94
339.106	93.94
339.334	93.94
339.562	100.94
339.79	89.94
340.018	96.94
340.246	90.94
340.474	99.94
340.702	97.94
340.93	83.94
341.158	76.94
341.386	95.94
341.614	102.94
341.842	107.94
342.07	94.94
342.298	103.94
342.526	91.94
342.754	97.94
342.981	85.94
343.209	98.94
343.437	110.94
343.665	90.94
343.893	93.94
344.12	93.94
344.348	79.94
344.576	70.94
344.804	95.94
345.031	95.94
345.259	92.94
345.487	92.94
345.714	102.94
345.942	98.94
346.17	80.94
346.397	94.94
346.625	80.94
346.853	99.94
347.08	97.94
347.308	87.94
347.535	110.94
347.763	108.94
347.99	95.94
348.218	107.94
348.445	110.94
348.673	100.94
348.9	108.94
349.128	102.94
349.355	92.94
349.583	82.94
349.81	101.94
350.037	83.94
350.265	93.94
350.492	97.94
350.72	87.94
350.947	109.94
351.174	106.94
351.402	96.94
351.629	91.94
351.856	100.94
352.083	96.94
352.311	107.94
352.538	118.94
352.765	85.94
352.992	116.94
353.22	109.94
353.447	106.94
353.674	100.94
353.901	121.94
354.128	89.94
354.355	96.94
354.583	95.94
354.81	85.94
355.037	105.94
355.264	104.94
355.491	101.94
355.718	86.94
355.945	96.94
356.172	86.94
356.399	107.94
356.626	97.94
356.853	94.94
357.08	79.94
357.307	106.94
357.534	97.94
357.761	109.94
357.988	87.94
358.215	102.94
358.441	102.94
358.668	98.94
358.895	75.94
359.122	94.94
359.349	90.94
359.576	90.94
359.802	93.94
360.029	114.94
360.256	112.94
360.483	106.94
360.709	85.94
360.936	94.94
361.163	89.94
361.39	107.94
361.616	103.94
361.843	109.94
362.07	102.94
362.296	101.94
362.523	101.94
362.749	97.94
362.976	91.94
363.203	97.94
363.429	93.94
363.656	91.94
363.882	86.94
364.109	98.94
364.335	89.94
364.562	90.94
364.788	87.94
365.015	99.94
365.241	106.94
365.468	98.94
365.694	101.94
365.92	98.94
366.147	93.94
366.373	100.94
366.599	79.94
366.826	81.94
367.052	70.94
367.278	78.94
367.505	96.94
367.731	98.94
367.957	97.94
368.184	101.94
368.41	102.94
368.636	111.94
368.862	132.94
369.089	110.94
369.315	99.94
369.541	91.94
369.767	100.94
369.993	80.94
370.219	89.94
370.445	80.94
370.672	89.94
370.898	107.94
371.124	90.94
371.35	81.94
371.576	83.94
371.802	91.94
372.028	101.94
372.254	83.94
372.48	93.94
372.706	96.94
372.932	85.94
373.158	102.94
373.384	94.94
373.61	88.94
373.835	90.94
374.061	82.94
374.287	91.94
374.513	85.94
374.739	86.94
374.965	98.94
375.191	90.94
375.416	97.94
375.642	94.94
375.868	93.94
376.094	84.94
376.319	82.94
376.545	92.94
376.771	95.94
376.997	85.94
377.222	84.94
377.448	93.94
377.674	82.94
377.899	97.94
378.125	103.94
378.35	90.94
378.576	95.94
378.802	93.94
379.027	101.94
379.253	101.94
379.478	101.94
379.704	106.94
379.929	96.94
380.155	87.94
380.38	76.94
380.606	96.94
380.831	81.94
381.057	108.94
381.282	104.94
381.507	101.94
381.733	91.94
381.958	95.94
382.184	103.94
382.409	99.94
382.634	100.94
382.86	96.94
383.085	107.94
383.31	104.94
383.535	101.94
383.761	96.94
383.986	90.94
384.211	93.94
384.436	106.94
384.662	99.94
384.887	106.94
385.112	103.94
385.337	98.94
385.562	97.94
385.787	103.94
386.013	117.94
386.238	110.94
386.463	105.94
386.688	106.94
386.913	117.94
387.138	99.94
387.363	99.94
387.588	117.94
387.813	102.94
388.038	95.94
388.263	106.94
388.488	101.94
388.713	97.94
388.938	105.94
389.163	94.94
389.387	101.94
389.612	100.94
389.837	100.94
390.062	87.94
390.287	93.94
390.512	81.94
390.736	86.94
390.961	95.94
391.186	85.94
391.411	87.94
391.636	88.94
391.86	89.94
392.085	83.94
392.31	86.94
392.534	95.94
392.759	102.94
392.984	87.94
393.208	101.94
393.433	103.94
393.658	114.94
393.882	87.94
394.107	75.94
394.331	75.94
394.556	88.94
394.78	90.94
395.005	93.94
395.229	99.94
395.454	80.94
395.678	92.94
395.903	94.94
396.127	89.94
396.352	90.94
396.576	101.94
396.801	95.94
397.025	91.94
397.249	96.94
397.474	105.94
397.698	91.94
397.922	103.94
398.147	88.94
398.371	87.94
398.595	85.94
398.82	95.94
399.044	101.94
399.268	85.94
399.492	84.94
399.717	93.94
399.941	80.94
400.165	93.94
400.389	90.94
400.613	83.94
400.837	89.94
401.062	89.94
401.286	91.94
401.51	85.94
401.734	97.94
401.958	104.94
402.182	128.94
402.406	140.94
402.63	112.94
402.854	85.94
403.078	81.94
403.302	92.94
403.526	79.94
403.75	85.94
403.974	86.94
404.198	82.94
404.422	79.94
404.645	76.94
404.869	89.94
405.093	85.94
405.317	100.94
405.541	85.94
405.765	99.94
405.988	118.94
406.212	166.94
406.436	202.94
406.66	134.94
406.883	85.94
407.107	99.94
407.331	107.94
407.555	88.94
407.778	94.94
408.002	93.94
408.226	86.94
408.449	93.94
408.673	76.94
408.896	89.94
409.12	81.94
409.344	84.94
409.567	89.94
409.791	97.94
410.014	90.94
410.238	111.94
410.461	100.94
410.685	107.94
410.908	89.94
411.132	110.94
411.355	98.94
411.578	94.94
411.802	95.94
412.025	96.94
412.249	83.94
412.472	90.94
412.695	89.94
412.919	92.94
413.142	93.94
413.365	91.94
413.589	79.94
413.812	94.94
414.035	93.94
414.258	97.94
414.482	83.94
414.705	75.94
414.928	89.94
415.151	87.94
415.374	83.94
415.597	79.94
415.821	76.94
416.044	88.94
416.267	88.94
416.49	78.94
416.713	75.94
416.936	90.94
417.159	97.94
417.382	79.94
417.605	80.94
417.828	79.94
418.051	96.94
418.274	87.94
418.497	93.94
418.72	84.94
418.943	91.94
419.166	93.94
419.389	101.94
419.611	91.94
419.834	93.94
420.057	79.94
420.28	87.94
420.503	94.94
420.726	80.94
420.948	100.94
421.171	93.94
421.394	90.94
421.617	96.94
421.839	85.94
422.062	84.94
422.285	99.94
422.507	108.94
422.73	105.94
422.953	92.94
423.175	89.94
423.398	76.94
423.621	89.94
423.843	80.94
424.066	93.94
424.288	97.94
424.511	83.94
424.733	99.94
424.956	112.94
425.178	93.94
425.401	101.94
425.623	94.94
425.846	91.94
426.068	94.94
426.291	87.94
426.513	91.94
426.735	78.94
426.958	94.94
427.18	102.94
427.402	118.94
427.625	157.94
427.847	130.94
428.069	103.94
428.292	93.94
428.514	87.94
428.736	91.94
428.958	82.94
429.181	86.94
429.403	84.94
429.625	90.94
429.847	89.94
430.069	94.94
430.292	93.94
430.514	78.94
430.736	77.94
430.958	82.94
431.18	85.94
431.402	81.94
431.624	83.94
431.846	81.94
432.068	70.94
432.29	84.94
432.512	91.94
432.734	89.94
432.956	89.94
433.178	109.94
433.4	97.94
433.622	89.94
433.844	95.94
434.066	84.94
434.287	101.94
434.509	103.94
434.731	91.94
434.953	85.94
435.175	78.94
435.397	75.94
435.618	86.94
435.84	110.94
436.062	114.94
436.284	121.94
436.505	89.94
436.727	106.94
436.949	92.94
437.17	96.94
437.392	84.94
437.614	84.94
437.835	92.94
438.057	113.94
438.278	105.94
438.5	110.94
438.721	115.94
438.943	104.94
439.165	93.94
439.386	90.94
439.608	76.94
439.829	108.94
440.05	122.94
440.272	125.94
440.493	106.94
440.715	85.94
440.936	86.94
441.158	99.94
441.379	73.94
441.6	89.94
441.822	94.94
442.043	93.94
442.264	111.94
442.486	90.94
442.707	86.94
442.928	87.94
443.149	100.94
443.371	126.94
443.592	118.94
443.813	115.94
444.034	119.94
444.255	108.94
444.476	85.94
444.698	92.94
444.919	100.94
445.14	130.94
445.361	130.94
445.582	119.94
445.803	132.94
446.024	128.94
446.245	125.94
446.466	112.94
446.687	97.94
446.908	89.94
447.129	92.94
447.35	92.94
447.571	99.94
447.792	87.94
448.013	95.94
448.234	99.94
448.455	107.94
448.675	106.94
448.896	114.94
449.117	104.94
449.338	114.94
449.559	128.94
449.779	129.94
450	93.94
450.221	90.94
450.442	71.94
450.662	97.94
450.883	99.94
451.104	111.94
451.324	110.94
451.545	97.94
451.766	91.94
451.986	87.94
452.207	95.94
452.428	89.94
452.648	91.94
452.869	102.94
453.089	116.94
453.31	103.94
453.53	94.94
453.751	84.94
453.971	99.94
454.192	106.94
454.412	78.94
454.633	91.94
454.853	71.94
455.073	90.94
455.294	81.94
455.514	100.94
455.734	89.94
455.955	76.94
456.175	73.94
456.395	76.94
456.616	84.94
456.836	86.94
457.056	85.94
457.276	89.94
457.497	68.94
457.717	86.94
457.937	85.94
458.157	91.94
458.377	99.94
458.598	99.94
458.818	130.94
459.038	141.94
459.258	111.94
459.478	79.94
459.698	92.94
459.918	81.94
460.138	89.94
460.358	69.94
460.578	87.94
460.798	85.94
461.018	103.94
461.238	89.94
461.458	80.94
461.678	81.94
461.898	92.94
462.118	78.94
462.338	90.94
462.558	84.94
462.777	81.94
462.997	84.94
463.217	87.94
463.437	85.94
463.657	71.94
463.876	86.94
464.096	98.94
464.316	84.94
464.536	85.94
464.755	96.94
464.975	109.94
465.195	150.94
465.414	142.94
465.634	86.94
465.854	91.94
466.073	75.94
466.293	91.94
466.512	84.94
466.732	81.94
466.951	93.94
467.171	87.94
467.391	96.94
467.61	94.94
467.829	106.94
468.049	89.94
468.268	84.94
468.488	77.94
468.707	87.94
468.927	86.94
469.146	91.94
469.365	88.94
469.585	95.94
469.804	103.94
470.023	89.94
470.243	97.94
470.462	86.94
470.681	109.94
470.901	99.94
471.12	88.94
471.339	82.94
471.558	77.94
471.777	87.94
471.997	85.94
472.216	99.94
472.435	86.94
472.654	83.94
472.873	95.94
473.092	91.94
473.311	81.94
473.53	84.94
473.749	77.94
473.968	85.94
474.187	104.94
474.406	94.94
474.625	99.94
474.844	89.94
475.063	90.94
475.282	106.94
475.501	84.94
475.72	84.94
475.939	97.94
476.158	97.94
476.377	93.94
476.596	95.94
476.814	97.94
477.033	107.94
477.252	93.94
477.471	87.94
477.69	88.94
477.908	102.94
478.127	91.94
478.346	100.94
478.564	93.94
478.783	94.94
479.002	89.94
479.22	95.94
479.439	98.94
479.658	107.94
479.876	82.94
480.095	90.94
480.313	92.94
480.532	79.94
480.751	94.94
480.969	101.94
481.188	92.94
481.406	96.94
481.624	90.94
481.843	85.94
482.061	83.94
482.28	87.94
482.498	101.94
482.717	98.94
482.935	97.94
483.153	84.94
483.372	99.94
483.59	85.94
483.808	93.94
484.027	92.94
484.245	93.94
484.463	95.94
484.681	80.94
484.9	79.94
485.118	104.94
485.336	98.94
485.554	102.94
485.772	88.94
485.99	85.94
486.209	97.94
486.427	107.94
486.645	116.94
486.863	110.94
487.081	106.94
487.299	98.94
487.517	103.94
487.735	99.94
487.953	88.94
488.171	102.94
488.389	96.94
488.607	95.94
488.825	88.94
489.043	90.94
489.261	92.94
489.479	92.94
489.696	94.94
489.914	99.94
490.132	86.94
490.35	92.94
490.568	79.94
490.786	70.94
491.003	93.94
491.221	80.94
491.439	99.94
491.657	102.94
491.874	91.94
492.092	102.94
492.31	87.94
492.527	91.94
492.745	98.94
492.963	97.94
493.18	105.94
493.398	92.94
493.615	109.94
493.833	95.94
494.05	98.94
494.268	91.94
494.485	88.94
494.703	90.94
494.92	83.94
495.138	100.94
495.355	92.94
495.573	97.94
495.79	97.94
496.008	87.94
496.225	82.94
496.442	80.94
496.66	103.94
496.877	91.94
497.094	91.94
497.312	91.94
497.529	93.94
497.746	97.94
497.963	95.94
498.181	106.94
498.398	91.94
498.615	98.94
498.832	97.94
499.049	97.94
499.267	100.94
499.484	96.94
499.701	99.94
499.918	93.94
500.135	102.94
500.352	85.94
500.569	78.94
500.786	89.94
501.003	86.94
501.22	103.94
501.437	95.94
501.654	92.94
501.871	108.94
502.088	93.94
502.305	90.94
502.522	95.94
502.739	87.94
502.956	82.94
503.172	105.94
503.389	97.94
503.606	110.94
503.823	81.94
504.04	96.94
504.256	77.94
504.473	83.94
504.69	95.94
504.907	98.94
505.123	95.94
505.34	96.94
505.557	94.94
505.773	106.94
505.99	103.94
506.207	91.94
506.423	112.94
506.64	97.94
506.856	82.94
507.073	85.94
507.289	92.94
507.506	84.94
507.722	100.94
507.939	115.94
508.155	94.94
508.372	92.94
508.588	99.94
508.805	93.94
509.021	88.94
509.238	97.94
509.454	100.94
509.67	107.94
509.887	112.94
510.103	141.94
510.319	209.94
510.536	719.94
510.752	2161.94
510.968	591.94
511.184	151.94
511.401	107.94
511.617	102.94
511.833	88.94
512.049	103.94
512.265	97.94
512.481	102.94
512.698	101.94
512.914	98.94
513.13	87.94
513.346	79.94
513.562	84.94
513.778	95.94
513.994	91.94
514.21	94.94
514.426	108.94
514.642	132.94
514.858	131.94
515.074	163.94
515.29	393.94
515.506	1301.94
