Data from Uncirc_1994_H10_HRD10591_00081.txt Node
Date: Wed Jan 03 11:39:37 EST 2024
User: Yrep
Spectrometer: HR+D1059
Trigger mode: 1
Integration Time (sec): 1.000000E-1
Scans to average: 1
Electric dark correction enabled: true
Nonlinearity correction enabled: false
Boxcar width: 0
XAxis mode: Wavelengths
Number of Pixels in Spectrum: 2048
>>>>>Begin Spectral Data<<<<<
223.165	-30.5
223.4	-30.5
223.635	-30.5
223.869	-9.5
224.104	-12.5
224.338	-18.5
224.573	-5.5
224.808	-11.5
225.042	-10.5
225.277	-6.5
225.511	7.5
225.746	4.5
225.98	-5.5
226.215	5.5
226.449	7.5
226.683	20.5
226.918	31.5
227.152	33.5
227.387	34.5
227.621	41.5
227.856	34.5
228.09	54.5
228.324	63.5
228.559	44.5
228.793	49.5
229.027	73.5
229.262	66.5
229.496	69.5
229.73	91.5
229.964	75.5
230.199	77.5
230.433	81.5
230.667	81.5
230.901	83.5
231.136	82.5
231.37	80.5
231.604	76.5
231.838	93.5
232.072	97.5
232.306	66.5
232.541	75.5
232.775	83.5
233.009	79.5
233.243	82.5
233.477	88.5
233.711	88.5
233.945	87.5
234.179	84.5
234.413	75.5
234.647	77.5
234.881	93.5
235.115	87.5
235.349	80.5
235.583	82.5
235.817	78.5
236.051	83.5
236.285	67.5
236.519	71.5
236.753	81.5
236.987	93.5
237.221	70.5
237.455	79.5
237.689	88.5
237.922	66.5
238.156	70.5
238.39	78.5
238.624	71.5
238.858	82.5
239.091	79.5
239.325	86.5
239.559	79.5
239.793	77.5
240.027	65.5
240.26	75.5
240.494	63.5
240.728	69.5
240.961	83.5
241.195	74.5
241.429	78.5
241.662	77.5
241.896	87.5
242.13	76.5
242.363	83.5
242.597	93.5
242.83	75.5
243.064	78.5
243.298	89.5
243.531	93.5
243.765	79.5
243.998	79.5
244.232	65.5
244.465	75.5
244.699	69.5
244.932	98.5
245.166	78.5
245.399	65.5
245.633	78.5
245.866	91.5
246.099	86.5
246.333	81.5
246.566	68.5
246.8	81.5
247.033	87.5
247.266	94.5
247.5	73.5
247.733	73.5
247.966	94.5
248.2	85.5
248.433	89.5
248.666	75.5
248.899	93.5
249.133	103.5
249.366	104.5
249.599	95.5
249.832	77.5
250.066	65.5
250.299	89.5
250.532	76.5
250.765	89.5
250.998	82.5
251.231	83.5
251.465	78.5
251.698	66.5
251.931	81.5
252.164	87.5
252.397	93.5
252.63	69.5
252.863	81.5
253.096	73.5
253.329	88.5
253.562	79.5
253.795	89.5
254.028	103.5
254.261	83.5
254.494	79.5
254.727	86.5
254.96	79.5
255.193	92.5
255.426	94.5
255.659	82.5
255.892	87.5
256.124	81.5
256.357	79.5
256.59	89.5
256.823	71.5
257.056	91.5
257.289	78.5
257.521	87.5
257.754	76.5
257.987	68.5
258.22	90.5
258.452	78.5
258.685	85.5
258.918	78.5
259.151	95.5
259.383	94.5
259.616	85.5
259.849	84.5
260.081	100.5
260.314	102.5
260.547	78.5
260.779	81.5
261.012	74.5
261.244	90.5
261.477	98.5
261.71	83.5
261.942	108.5
262.175	108.5
262.407	87.5
262.64	89.5
262.872	76.5
263.105	88.5
263.337	90.5
263.57	78.5
263.802	80.5
264.035	89.5
264.267	82.5
264.499	94.5
264.732	78.5
264.964	76.5
265.197	71.5
265.429	83.5
265.661	82.5
265.894	86.5
266.126	100.5
266.358	77.5
266.591	85.5
266.823	82.5
267.055	73.5
267.287	89.5
267.52	85.5
267.752	94.5
267.984	77.5
268.216	85.5
268.448	99.5
268.681	78.5
268.913	79.5
269.145	77.5
269.377	89.5
269.609	94.5
269.841	83.5
270.073	81.5
270.306	76.5
270.538	82.5
270.77	106.5
271.002	68.5
271.234	81.5
271.466	82.5
271.698	85.5
271.93	92.5
272.162	96.5
272.394	91.5
272.626	87.5
272.858	72.5
273.09	71.5
273.322	85.5
273.553	85.5
273.785	94.5
274.017	81.5
274.249	71.5
274.481	90.5
274.713	85.5
274.945	91.5
275.176	81.5
275.408	100.5
275.64	99.5
275.872	77.5
276.104	83.5
276.335	99.5
276.567	90.5
276.799	94.5
277.031	94.5
277.262	86.5
277.494	94.5
277.726	81.5
277.957	84.5
278.189	90.5
278.421	83.5
278.652	82.5
278.884	82.5
279.115	89.5
279.347	97.5
279.579	80.5
279.81	91.5
280.042	93.5
280.273	94.5
280.505	91.5
280.736	91.5
280.968	76.5
281.199	111.5
281.431	95.5
281.662	96.5
281.894	83.5
282.125	98.5
282.356	112.5
282.588	131.5
282.819	106.5
283.051	89.5
283.282	92.5
283.513	91.5
283.745	94.5
283.976	84.5
284.207	77.5
284.439	99.5
284.67	73.5
284.901	102.5
285.132	92.5
285.364	100.5
285.595	94.5
285.826	100.5
286.057	82.5
286.288	93.5
286.52	86.5
286.751	90.5
286.982	97.5
287.213	79.5
287.444	95.5
287.675	87.5
287.906	83.5
288.138	94.5
288.369	92.5
288.6	98.5
288.831	93.5
289.062	88.5
289.293	89.5
289.524	87.5
289.755	83.5
289.986	91.5
290.217	81.5
290.448	77.5
290.679	86.5
290.91	89.5
291.141	73.5
291.371	91.5
291.602	77.5
291.833	93.5
292.064	77.5
292.295	95.5
292.526	93.5
292.757	95.5
292.987	94.5
293.218	82.5
293.449	95.5
293.68	93.5
293.91	103.5
294.141	90.5
294.372	97.5
294.603	86.5
294.833	83.5
295.064	97.5
295.295	93.5
295.525	87.5
295.756	87.5
295.987	95.5
296.217	142.5
296.448	117.5
296.679	90.5
296.909	97.5
297.14	93.5
297.37	90.5
297.601	99.5
297.831	92.5
298.062	95.5
298.292	89.5
298.523	87.5
298.753	83.5
298.984	98.5
299.214	96.5
299.445	95.5
299.675	90.5
299.905	81.5
300.136	95.5
300.366	96.5
300.597	79.5
300.827	86.5
301.057	93.5
301.288	104.5
301.518	99.5
301.748	91.5
301.979	99.5
302.209	89.5
302.439	83.5
302.669	80.5
302.9	88.5
303.13	94.5
303.36	87.5
303.59	95.5
303.82	100.5
304.051	112.5
304.281	103.5
304.511	93.5
304.741	94.5
304.971	93.5
305.201	89.5
305.431	89.5
305.661	101.5
305.891	110.5
306.121	94.5
306.352	105.5
306.582	103.5
306.812	90.5
307.042	94.5
307.272	90.5
307.502	93.5
307.731	93.5
307.961	87.5
308.191	71.5
308.421	85.5
308.651	93.5
308.881	98.5
309.111	93.5
309.341	93.5
309.571	107.5
309.8	85.5
310.03	101.5
310.26	102.5
310.49	107.5
310.72	95.5
310.949	95.5
311.179	107.5
311.409	102.5
311.639	101.5
311.868	102.5
312.098	81.5
312.328	93.5
312.557	99.5
312.787	116.5
313.017	98.5
313.246	97.5
313.476	87.5
313.706	99.5
313.935	78.5
314.165	95.5
314.394	104.5
314.624	87.5
314.853	102.5
315.083	84.5
315.312	99.5
315.542	97.5
315.771	94.5
316.001	97.5
316.23	95.5
316.46	102.5
316.689	97.5
316.919	94.5
317.148	97.5
317.377	97.5
317.607	94.5
317.836	100.5
318.065	102.5
318.295	95.5
318.524	87.5
318.753	85.5
318.983	100.5
319.212	109.5
319.441	118.5
319.67	113.5
319.9	96.5
320.129	84.5
320.358	90.5
320.587	102.5
320.816	92.5
321.046	91.5
321.275	85.5
321.504	106.5
321.733	106.5
321.962	107.5
322.191	96.5
322.42	105.5
322.649	106.5
322.878	118.5
323.108	117.5
323.337	122.5
323.566	138.5
323.795	164.5
324.024	214.5
324.253	384.5
324.482	819.5
324.71	1609.5
324.939	2170.5
325.168	811.5
325.397	224.5
325.626	157.5
325.855	137.5
326.084	125.5
326.313	138.5
326.542	167.5
326.77	219.5
326.999	451.5
327.228	949.5
327.457	1660.5
327.686	1283.5
327.914	361.5
328.143	200.5
328.372	138.5
328.6	117.5
328.829	118.5
329.058	124.5
329.287	128.5
329.515	97.5
329.744	85.5
329.972	92.5
330.201	94.5
330.43	118.5
330.658	114.5
330.887	130.5
331.115	117.5
331.344	119.5
331.572	83.5
331.801	89.5
332.03	113.5
332.258	96.5
332.486	85.5
332.715	106.5
332.943	87.5
333.172	105.5
333.4	85.5
333.629	94.5
333.857	116.5
334.085	100.5
334.314	103.5
334.542	94.5
334.771	85.5
334.999	107.5
335.227	84.5
335.455	101.5
335.684	101.5
335.912	90.5
336.14	92.5
336.369	107.5
336.597	98.5
336.825	95.5
337.053	110.5
337.281	83.5
337.51	98.5
337.738	100.5
337.966	94.5
338.194	94.5
338.422	101.5
338.65	102.5
338.878	107.5
339.106	73.5
339.334	99.5
339.562	80.5
339.79	93.5
340.018	89.5
340.246	98.5
340.474	107.5
340.702	95.5
340.93	85.5
341.158	97.5
341.386	104.5
341.614	99.5
341.842	102.5
342.07	93.5
342.298	104.5
342.526	98.5
342.754	92.5
342.981	107.5
343.209	84.5
343.437	85.5
343.665	99.5
343.893	87.5
344.12	98.5
344.348	98.5
344.576	90.5
344.804	89.5
345.031	88.5
345.259	92.5
345.487	99.5
345.714	105.5
345.942	106.5
346.17	101.5
346.397	94.5
346.625	98.5
346.853	95.5
347.08	94.5
347.308	96.5
347.535	105.5
347.763	103.5
347.99	101.5
348.218	99.5
348.445	112.5
348.673	100.5
348.9	115.5
349.128	104.5
349.355	85.5
349.583	101.5
349.81	108.5
350.037	95.5
350.265	84.5
350.492	106.5
350.72	106.5
350.947	90.5
351.174	101.5
351.402	114.5
351.629	121.5
351.856	106.5
352.083	109.5
352.311	114.5
352.538	116.5
352.765	110.5
352.992	111.5
353.22	104.5
353.447	114.5
353.674	108.5
353.901	108.5
354.128	102.5
354.355	99.5
354.583	106.5
354.81	104.5
355.037	96.5
355.264	98.5
355.491	101.5
355.718	98.5
355.945	93.5
356.172	96.5
356.399	110.5
356.626	98.5
356.853	101.5
357.08	90.5
357.307	83.5
357.534	90.5
357.761	103.5
357.988	92.5
358.215	93.5
358.441	101.5
358.668	103.5
358.895	93.5
359.122	85.5
359.349	94.5
359.576	93.5
359.802	103.5
360.029	110.5
360.256	112.5
360.483	98.5
360.709	81.5
360.936	94.5
361.163	77.5
361.39	98.5
361.616	86.5
361.843	102.5
362.07	100.5
362.296	95.5
362.523	87.5
362.749	91.5
362.976	97.5
363.203	99.5
363.429	85.5
363.656	91.5
363.882	107.5
364.109	102.5
364.335	89.5
364.562	99.5
364.788	92.5
365.015	95.5
365.241	87.5
365.468	102.5
365.694	104.5
365.92	99.5
366.147	99.5
366.373	87.5
366.599	93.5
366.826	108.5
367.052	115.5
367.278	109.5
367.505	90.5
367.731	87.5
367.957	94.5
368.184	85.5
368.41	101.5
368.636	94.5
368.862	108.5
369.089	103.5
369.315	103.5
369.541	97.5
369.767	94.5
369.993	94.5
370.219	92.5
370.445	89.5
370.672	96.5
370.898	74.5
371.124	78.5
371.35	99.5
371.576	88.5
371.802	91.5
372.028	83.5
372.254	110.5
372.48	100.5
372.706	91.5
372.932	101.5
373.158	91.5
373.384	85.5
373.61	97.5
373.835	82.5
374.061	83.5
374.287	90.5
374.513	82.5
374.739	99.5
374.965	85.5
375.191	88.5
375.416	90.5
375.642	95.5
375.868	82.5
376.094	93.5
376.319	96.5
376.545	102.5
376.771	96.5
376.997	87.5
377.222	101.5
377.448	88.5
377.674	96.5
377.899	85.5
378.125	95.5
378.35	93.5
378.576	81.5
378.802	95.5
379.027	105.5
379.253	92.5
379.478	98.5
379.704	87.5
379.929	96.5
380.155	87.5
380.38	100.5
380.606	92.5
380.831	79.5
381.057	96.5
381.282	103.5
381.507	95.5
381.733	99.5
381.958	89.5
382.184	111.5
382.409	95.5
382.634	109.5
382.86	86.5
383.085	98.5
383.31	89.5
383.535	101.5
383.761	96.5
383.986	93.5
384.211	107.5
384.436	109.5
384.662	95.5
384.887	104.5
385.112	101.5
385.337	102.5
385.562	103.5
385.787	81.5
386.013	111.5
386.238	117.5
386.463	111.5
386.688	103.5
386.913	78.5
387.138	100.5
387.363	111.5
387.588	94.5
387.813	98.5
388.038	113.5
388.263	113.5
388.488	101.5
388.713	95.5
388.938	107.5
389.163	102.5
389.387	92.5
389.612	75.5
389.837	84.5
390.062	96.5
390.287	102.5
390.512	100.5
390.736	91.5
390.961	87.5
391.186	91.5
391.411	91.5
391.636	77.5
391.86	90.5
392.085	90.5
392.31	93.5
392.534	92.5
392.759	98.5
392.984	89.5
393.208	79.5
393.433	101.5
393.658	96.5
393.882	88.5
394.107	98.5
394.331	91.5
394.556	91.5
394.78	87.5
395.005	100.5
395.229	81.5
395.454	95.5
395.678	89.5
395.903	76.5
396.127	84.5
396.352	92.5
396.576	100.5
396.801	79.5
397.025	90.5
397.249	81.5
397.474	95.5
397.698	90.5
397.922	89.5
398.147	96.5
398.371	83.5
398.595	77.5
398.82	86.5
399.044	88.5
399.268	96.5
399.492	91.5
399.717	99.5
399.941	106.5
400.165	89.5
400.389	91.5
400.613	95.5
400.837	89.5
401.062	94.5
401.286	85.5
401.51	100.5
401.734	81.5
401.958	105.5
402.182	127.5
402.406	155.5
402.63	119.5
402.854	102.5
403.078	94.5
403.302	89.5
403.526	89.5
403.75	92.5
403.974	102.5
404.198	93.5
404.422	93.5
404.645	99.5
404.869	101.5
405.093	106.5
405.317	101.5
405.541	99.5
405.765	102.5
405.988	113.5
406.212	161.5
406.436	221.5
406.66	142.5
406.883	104.5
407.107	99.5
407.331	98.5
407.555	99.5
407.778	95.5
408.002	85.5
408.226	92.5
408.449	90.5
408.673	100.5
408.896	98.5
409.12	101.5
409.344	85.5
409.567	91.5
409.791	93.5
410.014	91.5
410.238	93.5
410.461	106.5
410.685	91.5
410.908	101.5
411.132	102.5
411.355	97.5
411.578	89.5
411.802	94.5
412.025	69.5
412.249	87.5
412.472	89.5
412.695	95.5
412.919	106.5
413.142	97.5
413.365	93.5
413.589	76.5
413.812	98.5
414.035	101.5
414.258	90.5
414.482	97.5
414.705	95.5
414.928	85.5
415.151	103.5
415.374	94.5
415.597	82.5
415.821	94.5
416.044	79.5
416.267	84.5
416.49	104.5
416.713	95.5
416.936	101.5
417.159	97.5
417.382	93.5
417.605	77.5
417.828	96.5
418.051	88.5
418.274	84.5
418.497	94.5
418.72	98.5
418.943	91.5
419.166	96.5
419.389	87.5
419.611	92.5
419.834	86.5
420.057	84.5
420.28	73.5
420.503	86.5
420.726	89.5
420.948	86.5
421.171	88.5
421.394	99.5
421.617	95.5
421.839	89.5
422.062	93.5
422.285	90.5
422.507	111.5
422.73	113.5
422.953	105.5
423.175	84.5
423.398	90.5
423.621	86.5
423.843	80.5
424.066	91.5
424.288	91.5
424.511	108.5
424.733	96.5
424.956	97.5
425.178	102.5
425.401	110.5
425.623	92.5
425.846	80.5
426.068	95.5
426.291	101.5
426.513	74.5
426.735	93.5
426.958	106.5
427.18	109.5
427.402	134.5
427.625	163.5
427.847	118.5
428.069	102.5
428.292	94.5
428.514	82.5
428.736	101.5
428.958	101.5
429.181	95.5
429.403	99.5
429.625	80.5
429.847	99.5
430.069	85.5
430.292	93.5
430.514	106.5
430.736	90.5
430.958	76.5
431.18	97.5
431.402	103.5
431.624	99.5
431.846	94.5
432.068	98.5
432.29	102.5
432.512	94.5
432.734	83.5
432.956	83.5
433.178	97.5
433.4	100.5
433.622	87.5
433.844	90.5
434.066	85.5
434.287	87.5
434.509	89.5
434.731	94.5
434.953	91.5
435.175	89.5
435.397	89.5
435.618	101.5
435.84	107.5
436.062	108.5
436.284	95.5
436.505	99.5
436.727	102.5
436.949	85.5
437.17	86.5
437.392	93.5
437.614	79.5
437.835	114.5
438.057	107.5
438.278	103.5
438.5	103.5
438.721	115.5
438.943	87.5
439.165	89.5
439.386	96.5
439.608	97.5
439.829	96.5
440.05	117.5
440.272	134.5
440.493	102.5
440.715	89.5
440.936	83.5
441.158	89.5
441.379	82.5
441.6	89.5
441.822	93.5
442.043	95.5
442.264	103.5
442.486	95.5
442.707	104.5
442.928	115.5
443.149	125.5
443.371	123.5
443.592	97.5
443.813	101.5
444.034	98.5
444.255	118.5
444.476	97.5
444.698	93.5
444.919	90.5
445.14	140.5
445.361	117.5
445.582	115.5
445.803	133.5
446.024	130.5
446.245	137.5
446.466	104.5
446.687	81.5
446.908	75.5
447.129	99.5
447.35	93.5
447.571	94.5
447.792	90.5
448.013	96.5
448.234	105.5
448.455	97.5
448.675	109.5
448.896	105.5
449.117	103.5
449.338	105.5
449.559	126.5
449.779	130.5
450	108.5
450.221	93.5
450.442	86.5
450.662	117.5
450.883	98.5
451.104	109.5
451.324	92.5
451.545	72.5
451.766	90.5
451.986	83.5
452.207	89.5
452.428	99.5
452.648	98.5
452.869	97.5
453.089	118.5
453.31	120.5
453.53	100.5
453.751	88.5
453.971	104.5
454.192	113.5
454.412	94.5
454.633	97.5
454.853	98.5
455.073	94.5
455.294	95.5
455.514	86.5
455.734	90.5
455.955	87.5
456.175	77.5
456.395	91.5
456.616	79.5
456.836	89.5
457.056	93.5
457.276	86.5
457.497	86.5
457.717	75.5
457.937	100.5
458.157	85.5
458.377	82.5
458.598	102.5
458.818	125.5
459.038	145.5
459.258	112.5
459.478	102.5
459.698	89.5
459.918	94.5
460.138	77.5
460.358	91.5
460.578	83.5
460.798	64.5
461.018	83.5
461.238	87.5
461.458	80.5
461.678	84.5
461.898	107.5
462.118	97.5
462.338	93.5
462.558	77.5
462.777	67.5
462.997	87.5
463.217	84.5
463.437	78.5
463.657	94.5
463.876	93.5
464.096	101.5
464.316	99.5
464.536	106.5
464.755	89.5
464.975	122.5
465.195	160.5
465.414	158.5
465.634	103.5
465.854	81.5
466.073	97.5
466.293	90.5
466.512	90.5
466.732	96.5
466.951	95.5
467.171	99.5
467.391	108.5
467.61	103.5
467.829	88.5
468.049	78.5
468.268	84.5
468.488	99.5
468.707	92.5
468.927	101.5
469.146	88.5
469.365	78.5
469.585	83.5
469.804	94.5
470.023	83.5
470.243	102.5
470.462	92.5
470.681	105.5
470.901	93.5
471.12	100.5
471.339	103.5
471.558	89.5
471.777	82.5
471.997	82.5
472.216	78.5
472.435	87.5
472.654	92.5
472.873	91.5
473.092	86.5
473.311	90.5
473.53	87.5
473.749	95.5
473.968	94.5
474.187	93.5
474.406	85.5
474.625	93.5
474.844	96.5
475.063	91.5
475.282	87.5
475.501	85.5
475.72	87.5
475.939	102.5
476.158	91.5
476.377	86.5
476.596	85.5
476.814	105.5
477.033	89.5
477.252	93.5
477.471	91.5
477.69	101.5
477.908	94.5
478.127	86.5
478.346	88.5
478.564	91.5
478.783	101.5
479.002	92.5
479.22	98.5
479.439	111.5
479.658	103.5
479.876	94.5
480.095	97.5
480.313	89.5
480.532	76.5
480.751	82.5
480.969	100.5
481.188	92.5
481.406	110.5
481.624	92.5
481.843	93.5
482.061	87.5
482.28	92.5
482.498	64.5
482.717	90.5
482.935	92.5
483.153	94.5
483.372	96.5
483.59	99.5
483.808	105.5
484.027	97.5
484.245	99.5
484.463	101.5
484.681	93.5
484.9	95.5
485.118	92.5
485.336	91.5
485.554	98.5
485.772	105.5
485.99	102.5
486.209	103.5
486.427	107.5
486.645	108.5
486.863	115.5
487.081	94.5
487.299	100.5
487.517	98.5
487.735	81.5
487.953	95.5
488.171	101.5
488.389	98.5
488.607	95.5
488.825	85.5
489.043	93.5
489.261	100.5
489.479	83.5
489.696	97.5
489.914	87.5
490.132	93.5
490.35	106.5
490.568	93.5
490.786	99.5
491.003	89.5
491.221	104.5
491.439	79.5
491.657	81.5
491.874	85.5
492.092	89.5
492.31	100.5
492.527	98.5
492.745	94.5
492.963	96.5
493.18	94.5
493.398	85.5
493.615	103.5
493.833	99.5
494.05	93.5
494.268	92.5
494.485	108.5
494.703	86.5
494.92	90.5
495.138	91.5
495.355	94.5
495.573	91.5
495.79	100.5
496.008	89.5
496.225	87.5
496.442	98.5
496.66	94.5
496.877	94.5
497.094	76.5
497.312	98.5
497.529	91.5
497.746	94.5
497.963	113.5
498.181	95.5
498.398	80.5
498.615	93.5
498.832	93.5
499.049	100.5
499.267	100.5
499.484	82.5
499.701	85.5
499.918	93.5
500.135	96.5
500.352	84.5
500.569	91.5
500.786	86.5
501.003	82.5
501.22	94.5
501.437	90.5
501.654	96.5
501.871	100.5
502.088	99.5
502.305	103.5
502.522	104.5
502.739	93.5
502.956	99.5
503.172	77.5
503.389	96.5
503.606	104.5
503.823	98.5
504.04	99.5
504.256	99.5
504.473	87.5
504.69	85.5
504.907	95.5
505.123	91.5
505.34	87.5
505.557	100.5
505.773	98.5
505.99	88.5
506.207	94.5
506.423	82.5
506.64	82.5
506.856	92.5
507.073	92.5
507.289	99.5
507.506	115.5
507.722	109.5
507.939	118.5
508.155	72.5
508.372	97.5
508.588	95.5
508.805	109.5
509.021	90.5
509.238	96.5
509.454	105.5
509.67	90.5
509.887	107.5
510.103	139.5
510.319	209.5
510.536	780.5
510.752	2414.5
510.968	649.5
511.184	157.5
511.401	95.5
511.617	106.5
511.833	97.5
512.049	100.5
512.265	88.5
512.481	92.5
512.698	92.5
512.914	88.5
513.13	98.5
513.346	96.5
513.562	90.5
513.778	101.5
513.994	106.5
514.21	113.5
514.426	115.5
514.642	117.5
514.858	127.5
515.074	154.5
515.29	436.5
515.506	1451.5
515.721	525.5
515.937	142.5
516.153	94.5
516.369	101.5
516.585	100.5
516.801	96.5
517.016	94.5
517.232	80.5
517.448	98.5
517.664	91.5
517.879	91.5
518.095	101.5
518.311	83.5
518.527	107.5
518.742	100.5
518.958	90.5
519.173	95.5
519.389	116.5
519.605	94.5
519.82	104.5
520.036	112.5
520.251	115.5
520.467	109.5
520.682	100.5
520.898	114.5
521.113	93.5
521.329	138.5
521.544	197.5
521.76	557.5
521.975	2422.5
522.19	1437.5
522.406	309.5
522.621	122.5
522.836	103.5
523.052	109.5
523.267	101.5
523.482	113.5
523.698	94.5
523.913	118.5
524.128	97.5
524.343	94.5
524.559	91.5
524.774	102.5
524.989	90.5
525.204	108.5
525.419	97.5
525.634	98.5
525.849	101.5
526.064	98.5
526.28	89.5
526.495	91.5
526.71	108.5
526.925	82.5
527.14	85.5
527.355	95.5
527.57	91.5
527.785	87.5
527.999	104.5
528.214	89.5
528.429	108.5
528.644	102.5
528.859	97.5
529.074	114.5
529.289	122.5
529.503	164.5
529.718	99.5
529.933	98.5
530.148	85.5
530.363	100.5
530.577	97.5
530.792	97.5
531.007	87.5
531.221	89.5
531.436	91.5
531.651	106.5
531.865	90.5
532.08	95.5
532.295	86.5
532.509	92.5
532.724	97.5
532.938	92.5
533.153	101.5
533.367	97.5
533.582	105.5
533.796	88.5
534.011	113.5
534.225	99.5
534.44	81.5
