Data from Uncirc_1994_H10_HRD10591_00037.txt Node
Date: Wed Jan 03 11:39:28 EST 2024
User: Yrep
Spectrometer: HR+D1059
Trigger mode: 1
Integration Time (sec): 1.000000E-1
Scans to average: 1
Electric dark correction enabled: true
Nonlinearity correction enabled: false
Boxcar width: 0
XAxis mode: Wavelengths
Number of Pixels in Spectrum: 2048
>>>>>Begin Spectral Data<<<<<
223.165	-17.62
223.4	-17.62
223.635	-17.62
223.869	-22.62
224.104	-21.62
224.338	-11.62
224.573	-14.62
224.808	-11.62
225.042	4.38
225.277	8.38
225.511	-10.62
225.746	-1.62
225.98	14.38
226.215	5.38
226.449	-0.62
226.683	24.38
226.918	24.38
227.152	31.38
227.387	22.38
227.621	38.38
227.856	51.38
228.09	50.38
228.324	51.38
228.559	51.38
228.793	59.38
229.027	64.38
229.262	75.38
229.496	68.38
229.73	87.38
229.964	79.38
230.199	72.38
230.433	80.38
230.667	67.38
230.901	75.38
231.136	84.38
231.37	89.38
231.604	78.38
231.838	77.38
232.072	78.38
232.306	86.38
232.541	79.38
232.775	84.38
233.009	81.38
233.243	83.38
233.477	72.38
233.711	86.38
233.945	83.38
234.179	83.38
234.413	82.38
234.647	88.38
234.881	88.38
235.115	90.38
235.349	91.38
235.583	86.38
235.817	77.38
236.051	85.38
236.285	74.38
236.519	81.38
236.753	76.38
236.987	82.38
237.221	90.38
237.455	69.38
237.689	78.38
237.922	68.38
238.156	85.38
238.39	84.38
238.624	80.38
238.858	70.38
239.091	78.38
239.325	83.38
239.559	76.38
239.793	74.38
240.027	74.38
240.26	87.38
240.494	94.38
240.728	90.38
240.961	82.38
241.195	74.38
241.429	76.38
241.662	68.38
241.896	69.38
242.13	67.38
242.363	75.38
242.597	86.38
242.83	93.38
243.064	76.38
243.298	66.38
243.531	87.38
243.765	83.38
243.998	87.38
244.232	86.38
244.465	94.38
244.699	93.38
244.932	85.38
245.166	67.38
245.399	74.38
245.633	90.38
245.866	70.38
246.099	69.38
246.333	66.38
246.566	89.38
246.8	76.38
247.033	91.38
247.266	88.38
247.5	74.38
247.733	69.38
247.966	77.38
248.2	76.38
248.433	75.38
248.666	80.38
248.899	91.38
249.133	80.38
249.366	89.38
249.599	92.38
249.832	80.38
250.066	70.38
250.299	78.38
250.532	83.38
250.765	74.38
250.998	92.38
251.231	74.38
251.465	93.38
251.698	75.38
251.931	91.38
252.164	85.38
252.397	84.38
252.63	83.38
252.863	85.38
253.096	82.38
253.329	81.38
253.562	80.38
253.795	82.38
254.028	70.38
254.261	87.38
254.494	82.38
254.727	79.38
254.96	72.38
255.193	77.38
255.426	87.38
255.659	81.38
255.892	82.38
256.124	86.38
256.357	84.38
256.59	79.38
256.823	87.38
257.056	83.38
257.289	88.38
257.521	84.38
257.754	78.38
257.987	80.38
258.22	90.38
258.452	73.38
258.685	84.38
258.918	69.38
259.151	81.38
259.383	67.38
259.616	94.38
259.849	83.38
260.081	84.38
260.314	75.38
260.547	83.38
260.779	81.38
261.012	77.38
261.244	91.38
261.477	79.38
261.71	104.38
261.942	100.38
262.175	103.38
262.407	88.38
262.64	104.38
262.872	81.38
263.105	81.38
263.337	75.38
263.57	79.38
263.802	79.38
264.035	90.38
264.267	90.38
264.499	89.38
264.732	60.38
264.964	86.38
265.197	88.38
265.429	94.38
265.661	81.38
265.894	73.38
266.126	77.38
266.358	81.38
266.591	66.38
266.823	88.38
267.055	82.38
267.287	84.38
267.52	73.38
267.752	77.38
267.984	71.38
268.216	89.38
268.448	76.38
268.681	78.38
268.913	97.38
269.145	85.38
269.377	74.38
269.609	75.38
269.841	93.38
270.073	74.38
270.306	91.38
270.538	80.38
270.77	82.38
271.002	79.38
271.234	88.38
271.466	88.38
271.698	83.38
271.93	96.38
272.162	84.38
272.394	72.38
272.626	89.38
272.858	98.38
273.09	111.38
273.322	91.38
273.553	92.38
273.785	94.38
274.017	80.38
274.249	80.38
274.481	94.38
274.713	80.38
274.945	93.38
275.176	72.38
275.408	87.38
275.64	64.38
275.872	89.38
276.104	90.38
276.335	102.38
276.567	89.38
276.799	82.38
277.031	98.38
277.262	88.38
277.494	93.38
277.726	95.38
277.957	89.38
278.189	94.38
278.421	85.38
278.652	81.38
278.884	90.38
279.115	77.38
279.347	82.38
279.579	85.38
279.81	85.38
280.042	85.38
280.273	106.38
280.505	98.38
280.736	100.38
280.968	87.38
281.199	88.38
281.431	83.38
281.662	76.38
281.894	108.38
282.125	102.38
282.356	106.38
282.588	129.38
282.819	102.38
283.051	95.38
283.282	101.38
283.513	90.38
283.745	98.38
283.976	83.38
284.207	90.38
284.439	88.38
284.67	90.38
284.901	80.38
285.132	88.38
285.364	81.38
285.595	84.38
285.826	97.38
286.057	85.38
286.288	85.38
286.52	100.38
286.751	70.38
286.982	88.38
287.213	72.38
287.444	94.38
287.675	93.38
287.906	95.38
288.138	104.38
288.369	81.38
288.6	75.38
288.831	79.38
289.062	85.38
289.293	90.38
289.524	83.38
289.755	84.38
289.986	83.38
290.217	98.38
290.448	66.38
290.679	84.38
290.91	97.38
291.141	95.38
291.371	93.38
291.602	85.38
291.833	88.38
292.064	86.38
292.295	94.38
292.526	74.38
292.757	92.38
292.987	100.38
293.218	91.38
293.449	80.38
293.68	95.38
293.91	92.38
294.141	86.38
294.372	91.38
294.603	90.38
294.833	88.38
295.064	88.38
295.295	94.38
295.525	89.38
295.756	98.38
295.987	114.38
296.217	134.38
296.448	118.38
296.679	98.38
296.909	87.38
297.14	92.38
297.37	80.38
297.601	95.38
297.831	93.38
298.062	86.38
298.292	82.38
298.523	86.38
298.753	90.38
298.984	101.38
299.214	97.38
299.445	92.38
299.675	91.38
299.905	99.38
300.136	81.38
300.366	81.38
300.597	86.38
300.827	94.38
301.057	97.38
301.288	92.38
301.518	91.38
301.748	82.38
301.979	102.38
302.209	87.38
302.439	93.38
302.669	98.38
302.9	85.38
303.13	76.38
303.36	92.38
303.59	84.38
303.82	97.38
304.051	97.38
304.281	91.38
304.511	95.38
304.741	87.38
304.971	86.38
305.201	93.38
305.431	80.38
305.661	84.38
305.891	89.38
306.121	98.38
306.352	101.38
306.582	96.38
306.812	96.38
307.042	92.38
307.272	101.38
307.502	74.38
307.731	96.38
307.961	100.38
308.191	80.38
308.421	87.38
308.651	100.38
308.881	101.38
309.111	101.38
309.341	96.38
309.571	100.38
309.8	94.38
310.03	96.38
310.26	93.38
310.49	101.38
310.72	108.38
310.949	104.38
311.179	92.38
311.409	87.38
311.639	89.38
311.868	97.38
312.098	76.38
312.328	97.38
312.557	93.38
312.787	100.38
313.017	101.38
313.246	107.38
313.476	87.38
313.706	104.38
313.935	88.38
314.165	102.38
314.394	108.38
314.624	94.38
314.853	99.38
315.083	110.38
315.312	91.38
315.542	102.38
315.771	104.38
316.001	85.38
316.23	96.38
316.46	100.38
316.689	90.38
316.919	89.38
317.148	97.38
317.377	108.38
317.607	90.38
317.836	107.38
318.065	100.38
318.295	84.38
318.524	80.38
318.753	94.38
318.983	98.38
319.212	104.38
319.441	106.38
319.67	115.38
319.9	102.38
320.129	92.38
320.358	87.38
320.587	84.38
320.816	92.38
321.046	89.38
321.275	111.38
321.504	96.38
321.733	106.38
321.962	98.38
322.191	101.38
322.42	97.38
322.649	104.38
322.878	106.38
323.108	105.38
323.337	112.38
323.566	124.38
323.795	142.38
324.024	184.38
324.253	327.38
324.482	716.38
324.71	1480.38
324.939	1992.38
325.168	700.38
325.397	231.38
325.626	133.38
325.855	120.38
326.084	130.38
326.313	120.38
326.542	157.38
326.77	214.38
326.999	395.38
327.228	857.38
327.457	1516.38
327.686	1167.38
327.914	320.38
328.143	168.38
328.372	132.38
328.6	124.38
328.829	120.38
329.058	113.38
329.287	119.38
329.515	106.38
329.744	100.38
329.972	102.38
330.201	99.38
330.43	99.38
330.658	116.38
330.887	126.38
331.115	107.38
331.344	87.38
331.572	94.38
331.801	107.38
332.03	92.38
332.258	101.38
332.486	89.38
332.715	96.38
332.943	96.38
333.172	91.38
333.4	96.38
333.629	100.38
333.857	112.38
334.085	100.38
334.314	80.38
334.542	98.38
334.771	94.38
334.999	97.38
335.227	83.38
335.455	91.38
335.684	90.38
335.912	87.38
336.14	104.38
336.369	102.38
336.597	86.38
336.825	100.38
337.053	102.38
337.281	89.38
337.51	91.38
337.738	90.38
337.966	95.38
338.194	98.38
338.422	76.38
338.65	74.38
338.878	94.38
339.106	100.38
339.334	98.38
339.562	106.38
339.79	100.38
340.018	82.38
340.246	90.38
340.474	89.38
340.702	93.38
340.93	88.38
341.158	98.38
341.386	108.38
341.614	95.38
341.842	98.38
342.07	101.38
342.298	83.38
342.526	99.38
342.754	82.38
342.981	86.38
343.209	87.38
343.437	110.38
343.665	84.38
343.893	84.38
344.12	97.38
344.348	77.38
344.576	100.38
344.804	80.38
345.031	101.38
345.259	97.38
345.487	81.38
345.714	93.38
345.942	84.38
346.17	86.38
346.397	87.38
346.625	95.38
346.853	85.38
347.08	80.38
347.308	85.38
347.535	100.38
347.763	97.38
347.99	98.38
348.218	105.38
348.445	83.38
348.673	88.38
348.9	93.38
349.128	88.38
349.355	87.38
349.583	91.38
349.81	102.38
350.037	97.38
350.265	93.38
350.492	104.38
350.72	92.38
350.947	105.38
351.174	115.38
351.402	123.38
351.629	88.38
351.856	92.38
352.083	88.38
352.311	117.38
352.538	101.38
352.765	101.38
352.992	109.38
353.22	101.38
353.447	114.38
353.674	100.38
353.901	94.38
354.128	104.38
354.355	102.38
354.583	122.38
354.81	96.38
355.037	90.38
355.264	111.38
355.491	95.38
355.718	85.38
355.945	93.38
356.172	89.38
356.399	85.38
356.626	84.38
356.853	96.38
357.08	99.38
357.307	94.38
357.534	99.38
357.761	86.38
357.988	95.38
358.215	104.38
358.441	93.38
358.668	85.38
358.895	85.38
359.122	98.38
359.349	100.38
359.576	85.38
359.802	107.38
360.029	104.38
360.256	104.38
360.483	79.38
360.709	90.38
360.936	84.38
361.163	88.38
361.39	89.38
361.616	101.38
361.843	83.38
362.07	82.38
362.296	100.38
362.523	89.38
362.749	90.38
362.976	89.38
363.203	98.38
363.429	90.38
363.656	91.38
363.882	102.38
364.109	92.38
364.335	95.38
364.562	95.38
364.788	105.38
365.015	99.38
365.241	112.38
365.468	93.38
365.694	106.38
365.92	99.38
366.147	85.38
366.373	75.38
366.599	97.38
366.826	89.38
367.052	89.38
367.278	96.38
367.505	89.38
367.731	103.38
367.957	86.38
368.184	96.38
368.41	93.38
368.636	100.38
368.862	114.38
369.089	97.38
369.315	92.38
369.541	107.38
369.767	99.38
369.993	102.38
370.219	97.38
370.445	98.38
370.672	95.38
370.898	82.38
371.124	80.38
371.35	90.38
371.576	100.38
371.802	79.38
372.028	94.38
372.254	108.38
372.48	79.38
372.706	98.38
372.932	89.38
373.158	80.38
373.384	83.38
373.61	88.38
373.835	100.38
374.061	104.38
374.287	90.38
374.513	85.38
374.739	81.38
374.965	95.38
375.191	106.38
375.416	91.38
375.642	98.38
375.868	102.38
376.094	92.38
376.319	102.38
376.545	87.38
376.771	97.38
376.997	96.38
377.222	89.38
377.448	89.38
377.674	91.38
377.899	85.38
378.125	83.38
378.35	81.38
378.576	95.38
378.802	98.38
379.027	91.38
379.253	93.38
379.478	100.38
379.704	97.38
379.929	84.38
380.155	92.38
380.38	82.38
380.606	89.38
380.831	88.38
381.057	94.38
381.282	102.38
381.507	102.38
381.733	92.38
381.958	106.38
382.184	98.38
382.409	90.38
382.634	98.38
382.86	93.38
383.085	108.38
383.31	103.38
383.535	106.38
383.761	94.38
383.986	95.38
384.211	89.38
384.436	100.38
384.662	83.38
384.887	108.38
385.112	95.38
385.337	106.38
385.562	88.38
385.787	105.38
386.013	88.38
386.238	99.38
386.463	109.38
386.688	102.38
386.913	102.38
387.138	104.38
387.363	107.38
387.588	93.38
387.813	89.38
388.038	104.38
388.263	84.38
388.488	90.38
388.713	95.38
388.938	97.38
389.163	110.38
389.387	96.38
389.612	99.38
389.837	103.38
390.062	94.38
390.287	96.38
390.512	100.38
390.736	96.38
390.961	97.38
391.186	87.38
391.411	110.38
391.636	102.38
391.86	86.38
392.085	74.38
392.31	78.38
392.534	89.38
392.759	96.38
392.984	83.38
393.208	92.38
393.433	90.38
393.658	105.38
393.882	93.38
394.107	89.38
394.331	90.38
394.556	89.38
394.78	99.38
395.005	90.38
395.229	82.38
395.454	81.38
395.678	84.38
395.903	77.38
396.127	99.38
396.352	85.38
396.576	78.38
396.801	84.38
397.025	86.38
397.249	84.38
397.474	87.38
397.698	76.38
397.922	80.38
398.147	85.38
398.371	76.38
398.595	108.38
398.82	84.38
399.044	90.38
399.268	89.38
399.492	80.38
399.717	77.38
399.941	78.38
400.165	89.38
400.389	84.38
400.613	94.38
400.837	71.38
401.062	84.38
401.286	100.38
401.51	92.38
401.734	80.38
401.958	81.38
402.182	122.38
402.406	137.38
402.63	124.38
402.854	101.38
403.078	108.38
403.302	92.38
403.526	102.38
403.75	86.38
403.974	85.38
404.198	84.38
404.422	97.38
404.645	78.38
404.869	102.38
405.093	92.38
405.317	100.38
405.541	100.38
405.765	97.38
405.988	105.38
406.212	152.38
406.436	209.38
406.66	132.38
406.883	103.38
407.107	92.38
407.331	79.38
407.555	101.38
407.778	101.38
408.002	107.38
408.226	96.38
408.449	83.38
408.673	91.38
408.896	98.38
409.12	94.38
409.344	87.38
409.567	84.38
409.791	95.38
410.014	101.38
410.238	82.38
410.461	95.38
410.685	108.38
410.908	96.38
411.132	105.38
411.355	84.38
411.578	85.38
411.802	93.38
412.025	83.38
412.249	90.38
412.472	97.38
412.695	86.38
412.919	88.38
413.142	87.38
413.365	86.38
413.589	85.38
413.812	69.38
414.035	88.38
414.258	85.38
414.482	98.38
414.705	86.38
414.928	109.38
415.151	89.38
415.374	86.38
415.597	90.38
415.821	91.38
416.044	86.38
416.267	76.38
416.49	88.38
416.713	99.38
416.936	76.38
417.159	92.38
417.382	90.38
417.605	82.38
417.828	90.38
418.051	98.38
418.274	95.38
418.497	81.38
418.72	80.38
418.943	97.38
419.166	89.38
419.389	99.38
419.611	87.38
419.834	89.38
420.057	74.38
420.28	96.38
420.503	78.38
420.726	95.38
420.948	91.38
421.171	94.38
421.394	83.38
421.617	86.38
421.839	94.38
422.062	88.38
422.285	101.38
422.507	99.38
422.73	112.38
422.953	94.38
423.175	91.38
423.398	104.38
423.621	84.38
423.843	85.38
424.066	93.38
424.288	91.38
424.511	90.38
424.733	106.38
424.956	91.38
425.178	102.38
425.401	99.38
425.623	97.38
425.846	89.38
426.068	91.38
426.291	84.38
426.513	82.38
426.735	89.38
426.958	89.38
427.18	86.38
427.402	118.38
427.625	138.38
427.847	106.38
428.069	96.38
428.292	80.38
428.514	91.38
428.736	90.38
428.958	91.38
429.181	108.38
429.403	92.38
429.625	86.38
429.847	101.38
430.069	109.38
430.292	102.38
430.514	85.38
430.736	88.38
430.958	93.38
431.18	83.38
431.402	96.38
431.624	79.38
431.846	93.38
432.068	89.38
432.29	88.38
432.512	99.38
432.734	100.38
432.956	89.38
433.178	90.38
433.4	104.38
433.622	85.38
433.844	104.38
434.066	95.38
434.287	93.38
434.509	101.38
434.731	86.38
434.953	90.38
435.175	102.38
435.397	84.38
435.618	92.38
435.84	100.38
436.062	112.38
436.284	131.38
436.505	97.38
436.727	100.38
436.949	100.38
437.17	89.38
437.392	82.38
437.614	98.38
437.835	106.38
438.057	111.38
438.278	97.38
438.5	95.38
438.721	109.38
438.943	104.38
439.165	90.38
439.386	93.38
439.608	78.38
439.829	90.38
440.05	110.38
440.272	134.38
440.493	93.38
440.715	85.38
440.936	108.38
441.158	97.38
441.379	90.38
441.6	87.38
441.822	91.38
442.043	93.38
442.264	99.38
442.486	94.38
442.707	90.38
442.928	104.38
443.149	131.38
443.371	125.38
443.592	106.38
443.813	121.38
444.034	105.38
444.255	94.38
444.476	85.38
444.698	97.38
444.919	85.38
445.14	128.38
445.361	109.38
445.582	110.38
445.803	127.38
446.024	138.38
446.245	141.38
446.466	101.38
446.687	93.38
446.908	84.38
447.129	87.38
447.35	89.38
447.571	97.38
447.792	98.38
448.013	98.38
448.234	102.38
448.455	78.38
448.675	105.38
448.896	102.38
449.117	82.38
449.338	79.38
449.559	116.38
449.779	132.38
450	95.38
450.221	91.38
450.442	90.38
450.662	91.38
450.883	115.38
451.104	106.38
451.324	91.38
451.545	88.38
451.766	83.38
451.986	89.38
452.207	90.38
452.428	85.38
452.648	98.38
452.869	118.38
453.089	111.38
453.31	108.38
453.53	77.38
453.751	92.38
453.971	110.38
454.192	109.38
454.412	86.38
454.633	86.38
454.853	85.38
455.073	88.38
455.294	101.38
455.514	93.38
455.734	95.38
455.955	93.38
456.175	84.38
456.395	82.38
456.616	90.38
456.836	88.38
457.056	101.38
457.276	86.38
457.497	79.38
457.717	95.38
457.937	89.38
458.157	84.38
458.377	74.38
458.598	112.38
458.818	141.38
459.038	142.38
459.258	123.38
459.478	94.38
459.698	82.38
459.918	92.38
460.138	72.38
460.358	85.38
460.578	82.38
460.798	102.38
461.018	82.38
461.238	91.38
461.458	85.38
461.678	91.38
461.898	98.38
462.118	99.38
462.338	73.38
462.558	84.38
462.777	82.38
462.997	92.38
463.217	91.38
463.437	85.38
463.657	104.38
463.876	89.38
464.096	86.38
464.316	90.38
464.536	94.38
464.755	97.38
464.975	105.38
465.195	145.38
465.414	153.38
465.634	102.38
465.854	82.38
466.073	82.38
466.293	85.38
466.512	92.38
466.732	89.38
466.951	97.38
467.171	95.38
467.391	93.38
467.61	96.38
467.829	85.38
468.049	96.38
468.268	80.38
468.488	82.38
468.707	89.38
468.927	101.38
469.146	89.38
469.365	80.38
469.585	102.38
469.804	99.38
470.023	103.38
470.243	91.38
470.462	101.38
470.681	102.38
470.901	86.38
471.12	98.38
471.339	90.38
471.558	93.38
471.777	89.38
471.997	89.38
472.216	89.38
472.435	89.38
472.654	85.38
472.873	108.38
473.092	74.38
473.311	84.38
473.53	80.38
473.749	97.38
473.968	108.38
474.187	83.38
474.406	93.38
474.625	82.38
474.844	96.38
475.063	81.38
475.282	89.38
475.501	85.38
475.72	92.38
475.939	84.38
476.158	101.38
476.377	92.38
476.596	80.38
476.814	91.38
477.033	96.38
477.252	81.38
477.471	92.38
477.69	80.38
477.908	81.38
478.127	90.38
478.346	86.38
478.564	96.38
478.783	85.38
479.002	98.38
479.22	100.38
479.439	103.38
479.658	107.38
479.876	107.38
480.095	84.38
480.313	96.38
480.532	97.38
480.751	95.38
480.969	101.38
481.188	94.38
481.406	92.38
481.624	89.38
481.843	74.38
482.061	93.38
482.28	83.38
482.498	103.38
482.717	103.38
482.935	90.38
483.153	82.38
483.372	93.38
483.59	91.38
483.808	89.38
484.027	81.38
484.245	78.38
484.463	82.38
484.681	89.38
484.9	92.38
485.118	94.38
485.336	95.38
485.554	86.38
485.772	88.38
485.99	96.38
486.209	97.38
486.427	103.38
486.645	106.38
486.863	109.38
487.081	99.38
487.299	95.38
487.517	82.38
487.735	102.38
487.953	100.38
488.171	97.38
488.389	97.38
488.607	100.38
488.825	84.38
489.043	82.38
489.261	89.38
489.479	101.38
489.696	84.38
489.914	91.38
490.132	98.38
490.35	90.38
490.568	93.38
490.786	93.38
491.003	95.38
491.221	90.38
491.439	88.38
491.657	89.38
491.874	103.38
492.092	92.38
492.31	101.38
492.527	113.38
492.745	96.38
492.963	80.38
493.18	98.38
493.398	75.38
493.615	101.38
493.833	98.38
494.05	92.38
494.268	100.38
494.485	99.38
494.703	99.38
494.92	94.38
495.138	94.38
495.355	84.38
495.573	89.38
495.79	88.38
496.008	85.38
496.225	87.38
496.442	79.38
496.66	89.38
496.877	93.38
497.094	91.38
497.312	91.38
497.529	90.38
497.746	88.38
497.963	105.38
498.181	80.38
498.398	90.38
498.615	100.38
498.832	114.38
499.049	80.38
499.267	107.38
499.484	85.38
499.701	89.38
499.918	91.38
500.135	98.38
500.352	111.38
500.569	98.38
500.786	103.38
501.003	88.38
501.22	92.38
501.437	105.38
501.654	91.38
501.871	101.38
502.088	75.38
502.305	97.38
502.522	83.38
502.739	91.38
502.956	85.38
503.172	94.38
503.389	96.38
503.606	98.38
503.823	106.38
504.04	88.38
504.256	90.38
504.473	108.38
504.69	97.38
504.907	94.38
505.123	85.38
505.34	91.38
505.557	96.38
505.773	104.38
505.99	97.38
506.207	82.38
506.423	88.38
506.64	97.38
506.856	104.38
507.073	95.38
507.289	84.38
507.506	96.38
507.722	99.38
507.939	111.38
508.155	90.38
508.372	94.38
508.588	98.38
508.805	99.38
509.021	107.38
509.238	99.38
509.454	98.38
509.67	112.38
509.887	115.38
510.103	132.38
510.319	186.38
510.536	725.38
510.752	2210.38
510.968	617.38
511.184	147.38
511.401	101.38
511.617	97.38
511.833	92.38
512.049	94.38
512.265	105.38
512.481	106.38
512.698	105.38
512.914	94.38
513.13	101.38
513.346	96.38
513.562	89.38
513.778	89.38
513.994	110.38
514.21	104.38
514.426	113.38
514.642	121.38
514.858	136.38
515.074	158.38
515.29	419.38
515.506	1288.38
