Data from Uncirc_1994_H10_HRD10591_00014.txt Node
Date: Wed Jan 03 11:39:23 EST 2024
User: Yrep
Spectrometer: HR+D1059
Trigger mode: 1
Integration Time (sec): 1.000000E-1
Scans to average: 1
Electric dark correction enabled: true
Nonlinearity correction enabled: false
Boxcar width: 0
XAxis mode: Wavelengths
Number of Pixels in Spectrum: 2048
>>>>>Begin Spectral Data<<<<<
223.165	-7.19
223.4	-7.19
223.635	-7.19
223.869	-13.19
224.104	-18.19
224.338	-18.19
224.573	-18.19
224.808	-20.19
225.042	-7.19
225.277	-10.19
225.511	-0.19
225.746	17.81
225.98	9.81
226.215	5.81
226.449	10.81
226.683	21.81
226.918	17.81
227.152	28.81
227.387	37.81
227.621	44.81
227.856	44.81
228.09	53.81
228.324	55.81
228.559	71.81
228.793	68.81
229.027	58.81
229.262	68.81
229.496	78.81
229.73	75.81
229.964	69.81
230.199	83.81
230.433	83.81
230.667	79.81
230.901	84.81
231.136	81.81
231.37	80.81
231.604	82.81
231.838	93.81
232.072	79.81
232.306	91.81
232.541	81.81
232.775	84.81
233.009	99.81
233.243	81.81
233.477	89.81
233.711	81.81
233.945	88.81
234.179	74.81
234.413	82.81
234.647	74.81
234.881	93.81
235.115	84.81
235.349	75.81
235.583	74.81
235.817	61.81
236.051	86.81
236.285	66.81
236.519	80.81
236.753	74.81
236.987	72.81
237.221	87.81
237.455	79.81
237.689	79.81
237.922	84.81
238.156	69.81
238.39	65.81
238.624	67.81
238.858	80.81
239.091	65.81
239.325	71.81
239.559	77.81
239.793	79.81
240.027	75.81
240.26	83.81
240.494	72.81
240.728	59.81
240.961	69.81
241.195	83.81
241.429	80.81
241.662	84.81
241.896	67.81
242.13	73.81
242.363	83.81
242.597	76.81
242.83	75.81
243.064	72.81
243.298	58.81
243.531	74.81
243.765	85.81
243.998	76.81
244.232	75.81
244.465	93.81
244.699	75.81
244.932	66.81
245.166	75.81
245.399	61.81
245.633	67.81
245.866	84.81
246.099	75.81
246.333	68.81
246.566	76.81
246.8	75.81
247.033	75.81
247.266	71.81
247.5	82.81
247.733	82.81
247.966	65.81
248.2	79.81
248.433	82.81
248.666	76.81
248.899	80.81
249.133	94.81
249.366	105.81
249.599	96.81
249.832	88.81
250.066	77.81
250.299	69.81
250.532	80.81
250.765	90.81
250.998	81.81
251.231	80.81
251.465	79.81
251.698	84.81
251.931	78.81
252.164	71.81
252.397	74.81
252.63	64.81
252.863	95.81
253.096	77.81
253.329	86.81
253.562	76.81
253.795	71.81
254.028	96.81
254.261	85.81
254.494	82.81
254.727	80.81
254.96	76.81
255.193	74.81
255.426	77.81
255.659	91.81
255.892	93.81
256.124	88.81
256.357	81.81
256.59	94.81
256.823	85.81
257.056	81.81
257.289	82.81
257.521	88.81
257.754	81.81
257.987	87.81
258.22	84.81
258.452	81.81
258.685	92.81
258.918	62.81
259.151	71.81
259.383	89.81
259.616	76.81
259.849	75.81
260.081	68.81
260.314	81.81
260.547	92.81
260.779	87.81
261.012	83.81
261.244	77.81
261.477	86.81
261.71	98.81
261.942	113.81
262.175	108.81
262.407	90.81
262.64	77.81
262.872	90.81
263.105	89.81
263.337	74.81
263.57	78.81
263.802	91.81
264.035	88.81
264.267	75.81
264.499	87.81
264.732	81.81
264.964	84.81
265.197	79.81
265.429	83.81
265.661	76.81
265.894	83.81
266.126	99.81
266.358	87.81
266.591	82.81
266.823	93.81
267.055	82.81
267.287	92.81
267.52	80.81
267.752	82.81
267.984	97.81
268.216	84.81
268.448	92.81
268.681	88.81
268.913	84.81
269.145	67.81
269.377	81.81
269.609	93.81
269.841	84.81
270.073	100.81
270.306	90.81
270.538	85.81
270.77	78.81
271.002	81.81
271.234	92.81
271.466	87.81
271.698	85.81
271.93	73.81
272.162	104.81
272.394	88.81
272.626	91.81
272.858	87.81
273.09	84.81
273.322	65.81
273.553	75.81
273.785	85.81
274.017	88.81
274.249	77.81
274.481	75.81
274.713	78.81
274.945	84.81
275.176	85.81
275.408	73.81
275.64	87.81
275.872	88.81
276.104	76.81
276.335	82.81
276.567	103.81
276.799	91.81
277.031	82.81
277.262	79.81
277.494	84.81
277.726	78.81
277.957	85.81
278.189	83.81
278.421	86.81
278.652	101.81
278.884	75.81
279.115	88.81
279.347	78.81
279.579	82.81
279.81	95.81
280.042	84.81
280.273	87.81
280.505	87.81
280.736	94.81
280.968	80.81
281.199	73.81
281.431	81.81
281.662	73.81
281.894	84.81
282.125	102.81
282.356	109.81
282.588	130.81
282.819	92.81
283.051	81.81
283.282	91.81
283.513	87.81
283.745	85.81
283.976	91.81
284.207	97.81
284.439	97.81
284.67	94.81
284.901	99.81
285.132	83.81
285.364	79.81
285.595	85.81
285.826	87.81
286.057	75.81
286.288	79.81
286.52	77.81
286.751	83.81
286.982	90.81
287.213	97.81
287.444	78.81
287.675	75.81
287.906	87.81
288.138	95.81
288.369	77.81
288.6	93.81
288.831	82.81
289.062	96.81
289.293	84.81
289.524	83.81
289.755	83.81
289.986	79.81
290.217	97.81
290.448	82.81
290.679	94.81
290.91	87.81
291.141	89.81
291.371	88.81
291.602	80.81
291.833	86.81
292.064	72.81
292.295	91.81
292.526	89.81
292.757	94.81
292.987	91.81
293.218	82.81
293.449	93.81
293.68	90.81
293.91	83.81
294.141	89.81
294.372	89.81
294.603	76.81
294.833	94.81
295.064	93.81
295.295	92.81
295.525	93.81
295.756	92.81
295.987	111.81
296.217	128.81
296.448	97.81
296.679	94.81
296.909	92.81
297.14	88.81
297.37	85.81
297.601	92.81
297.831	84.81
298.062	84.81
298.292	88.81
298.523	86.81
298.753	77.81
298.984	89.81
299.214	95.81
299.445	89.81
299.675	87.81
299.905	83.81
300.136	90.81
300.366	97.81
300.597	92.81
300.827	77.81
301.057	90.81
301.288	103.81
301.518	90.81
301.748	87.81
301.979	84.81
302.209	97.81
302.439	84.81
302.669	87.81
302.9	84.81
303.13	81.81
303.36	91.81
303.59	105.81
303.82	92.81
304.051	100.81
304.281	92.81
304.511	85.81
304.741	87.81
304.971	85.81
305.201	99.81
305.431	76.81
305.661	73.81
305.891	79.81
306.121	89.81
306.352	100.81
306.582	108.81
306.812	97.81
307.042	69.81
307.272	90.81
307.502	94.81
307.731	80.81
307.961	86.81
308.191	94.81
308.421	101.81
308.651	93.81
308.881	94.81
309.111	92.81
309.341	95.81
309.571	89.81
309.8	91.81
310.03	97.81
310.26	83.81
310.49	83.81
310.72	107.81
310.949	96.81
311.179	83.81
311.409	94.81
311.639	89.81
311.868	93.81
312.098	92.81
312.328	102.81
312.557	101.81
312.787	95.81
313.017	99.81
313.246	96.81
313.476	101.81
313.706	87.81
313.935	89.81
314.165	77.81
314.394	87.81
314.624	84.81
314.853	80.81
315.083	106.81
315.312	107.81
315.542	106.81
315.771	80.81
316.001	79.81
316.23	80.81
316.46	95.81
316.689	80.81
316.919	84.81
317.148	89.81
317.377	89.81
317.607	88.81
317.836	85.81
318.065	86.81
318.295	83.81
318.524	108.81
318.753	96.81
318.983	88.81
319.212	86.81
319.441	104.81
319.67	102.81
319.9	87.81
320.129	85.81
320.358	89.81
320.587	103.81
320.816	100.81
321.046	99.81
321.275	92.81
321.504	87.81
321.733	95.81
321.962	108.81
322.191	100.81
322.42	93.81
322.649	120.81
322.878	109.81
323.108	122.81
323.337	105.81
323.566	109.81
323.795	142.81
324.024	172.81
324.253	327.81
324.482	657.81
324.71	1371.81
324.939	1714.81
325.168	623.81
325.397	211.81
325.626	135.81
325.855	116.81
326.084	124.81
326.313	115.81
326.542	133.81
326.77	211.81
326.999	372.81
327.228	758.81
327.457	1345.81
327.686	1082.81
327.914	298.81
328.143	180.81
328.372	125.81
328.6	108.81
328.829	110.81
329.058	125.81
329.287	109.81
329.515	75.81
329.744	96.81
329.972	110.81
330.201	91.81
330.43	104.81
330.658	110.81
330.887	118.81
331.115	115.81
331.344	108.81
331.572	100.81
331.801	101.81
332.03	111.81
332.258	95.81
332.486	97.81
332.715	96.81
332.943	98.81
333.172	104.81
333.4	83.81
333.629	79.81
333.857	95.81
334.085	109.81
334.314	105.81
334.542	90.81
334.771	101.81
334.999	99.81
335.227	91.81
335.455	94.81
335.684	90.81
335.912	99.81
336.14	102.81
336.369	93.81
336.597	101.81
336.825	90.81
337.053	93.81
337.281	105.81
337.51	96.81
337.738	108.81
337.966	89.81
338.194	84.81
338.422	97.81
338.65	86.81
338.878	100.81
339.106	91.81
339.334	92.81
339.562	75.81
339.79	77.81
340.018	95.81
340.246	79.81
340.474	89.81
340.702	99.81
340.93	82.81
341.158	81.81
341.386	88.81
341.614	87.81
341.842	81.81
342.07	88.81
342.298	83.81
342.526	79.81
342.754	100.81
342.981	72.81
343.209	93.81
343.437	96.81
343.665	86.81
343.893	96.81
344.12	100.81
344.348	104.81
344.576	95.81
344.804	83.81
345.031	87.81
345.259	89.81
345.487	88.81
345.714	85.81
345.942	91.81
346.17	90.81
346.397	75.81
346.625	99.81
346.853	97.81
347.08	96.81
347.308	83.81
347.535	86.81
347.763	87.81
347.99	80.81
348.218	95.81
348.445	97.81
348.673	95.81
348.9	81.81
349.128	83.81
349.355	87.81
349.583	95.81
349.81	82.81
350.037	92.81
350.265	99.81
350.492	92.81
350.72	105.81
350.947	98.81
351.174	105.81
351.402	104.81
351.629	83.81
351.856	105.81
352.083	95.81
352.311	101.81
352.538	98.81
352.765	99.81
352.992	104.81
353.22	108.81
353.447	110.81
353.674	95.81
353.901	92.81
354.128	94.81
354.355	101.81
354.583	101.81
354.81	108.81
355.037	91.81
355.264	105.81
355.491	104.81
355.718	100.81
355.945	87.81
356.172	101.81
356.399	94.81
356.626	91.81
356.853	101.81
357.08	92.81
357.307	95.81
357.534	86.81
357.761	96.81
357.988	93.81
358.215	99.81
358.441	98.81
358.668	93.81
358.895	106.81
359.122	89.81
359.349	95.81
359.576	99.81
359.802	99.81
360.029	109.81
360.256	88.81
360.483	83.81
360.709	101.81
360.936	104.81
361.163	90.81
361.39	91.81
361.616	98.81
361.843	100.81
362.07	93.81
362.296	88.81
362.523	87.81
362.749	88.81
362.976	91.81
363.203	88.81
363.429	92.81
363.656	88.81
363.882	85.81
364.109	68.81
364.335	85.81
364.562	99.81
364.788	94.81
365.015	105.81
365.241	96.81
365.468	107.81
365.694	94.81
365.92	95.81
366.147	89.81
366.373	84.81
366.599	92.81
366.826	107.81
367.052	103.81
367.278	103.81
367.505	95.81
367.731	100.81
367.957	94.81
368.184	90.81
368.41	106.81
368.636	95.81
368.862	112.81
369.089	98.81
369.315	89.81
369.541	84.81
369.767	77.81
369.993	94.81
370.219	92.81
370.445	84.81
370.672	95.81
370.898	87.81
371.124	98.81
371.35	94.81
371.576	90.81
371.802	82.81
372.028	78.81
372.254	87.81
372.48	88.81
372.706	85.81
372.932	100.81
373.158	85.81
373.384	98.81
373.61	82.81
373.835	84.81
374.061	92.81
374.287	83.81
374.513	92.81
374.739	95.81
374.965	74.81
375.191	89.81
375.416	96.81
375.642	89.81
375.868	75.81
376.094	82.81
376.319	76.81
376.545	86.81
376.771	94.81
376.997	83.81
377.222	102.81
377.448	97.81
377.674	96.81
377.899	105.81
378.125	104.81
378.35	91.81
378.576	97.81
378.802	82.81
379.027	94.81
379.253	87.81
379.478	103.81
379.704	85.81
379.929	91.81
380.155	95.81
380.38	79.81
380.606	83.81
380.831	93.81
381.057	100.81
381.282	83.81
381.507	85.81
381.733	100.81
381.958	91.81
382.184	99.81
382.409	99.81
382.634	109.81
382.86	98.81
383.085	98.81
383.31	100.81
383.535	104.81
383.761	97.81
383.986	105.81
384.211	98.81
384.436	96.81
384.662	87.81
384.887	117.81
385.112	85.81
385.337	86.81
385.562	117.81
385.787	106.81
386.013	110.81
386.238	120.81
386.463	117.81
386.688	95.81
386.913	122.81
387.138	110.81
387.363	95.81
387.588	99.81
387.813	103.81
388.038	101.81
388.263	115.81
388.488	89.81
388.713	101.81
388.938	95.81
389.163	97.81
389.387	89.81
389.612	101.81
389.837	89.81
390.062	91.81
390.287	101.81
390.512	97.81
390.736	93.81
390.961	99.81
391.186	89.81
391.411	71.81
391.636	84.81
391.86	84.81
392.085	88.81
392.31	88.81
392.534	91.81
392.759	76.81
392.984	71.81
393.208	107.81
393.433	115.81
393.658	101.81
393.882	95.81
394.107	88.81
394.331	84.81
394.556	92.81
394.78	97.81
395.005	90.81
395.229	76.81
395.454	87.81
395.678	100.81
395.903	86.81
396.127	89.81
396.352	95.81
396.576	102.81
396.801	93.81
397.025	100.81
397.249	95.81
397.474	89.81
397.698	101.81
397.922	85.81
398.147	79.81
398.371	85.81
398.595	92.81
398.82	83.81
399.044	83.81
399.268	97.81
399.492	80.81
399.717	100.81
399.941	101.81
400.165	85.81
400.389	96.81
400.613	101.81
400.837	93.81
401.062	87.81
401.286	84.81
401.51	89.81
401.734	90.81
401.958	91.81
402.182	112.81
402.406	125.81
402.63	107.81
402.854	99.81
403.078	88.81
403.302	84.81
403.526	87.81
403.75	90.81
403.974	89.81
404.198	78.81
404.422	87.81
404.645	103.81
404.869	97.81
405.093	81.81
405.317	96.81
405.541	95.81
405.765	98.81
405.988	109.81
406.212	156.81
406.436	189.81
406.66	121.81
406.883	101.81
407.107	77.81
407.331	98.81
407.555	100.81
407.778	114.81
408.002	108.81
408.226	99.81
408.449	81.81
408.673	96.81
408.896	98.81
409.12	94.81
409.344	85.81
409.567	94.81
409.791	91.81
410.014	107.81
410.238	97.81
410.461	89.81
410.685	104.81
410.908	109.81
411.132	110.81
411.355	96.81
411.578	101.81
411.802	88.81
412.025	81.81
412.249	78.81
412.472	88.81
412.695	79.81
412.919	80.81
413.142	93.81
413.365	99.81
413.589	88.81
413.812	90.81
414.035	91.81
414.258	84.81
414.482	94.81
414.705	89.81
414.928	77.81
415.151	83.81
415.374	84.81
415.597	96.81
415.821	89.81
416.044	87.81
416.267	97.81
416.49	79.81
416.713	82.81
416.936	89.81
417.159	84.81
417.382	87.81
417.605	82.81
417.828	96.81
418.051	90.81
418.274	100.81
418.497	90.81
418.72	81.81
418.943	92.81
419.166	78.81
419.389	93.81
419.611	99.81
419.834	84.81
420.057	82.81
420.28	88.81
420.503	95.81
420.726	104.81
420.948	89.81
421.171	91.81
421.394	92.81
421.617	91.81
421.839	93.81
422.062	90.81
422.285	97.81
422.507	105.81
422.73	88.81
422.953	100.81
423.175	94.81
423.398	93.81
423.621	80.81
423.843	82.81
424.066	95.81
424.288	91.81
424.511	96.81
424.733	99.81
424.956	105.81
425.178	92.81
425.401	102.81
425.623	90.81
425.846	86.81
426.068	97.81
426.291	96.81
426.513	84.81
426.735	80.81
426.958	86.81
427.18	97.81
427.402	124.81
427.625	145.81
427.847	119.81
428.069	86.81
428.292	105.81
428.514	85.81
428.736	78.81
428.958	84.81
429.181	98.81
429.403	76.81
429.625	79.81
429.847	89.81
430.069	106.81
430.292	92.81
430.514	92.81
430.736	88.81
430.958	94.81
431.18	101.81
431.402	80.81
431.624	93.81
431.846	82.81
432.068	81.81
432.29	94.81
432.512	89.81
432.734	95.81
432.956	96.81
433.178	98.81
433.4	106.81
433.622	89.81
433.844	80.81
434.066	95.81
434.287	86.81
434.509	89.81
434.731	95.81
434.953	84.81
435.175	90.81
435.397	83.81
435.618	89.81
435.84	121.81
436.062	116.81
436.284	108.81
436.505	106.81
436.727	90.81
436.949	88.81
437.17	87.81
437.392	101.81
437.614	95.81
437.835	97.81
438.057	114.81
438.278	100.81
438.5	101.81
438.721	121.81
438.943	89.81
439.165	81.81
439.386	99.81
439.608	93.81
439.829	90.81
440.05	94.81
440.272	125.81
440.493	93.81
440.715	99.81
440.936	77.81
441.158	88.81
441.379	89.81
441.6	93.81
441.822	101.81
442.043	96.81
442.264	104.81
442.486	95.81
442.707	96.81
442.928	89.81
443.149	124.81
443.371	115.81
443.592	92.81
443.813	107.81
444.034	96.81
444.255	105.81
444.476	91.81
444.698	92.81
444.919	82.81
445.14	137.81
445.361	113.81
445.582	116.81
445.803	137.81
446.024	124.81
446.245	118.81
446.466	98.81
446.687	91.81
446.908	93.81
447.129	85.81
447.35	87.81
447.571	98.81
447.792	97.81
448.013	89.81
448.234	95.81
448.455	85.81
448.675	110.81
448.896	117.81
449.117	81.81
449.338	86.81
449.559	119.81
449.779	109.81
450	92.81
450.221	86.81
450.442	87.81
450.662	97.81
450.883	101.81
451.104	115.81
451.324	97.81
451.545	87.81
451.766	84.81
451.986	89.81
452.207	77.81
452.428	97.81
452.648	97.81
452.869	116.81
453.089	106.81
453.31	107.81
453.53	93.81
453.751	75.81
453.971	91.81
454.192	93.81
454.412	91.81
454.633	96.81
454.853	93.81
455.073	72.81
455.294	80.81
455.514	97.81
455.734	98.81
455.955	74.81
456.175	92.81
456.395	91.81
456.616	80.81
456.836	89.81
457.056	92.81
457.276	76.81
457.497	89.81
457.717	85.81
457.937	91.81
458.157	73.81
458.377	91.81
458.598	111.81
458.818	134.81
459.038	145.81
459.258	108.81
459.478	96.81
459.698	89.81
459.918	79.81
460.138	95.81
460.358	94.81
460.578	91.81
460.798	84.81
461.018	93.81
461.238	93.81
461.458	77.81
461.678	85.81
461.898	91.81
462.118	96.81
462.338	96.81
462.558	94.81
462.777	97.81
462.997	74.81
463.217	78.81
463.437	88.81
463.657	78.81
463.876	67.81
464.096	105.81
464.316	98.81
464.536	73.81
464.755	99.81
464.975	97.81
465.195	148.81
465.414	138.81
465.634	90.81
465.854	74.81
466.073	95.81
466.293	87.81
466.512	97.81
466.732	96.81
466.951	96.81
467.171	94.81
467.391	85.81
467.61	102.81
467.829	82.81
468.049	88.81
468.268	77.81
468.488	79.81
468.707	86.81
468.927	92.81
469.146	78.81
469.365	87.81
469.585	84.81
469.804	107.81
470.023	93.81
470.243	99.81
470.462	99.81
470.681	105.81
470.901	83.81
471.12	95.81
471.339	93.81
471.558	90.81
471.777	82.81
471.997	92.81
472.216	87.81
472.435	96.81
472.654	66.81
472.873	83.81
473.092	90.81
473.311	97.81
473.53	88.81
473.749	95.81
473.968	90.81
474.187	99.81
474.406	81.81
474.625	99.81
474.844	92.81
475.063	80.81
475.282	84.81
475.501	79.81
475.72	102.81
475.939	71.81
476.158	83.81
476.377	92.81
476.596	84.81
476.814	95.81
477.033	85.81
477.252	89.81
477.471	89.81
477.69	91.81
477.908	92.81
478.127	105.81
478.346	86.81
478.564	89.81
478.783	95.81
479.002	75.81
479.22	83.81
479.439	105.81
479.658	105.81
479.876	85.81
480.095	91.81
480.313	92.81
480.532	94.81
480.751	100.81
480.969	85.81
481.188	97.81
481.406	111.81
481.624	90.81
481.843	79.81
482.061	92.81
482.28	77.81
482.498	87.81
482.717	96.81
482.935	93.81
483.153	101.81
483.372	86.81
483.59	101.81
483.808	100.81
484.027	89.81
484.245	91.81
484.463	79.81
484.681	96.81
484.9	91.81
485.118	101.81
485.336	92.81
485.554	102.81
485.772	104.81
485.99	111.81
486.209	98.81
486.427	98.81
486.645	108.81
486.863	114.81
487.081	105.81
487.299	85.81
487.517	95.81
487.735	82.81
487.953	86.81
488.171	89.81
488.389	97.81
488.607	93.81
488.825	92.81
489.043	76.81
489.261	85.81
489.479	90.81
489.696	89.81
489.914	104.81
490.132	87.81
490.35	86.81
490.568	83.81
490.786	85.81
491.003	97.81
491.221	92.81
491.439	80.81
491.657	90.81
491.874	94.81
492.092	96.81
492.31	86.81
492.527	86.81
492.745	100.81
492.963	97.81
493.18	95.81
493.398	93.81
493.615	105.81
493.833	89.81
494.05	83.81
494.268	89.81
494.485	97.81
494.703	79.81
494.92	87.81
495.138	87.81
495.355	100.81
495.573	84.81
495.79	98.81
496.008	81.81
496.225	92.81
496.442	86.81
496.66	105.81
496.877	99.81
497.094	83.81
497.312	82.81
497.529	78.81
497.746	111.81
497.963	89.81
498.181	94.81
498.398	78.81
498.615	113.81
498.832	107.81
499.049	90.81
499.267	91.81
499.484	97.81
499.701	88.81
499.918	99.81
500.135	100.81
500.352	95.81
500.569	92.81
500.786	97.81
501.003	85.81
501.22	95.81
501.437	77.81
501.654	84.81
501.871	112.81
502.088	96.81
502.305	85.81
502.522	101.81
502.739	93.81
502.956	98.81
503.172	100.81
503.389	100.81
503.606	106.81
503.823	101.81
504.04	89.81
504.256	94.81
504.473	90.81
504.69	98.81
504.907	92.81
505.123	90.81
505.34	91.81
505.557	105.81
505.773	102.81
505.99	87.81
506.207	97.81
506.423	84.81
506.64	89.81
506.856	88.81
507.073	95.81
507.289	87.81
507.506	84.81
507.722	102.81
507.939	114.81
508.155	99.81
508.372	83.81
508.588	100.81
508.805	90.81
509.021	101.81
509.238	112.81
509.454	109.81
509.67	92.81
509.887	105.81
510.103	130.81
510.319	195.81
510.536	656.81
510.752	1951.81
510.968	551.81
511.184	153.81
511.401	110.81
511.617	101.81
511.833	96.81
512.049	110.81
512.265	100.81
512.481	99.81
512.698	85.81
512.914	86.81
513.13	91.81
513.346	93.81
513.562	88.81
513.778	81.81
513.994	93.81
514.21	99.81
514.426	122.81
514.642	122.81
514.858	126.81
515.074	157.81
515.29	365.81
515.506	1137.81
515.721	437.81
515.937	151.81
516.153	102.81
