Data from Uncirc_1994_H10_HRD10591_00089.txt Node
Date: Wed Jan 03 11:39:38 EST 2024
User: Yrep
Spectrometer: HR+D1059
Trigger mode: 1
Integration Time (sec): 1.000000E-1
Scans to average: 1
Electric dark correction enabled: true
Nonlinearity correction enabled: false
Boxcar width: 0
XAxis mode: Wavelengths
Number of Pixels in Spectrum: 2048
>>>>>Begin Spectral Data<<<<<
223.165	-20.44
223.4	-20.44
223.635	-20.44
223.869	-16.44
224.104	-32.44
224.338	-14.44
224.573	-12.44
224.808	-29.44
225.042	-4.44
225.277	3.56
225.511	4.56
225.746	-2.44
225.98	12.56
226.215	10.56
226.449	22.56
226.683	19.56
226.918	22.56
227.152	36.56
227.387	31.56
227.621	35.56
227.856	31.56
228.09	49.56
228.324	52.56
228.559	57.56
228.793	53.56
229.027	72.56
229.262	87.56
229.496	76.56
229.73	78.56
229.964	73.56
230.199	68.56
230.433	79.56
230.667	80.56
230.901	58.56
231.136	77.56
231.37	74.56
231.604	67.56
231.838	84.56
232.072	60.56
232.306	84.56
232.541	77.56
232.775	85.56
233.009	83.56
233.243	84.56
233.477	90.56
233.711	84.56
233.945	69.56
234.179	75.56
234.413	90.56
234.647	62.56
234.881	80.56
235.115	86.56
235.349	68.56
235.583	78.56
235.817	76.56
236.051	84.56
236.285	70.56
236.519	80.56
236.753	75.56
236.987	91.56
237.221	76.56
237.455	66.56
237.689	67.56
237.922	82.56
238.156	76.56
238.39	68.56
238.624	73.56
238.858	70.56
239.091	69.56
239.325	91.56
239.559	93.56
239.793	86.56
240.027	71.56
240.26	57.56
240.494	61.56
240.728	76.56
240.961	68.56
241.195	87.56
241.429	77.56
241.662	82.56
241.896	75.56
242.13	61.56
242.363	80.56
242.597	74.56
242.83	78.56
243.064	96.56
243.298	74.56
243.531	70.56
243.765	88.56
243.998	75.56
244.232	65.56
244.465	96.56
244.699	80.56
244.932	83.56
245.166	87.56
245.399	79.56
245.633	86.56
245.866	84.56
246.099	83.56
246.333	81.56
246.566	85.56
246.8	69.56
247.033	67.56
247.266	92.56
247.5	80.56
247.733	74.56
247.966	78.56
248.2	64.56
248.433	78.56
248.666	72.56
248.899	77.56
249.133	80.56
249.366	84.56
249.599	86.56
249.832	82.56
250.066	85.56
250.299	79.56
250.532	85.56
250.765	85.56
250.998	90.56
251.231	77.56
251.465	84.56
251.698	75.56
251.931	74.56
252.164	84.56
252.397	82.56
252.63	80.56
252.863	79.56
253.096	76.56
253.329	92.56
253.562	82.56
253.795	94.56
254.028	85.56
254.261	93.56
254.494	88.56
254.727	80.56
254.96	75.56
255.193	82.56
255.426	79.56
255.659	101.56
255.892	80.56
256.124	66.56
256.357	74.56
256.59	68.56
256.823	89.56
257.056	77.56
257.289	87.56
257.521	57.56
257.754	83.56
257.987	83.56
258.22	77.56
258.452	106.56
258.685	77.56
258.918	66.56
259.151	87.56
259.383	97.56
259.616	90.56
259.849	77.56
260.081	92.56
260.314	75.56
260.547	73.56
260.779	66.56
261.012	82.56
261.244	96.56
261.477	88.56
261.71	96.56
261.942	110.56
262.175	117.56
262.407	95.56
262.64	98.56
262.872	75.56
263.105	87.56
263.337	78.56
263.57	83.56
263.802	80.56
264.035	76.56
264.267	83.56
264.499	73.56
264.732	81.56
264.964	74.56
265.197	64.56
265.429	82.56
265.661	82.56
265.894	85.56
266.126	86.56
266.358	68.56
266.591	84.56
266.823	78.56
267.055	78.56
267.287	83.56
267.52	73.56
267.752	82.56
267.984	89.56
268.216	86.56
268.448	79.56
268.681	65.56
268.913	78.56
269.145	77.56
269.377	93.56
269.609	95.56
269.841	90.56
270.073	86.56
270.306	80.56
270.538	64.56
270.77	78.56
271.002	72.56
271.234	78.56
271.466	81.56
271.698	76.56
271.93	67.56
272.162	81.56
272.394	90.56
272.626	100.56
272.858	90.56
273.09	94.56
273.322	80.56
273.553	74.56
273.785	89.56
274.017	79.56
274.249	93.56
274.481	87.56
274.713	74.56
274.945	81.56
275.176	72.56
275.408	73.56
275.64	94.56
275.872	80.56
276.104	85.56
276.335	87.56
276.567	87.56
276.799	108.56
277.031	90.56
277.262	85.56
277.494	79.56
277.726	90.56
277.957	84.56
278.189	78.56
278.421	69.56
278.652	80.56
278.884	69.56
279.115	88.56
279.347	81.56
279.579	90.56
279.81	78.56
280.042	85.56
280.273	83.56
280.505	82.56
280.736	96.56
280.968	94.56
281.199	95.56
281.431	101.56
281.662	66.56
281.894	78.56
282.125	96.56
282.356	111.56
282.588	117.56
282.819	109.56
283.051	80.56
283.282	90.56
283.513	83.56
283.745	80.56
283.976	86.56
284.207	106.56
284.439	91.56
284.67	98.56
284.901	86.56
285.132	108.56
285.364	90.56
285.595	88.56
285.826	100.56
286.057	99.56
286.288	81.56
286.52	86.56
286.751	90.56
286.982	86.56
287.213	83.56
287.444	88.56
287.675	93.56
287.906	84.56
288.138	98.56
288.369	89.56
288.6	83.56
288.831	93.56
289.062	93.56
289.293	76.56
289.524	87.56
289.755	85.56
289.986	86.56
290.217	90.56
290.448	94.56
290.679	85.56
290.91	88.56
291.141	67.56
291.371	78.56
291.602	89.56
291.833	88.56
292.064	92.56
292.295	97.56
292.526	100.56
292.757	83.56
292.987	97.56
293.218	88.56
293.449	84.56
293.68	96.56
293.91	90.56
294.141	103.56
294.372	81.56
294.603	92.56
294.833	83.56
295.064	78.56
295.295	96.56
295.525	98.56
295.756	91.56
295.987	110.56
296.217	133.56
296.448	104.56
296.679	92.56
296.909	88.56
297.14	80.56
297.37	83.56
297.601	85.56
297.831	88.56
298.062	100.56
298.292	86.56
298.523	89.56
298.753	93.56
298.984	86.56
299.214	96.56
299.445	78.56
299.675	92.56
299.905	93.56
300.136	100.56
300.366	93.56
300.597	93.56
300.827	88.56
301.057	81.56
301.288	103.56
301.518	95.56
301.748	88.56
301.979	89.56
302.209	90.56
302.439	86.56
302.669	83.56
302.9	84.56
303.13	94.56
303.36	83.56
303.59	101.56
303.82	111.56
304.051	100.56
304.281	83.56
304.511	93.56
304.741	77.56
304.971	84.56
305.201	85.56
305.431	89.56
305.661	90.56
305.891	83.56
306.121	91.56
306.352	113.56
306.582	111.56
306.812	86.56
307.042	88.56
307.272	85.56
307.502	100.56
307.731	93.56
307.961	85.56
308.191	92.56
308.421	90.56
308.651	93.56
308.881	85.56
309.111	84.56
309.341	98.56
309.571	97.56
309.8	99.56
310.03	97.56
310.26	97.56
310.49	94.56
310.72	96.56
310.949	107.56
311.179	108.56
311.409	85.56
311.639	92.56
311.868	94.56
312.098	80.56
312.328	96.56
312.557	101.56
312.787	92.56
313.017	102.56
313.246	86.56
313.476	83.56
313.706	111.56
313.935	91.56
314.165	90.56
314.394	96.56
314.624	91.56
314.853	113.56
315.083	99.56
315.312	84.56
315.542	93.56
315.771	76.56
316.001	94.56
316.23	89.56
316.46	100.56
316.689	112.56
316.919	99.56
317.148	96.56
317.377	99.56
317.607	100.56
317.836	82.56
318.065	95.56
318.295	88.56
318.524	101.56
318.753	107.56
318.983	98.56
319.212	70.56
319.441	96.56
319.67	97.56
319.9	97.56
320.129	86.56
320.358	105.56
320.587	106.56
320.816	94.56
321.046	79.56
321.275	92.56
321.504	90.56
321.733	96.56
321.962	108.56
322.191	102.56
322.42	94.56
322.649	108.56
322.878	97.56
323.108	114.56
323.337	114.56
323.566	121.56
323.795	158.56
324.024	212.56
324.253	359.56
324.482	752.56
324.71	1491.56
324.939	2021.56
325.168	725.56
325.397	222.56
325.626	144.56
325.855	125.56
326.084	125.56
326.313	125.56
326.542	136.56
326.77	208.56
326.999	422.56
327.228	861.56
327.457	1564.56
327.686	1228.56
327.914	335.56
328.143	188.56
328.372	128.56
328.6	119.56
328.829	112.56
329.058	125.56
329.287	119.56
329.515	102.56
329.744	92.56
329.972	102.56
330.201	92.56
330.43	103.56
330.658	112.56
330.887	123.56
331.115	103.56
331.344	99.56
331.572	103.56
331.801	101.56
332.03	100.56
332.258	97.56
332.486	106.56
332.715	108.56
332.943	98.56
333.172	91.56
333.4	88.56
333.629	98.56
333.857	107.56
334.085	92.56
334.314	94.56
334.542	97.56
334.771	105.56
334.999	80.56
335.227	100.56
335.455	84.56
335.684	97.56
335.912	89.56
336.14	102.56
336.369	100.56
336.597	108.56
336.825	99.56
337.053	99.56
337.281	97.56
337.51	97.56
337.738	97.56
337.966	95.56
338.194	84.56
338.422	96.56
338.65	101.56
338.878	86.56
339.106	89.56
339.334	88.56
339.562	95.56
339.79	82.56
340.018	91.56
340.246	105.56
340.474	96.56
340.702	93.56
340.93	89.56
341.158	101.56
341.386	93.56
341.614	91.56
341.842	87.56
342.07	97.56
342.298	97.56
342.526	88.56
342.754	94.56
342.981	78.56
343.209	69.56
343.437	97.56
343.665	96.56
343.893	97.56
344.12	101.56
344.348	100.56
344.576	92.56
344.804	82.56
345.031	96.56
345.259	92.56
345.487	91.56
345.714	92.56
345.942	94.56
346.17	95.56
346.397	86.56
346.625	100.56
346.853	69.56
347.08	98.56
347.308	100.56
347.535	98.56
347.763	83.56
347.99	99.56
348.218	97.56
348.445	110.56
348.673	98.56
348.9	84.56
349.128	78.56
349.355	91.56
349.583	78.56
349.81	93.56
350.037	91.56
350.265	97.56
350.492	101.56
350.72	100.56
350.947	102.56
351.174	123.56
351.402	113.56
351.629	96.56
351.856	107.56
352.083	88.56
352.311	111.56
352.538	99.56
352.765	107.56
352.992	111.56
353.22	102.56
353.447	129.56
353.674	100.56
353.901	99.56
354.128	118.56
354.355	106.56
354.583	109.56
354.81	90.56
355.037	85.56
355.264	99.56
355.491	98.56
355.718	93.56
355.945	81.56
356.172	81.56
356.399	90.56
356.626	100.56
356.853	94.56
357.08	74.56
357.307	98.56
357.534	85.56
357.761	97.56
357.988	88.56
358.215	95.56
358.441	87.56
358.668	104.56
358.895	84.56
359.122	99.56
359.349	93.56
359.576	101.56
359.802	96.56
360.029	117.56
360.256	96.56
360.483	97.56
360.709	83.56
360.936	89.56
361.163	77.56
361.39	106.56
361.616	90.56
361.843	96.56
362.07	89.56
362.296	101.56
362.523	105.56
362.749	83.56
362.976	94.56
363.203	98.56
363.429	100.56
363.656	89.56
363.882	84.56
364.109	93.56
364.335	92.56
364.562	87.56
364.788	93.56
365.015	95.56
365.241	92.56
365.468	95.56
365.694	105.56
365.92	94.56
366.147	107.56
366.373	94.56
366.599	101.56
366.826	105.56
367.052	82.56
367.278	88.56
367.505	92.56
367.731	95.56
367.957	99.56
368.184	94.56
368.41	107.56
368.636	124.56
368.862	117.56
369.089	119.56
369.315	96.56
369.541	77.56
369.767	103.56
369.993	77.56
370.219	106.56
370.445	97.56
370.672	94.56
370.898	85.56
371.124	99.56
371.35	89.56
371.576	87.56
371.802	96.56
372.028	91.56
372.254	99.56
372.48	74.56
372.706	90.56
372.932	99.56
373.158	90.56
373.384	81.56
373.61	84.56
373.835	84.56
374.061	88.56
374.287	92.56
374.513	99.56
374.739	78.56
374.965	90.56
375.191	83.56
375.416	97.56
375.642	83.56
375.868	78.56
376.094	79.56
376.319	90.56
376.545	83.56
376.771	97.56
376.997	91.56
377.222	92.56
377.448	99.56
377.674	97.56
377.899	90.56
378.125	92.56
378.35	87.56
378.576	90.56
378.802	97.56
379.027	98.56
379.253	91.56
379.478	79.56
379.704	86.56
379.929	81.56
380.155	101.56
380.38	93.56
380.606	83.56
380.831	94.56
381.057	103.56
381.282	95.56
381.507	93.56
381.733	106.56
381.958	90.56
382.184	101.56
382.409	78.56
382.634	93.56
382.86	83.56
383.085	100.56
383.31	104.56
383.535	114.56
383.761	99.56
383.986	105.56
384.211	100.56
384.436	96.56
384.662	101.56
384.887	110.56
385.112	93.56
385.337	108.56
385.562	104.56
385.787	102.56
386.013	121.56
386.238	123.56
386.463	99.56
386.688	101.56
386.913	107.56
387.138	116.56
387.363	111.56
387.588	85.56
387.813	87.56
388.038	102.56
388.263	81.56
388.488	91.56
388.713	86.56
388.938	100.56
389.163	99.56
389.387	101.56
389.612	99.56
389.837	101.56
390.062	99.56
390.287	106.56
390.512	91.56
390.736	91.56
390.961	106.56
391.186	86.56
391.411	88.56
391.636	90.56
391.86	94.56
392.085	93.56
392.31	87.56
392.534	93.56
392.759	88.56
392.984	92.56
393.208	85.56
393.433	99.56
393.658	90.56
393.882	95.56
394.107	73.56
394.331	92.56
394.556	81.56
394.78	97.56
395.005	84.56
395.229	100.56
395.454	95.56
395.678	90.56
395.903	102.56
396.127	81.56
396.352	97.56
396.576	89.56
396.801	88.56
397.025	85.56
397.249	87.56
397.474	86.56
397.698	102.56
397.922	106.56
398.147	78.56
398.371	91.56
398.595	88.56
398.82	78.56
399.044	82.56
399.268	82.56
399.492	93.56
399.717	89.56
399.941	100.56
400.165	90.56
400.389	90.56
400.613	97.56
400.837	94.56
401.062	91.56
401.286	99.56
401.51	91.56
401.734	103.56
401.958	108.56
402.182	126.56
402.406	152.56
402.63	110.56
402.854	98.56
403.078	95.56
403.302	88.56
403.526	78.56
403.75	95.56
403.974	86.56
404.198	85.56
404.422	85.56
404.645	95.56
404.869	96.56
405.093	93.56
405.317	86.56
405.541	104.56
405.765	99.56
405.988	111.56
406.212	160.56
406.436	209.56
406.66	154.56
406.883	115.56
407.107	106.56
407.331	112.56
407.555	98.56
407.778	98.56
408.002	92.56
408.226	84.56
408.449	90.56
408.673	105.56
408.896	79.56
409.12	96.56
409.344	84.56
409.567	89.56
409.791	86.56
410.014	91.56
410.238	96.56
410.461	95.56
410.685	93.56
410.908	93.56
411.132	101.56
411.355	99.56
411.578	86.56
411.802	76.56
412.025	79.56
412.249	84.56
412.472	98.56
412.695	100.56
412.919	81.56
413.142	99.56
413.365	103.56
413.589	97.56
413.812	85.56
414.035	96.56
414.258	96.56
414.482	107.56
414.705	96.56
414.928	102.56
415.151	94.56
415.374	95.56
415.597	81.56
415.821	86.56
416.044	89.56
416.267	85.56
416.49	86.56
416.713	94.56
416.936	90.56
417.159	90.56
417.382	74.56
417.605	95.56
417.828	84.56
418.051	84.56
418.274	110.56
418.497	86.56
418.72	93.56
418.943	92.56
419.166	86.56
419.389	91.56
419.611	82.56
419.834	93.56
420.057	86.56
420.28	92.56
420.503	95.56
420.726	98.56
420.948	90.56
421.171	95.56
421.394	95.56
421.617	105.56
421.839	96.56
422.062	86.56
422.285	109.56
422.507	104.56
422.73	108.56
422.953	98.56
423.175	95.56
423.398	97.56
423.621	82.56
423.843	100.56
424.066	78.56
424.288	82.56
424.511	100.56
424.733	98.56
424.956	99.56
425.178	88.56
425.401	88.56
425.623	90.56
425.846	96.56
426.068	97.56
426.291	91.56
426.513	99.56
426.735	89.56
426.958	89.56
427.18	106.56
427.402	121.56
427.625	154.56
427.847	113.56
428.069	99.56
428.292	76.56
428.514	94.56
428.736	96.56
428.958	95.56
429.181	89.56
429.403	83.56
429.625	96.56
429.847	106.56
430.069	108.56
430.292	92.56
430.514	94.56
430.736	89.56
430.958	75.56
431.18	84.56
431.402	89.56
431.624	88.56
431.846	85.56
432.068	78.56
432.29	84.56
432.512	90.56
432.734	96.56
432.956	105.56
433.178	102.56
433.4	85.56
433.622	98.56
433.844	87.56
434.066	94.56
434.287	93.56
434.509	88.56
434.731	78.56
434.953	85.56
435.175	99.56
435.397	97.56
435.618	86.56
435.84	107.56
436.062	108.56
436.284	117.56
436.505	112.56
436.727	101.56
436.949	102.56
437.17	98.56
437.392	85.56
437.614	82.56
437.835	112.56
438.057	112.56
438.278	110.56
438.5	106.56
438.721	108.56
438.943	102.56
439.165	89.56
439.386	92.56
439.608	90.56
439.829	98.56
440.05	122.56
440.272	136.56
440.493	100.56
440.715	76.56
440.936	88.56
441.158	89.56
441.379	86.56
441.6	79.56
441.822	93.56
442.043	81.56
442.264	90.56
442.486	107.56
442.707	90.56
442.928	96.56
443.149	128.56
443.371	122.56
443.592	100.56
443.813	101.56
444.034	106.56
444.255	98.56
444.476	81.56
444.698	98.56
444.919	85.56
445.14	133.56
445.361	128.56
445.582	103.56
445.803	129.56
446.024	122.56
446.245	118.56
446.466	123.56
446.687	79.56
446.908	88.56
447.129	91.56
447.35	96.56
447.571	85.56
447.792	99.56
448.013	96.56
448.234	87.56
448.455	103.56
448.675	112.56
448.896	113.56
449.117	90.56
449.338	115.56
449.559	129.56
449.779	124.56
450	101.56
450.221	80.56
450.442	84.56
450.662	94.56
450.883	112.56
451.104	97.56
451.324	98.56
451.545	87.56
451.766	85.56
451.986	101.56
452.207	93.56
452.428	84.56
452.648	103.56
452.869	116.56
453.089	117.56
453.31	105.56
453.53	84.56
453.751	96.56
453.971	102.56
454.192	99.56
454.412	96.56
454.633	92.56
454.853	88.56
455.073	85.56
455.294	102.56
455.514	115.56
455.734	103.56
455.955	81.56
456.175	89.56
456.395	101.56
456.616	103.56
456.836	97.56
457.056	84.56
457.276	86.56
457.497	85.56
457.717	79.56
457.937	97.56
458.157	86.56
458.377	78.56
458.598	98.56
458.818	141.56
459.038	141.56
459.258	118.56
459.478	90.56
459.698	87.56
459.918	97.56
460.138	98.56
460.358	75.56
460.578	104.56
460.798	91.56
461.018	82.56
461.238	90.56
461.458	73.56
461.678	85.56
461.898	81.56
462.118	91.56
462.338	90.56
462.558	80.56
462.777	94.56
462.997	76.56
463.217	93.56
463.437	101.56
463.657	83.56
463.876	81.56
464.096	91.56
464.316	110.56
464.536	78.56
464.755	89.56
464.975	92.56
465.195	159.56
465.414	135.56
465.634	99.56
465.854	103.56
466.073	87.56
466.293	89.56
466.512	86.56
466.732	78.56
466.951	86.56
467.171	94.56
467.391	85.56
467.61	103.56
467.829	104.56
468.049	83.56
468.268	93.56
468.488	92.56
468.707	93.56
468.927	79.56
469.146	79.56
469.365	84.56
469.585	84.56
469.804	92.56
470.023	103.56
470.243	85.56
470.462	82.56
470.681	108.56
470.901	91.56
471.12	88.56
471.339	83.56
471.558	89.56
471.777	99.56
471.997	90.56
472.216	80.56
472.435	88.56
472.654	101.56
472.873	94.56
473.092	91.56
473.311	86.56
473.53	88.56
473.749	83.56
473.968	102.56
474.187	97.56
474.406	85.56
474.625	98.56
474.844	86.56
475.063	76.56
475.282	80.56
475.501	82.56
475.72	102.56
475.939	88.56
476.158	81.56
476.377	80.56
476.596	71.56
476.814	83.56
477.033	95.56
477.252	93.56
477.471	89.56
477.69	87.56
477.908	93.56
478.127	94.56
478.346	75.56
478.564	94.56
478.783	103.56
479.002	85.56
479.22	76.56
479.439	108.56
479.658	99.56
479.876	85.56
480.095	93.56
480.313	99.56
480.532	80.56
480.751	83.56
480.969	81.56
481.188	93.56
481.406	92.56
481.624	86.56
481.843	93.56
482.061	94.56
482.28	83.56
482.498	93.56
482.717	88.56
482.935	82.56
483.153	99.56
483.372	83.56
483.59	93.56
483.808	70.56
484.027	85.56
484.245	93.56
484.463	92.56
484.681	102.56
484.9	85.56
485.118	98.56
485.336	102.56
485.554	97.56
485.772	93.56
485.99	109.56
486.209	96.56
486.427	102.56
486.645	105.56
486.863	113.56
487.081	95.56
487.299	98.56
487.517	89.56
487.735	79.56
487.953	83.56
488.171	93.56
488.389	100.56
488.607	101.56
488.825	96.56
489.043	106.56
489.261	102.56
489.479	97.56
489.696	79.56
489.914	79.56
490.132	78.56
490.35	94.56
490.568	84.56
490.786	92.56
491.003	93.56
491.221	86.56
491.439	82.56
491.657	102.56
491.874	114.56
492.092	92.56
492.31	85.56
492.527	94.56
492.745	93.56
492.963	97.56
493.18	94.56
493.398	104.56
493.615	96.56
493.833	91.56
494.05	102.56
494.268	89.56
494.485	97.56
494.703	87.56
494.92	88.56
495.138	98.56
495.355	96.56
495.573	98.56
495.79	86.56
496.008	108.56
496.225	87.56
496.442	86.56
496.66	105.56
496.877	96.56
497.094	83.56
497.312	83.56
497.529	107.56
497.746	91.56
497.963	77.56
498.181	92.56
498.398	99.56
498.615	108.56
498.832	91.56
499.049	89.56
499.267	105.56
499.484	75.56
499.701	95.56
499.918	79.56
500.135	86.56
500.352	88.56
500.569	93.56
500.786	91.56
501.003	96.56
501.22	89.56
501.437	100.56
501.654	96.56
501.871	105.56
502.088	93.56
502.305	99.56
502.522	95.56
502.739	95.56
502.956	88.56
503.172	95.56
503.389	101.56
503.606	114.56
503.823	93.56
504.04	87.56
504.256	97.56
504.473	83.56
504.69	100.56
504.907	85.56
505.123	80.56
505.34	86.56
505.557	81.56
505.773	86.56
505.99	98.56
506.207	96.56
506.423	86.56
506.64	87.56
506.856	80.56
507.073	75.56
507.289	108.56
507.506	91.56
507.722	98.56
507.939	113.56
508.155	95.56
508.372	100.56
508.588	87.56
508.805	100.56
509.021	102.56
509.238	101.56
509.454	101.56
509.67	92.56
509.887	99.56
510.103	145.56
510.319	202.56
510.536	737.56
510.752	2242.56
510.968	620.56
511.184	160.56
511.401	100.56
511.617	112.56
511.833	97.56
512.049	86.56
512.265	95.56
512.481	85.56
512.698	85.56
512.914	110.56
513.13	93.56
513.346	84.56
513.562	89.56
513.778	93.56
513.994	102.56
514.21	112.56
514.426	111.56
514.642	124.56
514.858	136.56
515.074	149.56
515.29	445.56
515.506	1318.56
515.721	484.56
