Data from Uncirc_1994_H10_HRD10591_00092.txt Node
Date: Wed Jan 03 11:39:39 EST 2024
User: Yrep
Spectrometer: HR+D1059
Trigger mode: 1
Integration Time (sec): 1.000000E-1
Scans to average: 1
Electric dark correction enabled: true
Nonlinearity correction enabled: false
Boxcar width: 0
XAxis mode: Wavelengths
Number of Pixels in Spectrum: 2048
>>>>>Begin Spectral Data<<<<<
223.165	-20.75
223.4	-20.75
223.635	-20.75
223.869	-30.75
224.104	-14.75
224.338	-3.75
224.573	-25.75
224.808	-10.75
225.042	-8.75
225.277	0.25
225.511	-1.75
225.746	4.25
225.98	3.25
226.215	8.25
226.449	28.25
226.683	21.25
226.918	34.25
227.152	17.25
227.387	31.25
227.621	40.25
227.856	55.25
228.09	39.25
228.324	50.25
228.559	55.25
228.793	55.25
229.027	67.25
229.262	67.25
229.496	70.25
229.73	83.25
229.964	76.25
230.199	81.25
230.433	78.25
230.667	84.25
230.901	70.25
231.136	66.25
231.37	81.25
231.604	77.25
231.838	82.25
232.072	73.25
232.306	78.25
232.541	83.25
232.775	89.25
233.009	91.25
233.243	71.25
233.477	85.25
233.711	98.25
233.945	91.25
234.179	69.25
234.413	94.25
234.647	81.25
234.881	85.25
235.115	79.25
235.349	90.25
235.583	77.25
235.817	74.25
236.051	65.25
236.285	80.25
236.519	69.25
236.753	74.25
236.987	100.25
237.221	82.25
237.455	88.25
237.689	86.25
237.922	63.25
238.156	49.25
238.39	89.25
238.624	82.25
238.858	80.25
239.091	79.25
239.325	79.25
239.559	76.25
239.793	86.25
240.027	87.25
240.26	84.25
240.494	78.25
240.728	85.25
240.961	89.25
241.195	87.25
241.429	79.25
241.662	84.25
241.896	83.25
242.13	76.25
242.363	59.25
242.597	61.25
242.83	86.25
243.064	83.25
243.298	87.25
243.531	84.25
243.765	70.25
243.998	81.25
244.232	85.25
244.465	85.25
244.699	79.25
244.932	82.25
245.166	82.25
245.399	89.25
245.633	92.25
245.866	72.25
246.099	77.25
246.333	75.25
246.566	77.25
246.8	93.25
247.033	99.25
247.266	76.25
247.5	77.25
247.733	65.25
247.966	75.25
248.2	84.25
248.433	87.25
248.666	82.25
248.899	77.25
249.133	92.25
249.366	92.25
249.599	93.25
249.832	89.25
250.066	78.25
250.299	88.25
250.532	79.25
250.765	87.25
250.998	68.25
251.231	73.25
251.465	80.25
251.698	83.25
251.931	67.25
252.164	77.25
252.397	79.25
252.63	78.25
252.863	81.25
253.096	77.25
253.329	91.25
253.562	98.25
253.795	92.25
254.028	85.25
254.261	76.25
254.494	69.25
254.727	80.25
254.96	80.25
255.193	71.25
255.426	92.25
255.659	87.25
255.892	90.25
256.124	82.25
256.357	75.25
256.59	76.25
256.823	94.25
257.056	79.25
257.289	82.25
257.521	79.25
257.754	85.25
257.987	83.25
258.22	82.25
258.452	83.25
258.685	92.25
258.918	81.25
259.151	81.25
259.383	80.25
259.616	76.25
259.849	82.25
260.081	91.25
260.314	81.25
260.547	86.25
260.779	89.25
261.012	82.25
261.244	77.25
261.477	82.25
261.71	94.25
261.942	106.25
262.175	119.25
262.407	90.25
262.64	89.25
262.872	71.25
263.105	96.25
263.337	75.25
263.57	86.25
263.802	94.25
264.035	89.25
264.267	86.25
264.499	74.25
264.732	85.25
264.964	90.25
265.197	79.25
265.429	101.25
265.661	85.25
265.894	92.25
266.126	79.25
266.358	86.25
266.591	83.25
266.823	77.25
267.055	69.25
267.287	84.25
267.52	94.25
267.752	95.25
267.984	75.25
268.216	95.25
268.448	85.25
268.681	66.25
268.913	70.25
269.145	93.25
269.377	99.25
269.609	72.25
269.841	109.25
270.073	81.25
270.306	100.25
270.538	71.25
270.77	79.25
271.002	88.25
271.234	85.25
271.466	94.25
271.698	82.25
271.93	93.25
272.162	89.25
272.394	82.25
272.626	98.25
272.858	70.25
273.09	95.25
273.322	92.25
273.553	70.25
273.785	65.25
274.017	93.25
274.249	91.25
274.481	90.25
274.713	88.25
274.945	81.25
275.176	86.25
275.408	81.25
275.64	79.25
275.872	75.25
276.104	91.25
276.335	82.25
276.567	97.25
276.799	109.25
277.031	106.25
277.262	85.25
277.494	78.25
277.726	82.25
277.957	73.25
278.189	90.25
278.421	87.25
278.652	67.25
278.884	96.25
279.115	92.25
279.347	98.25
279.579	92.25
279.81	95.25
280.042	79.25
280.273	100.25
280.505	85.25
280.736	83.25
280.968	89.25
281.199	89.25
281.431	95.25
281.662	78.25
281.894	87.25
282.125	110.25
282.356	117.25
282.588	140.25
282.819	120.25
283.051	97.25
283.282	82.25
283.513	97.25
283.745	98.25
283.976	74.25
284.207	81.25
284.439	89.25
284.67	97.25
284.901	75.25
285.132	93.25
285.364	85.25
285.595	92.25
285.826	84.25
286.057	94.25
286.288	85.25
286.52	85.25
286.751	78.25
286.982	86.25
287.213	79.25
287.444	89.25
287.675	102.25
287.906	90.25
288.138	89.25
288.369	94.25
288.6	88.25
288.831	96.25
289.062	91.25
289.293	94.25
289.524	81.25
289.755	97.25
289.986	87.25
290.217	97.25
290.448	95.25
290.679	91.25
290.91	102.25
291.141	82.25
291.371	89.25
291.602	89.25
291.833	85.25
292.064	84.25
292.295	72.25
292.526	76.25
292.757	86.25
292.987	101.25
293.218	86.25
293.449	85.25
293.68	81.25
293.91	68.25
294.141	91.25
294.372	84.25
294.603	92.25
294.833	86.25
295.064	74.25
295.295	100.25
295.525	97.25
295.756	95.25
295.987	125.25
296.217	140.25
296.448	116.25
296.679	91.25
296.909	91.25
297.14	84.25
297.37	92.25
297.601	89.25
297.831	88.25
298.062	101.25
298.292	90.25
298.523	86.25
298.753	86.25
298.984	102.25
299.214	78.25
299.445	97.25
299.675	94.25
299.905	94.25
300.136	101.25
300.366	104.25
300.597	92.25
300.827	92.25
301.057	93.25
301.288	106.25
301.518	97.25
301.748	97.25
301.979	98.25
302.209	100.25
302.439	85.25
302.669	84.25
302.9	102.25
303.13	102.25
303.36	94.25
303.59	114.25
303.82	89.25
304.051	92.25
304.281	98.25
304.511	81.25
304.741	93.25
304.971	100.25
305.201	92.25
305.431	95.25
305.661	78.25
305.891	89.25
306.121	106.25
306.352	91.25
306.582	81.25
306.812	97.25
307.042	98.25
307.272	84.25
307.502	91.25
307.731	94.25
307.961	88.25
308.191	78.25
308.421	96.25
308.651	92.25
308.881	87.25
309.111	88.25
309.341	93.25
309.571	95.25
309.8	105.25
310.03	93.25
310.26	111.25
310.49	101.25
310.72	96.25
310.949	89.25
311.179	99.25
311.409	105.25
311.639	99.25
311.868	92.25
312.098	94.25
312.328	92.25
312.557	100.25
312.787	96.25
313.017	97.25
313.246	87.25
313.476	95.25
313.706	90.25
313.935	106.25
314.165	101.25
314.394	100.25
314.624	85.25
314.853	107.25
315.083	94.25
315.312	98.25
315.542	87.25
315.771	94.25
316.001	97.25
316.23	84.25
316.46	87.25
316.689	90.25
316.919	103.25
317.148	97.25
317.377	82.25
317.607	95.25
317.836	95.25
318.065	82.25
318.295	102.25
318.524	97.25
318.753	96.25
318.983	96.25
319.212	93.25
319.441	89.25
319.67	86.25
319.9	89.25
320.129	95.25
320.358	87.25
320.587	95.25
320.816	95.25
321.046	108.25
321.275	91.25
321.504	99.25
321.733	91.25
321.962	96.25
322.191	96.25
322.42	94.25
322.649	107.25
322.878	130.25
323.108	108.25
323.337	120.25
323.566	137.25
323.795	137.25
324.024	203.25
324.253	367.25
324.482	783.25
324.71	1613.25
324.939	2124.25
325.168	779.25
325.397	246.25
325.626	148.25
325.855	146.25
326.084	122.25
326.313	126.25
326.542	145.25
326.77	242.25
326.999	430.25
327.228	898.25
327.457	1622.25
327.686	1281.25
327.914	353.25
328.143	196.25
328.372	153.25
328.6	125.25
328.829	110.25
329.058	119.25
329.287	121.25
329.515	109.25
329.744	105.25
329.972	112.25
330.201	105.25
330.43	108.25
330.658	120.25
330.887	128.25
331.115	126.25
331.344	99.25
331.572	112.25
331.801	103.25
332.03	102.25
332.258	93.25
332.486	108.25
332.715	104.25
332.943	98.25
333.172	88.25
333.4	90.25
333.629	96.25
333.857	107.25
334.085	93.25
334.314	97.25
334.542	104.25
334.771	97.25
334.999	88.25
335.227	103.25
335.455	115.25
335.684	102.25
335.912	107.25
336.14	99.25
336.369	96.25
336.597	103.25
336.825	90.25
337.053	100.25
337.281	79.25
337.51	89.25
337.738	87.25
337.966	87.25
338.194	102.25
338.422	99.25
338.65	86.25
338.878	92.25
339.106	100.25
339.334	84.25
339.562	98.25
339.79	90.25
340.018	94.25
340.246	92.25
340.474	104.25
340.702	90.25
340.93	90.25
341.158	84.25
341.386	96.25
341.614	93.25
341.842	86.25
342.07	92.25
342.298	102.25
342.526	96.25
342.754	94.25
342.981	91.25
343.209	99.25
343.437	96.25
343.665	83.25
343.893	85.25
344.12	80.25
344.348	85.25
344.576	86.25
344.804	98.25
345.031	101.25
345.259	95.25
345.487	91.25
345.714	95.25
345.942	99.25
346.17	92.25
346.397	94.25
346.625	94.25
346.853	102.25
347.08	93.25
347.308	102.25
347.535	95.25
347.763	110.25
347.99	109.25
348.218	104.25
348.445	103.25
348.673	95.25
348.9	93.25
349.128	109.25
349.355	91.25
349.583	93.25
349.81	89.25
350.037	96.25
350.265	89.25
350.492	98.25
350.72	99.25
350.947	99.25
351.174	105.25
351.402	110.25
351.629	105.25
351.856	100.25
352.083	100.25
352.311	109.25
352.538	91.25
352.765	95.25
352.992	102.25
353.22	122.25
353.447	102.25
353.674	111.25
353.901	96.25
354.128	95.25
354.355	100.25
354.583	111.25
354.81	106.25
355.037	91.25
355.264	93.25
355.491	99.25
355.718	86.25
355.945	102.25
356.172	103.25
356.399	113.25
356.626	94.25
356.853	95.25
357.08	90.25
357.307	78.25
357.534	82.25
357.761	98.25
357.988	94.25
358.215	86.25
358.441	90.25
358.668	101.25
358.895	85.25
359.122	85.25
359.349	86.25
359.576	99.25
359.802	107.25
360.029	118.25
360.256	108.25
360.483	98.25
360.709	89.25
360.936	85.25
361.163	94.25
361.39	102.25
361.616	98.25
361.843	93.25
362.07	87.25
362.296	97.25
362.523	85.25
362.749	88.25
362.976	89.25
363.203	93.25
363.429	71.25
363.656	85.25
363.882	97.25
364.109	93.25
364.335	84.25
364.562	107.25
364.788	90.25
365.015	84.25
365.241	100.25
365.468	106.25
365.694	108.25
365.92	121.25
366.147	94.25
366.373	92.25
366.599	94.25
366.826	76.25
367.052	86.25
367.278	88.25
367.505	83.25
367.731	93.25
367.957	91.25
368.184	87.25
368.41	83.25
368.636	114.25
368.862	126.25
369.089	97.25
369.315	99.25
369.541	95.25
369.767	81.25
369.993	98.25
370.219	98.25
370.445	81.25
370.672	86.25
370.898	67.25
371.124	63.25
371.35	87.25
371.576	86.25
371.802	97.25
372.028	94.25
372.254	66.25
372.48	92.25
372.706	87.25
372.932	102.25
373.158	90.25
373.384	101.25
373.61	93.25
373.835	95.25
374.061	93.25
374.287	98.25
374.513	99.25
374.739	79.25
374.965	111.25
375.191	93.25
375.416	81.25
375.642	103.25
375.868	87.25
376.094	78.25
376.319	87.25
376.545	81.25
376.771	94.25
376.997	95.25
377.222	98.25
377.448	95.25
377.674	87.25
377.899	111.25
378.125	101.25
378.35	86.25
378.576	87.25
378.802	84.25
379.027	96.25
379.253	90.25
379.478	87.25
379.704	103.25
379.929	97.25
380.155	94.25
380.38	88.25
380.606	100.25
380.831	98.25
381.057	90.25
381.282	102.25
381.507	93.25
381.733	100.25
381.958	97.25
382.184	89.25
382.409	87.25
382.634	92.25
382.86	101.25
383.085	111.25
383.31	100.25
383.535	113.25
383.761	90.25
383.986	96.25
384.211	108.25
384.436	93.25
384.662	101.25
384.887	103.25
385.112	104.25
385.337	103.25
385.562	106.25
385.787	105.25
386.013	99.25
386.238	101.25
386.463	100.25
386.688	116.25
386.913	92.25
387.138	101.25
387.363	105.25
387.588	109.25
387.813	113.25
388.038	107.25
388.263	91.25
388.488	101.25
388.713	105.25
388.938	94.25
389.163	105.25
389.387	101.25
389.612	86.25
389.837	108.25
390.062	104.25
390.287	85.25
390.512	103.25
390.736	97.25
390.961	92.25
391.186	109.25
391.411	86.25
391.636	102.25
391.86	98.25
392.085	97.25
392.31	85.25
392.534	77.25
392.759	84.25
392.984	83.25
393.208	86.25
393.433	90.25
393.658	81.25
393.882	86.25
394.107	96.25
394.331	84.25
394.556	83.25
394.78	84.25
395.005	85.25
395.229	88.25
395.454	86.25
395.678	102.25
395.903	96.25
396.127	109.25
396.352	82.25
396.576	78.25
396.801	93.25
397.025	81.25
397.249	77.25
397.474	90.25
397.698	91.25
397.922	101.25
398.147	82.25
398.371	74.25
398.595	79.25
398.82	84.25
399.044	89.25
399.268	98.25
399.492	110.25
399.717	87.25
399.941	107.25
400.165	90.25
400.389	105.25
400.613	82.25
400.837	91.25
401.062	82.25
401.286	94.25
401.51	99.25
401.734	91.25
401.958	100.25
402.182	112.25
402.406	152.25
402.63	121.25
402.854	103.25
403.078	90.25
403.302	75.25
403.526	104.25
403.75	89.25
403.974	98.25
404.198	99.25
404.422	91.25
404.645	105.25
404.869	94.25
405.093	110.25
405.317	102.25
405.541	97.25
405.765	111.25
405.988	102.25
406.212	174.25
406.436	225.25
406.66	145.25
406.883	97.25
407.107	99.25
407.331	90.25
407.555	86.25
407.778	101.25
408.002	86.25
408.226	96.25
408.449	94.25
408.673	96.25
408.896	82.25
409.12	92.25
409.344	101.25
409.567	105.25
409.791	93.25
410.014	83.25
410.238	90.25
410.461	104.25
410.685	101.25
410.908	90.25
411.132	110.25
411.355	103.25
411.578	83.25
411.802	81.25
412.025	86.25
412.249	96.25
412.472	89.25
412.695	95.25
412.919	96.25
413.142	91.25
413.365	81.25
413.589	81.25
413.812	85.25
414.035	86.25
414.258	67.25
414.482	93.25
414.705	93.25
414.928	83.25
415.151	95.25
415.374	81.25
415.597	97.25
415.821	90.25
416.044	90.25
416.267	91.25
416.49	99.25
416.713	67.25
416.936	96.25
417.159	94.25
417.382	98.25
417.605	76.25
417.828	87.25
418.051	98.25
418.274	94.25
418.497	92.25
418.72	82.25
418.943	81.25
419.166	93.25
419.389	97.25
419.611	85.25
419.834	88.25
420.057	81.25
420.28	76.25
420.503	75.25
420.726	91.25
420.948	82.25
421.171	97.25
421.394	104.25
421.617	98.25
421.839	91.25
422.062	111.25
422.285	90.25
422.507	97.25
422.73	96.25
422.953	95.25
423.175	83.25
423.398	85.25
423.621	92.25
423.843	85.25
424.066	85.25
424.288	88.25
424.511	95.25
424.733	101.25
424.956	97.25
425.178	96.25
425.401	114.25
425.623	93.25
425.846	89.25
426.068	104.25
426.291	78.25
426.513	94.25
426.735	98.25
426.958	98.25
427.18	105.25
427.402	139.25
427.625	161.25
427.847	112.25
428.069	106.25
428.292	96.25
428.514	92.25
428.736	95.25
428.958	99.25
429.181	101.25
429.403	91.25
429.625	86.25
429.847	91.25
430.069	100.25
430.292	87.25
430.514	87.25
430.736	90.25
430.958	98.25
431.18	82.25
431.402	80.25
431.624	94.25
431.846	90.25
432.068	83.25
432.29	88.25
432.512	94.25
432.734	80.25
432.956	92.25
433.178	95.25
433.4	97.25
433.622	82.25
433.844	90.25
434.066	117.25
434.287	111.25
434.509	84.25
434.731	91.25
434.953	94.25
435.175	97.25
435.397	87.25
435.618	97.25
435.84	90.25
436.062	119.25
436.284	116.25
436.505	106.25
436.727	107.25
436.949	87.25
437.17	88.25
437.392	79.25
437.614	86.25
437.835	98.25
438.057	98.25
438.278	105.25
438.5	94.25
438.721	126.25
438.943	118.25
439.165	94.25
439.386	99.25
439.608	88.25
439.829	106.25
440.05	94.25
440.272	136.25
440.493	97.25
440.715	93.25
440.936	92.25
441.158	94.25
441.379	97.25
441.6	101.25
441.822	102.25
442.043	99.25
442.264	110.25
442.486	96.25
442.707	89.25
442.928	112.25
443.149	116.25
443.371	124.25
443.592	104.25
443.813	101.25
444.034	96.25
444.255	94.25
444.476	91.25
444.698	100.25
444.919	86.25
445.14	101.25
445.361	110.25
445.582	112.25
445.803	129.25
446.024	123.25
446.245	131.25
446.466	126.25
446.687	87.25
446.908	94.25
447.129	94.25
447.35	102.25
447.571	98.25
447.792	85.25
448.013	104.25
448.234	115.25
448.455	110.25
448.675	114.25
448.896	115.25
449.117	93.25
449.338	105.25
449.559	132.25
449.779	111.25
450	103.25
450.221	101.25
450.442	86.25
450.662	86.25
450.883	99.25
451.104	101.25
451.324	93.25
451.545	90.25
451.766	90.25
451.986	101.25
452.207	86.25
452.428	97.25
452.648	89.25
452.869	113.25
453.089	118.25
453.31	123.25
453.53	98.25
453.751	94.25
453.971	113.25
454.192	117.25
454.412	94.25
454.633	90.25
454.853	90.25
455.073	76.25
455.294	90.25
455.514	89.25
455.734	95.25
455.955	95.25
456.175	89.25
456.395	88.25
456.616	86.25
456.836	93.25
457.056	99.25
457.276	84.25
457.497	75.25
457.717	96.25
457.937	76.25
458.157	101.25
458.377	87.25
458.598	105.25
458.818	136.25
459.038	153.25
459.258	112.25
459.478	97.25
459.698	89.25
459.918	81.25
460.138	94.25
460.358	84.25
460.578	100.25
460.798	89.25
461.018	97.25
461.238	95.25
461.458	93.25
461.678	98.25
461.898	84.25
462.118	96.25
462.338	92.25
462.558	84.25
462.777	77.25
462.997	89.25
463.217	93.25
463.437	78.25
463.657	89.25
463.876	96.25
464.096	78.25
464.316	78.25
464.536	88.25
464.755	82.25
464.975	95.25
465.195	168.25
465.414	161.25
465.634	96.25
465.854	79.25
466.073	89.25
466.293	91.25
466.512	90.25
466.732	88.25
466.951	79.25
467.171	85.25
467.391	95.25
467.61	98.25
467.829	100.25
468.049	81.25
468.268	86.25
468.488	83.25
468.707	92.25
468.927	78.25
469.146	99.25
469.365	76.25
469.585	101.25
469.804	100.25
470.023	88.25
470.243	82.25
470.462	98.25
470.681	110.25
470.901	97.25
471.12	105.25
471.339	101.25
471.558	94.25
471.777	86.25
471.997	84.25
472.216	100.25
472.435	96.25
472.654	94.25
472.873	98.25
473.092	102.25
473.311	99.25
473.53	86.25
473.749	94.25
473.968	92.25
474.187	99.25
474.406	102.25
474.625	75.25
474.844	94.25
475.063	85.25
475.282	93.25
475.501	90.25
475.72	94.25
475.939	96.25
476.158	73.25
476.377	95.25
476.596	92.25
476.814	109.25
477.033	99.25
477.252	86.25
477.471	91.25
477.69	101.25
477.908	91.25
478.127	97.25
478.346	95.25
478.564	100.25
478.783	95.25
479.002	91.25
479.22	97.25
479.439	100.25
479.658	96.25
479.876	95.25
480.095	80.25
480.313	92.25
480.532	93.25
480.751	103.25
480.969	92.25
481.188	102.25
481.406	105.25
481.624	102.25
481.843	85.25
482.061	81.25
482.28	93.25
482.498	95.25
482.717	86.25
482.935	93.25
483.153	91.25
483.372	93.25
483.59	94.25
483.808	94.25
484.027	90.25
484.245	102.25
484.463	100.25
484.681	87.25
484.9	89.25
485.118	85.25
485.336	90.25
485.554	89.25
485.772	100.25
485.99	94.25
486.209	106.25
486.427	99.25
486.645	120.25
486.863	125.25
487.081	111.25
487.299	93.25
487.517	94.25
487.735	92.25
487.953	97.25
488.171	96.25
488.389	101.25
488.607	108.25
488.825	70.25
489.043	93.25
489.261	78.25
489.479	86.25
489.696	77.25
489.914	86.25
490.132	94.25
490.35	80.25
490.568	75.25
490.786	89.25
491.003	99.25
491.221	93.25
491.439	90.25
491.657	86.25
491.874	98.25
492.092	94.25
492.31	96.25
492.527	97.25
492.745	93.25
492.963	103.25
493.18	94.25
493.398	83.25
493.615	100.25
493.833	102.25
494.05	91.25
494.268	92.25
494.485	103.25
494.703	82.25
494.92	89.25
495.138	82.25
495.355	82.25
495.573	97.25
495.79	93.25
496.008	109.25
496.225	96.25
496.442	91.25
496.66	87.25
496.877	97.25
497.094	99.25
497.312	98.25
497.529	91.25
497.746	95.25
497.963	93.25
498.181	91.25
498.398	96.25
498.615	111.25
498.832	112.25
499.049	84.25
499.267	84.25
499.484	97.25
499.701	83.25
499.918	87.25
500.135	109.25
500.352	101.25
500.569	95.25
500.786	78.25
501.003	95.25
501.22	95.25
501.437	90.25
501.654	96.25
501.871	123.25
502.088	98.25
502.305	104.25
502.522	99.25
502.739	88.25
502.956	90.25
503.172	87.25
503.389	98.25
503.606	103.25
503.823	102.25
504.04	96.25
504.256	100.25
504.473	93.25
504.69	88.25
504.907	99.25
505.123	86.25
505.34	82.25
505.557	101.25
505.773	91.25
505.99	87.25
506.207	85.25
506.423	95.25
506.64	80.25
506.856	101.25
507.073	95.25
507.289	95.25
507.506	111.25
507.722	111.25
507.939	106.25
508.155	78.25
508.372	106.25
508.588	91.25
508.805	86.25
509.021	95.25
509.238	99.25
509.454	119.25
509.67	97.25
509.887	109.25
510.103	127.25
510.319	226.25
510.536	785.25
510.752	2526.25
510.968	677.25
511.184	173.25
511.401	116.25
511.617	109.25
511.833	87.25
512.049	90.25
512.265	96.25
512.481	97.25
512.698	98.25
512.914	89.25
513.13	91.25
513.346	85.25
513.562	112.25
513.778	108.25
513.994	109.25
514.21	110.25
514.426	106.25
514.642	130.25
514.858	122.25
515.074	161.25
515.29	469.25
