Data from Circ_2000_H10_HRD10591_00014.txt Node
Date: Wed Jan 03 10:49:36 EST 2024
User: Yrep
Spectrometer: HR+D1059
Trigger mode: 1
Integration Time (sec): 1.000000E-1
Scans to average: 1
Electric dark correction enabled: true
Nonlinearity correction enabled: false
Boxcar width: 0
XAxis mode: Wavelengths
Number of Pixels in Spectrum: 2048
>>>>>Begin Spectral Data<<<<<
223.165	-7.94
223.4	-7.94
223.635	-7.94
223.869	-28.94
224.104	-20.94
224.338	-17.94
224.573	-11.94
224.808	-2.94
225.042	-4.94
225.277	-6.94
225.511	4.06
225.746	-8.94
225.98	-4.94
226.215	9.06
226.449	22.06
226.683	15.06
226.918	37.06
227.152	29.06
227.387	46.06
227.621	34.06
227.856	42.06
228.09	39.06
228.324	46.06
228.559	54.06
228.793	64.06
229.027	65.06
229.262	76.06
229.496	70.06
229.73	81.06
229.964	82.06
230.199	75.06
230.433	76.06
230.667	76.06
230.901	86.06
231.136	72.06
231.37	76.06
231.604	81.06
231.838	84.06
232.072	73.06
232.306	76.06
232.541	71.06
232.775	61.06
233.009	84.06
233.243	60.06
233.477	68.06
233.711	92.06
233.945	77.06
234.179	79.06
234.413	82.06
234.647	81.06
234.881	81.06
235.115	85.06
235.349	74.06
235.583	89.06
235.817	74.06
236.051	61.06
236.285	78.06
236.519	78.06
236.753	81.06
236.987	84.06
237.221	85.06
237.455	93.06
237.689	98.06
237.922	82.06
238.156	68.06
238.39	84.06
238.624	65.06
238.858	67.06
239.091	71.06
239.325	86.06
239.559	89.06
239.793	77.06
240.027	73.06
240.26	76.06
240.494	79.06
240.728	70.06
240.961	82.06
241.195	81.06
241.429	70.06
241.662	79.06
241.896	81.06
242.13	73.06
242.363	71.06
242.597	84.06
242.83	71.06
243.064	74.06
243.298	80.06
243.531	77.06
243.765	73.06
243.998	82.06
244.232	92.06
244.465	84.06
244.699	98.06
244.932	72.06
245.166	70.06
245.399	93.06
245.633	81.06
245.866	86.06
246.099	80.06
246.333	72.06
246.566	74.06
246.8	69.06
247.033	66.06
247.266	76.06
247.5	97.06
247.733	86.06
247.966	66.06
248.2	85.06
248.433	86.06
248.666	85.06
248.899	87.06
249.133	80.06
249.366	87.06
249.599	100.06
249.832	91.06
250.066	87.06
250.299	74.06
250.532	91.06
250.765	83.06
250.998	67.06
251.231	93.06
251.465	73.06
251.698	80.06
251.931	76.06
252.164	88.06
252.397	77.06
252.63	66.06
252.863	72.06
253.096	80.06
253.329	76.06
253.562	87.06
253.795	68.06
254.028	81.06
254.261	80.06
254.494	85.06
254.727	84.06
254.96	77.06
255.193	76.06
255.426	83.06
255.659	78.06
255.892	84.06
256.124	93.06
256.357	88.06
256.59	73.06
256.823	98.06
257.056	92.06
257.289	80.06
257.521	91.06
257.754	88.06
257.987	61.06
258.22	94.06
258.452	79.06
258.685	84.06
258.918	94.06
259.151	90.06
259.383	81.06
259.616	86.06
259.849	84.06
260.081	97.06
260.314	91.06
260.547	84.06
260.779	81.06
261.012	92.06
261.244	93.06
261.477	73.06
261.71	101.06
261.942	117.06
262.175	107.06
262.407	95.06
262.64	75.06
262.872	90.06
263.105	92.06
263.337	98.06
263.57	86.06
263.802	91.06
264.035	89.06
264.267	80.06
264.499	71.06
264.732	102.06
264.964	102.06
265.197	76.06
265.429	74.06
265.661	70.06
265.894	86.06
266.126	83.06
266.358	82.06
266.591	71.06
266.823	93.06
267.055	90.06
267.287	89.06
267.52	78.06
267.752	82.06
267.984	73.06
268.216	78.06
268.448	77.06
268.681	86.06
268.913	102.06
269.145	80.06
269.377	94.06
269.609	70.06
269.841	87.06
270.073	78.06
270.306	68.06
270.538	88.06
270.77	75.06
271.002	80.06
271.234	93.06
271.466	91.06
271.698	93.06
271.93	87.06
272.162	77.06
272.394	71.06
272.626	73.06
272.858	78.06
273.09	93.06
273.322	73.06
273.553	90.06
273.785	88.06
274.017	87.06
274.249	83.06
274.481	84.06
274.713	85.06
274.945	86.06
275.176	76.06
275.408	91.06
275.64	93.06
275.872	101.06
276.104	106.06
276.335	105.06
276.567	104.06
276.799	119.06
277.031	126.06
277.262	124.06
277.494	106.06
277.726	86.06
277.957	83.06
278.189	82.06
278.421	91.06
278.652	97.06
278.884	82.06
279.115	97.06
279.347	59.06
279.579	100.06
279.81	102.06
280.042	140.06
280.273	146.06
280.505	128.06
280.736	98.06
280.968	82.06
281.199	94.06
281.431	96.06
281.662	87.06
281.894	110.06
282.125	96.06
282.356	121.06
282.588	146.06
282.819	112.06
283.051	98.06
283.282	85.06
283.513	84.06
283.745	97.06
283.976	89.06
284.207	93.06
284.439	76.06
284.67	86.06
284.901	90.06
285.132	81.06
285.364	84.06
285.595	81.06
285.826	102.06
286.057	92.06
286.288	82.06
286.52	86.06
286.751	81.06
286.982	71.06
287.213	84.06
287.444	99.06
287.675	88.06
287.906	92.06
288.138	94.06
288.369	97.06
288.6	89.06
288.831	88.06
289.062	94.06
289.293	88.06
289.524	86.06
289.755	71.06
289.986	91.06
290.217	83.06
290.448	93.06
290.679	76.06
290.91	90.06
291.141	100.06
291.371	91.06
291.602	84.06
291.833	86.06
292.064	92.06
292.295	99.06
292.526	87.06
292.757	96.06
292.987	97.06
293.218	89.06
293.449	98.06
293.68	96.06
293.91	89.06
294.141	91.06
294.372	100.06
294.603	88.06
294.833	90.06
295.064	102.06
295.295	95.06
295.525	101.06
295.756	98.06
295.987	131.06
296.217	142.06
296.448	136.06
296.679	86.06
296.909	81.06
297.14	79.06
297.37	80.06
297.601	77.06
297.831	93.06
298.062	87.06
298.292	93.06
298.523	87.06
298.753	89.06
298.984	80.06
299.214	84.06
299.445	87.06
299.675	90.06
299.905	96.06
300.136	96.06
300.366	83.06
300.597	87.06
300.827	99.06
301.057	101.06
301.288	95.06
301.518	100.06
301.748	99.06
301.979	94.06
302.209	102.06
302.439	89.06
302.669	88.06
302.9	79.06
303.13	87.06
303.36	97.06
303.59	122.06
303.82	120.06
304.051	110.06
304.281	109.06
304.511	84.06
304.741	92.06
304.971	90.06
305.201	87.06
305.431	101.06
305.661	102.06
305.891	92.06
306.121	103.06
306.352	107.06
306.582	115.06
306.812	91.06
307.042	107.06
307.272	108.06
307.502	121.06
307.731	118.06
307.961	107.06
308.191	81.06
308.421	91.06
308.651	91.06
308.881	76.06
309.111	92.06
309.341	109.06
309.571	109.06
309.8	94.06
310.03	93.06
310.26	91.06
310.49	103.06
310.72	106.06
310.949	107.06
311.179	104.06
311.409	93.06
311.639	105.06
311.868	106.06
312.098	111.06
312.328	113.06
312.557	122.06
312.787	118.06
313.017	102.06
313.246	116.06
313.476	97.06
313.706	94.06
313.935	100.06
314.165	100.06
314.394	106.06
314.624	113.06
314.853	94.06
315.083	96.06
315.312	104.06
315.542	91.06
315.771	96.06
316.001	96.06
316.23	90.06
316.46	106.06
316.689	80.06
316.919	95.06
317.148	99.06
317.377	106.06
317.607	94.06
317.836	98.06
318.065	98.06
318.295	97.06
318.524	84.06
318.753	83.06
318.983	99.06
319.212	105.06
319.441	111.06
319.67	114.06
319.9	92.06
320.129	97.06
320.358	93.06
320.587	103.06
320.816	113.06
321.046	120.06
321.275	89.06
321.504	95.06
321.733	109.06
321.962	101.06
322.191	104.06
322.42	114.06
322.649	118.06
322.878	120.06
323.108	126.06
323.337	129.06
323.566	136.06
323.795	173.06
324.024	237.06
324.253	483.06
324.482	1024.06
324.71	2107.06
324.939	2784.06
325.168	1001.06
325.397	300.06
325.626	172.06
325.855	135.06
326.084	142.06
326.313	149.06
326.542	182.06
326.77	270.06
326.999	549.06
327.228	1162.06
327.457	2162.06
327.686	1687.06
327.914	487.06
328.143	352.06
328.372	372.06
328.6	235.06
328.829	162.06
329.058	164.06
329.287	163.06
329.515	128.06
329.744	175.06
329.972	256.06
330.201	448.06
330.43	624.06
330.658	356.06
330.887	210.06
331.115	172.06
331.344	106.06
331.572	124.06
331.801	108.06
332.03	128.06
332.258	112.06
332.486	90.06
332.715	102.06
332.943	91.06
333.172	106.06
333.4	111.06
333.629	134.06
333.857	163.06
334.085	260.06
334.314	458.06
334.542	792.06
334.771	748.06
334.999	241.06
335.227	148.06
335.455	102.06
335.684	107.06
335.912	95.06
336.14	89.06
336.369	107.06
336.597	112.06
336.825	106.06
337.053	97.06
337.281	88.06
337.51	94.06
337.738	109.06
337.966	94.06
338.194	114.06
338.422	95.06
338.65	84.06
338.878	89.06
339.106	94.06
339.334	98.06
339.562	91.06
339.79	86.06
340.018	92.06
340.246	93.06
340.474	100.06
340.702	103.06
340.93	88.06
341.158	84.06
341.386	104.06
341.614	92.06
341.842	109.06
342.07	90.06
342.298	96.06
342.526	84.06
342.754	87.06
342.981	81.06
343.209	78.06
343.437	109.06
343.665	74.06
343.893	82.06
344.12	90.06
344.348	97.06
344.576	107.06
344.804	101.06
345.031	102.06
345.259	105.06
345.487	105.06
345.714	93.06
345.942	102.06
346.17	100.06
346.397	108.06
346.625	94.06
346.853	86.06
347.08	84.06
347.308	98.06
347.535	101.06
347.763	121.06
347.99	113.06
348.218	109.06
348.445	103.06
348.673	112.06
348.9	110.06
349.128	100.06
349.355	90.06
349.583	94.06
349.81	103.06
350.037	91.06
350.265	95.06
350.492	105.06
350.72	93.06
350.947	94.06
351.174	118.06
351.402	117.06
351.629	99.06
351.856	99.06
352.083	124.06
352.311	131.06
352.538	117.06
352.765	121.06
352.992	107.06
353.22	123.06
353.447	104.06
353.674	102.06
353.901	101.06
354.128	102.06
354.355	106.06
354.583	93.06
354.81	82.06
355.037	112.06
355.264	92.06
355.491	86.06
355.718	104.06
355.945	98.06
356.172	99.06
356.399	98.06
356.626	88.06
356.853	91.06
357.08	100.06
357.307	102.06
357.534	91.06
357.761	90.06
357.988	91.06
358.215	105.06
358.441	109.06
358.668	82.06
358.895	88.06
359.122	96.06
359.349	104.06
359.576	88.06
359.802	114.06
360.029	131.06
360.256	137.06
360.483	106.06
360.709	98.06
360.936	97.06
361.163	108.06
361.39	93.06
361.616	103.06
361.843	100.06
362.07	90.06
362.296	100.06
362.523	105.06
362.749	103.06
362.976	94.06
363.203	93.06
363.429	88.06
363.656	84.06
363.882	91.06
364.109	92.06
364.335	98.06
364.562	83.06
364.788	104.06
365.015	103.06
365.241	112.06
365.468	99.06
365.694	99.06
365.92	85.06
366.147	92.06
366.373	93.06
366.599	98.06
366.826	102.06
367.052	92.06
367.278	89.06
367.505	93.06
367.731	86.06
367.957	103.06
368.184	102.06
368.41	101.06
368.636	125.06
368.862	124.06
369.089	98.06
369.315	94.06
369.541	102.06
369.767	112.06
369.993	104.06
370.219	100.06
370.445	101.06
370.672	97.06
370.898	93.06
371.124	102.06
371.35	98.06
371.576	94.06
371.802	108.06
372.028	93.06
372.254	89.06
372.48	92.06
372.706	101.06
372.932	87.06
373.158	98.06
373.384	100.06
373.61	115.06
373.835	102.06
374.061	99.06
374.287	105.06
374.513	95.06
374.739	84.06
374.965	91.06
375.191	101.06
375.416	99.06
375.642	99.06
375.868	106.06
376.094	102.06
376.319	89.06
376.545	94.06
376.771	100.06
376.997	89.06
377.222	88.06
377.448	96.06
377.674	92.06
377.899	100.06
378.125	76.06
378.35	76.06
378.576	101.06
378.802	89.06
379.027	92.06
379.253	87.06
379.478	107.06
379.704	85.06
379.929	116.06
380.155	99.06
380.38	100.06
380.606	102.06
380.831	102.06
381.057	113.06
381.282	108.06
381.507	98.06
381.733	99.06
381.958	107.06
382.184	108.06
382.409	109.06
382.634	95.06
382.86	107.06
383.085	110.06
383.31	120.06
383.535	119.06
383.761	111.06
383.986	125.06
384.211	113.06
384.436	107.06
384.662	109.06
384.887	131.06
385.112	130.06
385.337	121.06
385.562	111.06
385.787	135.06
386.013	123.06
386.238	149.06
386.463	109.06
386.688	127.06
386.913	130.06
387.138	131.06
387.363	114.06
387.588	95.06
387.813	109.06
388.038	115.06
388.263	135.06
388.488	129.06
388.713	99.06
388.938	89.06
389.163	92.06
389.387	100.06
389.612	103.06
389.837	102.06
390.062	77.06
390.287	94.06
390.512	99.06
390.736	83.06
390.961	98.06
391.186	83.06
391.411	91.06
391.636	81.06
391.86	83.06
392.085	70.06
392.31	94.06
392.534	82.06
392.759	79.06
392.984	89.06
393.208	105.06
393.433	105.06
393.658	87.06
393.882	87.06
394.107	92.06
394.331	86.06
394.556	90.06
394.78	88.06
395.005	94.06
395.229	85.06
395.454	91.06
395.678	95.06
395.903	88.06
396.127	83.06
396.352	83.06
396.576	91.06
396.801	98.06
397.025	103.06
397.249	81.06
397.474	92.06
397.698	85.06
397.922	85.06
398.147	88.06
398.371	76.06
398.595	86.06
398.82	79.06
399.044	85.06
399.268	86.06
399.492	86.06
399.717	94.06
399.941	80.06
400.165	92.06
400.389	85.06
400.613	97.06
400.837	107.06
401.062	96.06
401.286	90.06
401.51	105.06
401.734	97.06
401.958	94.06
402.182	135.06
402.406	184.06
402.63	125.06
402.854	113.06
403.078	97.06
403.302	97.06
403.526	85.06
403.75	94.06
403.974	85.06
404.198	88.06
404.422	85.06
404.645	84.06
404.869	102.06
405.093	114.06
405.317	145.06
405.541	147.06
405.765	126.06
405.988	129.06
406.212	210.06
406.436	259.06
406.66	159.06
406.883	112.06
407.107	101.06
407.331	104.06
407.555	105.06
407.778	105.06
408.002	94.06
408.226	88.06
408.449	92.06
408.673	97.06
408.896	110.06
409.12	94.06
409.344	100.06
409.567	74.06
409.791	92.06
410.014	84.06
410.238	84.06
410.461	100.06
410.685	96.06
410.908	99.06
411.132	98.06
411.355	109.06
411.578	93.06
411.802	93.06
412.025	94.06
412.249	105.06
412.472	107.06
412.695	129.06
412.919	104.06
413.142	96.06
413.365	91.06
413.589	88.06
413.812	96.06
414.035	91.06
414.258	80.06
414.482	93.06
414.705	89.06
414.928	101.06
415.151	89.06
415.374	104.06
415.597	83.06
415.821	89.06
416.044	93.06
416.267	91.06
416.49	93.06
416.713	97.06
416.936	82.06
417.159	84.06
417.382	96.06
417.605	94.06
417.828	96.06
418.051	88.06
418.274	91.06
418.497	88.06
418.72	85.06
418.943	87.06
419.166	90.06
419.389	76.06
419.611	81.06
419.834	88.06
420.057	93.06
420.28	97.06
420.503	90.06
420.726	100.06
420.948	103.06
421.171	94.06
421.394	107.06
421.617	87.06
421.839	104.06
422.062	91.06
422.285	90.06
422.507	106.06
422.73	117.06
422.953	83.06
423.175	92.06
423.398	80.06
423.621	93.06
423.843	97.06
424.066	97.06
424.288	100.06
424.511	97.06
424.733	124.06
424.956	124.06
425.178	116.06
425.401	116.06
425.623	111.06
425.846	99.06
426.068	114.06
426.291	99.06
426.513	94.06
426.735	106.06
426.958	93.06
427.18	120.06
427.402	183.06
427.625	224.06
427.847	199.06
428.069	182.06
428.292	110.06
428.514	101.06
428.736	94.06
428.958	95.06
429.181	88.06
429.403	88.06
429.625	94.06
429.847	104.06
430.069	112.06
430.292	85.06
430.514	81.06
430.736	97.06
430.958	79.06
431.18	83.06
431.402	93.06
431.624	85.06
431.846	98.06
432.068	92.06
432.29	96.06
432.512	98.06
432.734	88.06
432.956	72.06
433.178	103.06
433.4	108.06
433.622	106.06
433.844	88.06
434.066	85.06
434.287	93.06
434.509	85.06
434.731	84.06
434.953	109.06
435.175	94.06
435.397	96.06
435.618	99.06
435.84	120.06
436.062	140.06
436.284	132.06
436.505	112.06
436.727	107.06
436.949	86.06
437.17	88.06
437.392	89.06
437.614	99.06
437.835	131.06
438.057	142.06
438.278	120.06
438.5	95.06
438.721	145.06
438.943	119.06
439.165	95.06
439.386	96.06
439.608	91.06
439.829	93.06
440.05	156.06
440.272	173.06
440.493	112.06
440.715	91.06
440.936	88.06
441.158	80.06
441.379	94.06
441.6	113.06
441.822	91.06
442.043	108.06
442.264	110.06
442.486	107.06
442.707	119.06
442.928	113.06
443.149	149.06
443.371	150.06
443.592	124.06
443.813	128.06
444.034	113.06
444.255	91.06
444.476	92.06
444.698	83.06
444.919	91.06
445.14	136.06
445.361	141.06
445.582	144.06
445.803	185.06
446.024	180.06
446.245	164.06
446.466	133.06
446.687	91.06
446.908	84.06
447.129	97.06
447.35	98.06
447.571	101.06
447.792	81.06
448.013	97.06
448.234	102.06
448.455	115.06
448.675	123.06
448.896	146.06
449.117	114.06
449.338	100.06
449.559	146.06
449.779	148.06
450	102.06
450.221	99.06
450.442	107.06
450.662	106.06
450.883	117.06
451.104	121.06
451.324	111.06
451.545	108.06
451.766	94.06
451.986	87.06
452.207	96.06
452.428	90.06
452.648	92.06
452.869	117.06
453.089	116.06
453.31	138.06
453.53	101.06
453.751	100.06
453.971	112.06
454.192	129.06
454.412	94.06
454.633	88.06
454.853	95.06
455.073	71.06
455.294	105.06
455.514	114.06
455.734	100.06
455.955	76.06
456.175	86.06
456.395	96.06
456.616	86.06
456.836	88.06
457.056	68.06
457.276	84.06
457.497	93.06
457.717	93.06
457.937	89.06
458.157	88.06
458.377	109.06
458.598	121.06
458.818	179.06
459.038	212.06
459.258	138.06
459.478	93.06
459.698	89.06
459.918	83.06
460.138	82.06
460.358	99.06
460.578	94.06
460.798	78.06
461.018	92.06
461.238	93.06
461.458	76.06
461.678	89.06
461.898	100.06
462.118	87.06
462.338	102.06
462.558	93.06
462.777	89.06
462.997	82.06
463.217	87.06
463.437	78.06
463.657	72.06
463.876	81.06
464.096	93.06
464.316	96.06
464.536	98.06
464.755	94.06
464.975	130.06
465.195	217.06
465.414	206.06
465.634	102.06
465.854	94.06
466.073	85.06
466.293	90.06
466.512	78.06
466.732	77.06
466.951	92.06
467.171	87.06
467.391	106.06
467.61	138.06
467.829	140.06
468.049	239.06
468.268	344.06
468.488	123.06
468.707	108.06
468.927	99.06
469.146	85.06
469.365	86.06
469.585	102.06
469.804	99.06
470.023	101.06
470.243	97.06
470.462	98.06
470.681	110.06
470.901	89.06
471.12	100.06
471.339	80.06
471.558	103.06
471.777	122.06
471.997	177.06
472.216	453.06
472.435	946.06
472.654	280.06
472.873	123.06
473.092	93.06
473.311	100.06
473.53	77.06
473.749	91.06
473.968	94.06
474.187	129.06
474.406	111.06
474.625	90.06
474.844	81.06
475.063	81.06
475.282	89.06
475.501	80.06
475.72	93.06
475.939	76.06
476.158	95.06
476.377	90.06
476.596	100.06
476.814	103.06
477.033	93.06
477.252	93.06
477.471	76.06
477.69	91.06
477.908	89.06
478.127	101.06
478.346	82.06
478.564	87.06
478.783	99.06
479.002	92.06
479.22	110.06
479.439	115.06
479.658	129.06
479.876	115.06
480.095	95.06
480.313	98.06
480.532	124.06
480.751	174.06
480.969	452.06
481.188	1688.06
481.406	1022.06
481.624	194.06
481.843	116.06
482.061	122.06
482.28	104.06
482.498	94.06
482.717	80.06
482.935	86.06
483.153	87.06
483.372	91.06
483.59	93.06
483.808	90.06
484.027	86.06
484.245	94.06
484.463	101.06
484.681	87.06
484.9	98.06
485.118	86.06
485.336	88.06
485.554	94.06
485.772	97.06
485.99	121.06
486.209	117.06
486.427	117.06
486.645	117.06
486.863	131.06
487.081	123.06
487.299	97.06
487.517	97.06
487.735	104.06
487.953	102.06
488.171	104.06
488.389	92.06
488.607	82.06
488.825	106.06
489.043	95.06
489.261	96.06
489.479	81.06
489.696	84.06
489.914	96.06
490.132	81.06
490.35	86.06
490.568	84.06
490.786	88.06
491.003	106.06
491.221	98.06
491.439	92.06
491.657	102.06
491.874	89.06
492.092	89.06
492.31	96.06
492.527	96.06
492.745	107.06
492.963	98.06
493.18	89.06
493.398	97.06
493.615	87.06
493.833	97.06
494.05	85.06
494.268	86.06
494.485	99.06
494.703	81.06
494.92	90.06
495.138	86.06
495.355	99.06
495.573	94.06
495.79	83.06
496.008	89.06
496.225	78.06
496.442	94.06
496.66	99.06
496.877	101.06
497.094	97.06
497.312	94.06
497.529	91.06
497.746	92.06
497.963	86.06
498.181	96.06
498.398	104.06
498.615	109.06
498.832	104.06
499.049	76.06
499.267	103.06
499.484	85.06
499.701	76.06
499.918	90.06
500.135	90.06
500.352	101.06
500.569	94.06
500.786	93.06
501.003	100.06
501.22	97.06
501.437	89.06
501.654	101.06
501.871	118.06
502.088	95.06
502.305	102.06
502.522	95.06
502.739	94.06
502.956	85.06
503.172	93.06
503.389	97.06
503.606	114.06
503.823	114.06
504.04	108.06
504.256	87.06
504.473	99.06
504.69	101.06
504.907	94.06
505.123	85.06
505.34	91.06
505.557	86.06
505.773	85.06
505.99	97.06
506.207	93.06
506.423	74.06
506.64	86.06
506.856	86.06
507.073	100.06
507.289	92.06
507.506	100.06
507.722	121.06
507.939	124.06
508.155	107.06
508.372	86.06
508.588	80.06
508.805	93.06
509.021	91.06
509.238	94.06
509.454	97.06
509.67	103.06
509.887	112.06
510.103	143.06
510.319	196.06
510.536	798.06
510.752	2629.06
510.968	751.06
511.184	164.06
511.401	117.06
511.617	101.06
511.833	100.06
512.049	95.06
512.265	97.06
512.481	92.06
512.698	109.06
512.914	99.06
513.13	84.06
513.346	106.06
