Data from Circ_2000_H10_HRD10591_00026.txt Node
Date: Wed Jan 03 10:49:39 EST 2024
User: Yrep
Spectrometer: HR+D1059
Trigger mode: 1
Integration Time (sec): 1.000000E-1
Scans to average: 1
Electric dark correction enabled: true
Nonlinearity correction enabled: false
Boxcar width: 0
XAxis mode: Wavelengths
Number of Pixels in Spectrum: 2048
>>>>>Begin Spectral Data<<<<<
223.165	-20.94
223.4	-20.94
223.635	-20.94
223.869	-18.94
224.104	-28.94
224.338	-10.94
224.573	-6.94
224.808	-14.94
225.042	-4.94
225.277	-11.94
225.511	-1.94
225.746	-3.94
225.98	8.06
226.215	23.06
226.449	14.06
226.683	25.06
226.918	25.06
227.152	29.06
227.387	28.06
227.621	38.06
227.856	52.06
228.09	55.06
228.324	45.06
228.559	35.06
228.793	67.06
229.027	65.06
229.262	68.06
229.496	72.06
229.73	106.06
229.964	85.06
230.199	67.06
230.433	69.06
230.667	80.06
230.901	81.06
231.136	89.06
231.37	80.06
231.604	85.06
231.838	88.06
232.072	77.06
232.306	80.06
232.541	85.06
232.775	99.06
233.009	82.06
233.243	87.06
233.477	88.06
233.711	86.06
233.945	84.06
234.179	72.06
234.413	80.06
234.647	78.06
234.881	81.06
235.115	86.06
235.349	88.06
235.583	79.06
235.817	74.06
236.051	96.06
236.285	83.06
236.519	78.06
236.753	88.06
236.987	79.06
237.221	80.06
237.455	79.06
237.689	84.06
237.922	71.06
238.156	80.06
238.39	87.06
238.624	80.06
238.858	78.06
239.091	72.06
239.325	83.06
239.559	88.06
239.793	78.06
240.027	82.06
240.26	84.06
240.494	76.06
240.728	66.06
240.961	79.06
241.195	82.06
241.429	91.06
241.662	75.06
241.896	72.06
242.13	84.06
242.363	75.06
242.597	75.06
242.83	83.06
243.064	76.06
243.298	87.06
243.531	73.06
243.765	72.06
243.998	91.06
244.232	92.06
244.465	100.06
244.699	99.06
244.932	79.06
245.166	73.06
245.399	82.06
245.633	83.06
245.866	69.06
246.099	68.06
246.333	82.06
246.566	82.06
246.8	82.06
247.033	81.06
247.266	73.06
247.5	87.06
247.733	86.06
247.966	74.06
248.2	88.06
248.433	81.06
248.666	74.06
248.899	76.06
249.133	86.06
249.366	109.06
249.599	98.06
249.832	89.06
250.066	85.06
250.299	102.06
250.532	85.06
250.765	85.06
250.998	87.06
251.231	96.06
251.465	89.06
251.698	85.06
251.931	91.06
252.164	64.06
252.397	69.06
252.63	90.06
252.863	89.06
253.096	88.06
253.329	85.06
253.562	74.06
253.795	80.06
254.028	80.06
254.261	74.06
254.494	72.06
254.727	77.06
254.96	96.06
255.193	83.06
255.426	79.06
255.659	89.06
255.892	102.06
256.124	91.06
256.357	79.06
256.59	82.06
256.823	77.06
257.056	91.06
257.289	60.06
257.521	99.06
257.754	104.06
257.987	67.06
258.22	92.06
258.452	86.06
258.685	93.06
258.918	87.06
259.151	91.06
259.383	87.06
259.616	97.06
259.849	73.06
260.081	80.06
260.314	79.06
260.547	83.06
260.779	89.06
261.012	77.06
261.244	79.06
261.477	93.06
261.71	85.06
261.942	113.06
262.175	122.06
262.407	99.06
262.64	85.06
262.872	74.06
263.105	92.06
263.337	92.06
263.57	87.06
263.802	94.06
264.035	89.06
264.267	99.06
264.499	76.06
264.732	80.06
264.964	85.06
265.197	81.06
265.429	88.06
265.661	97.06
265.894	88.06
266.126	95.06
266.358	81.06
266.591	89.06
266.823	86.06
267.055	81.06
267.287	87.06
267.52	89.06
267.752	88.06
267.984	95.06
268.216	80.06
268.448	73.06
268.681	94.06
268.913	98.06
269.145	85.06
269.377	88.06
269.609	91.06
269.841	84.06
270.073	89.06
270.306	77.06
270.538	79.06
270.77	91.06
271.002	99.06
271.234	108.06
271.466	84.06
271.698	80.06
271.93	91.06
272.162	89.06
272.394	92.06
272.626	93.06
272.858	86.06
273.09	74.06
273.322	77.06
273.553	89.06
273.785	93.06
274.017	90.06
274.249	92.06
274.481	103.06
274.713	84.06
274.945	89.06
275.176	85.06
275.408	88.06
275.64	99.06
275.872	99.06
276.104	100.06
276.335	83.06
276.567	100.06
276.799	107.06
277.031	114.06
277.262	120.06
277.494	100.06
277.726	92.06
277.957	86.06
278.189	87.06
278.421	77.06
278.652	85.06
278.884	90.06
279.115	81.06
279.347	87.06
279.579	97.06
279.81	95.06
280.042	108.06
280.273	119.06
280.505	117.06
280.736	91.06
280.968	81.06
281.199	84.06
281.431	84.06
281.662	89.06
281.894	89.06
282.125	108.06
282.356	121.06
282.588	151.06
282.819	116.06
283.051	81.06
283.282	88.06
283.513	77.06
283.745	80.06
283.976	81.06
284.207	92.06
284.439	96.06
284.67	97.06
284.901	81.06
285.132	84.06
285.364	85.06
285.595	78.06
285.826	94.06
286.057	81.06
286.288	90.06
286.52	90.06
286.751	88.06
286.982	91.06
287.213	87.06
287.444	102.06
287.675	89.06
287.906	96.06
288.138	84.06
288.369	84.06
288.6	105.06
288.831	96.06
289.062	92.06
289.293	90.06
289.524	80.06
289.755	102.06
289.986	90.06
290.217	105.06
290.448	94.06
290.679	90.06
290.91	83.06
291.141	88.06
291.371	94.06
291.602	91.06
291.833	88.06
292.064	83.06
292.295	90.06
292.526	86.06
292.757	95.06
292.987	81.06
293.218	96.06
293.449	89.06
293.68	76.06
293.91	85.06
294.141	106.06
294.372	98.06
294.603	84.06
294.833	85.06
295.064	97.06
295.295	94.06
295.525	94.06
295.756	85.06
295.987	105.06
296.217	149.06
296.448	151.06
296.679	91.06
296.909	92.06
297.14	104.06
297.37	95.06
297.601	105.06
297.831	92.06
298.062	98.06
298.292	83.06
298.523	99.06
298.753	99.06
298.984	82.06
299.214	103.06
299.445	92.06
299.675	100.06
299.905	80.06
300.136	105.06
300.366	94.06
300.597	96.06
300.827	92.06
301.057	90.06
301.288	101.06
301.518	108.06
301.748	100.06
301.979	119.06
302.209	96.06
302.439	92.06
302.669	88.06
302.9	75.06
303.13	91.06
303.36	99.06
303.59	105.06
303.82	116.06
304.051	105.06
304.281	93.06
304.511	88.06
304.741	99.06
304.971	89.06
305.201	107.06
305.431	91.06
305.661	91.06
305.891	96.06
306.121	84.06
306.352	99.06
306.582	101.06
306.812	113.06
307.042	81.06
307.272	104.06
307.502	120.06
307.731	109.06
307.961	105.06
308.191	94.06
308.421	106.06
308.651	92.06
308.881	94.06
309.111	93.06
309.341	93.06
309.571	102.06
309.8	116.06
310.03	112.06
310.26	98.06
310.49	81.06
310.72	107.06
310.949	111.06
311.179	97.06
311.409	88.06
311.639	100.06
311.868	97.06
312.098	87.06
312.328	92.06
312.557	108.06
312.787	102.06
313.017	105.06
313.246	96.06
313.476	83.06
313.706	101.06
313.935	94.06
314.165	115.06
314.394	95.06
314.624	101.06
314.853	101.06
315.083	101.06
315.312	94.06
315.542	101.06
315.771	89.06
316.001	94.06
316.23	103.06
316.46	86.06
316.689	98.06
316.919	85.06
317.148	95.06
317.377	116.06
317.607	95.06
317.836	86.06
318.065	90.06
318.295	101.06
318.524	101.06
318.753	100.06
318.983	87.06
319.212	93.06
319.441	116.06
319.67	110.06
319.9	101.06
320.129	93.06
320.358	95.06
320.587	102.06
320.816	101.06
321.046	114.06
321.275	121.06
321.504	107.06
321.733	100.06
321.962	105.06
322.191	89.06
322.42	112.06
322.649	103.06
322.878	116.06
323.108	114.06
323.337	130.06
323.566	126.06
323.795	167.06
324.024	208.06
324.253	409.06
324.482	867.06
324.71	1759.06
324.939	2305.06
325.168	839.06
325.397	257.06
325.626	165.06
325.855	133.06
326.084	122.06
326.313	133.06
326.542	175.06
326.77	224.06
326.999	481.06
327.228	959.06
327.457	1760.06
327.686	1411.06
327.914	418.06
328.143	287.06
328.372	269.06
328.6	189.06
328.829	135.06
329.058	125.06
329.287	159.06
329.515	132.06
329.744	159.06
329.972	199.06
330.201	315.06
330.43	424.06
330.658	249.06
330.887	189.06
331.115	151.06
331.344	112.06
331.572	111.06
331.801	109.06
332.03	106.06
332.258	107.06
332.486	90.06
332.715	100.06
332.943	99.06
333.172	103.06
333.4	110.06
333.629	119.06
333.857	146.06
334.085	194.06
334.314	300.06
334.542	518.06
334.771	513.06
334.999	177.06
335.227	116.06
335.455	105.06
335.684	112.06
335.912	107.06
336.14	103.06
336.369	100.06
336.597	101.06
336.825	95.06
337.053	98.06
337.281	92.06
337.51	91.06
337.738	109.06
337.966	99.06
338.194	93.06
338.422	108.06
338.65	97.06
338.878	101.06
339.106	94.06
339.334	91.06
339.562	100.06
339.79	97.06
340.018	99.06
340.246	103.06
340.474	98.06
340.702	93.06
340.93	101.06
341.158	95.06
341.386	90.06
341.614	101.06
341.842	101.06
342.07	114.06
342.298	103.06
342.526	95.06
342.754	104.06
342.981	85.06
343.209	97.06
343.437	85.06
343.665	94.06
343.893	96.06
344.12	98.06
344.348	87.06
344.576	94.06
344.804	90.06
345.031	99.06
345.259	102.06
345.487	100.06
345.714	88.06
345.942	93.06
346.17	96.06
346.397	93.06
346.625	88.06
346.853	105.06
347.08	100.06
347.308	96.06
347.535	97.06
347.763	111.06
347.99	115.06
348.218	92.06
348.445	101.06
348.673	112.06
348.9	95.06
349.128	103.06
349.355	116.06
349.583	98.06
349.81	97.06
350.037	107.06
350.265	85.06
350.492	104.06
350.72	92.06
350.947	97.06
351.174	119.06
351.402	112.06
351.629	112.06
351.856	103.06
352.083	98.06
352.311	109.06
352.538	131.06
352.765	107.06
352.992	115.06
353.22	100.06
353.447	110.06
353.674	119.06
353.901	100.06
354.128	110.06
354.355	96.06
354.583	109.06
354.81	92.06
355.037	87.06
355.264	107.06
355.491	99.06
355.718	100.06
355.945	83.06
356.172	110.06
356.399	106.06
356.626	99.06
356.853	92.06
357.08	96.06
357.307	96.06
357.534	90.06
357.761	97.06
357.988	99.06
358.215	77.06
358.441	97.06
358.668	110.06
358.895	96.06
359.122	100.06
359.349	94.06
359.576	87.06
359.802	100.06
360.029	117.06
360.256	110.06
360.483	94.06
360.709	75.06
360.936	94.06
361.163	94.06
361.39	117.06
361.616	101.06
361.843	83.06
362.07	101.06
362.296	106.06
362.523	99.06
362.749	90.06
362.976	85.06
363.203	96.06
363.429	95.06
363.656	87.06
363.882	97.06
364.109	110.06
364.335	95.06
364.562	97.06
364.788	87.06
365.015	100.06
365.241	100.06
365.468	116.06
365.694	131.06
365.92	109.06
366.147	98.06
366.373	83.06
366.599	89.06
366.826	94.06
367.052	77.06
367.278	93.06
367.505	92.06
367.731	99.06
367.957	102.06
368.184	92.06
368.41	99.06
368.636	121.06
368.862	113.06
369.089	120.06
369.315	89.06
369.541	90.06
369.767	95.06
369.993	98.06
370.219	86.06
370.445	83.06
370.672	91.06
370.898	94.06
371.124	97.06
371.35	95.06
371.576	96.06
371.802	80.06
372.028	84.06
372.254	75.06
372.48	90.06
372.706	108.06
372.932	84.06
373.158	94.06
373.384	81.06
373.61	100.06
373.835	100.06
374.061	88.06
374.287	92.06
374.513	81.06
374.739	90.06
374.965	86.06
375.191	101.06
375.416	94.06
375.642	94.06
375.868	92.06
376.094	102.06
376.319	93.06
376.545	94.06
376.771	101.06
376.997	97.06
377.222	94.06
377.448	83.06
377.674	105.06
377.899	93.06
378.125	88.06
378.35	97.06
378.576	102.06
378.802	83.06
379.027	102.06
379.253	104.06
379.478	97.06
379.704	101.06
379.929	111.06
380.155	104.06
380.38	92.06
380.606	97.06
380.831	105.06
381.057	109.06
381.282	97.06
381.507	105.06
381.733	104.06
381.958	95.06
382.184	94.06
382.409	111.06
382.634	113.06
382.86	119.06
383.085	103.06
383.31	105.06
383.535	110.06
383.761	107.06
383.986	107.06
384.211	96.06
384.436	106.06
384.662	118.06
384.887	113.06
385.112	118.06
385.337	122.06
385.562	99.06
385.787	108.06
386.013	121.06
386.238	122.06
386.463	112.06
386.688	126.06
386.913	121.06
387.138	119.06
387.363	102.06
387.588	101.06
387.813	116.06
388.038	108.06
388.263	124.06
388.488	114.06
388.713	103.06
388.938	111.06
389.163	100.06
389.387	97.06
389.612	108.06
389.837	105.06
390.062	93.06
390.287	86.06
390.512	108.06
390.736	86.06
390.961	85.06
391.186	93.06
391.411	99.06
391.636	109.06
391.86	77.06
392.085	101.06
392.31	89.06
392.534	91.06
392.759	93.06
392.984	82.06
393.208	117.06
393.433	94.06
393.658	110.06
393.882	93.06
394.107	76.06
394.331	100.06
394.556	96.06
394.78	95.06
395.005	92.06
395.229	92.06
395.454	91.06
395.678	82.06
395.903	94.06
396.127	96.06
396.352	90.06
396.576	96.06
396.801	82.06
397.025	89.06
397.249	102.06
397.474	83.06
397.698	87.06
397.922	98.06
398.147	79.06
398.371	99.06
398.595	87.06
398.82	85.06
399.044	97.06
399.268	105.06
399.492	87.06
399.717	102.06
399.941	80.06
400.165	93.06
400.389	96.06
400.613	90.06
400.837	88.06
401.062	95.06
401.286	83.06
401.51	89.06
401.734	103.06
401.958	89.06
402.182	144.06
402.406	168.06
402.63	135.06
402.854	102.06
403.078	102.06
403.302	97.06
403.526	82.06
403.75	95.06
403.974	88.06
404.198	87.06
404.422	90.06
404.645	93.06
404.869	98.06
405.093	99.06
405.317	104.06
405.541	106.06
405.765	110.06
405.988	127.06
406.212	181.06
406.436	251.06
406.66	144.06
406.883	111.06
407.107	96.06
407.331	100.06
407.555	96.06
407.778	99.06
408.002	113.06
408.226	100.06
408.449	94.06
408.673	80.06
408.896	96.06
409.12	92.06
409.344	103.06
409.567	91.06
409.791	92.06
410.014	91.06
410.238	105.06
410.461	101.06
410.685	101.06
410.908	85.06
411.132	115.06
411.355	116.06
411.578	84.06
411.802	89.06
412.025	99.06
412.249	95.06
412.472	105.06
412.695	105.06
412.919	96.06
413.142	96.06
413.365	89.06
413.589	92.06
413.812	75.06
414.035	100.06
414.258	95.06
414.482	92.06
414.705	103.06
414.928	95.06
415.151	94.06
415.374	111.06
415.597	97.06
415.821	96.06
416.044	86.06
416.267	89.06
416.49	85.06
416.713	90.06
416.936	84.06
417.159	97.06
417.382	94.06
417.605	89.06
417.828	112.06
418.051	97.06
418.274	101.06
418.497	97.06
418.72	85.06
418.943	83.06
419.166	87.06
419.389	98.06
419.611	111.06
419.834	100.06
420.057	89.06
420.28	113.06
420.503	93.06
420.726	97.06
420.948	102.06
421.171	96.06
421.394	96.06
421.617	104.06
421.839	89.06
422.062	92.06
422.285	95.06
422.507	85.06
422.73	102.06
422.953	115.06
423.175	91.06
423.398	96.06
423.621	93.06
423.843	100.06
424.066	79.06
424.288	94.06
424.511	87.06
424.733	95.06
424.956	101.06
425.178	100.06
425.401	95.06
425.623	94.06
425.846	101.06
426.068	101.06
426.291	96.06
426.513	100.06
426.735	76.06
426.958	115.06
427.18	111.06
427.402	157.06
427.625	189.06
427.847	167.06
428.069	152.06
428.292	108.06
428.514	87.06
428.736	83.06
428.958	103.06
429.181	87.06
429.403	78.06
429.625	88.06
429.847	108.06
430.069	111.06
430.292	85.06
430.514	96.06
430.736	97.06
430.958	91.06
431.18	96.06
431.402	97.06
431.624	88.06
431.846	102.06
432.068	97.06
432.29	92.06
432.512	100.06
432.734	95.06
432.956	94.06
433.178	99.06
433.4	88.06
433.622	96.06
433.844	88.06
434.066	79.06
434.287	94.06
434.509	90.06
434.731	93.06
434.953	97.06
435.175	102.06
435.397	100.06
435.618	101.06
435.84	118.06
436.062	113.06
436.284	116.06
436.505	109.06
436.727	105.06
436.949	100.06
437.17	110.06
437.392	100.06
437.614	94.06
437.835	106.06
438.057	127.06
438.278	108.06
438.5	109.06
438.721	127.06
438.943	100.06
439.165	96.06
439.386	88.06
439.608	93.06
439.829	96.06
440.05	138.06
440.272	146.06
440.493	102.06
440.715	96.06
440.936	93.06
441.158	96.06
441.379	94.06
441.6	104.06
441.822	100.06
442.043	104.06
442.264	89.06
442.486	106.06
442.707	115.06
442.928	120.06
443.149	153.06
443.371	140.06
443.592	123.06
443.813	119.06
444.034	116.06
444.255	103.06
444.476	83.06
444.698	94.06
444.919	106.06
445.14	140.06
445.361	135.06
445.582	115.06
445.803	144.06
446.024	159.06
446.245	142.06
446.466	127.06
446.687	96.06
446.908	91.06
447.129	86.06
447.35	101.06
447.571	105.06
447.792	97.06
448.013	112.06
448.234	105.06
448.455	103.06
448.675	106.06
448.896	121.06
449.117	100.06
449.338	104.06
449.559	134.06
449.779	112.06
450	103.06
450.221	97.06
450.442	93.06
450.662	106.06
450.883	108.06
451.104	123.06
451.324	103.06
451.545	91.06
451.766	91.06
451.986	93.06
452.207	109.06
452.428	94.06
452.648	92.06
452.869	116.06
453.089	116.06
453.31	137.06
453.53	99.06
453.751	80.06
453.971	97.06
454.192	120.06
454.412	107.06
454.633	77.06
454.853	95.06
455.073	97.06
455.294	87.06
455.514	94.06
455.734	95.06
455.955	86.06
456.175	84.06
456.395	90.06
456.616	90.06
456.836	85.06
457.056	77.06
457.276	79.06
457.497	90.06
457.717	84.06
457.937	94.06
458.157	85.06
458.377	94.06
458.598	107.06
458.818	172.06
459.038	179.06
459.258	118.06
459.478	101.06
459.698	94.06
459.918	89.06
460.138	87.06
460.358	86.06
460.578	91.06
460.798	88.06
461.018	90.06
461.238	88.06
461.458	80.06
461.678	75.06
461.898	75.06
462.118	79.06
462.338	101.06
462.558	93.06
462.777	77.06
462.997	88.06
463.217	92.06
463.437	92.06
463.657	77.06
463.876	100.06
464.096	80.06
464.316	104.06
464.536	96.06
464.755	112.06
464.975	110.06
465.195	178.06
465.414	181.06
465.634	102.06
465.854	112.06
466.073	87.06
466.293	93.06
466.512	98.06
466.732	89.06
466.951	94.06
467.171	93.06
467.391	101.06
467.61	116.06
467.829	132.06
468.049	211.06
468.268	270.06
468.488	125.06
468.707	87.06
468.927	101.06
469.146	97.06
469.365	100.06
469.585	96.06
469.804	107.06
470.023	101.06
470.243	98.06
470.462	94.06
470.681	109.06
470.901	105.06
471.12	86.06
471.339	101.06
471.558	101.06
471.777	103.06
471.997	143.06
472.216	348.06
472.435	718.06
472.654	234.06
472.873	120.06
473.092	83.06
473.311	92.06
473.53	112.06
473.749	92.06
473.968	102.06
474.187	125.06
474.406	99.06
474.625	94.06
474.844	99.06
475.063	94.06
475.282	89.06
475.501	93.06
475.72	105.06
475.939	97.06
476.158	95.06
476.377	95.06
476.596	73.06
476.814	91.06
477.033	95.06
477.252	94.06
477.471	81.06
477.69	93.06
477.908	91.06
478.127	89.06
478.346	105.06
478.564	88.06
478.783	107.06
479.002	96.06
479.22	83.06
479.439	110.06
479.658	117.06
479.876	91.06
480.095	99.06
480.313	115.06
480.532	103.06
480.751	143.06
480.969	324.06
481.188	1185.06
481.406	756.06
481.624	161.06
481.843	105.06
482.061	95.06
482.28	89.06
482.498	97.06
482.717	89.06
482.935	89.06
483.153	79.06
483.372	100.06
483.59	90.06
483.808	85.06
484.027	95.06
484.245	97.06
484.463	88.06
484.681	99.06
484.9	99.06
485.118	105.06
485.336	97.06
485.554	105.06
485.772	100.06
485.99	100.06
486.209	108.06
486.427	109.06
486.645	123.06
486.863	117.06
487.081	106.06
487.299	97.06
487.517	110.06
487.735	94.06
487.953	85.06
488.171	97.06
488.389	102.06
488.607	107.06
488.825	103.06
489.043	90.06
489.261	101.06
489.479	102.06
489.696	102.06
489.914	77.06
490.132	91.06
490.35	103.06
490.568	95.06
490.786	82.06
491.003	94.06
491.221	95.06
491.439	80.06
491.657	97.06
491.874	100.06
492.092	100.06
492.31	88.06
492.527	94.06
492.745	96.06
492.963	96.06
493.18	82.06
493.398	97.06
493.615	103.06
493.833	95.06
494.05	97.06
494.268	97.06
494.485	94.06
494.703	89.06
494.92	103.06
495.138	89.06
495.355	94.06
495.573	96.06
495.79	81.06
496.008	82.06
496.225	78.06
496.442	80.06
496.66	100.06
496.877	89.06
497.094	92.06
497.312	90.06
497.529	84.06
497.746	96.06
497.963	79.06
498.181	98.06
498.398	110.06
498.615	106.06
498.832	121.06
499.049	91.06
499.267	86.06
499.484	85.06
499.701	90.06
499.918	87.06
500.135	94.06
500.352	109.06
500.569	96.06
500.786	100.06
501.003	95.06
501.22	91.06
501.437	98.06
501.654	104.06
501.871	110.06
502.088	105.06
502.305	99.06
502.522	92.06
502.739	97.06
502.956	94.06
503.172	93.06
503.389	101.06
503.606	108.06
503.823	105.06
504.04	106.06
504.256	96.06
504.473	75.06
504.69	87.06
504.907	105.06
505.123	103.06
505.34	91.06
505.557	106.06
505.773	96.06
505.99	100.06
506.207	104.06
506.423	91.06
506.64	96.06
506.856	84.06
507.073	88.06
507.289	89.06
507.506	94.06
507.722	101.06
507.939	112.06
508.155	104.06
508.372	100.06
508.588	92.06
508.805	98.06
509.021	99.06
509.238	109.06
509.454	108.06
509.67	97.06
509.887	110.06
510.103	145.06
510.319	224.06
510.536	777.06
510.752	2581.06
510.968	708.06
511.184	167.06
511.401	120.06
511.617	109.06
511.833	101.06
512.049	103.06
512.265	100.06
512.481	72.06
512.698	87.06
512.914	95.06
513.13	89.06
