Data from Circ_2000_H10_HRD10591_00041.txt Node
Date: Wed Jan 03 10:49:42 EST 2024
User: Yrep
Spectrometer: HR+D1059
Trigger mode: 1
Integration Time (sec): 1.000000E-1
Scans to average: 1
Electric dark correction enabled: true
Nonlinearity correction enabled: false
Boxcar width: 0
XAxis mode: Wavelengths
Number of Pixels in Spectrum: 2048
>>>>>Begin Spectral Data<<<<<
223.165	-25.44
223.4	-25.44
223.635	-25.44
223.869	-30.44
224.104	-19.44
224.338	-15.44
224.573	-19.44
224.808	0.56
225.042	-11.44
225.277	-3.44
225.511	5.56
225.746	6.56
225.98	13.56
226.215	9.56
226.449	1.56
226.683	23.56
226.918	32.56
227.152	31.56
227.387	34.56
227.621	45.56
227.856	48.56
228.09	57.56
228.324	48.56
228.559	70.56
228.793	39.56
229.027	70.56
229.262	72.56
229.496	87.56
229.73	100.56
229.964	83.56
230.199	71.56
230.433	89.56
230.667	90.56
230.901	90.56
231.136	77.56
231.37	84.56
231.604	86.56
231.838	83.56
232.072	88.56
232.306	85.56
232.541	101.56
232.775	93.56
233.009	71.56
233.243	82.56
233.477	88.56
233.711	85.56
233.945	82.56
234.179	84.56
234.413	80.56
234.647	88.56
234.881	76.56
235.115	97.56
235.349	79.56
235.583	70.56
235.817	88.56
236.051	84.56
236.285	81.56
236.519	68.56
236.753	90.56
236.987	91.56
237.221	94.56
237.455	100.56
237.689	70.56
237.922	86.56
238.156	80.56
238.39	82.56
238.624	83.56
238.858	80.56
239.091	78.56
239.325	92.56
239.559	77.56
239.793	80.56
240.027	75.56
240.26	83.56
240.494	61.56
240.728	84.56
240.961	78.56
241.195	75.56
241.429	81.56
241.662	78.56
241.896	88.56
242.13	72.56
242.363	72.56
242.597	75.56
242.83	74.56
243.064	74.56
243.298	71.56
243.531	90.56
243.765	74.56
243.998	84.56
244.232	88.56
244.465	58.56
244.699	74.56
244.932	81.56
245.166	80.56
245.399	81.56
245.633	81.56
245.866	83.56
246.099	73.56
246.333	74.56
246.566	66.56
246.8	82.56
247.033	72.56
247.266	72.56
247.5	85.56
247.733	87.56
247.966	84.56
248.2	85.56
248.433	87.56
248.666	75.56
248.899	89.56
249.133	99.56
249.366	109.56
249.599	99.56
249.832	80.56
250.066	81.56
250.299	76.56
250.532	88.56
250.765	88.56
250.998	75.56
251.231	70.56
251.465	71.56
251.698	81.56
251.931	90.56
252.164	78.56
252.397	68.56
252.63	77.56
252.863	86.56
253.096	73.56
253.329	89.56
253.562	80.56
253.795	82.56
254.028	72.56
254.261	89.56
254.494	75.56
254.727	85.56
254.96	73.56
255.193	83.56
255.426	90.56
255.659	101.56
255.892	87.56
256.124	68.56
256.357	81.56
256.59	67.56
256.823	88.56
257.056	86.56
257.289	76.56
257.521	90.56
257.754	78.56
257.987	75.56
258.22	84.56
258.452	86.56
258.685	88.56
258.918	84.56
259.151	93.56
259.383	93.56
259.616	72.56
259.849	84.56
260.081	77.56
260.314	87.56
260.547	90.56
260.779	81.56
261.012	99.56
261.244	116.56
261.477	92.56
261.71	88.56
261.942	121.56
262.175	124.56
262.407	93.56
262.64	92.56
262.872	71.56
263.105	84.56
263.337	81.56
263.57	90.56
263.802	89.56
264.035	83.56
264.267	88.56
264.499	69.56
264.732	84.56
264.964	85.56
265.197	85.56
265.429	87.56
265.661	82.56
265.894	80.56
266.126	73.56
266.358	97.56
266.591	81.56
266.823	89.56
267.055	67.56
267.287	84.56
267.52	100.56
267.752	77.56
267.984	89.56
268.216	90.56
268.448	81.56
268.681	83.56
268.913	93.56
269.145	85.56
269.377	101.56
269.609	87.56
269.841	88.56
270.073	82.56
270.306	93.56
270.538	91.56
270.77	81.56
271.002	98.56
271.234	90.56
271.466	77.56
271.698	89.56
271.93	80.56
272.162	104.56
272.394	86.56
272.626	87.56
272.858	91.56
273.09	86.56
273.322	83.56
273.553	89.56
273.785	81.56
274.017	81.56
274.249	84.56
274.481	89.56
274.713	78.56
274.945	97.56
275.176	85.56
275.408	95.56
275.64	87.56
275.872	96.56
276.104	104.56
276.335	82.56
276.567	110.56
276.799	119.56
277.031	111.56
277.262	124.56
277.494	108.56
277.726	91.56
277.957	86.56
278.189	80.56
278.421	99.56
278.652	72.56
278.884	94.56
279.115	74.56
279.347	92.56
279.579	86.56
279.81	98.56
280.042	109.56
280.273	131.56
280.505	104.56
280.736	77.56
280.968	99.56
281.199	79.56
281.431	90.56
281.662	85.56
281.894	93.56
282.125	111.56
282.356	115.56
282.588	145.56
282.819	100.56
283.051	93.56
283.282	83.56
283.513	91.56
283.745	100.56
283.976	85.56
284.207	88.56
284.439	88.56
284.67	67.56
284.901	86.56
285.132	80.56
285.364	89.56
285.595	101.56
285.826	80.56
286.057	88.56
286.288	90.56
286.52	93.56
286.751	77.56
286.982	89.56
287.213	90.56
287.444	84.56
287.675	96.56
287.906	96.56
288.138	98.56
288.369	78.56
288.6	72.56
288.831	95.56
289.062	85.56
289.293	101.56
289.524	92.56
289.755	78.56
289.986	93.56
290.217	91.56
290.448	74.56
290.679	94.56
290.91	101.56
291.141	78.56
291.371	78.56
291.602	89.56
291.833	89.56
292.064	90.56
292.295	94.56
292.526	84.56
292.757	83.56
292.987	98.56
293.218	76.56
293.449	97.56
293.68	93.56
293.91	88.56
294.141	85.56
294.372	85.56
294.603	90.56
294.833	78.56
295.064	102.56
295.295	100.56
295.525	97.56
295.756	94.56
295.987	110.56
296.217	146.56
296.448	136.56
296.679	89.56
296.909	68.56
297.14	74.56
297.37	91.56
297.601	97.56
297.831	81.56
298.062	90.56
298.292	97.56
298.523	92.56
298.753	97.56
298.984	90.56
299.214	92.56
299.445	89.56
299.675	101.56
299.905	96.56
300.136	92.56
300.366	85.56
300.597	87.56
300.827	92.56
301.057	99.56
301.288	99.56
301.518	82.56
301.748	93.56
301.979	105.56
302.209	86.56
302.439	90.56
302.669	94.56
302.9	101.56
303.13	88.56
303.36	93.56
303.59	105.56
303.82	113.56
304.051	88.56
304.281	100.56
304.511	88.56
304.741	91.56
304.971	87.56
305.201	103.56
305.431	100.56
305.661	104.56
305.891	97.56
306.121	88.56
306.352	100.56
306.582	109.56
306.812	108.56
307.042	114.56
307.272	111.56
307.502	125.56
307.731	129.56
307.961	90.56
308.191	84.56
308.421	102.56
308.651	99.56
308.881	92.56
309.111	96.56
309.341	92.56
309.571	97.56
309.8	92.56
310.03	94.56
310.26	106.56
310.49	98.56
310.72	120.56
310.949	124.56
311.179	105.56
311.409	94.56
311.639	90.56
311.868	93.56
312.098	109.56
312.328	71.56
312.557	105.56
312.787	117.56
313.017	107.56
313.246	93.56
313.476	98.56
313.706	100.56
313.935	81.56
314.165	110.56
314.394	98.56
314.624	97.56
314.853	92.56
315.083	99.56
315.312	98.56
315.542	89.56
315.771	93.56
316.001	89.56
316.23	88.56
316.46	91.56
316.689	74.56
316.919	89.56
317.148	99.56
317.377	104.56
317.607	97.56
317.836	109.56
318.065	94.56
318.295	111.56
318.524	102.56
318.753	103.56
318.983	87.56
319.212	99.56
319.441	98.56
319.67	112.56
319.9	89.56
320.129	88.56
320.358	104.56
320.587	95.56
320.816	78.56
321.046	99.56
321.275	99.56
321.504	87.56
321.733	92.56
321.962	102.56
322.191	106.56
322.42	107.56
322.649	106.56
322.878	114.56
323.108	115.56
323.337	136.56
323.566	140.56
323.795	174.56
324.024	223.56
324.253	426.56
324.482	908.56
324.71	1898.56
324.939	2405.56
325.168	897.56
325.397	259.56
325.626	154.56
325.855	136.56
326.084	136.56
326.313	140.56
326.542	157.56
326.77	248.56
326.999	495.56
327.228	1009.56
327.457	1823.56
327.686	1456.56
327.914	432.56
328.143	326.56
328.372	334.56
328.6	199.56
328.829	147.56
329.058	140.56
329.287	147.56
329.515	148.56
329.744	166.56
329.972	254.56
330.201	457.56
330.43	615.56
330.658	316.56
330.887	189.56
331.115	148.56
331.344	99.56
331.572	105.56
331.801	106.56
332.03	98.56
332.258	98.56
332.486	93.56
332.715	95.56
332.943	101.56
333.172	106.56
333.4	118.56
333.629	130.56
333.857	179.56
334.085	240.56
334.314	457.56
334.542	807.56
334.771	712.56
334.999	222.56
335.227	128.56
335.455	104.56
335.684	119.56
335.912	95.56
336.14	106.56
336.369	100.56
336.597	91.56
336.825	97.56
337.053	104.56
337.281	97.56
337.51	85.56
337.738	97.56
337.966	101.56
338.194	95.56
338.422	90.56
338.65	91.56
338.878	83.56
339.106	80.56
339.334	98.56
339.562	94.56
339.79	84.56
340.018	106.56
340.246	88.56
340.474	94.56
340.702	100.56
340.93	102.56
341.158	85.56
341.386	95.56
341.614	94.56
341.842	98.56
342.07	98.56
342.298	90.56
342.526	93.56
342.754	88.56
342.981	83.56
343.209	86.56
343.437	89.56
343.665	82.56
343.893	85.56
344.12	92.56
344.348	79.56
344.576	91.56
344.804	84.56
345.031	117.56
345.259	102.56
345.487	101.56
345.714	105.56
345.942	82.56
346.17	87.56
346.397	97.56
346.625	85.56
346.853	88.56
347.08	85.56
347.308	106.56
347.535	100.56
347.763	109.56
347.99	82.56
348.218	106.56
348.445	91.56
348.673	96.56
348.9	104.56
349.128	98.56
349.355	89.56
349.583	92.56
349.81	87.56
350.037	104.56
350.265	93.56
350.492	92.56
350.72	87.56
350.947	101.56
351.174	109.56
351.402	105.56
351.629	99.56
351.856	114.56
352.083	116.56
352.311	103.56
352.538	117.56
352.765	111.56
352.992	124.56
353.22	109.56
353.447	109.56
353.674	108.56
353.901	107.56
354.128	91.56
354.355	98.56
354.583	104.56
354.81	93.56
355.037	84.56
355.264	73.56
355.491	94.56
355.718	94.56
355.945	89.56
356.172	88.56
356.399	85.56
356.626	79.56
356.853	99.56
357.08	93.56
357.307	101.56
357.534	87.56
357.761	85.56
357.988	82.56
358.215	91.56
358.441	93.56
358.668	97.56
358.895	97.56
359.122	130.56
359.349	94.56
359.576	95.56
359.802	90.56
360.029	107.56
360.256	120.56
360.483	106.56
360.709	88.56
360.936	109.56
361.163	101.56
361.39	118.56
361.616	104.56
361.843	86.56
362.07	95.56
362.296	89.56
362.523	97.56
362.749	84.56
362.976	99.56
363.203	98.56
363.429	102.56
363.656	100.56
363.882	84.56
364.109	105.56
364.335	96.56
364.562	97.56
364.788	94.56
365.015	101.56
365.241	92.56
365.468	102.56
365.694	101.56
365.92	105.56
366.147	100.56
366.373	94.56
366.599	94.56
366.826	76.56
367.052	84.56
367.278	93.56
367.505	89.56
367.731	86.56
367.957	94.56
368.184	87.56
368.41	100.56
368.636	106.56
368.862	121.56
369.089	125.56
369.315	89.56
369.541	94.56
369.767	87.56
369.993	95.56
370.219	106.56
370.445	85.56
370.672	97.56
370.898	81.56
371.124	97.56
371.35	89.56
371.576	84.56
371.802	84.56
372.028	93.56
372.254	94.56
372.48	101.56
372.706	77.56
372.932	91.56
373.158	73.56
373.384	98.56
373.61	81.56
373.835	91.56
374.061	85.56
374.287	102.56
374.513	96.56
374.739	106.56
374.965	89.56
375.191	98.56
375.416	92.56
375.642	90.56
375.868	101.56
376.094	86.56
376.319	85.56
376.545	88.56
376.771	79.56
376.997	96.56
377.222	93.56
377.448	80.56
377.674	104.56
377.899	91.56
378.125	81.56
378.35	74.56
378.576	84.56
378.802	91.56
379.027	94.56
379.253	93.56
379.478	99.56
379.704	86.56
379.929	88.56
380.155	85.56
380.38	88.56
380.606	107.56
380.831	93.56
381.057	101.56
381.282	89.56
381.507	96.56
381.733	92.56
381.958	102.56
382.184	110.56
382.409	102.56
382.634	121.56
382.86	98.56
383.085	93.56
383.31	88.56
383.535	102.56
383.761	98.56
383.986	113.56
384.211	99.56
384.436	99.56
384.662	89.56
384.887	91.56
385.112	108.56
385.337	119.56
385.562	92.56
385.787	104.56
386.013	122.56
386.238	123.56
386.463	97.56
386.688	119.56
386.913	111.56
387.138	105.56
387.363	98.56
387.588	97.56
387.813	110.56
388.038	116.56
388.263	119.56
388.488	99.56
388.713	94.56
388.938	93.56
389.163	82.56
389.387	95.56
389.612	101.56
389.837	102.56
390.062	82.56
390.287	95.56
390.512	93.56
390.736	89.56
390.961	87.56
391.186	99.56
391.411	89.56
391.636	89.56
391.86	82.56
392.085	86.56
392.31	74.56
392.534	94.56
392.759	77.56
392.984	88.56
393.208	81.56
393.433	100.56
393.658	80.56
393.882	89.56
394.107	85.56
394.331	101.56
394.556	90.56
394.78	88.56
395.005	94.56
395.229	101.56
395.454	75.56
395.678	93.56
395.903	90.56
396.127	98.56
396.352	95.56
396.576	84.56
396.801	73.56
397.025	104.56
397.249	98.56
397.474	88.56
397.698	69.56
397.922	80.56
398.147	92.56
398.371	68.56
398.595	100.56
398.82	92.56
399.044	87.56
399.268	81.56
399.492	90.56
399.717	76.56
399.941	94.56
400.165	100.56
400.389	82.56
400.613	74.56
400.837	87.56
401.062	86.56
401.286	97.56
401.51	101.56
401.734	93.56
401.958	105.56
402.182	125.56
402.406	177.56
402.63	137.56
402.854	92.56
403.078	88.56
403.302	83.56
403.526	94.56
403.75	77.56
403.974	94.56
404.198	97.56
404.422	87.56
404.645	91.56
404.869	86.56
405.093	117.56
405.317	116.56
405.541	130.56
405.765	107.56
405.988	113.56
406.212	176.56
406.436	253.56
406.66	165.56
406.883	107.56
407.107	96.56
407.331	101.56
407.555	102.56
407.778	82.56
408.002	92.56
408.226	98.56
408.449	103.56
408.673	90.56
408.896	93.56
409.12	89.56
409.344	85.56
409.567	90.56
409.791	98.56
410.014	91.56
410.238	85.56
410.461	99.56
410.685	96.56
410.908	102.56
411.132	105.56
411.355	97.56
411.578	93.56
411.802	103.56
412.025	87.56
412.249	90.56
412.472	110.56
412.695	122.56
412.919	112.56
413.142	89.56
413.365	88.56
413.589	97.56
413.812	82.56
414.035	91.56
414.258	90.56
414.482	98.56
414.705	93.56
414.928	92.56
415.151	89.56
415.374	91.56
415.597	91.56
415.821	105.56
416.044	92.56
416.267	92.56
416.49	99.56
416.713	102.56
416.936	91.56
417.159	87.56
417.382	90.56
417.605	99.56
417.828	107.56
418.051	101.56
418.274	85.56
418.497	103.56
418.72	81.56
418.943	81.56
419.166	97.56
419.389	85.56
419.611	94.56
419.834	97.56
420.057	94.56
420.28	95.56
420.503	89.56
420.726	88.56
420.948	85.56
421.171	96.56
421.394	103.56
421.617	105.56
421.839	76.56
422.062	89.56
422.285	92.56
422.507	98.56
422.73	96.56
422.953	83.56
423.175	97.56
423.398	78.56
423.621	80.56
423.843	96.56
424.066	97.56
424.288	83.56
424.511	101.56
424.733	102.56
424.956	119.56
425.178	94.56
425.401	95.56
425.623	101.56
425.846	100.56
426.068	92.56
426.291	94.56
426.513	92.56
426.735	92.56
426.958	89.56
427.18	114.56
427.402	169.56
427.625	221.56
427.847	185.56
428.069	187.56
428.292	110.56
428.514	99.56
428.736	104.56
428.958	93.56
429.181	99.56
429.403	105.56
429.625	104.56
429.847	104.56
430.069	116.56
430.292	112.56
430.514	77.56
430.736	81.56
430.958	89.56
431.18	93.56
431.402	80.56
431.624	92.56
431.846	81.56
432.068	89.56
432.29	79.56
432.512	97.56
432.734	85.56
432.956	90.56
433.178	89.56
433.4	99.56
433.622	90.56
433.844	88.56
434.066	109.56
434.287	88.56
434.509	80.56
434.731	90.56
434.953	98.56
435.175	88.56
435.397	84.56
435.618	100.56
435.84	113.56
436.062	142.56
436.284	110.56
436.505	104.56
436.727	112.56
436.949	96.56
437.17	93.56
437.392	85.56
437.614	97.56
437.835	111.56
438.057	123.56
438.278	127.56
438.5	109.56
438.721	135.56
438.943	112.56
439.165	98.56
439.386	85.56
439.608	100.56
439.829	110.56
440.05	133.56
440.272	160.56
440.493	104.56
440.715	102.56
440.936	76.56
441.158	89.56
441.379	78.56
441.6	104.56
441.822	95.56
442.043	97.56
442.264	118.56
442.486	99.56
442.707	93.56
442.928	121.56
443.149	143.56
443.371	138.56
443.592	115.56
443.813	119.56
444.034	118.56
444.255	93.56
444.476	71.56
444.698	101.56
444.919	78.56
445.14	141.56
445.361	126.56
445.582	135.56
445.803	136.56
446.024	149.56
446.245	152.56
446.466	135.56
446.687	90.56
446.908	84.56
447.129	79.56
447.35	95.56
447.571	88.56
447.792	107.56
448.013	97.56
448.234	109.56
448.455	90.56
448.675	128.56
448.896	124.56
449.117	109.56
449.338	123.56
449.559	134.56
449.779	122.56
450	98.56
450.221	87.56
450.442	100.56
450.662	93.56
450.883	131.56
451.104	117.56
451.324	92.56
451.545	88.56
451.766	97.56
451.986	85.56
452.207	92.56
452.428	102.56
452.648	98.56
452.869	104.56
453.089	124.56
453.31	133.56
453.53	90.56
453.751	98.56
453.971	114.56
454.192	118.56
454.412	100.56
454.633	90.56
454.853	94.56
455.073	81.56
455.294	92.56
455.514	96.56
455.734	101.56
455.955	75.56
456.175	75.56
456.395	86.56
456.616	83.56
456.836	78.56
457.056	90.56
457.276	78.56
457.497	74.56
457.717	90.56
457.937	81.56
458.157	85.56
458.377	92.56
458.598	98.56
458.818	167.56
459.038	184.56
459.258	118.56
459.478	92.56
459.698	63.56
459.918	86.56
460.138	94.56
460.358	99.56
460.578	85.56
460.798	80.56
461.018	95.56
461.238	88.56
461.458	80.56
461.678	97.56
461.898	93.56
462.118	73.56
462.338	89.56
462.558	74.56
462.777	91.56
462.997	76.56
463.217	87.56
463.437	99.56
463.657	88.56
463.876	78.56
464.096	99.56
464.316	91.56
464.536	91.56
464.755	105.56
464.975	130.56
465.195	193.56
465.414	194.56
465.634	100.56
465.854	82.56
466.073	91.56
466.293	103.56
466.512	103.56
466.732	92.56
466.951	94.56
467.171	96.56
467.391	115.56
467.61	123.56
467.829	132.56
468.049	274.56
468.268	378.56
468.488	130.56
468.707	88.56
468.927	77.56
469.146	83.56
469.365	86.56
469.585	90.56
469.804	91.56
470.023	117.56
470.243	94.56
470.462	111.56
470.681	98.56
470.901	102.56
471.12	91.56
471.339	105.56
471.558	98.56
471.777	115.56
471.997	177.56
472.216	515.56
472.435	1000.56
472.654	274.56
472.873	100.56
473.092	90.56
473.311	94.56
473.53	86.56
473.749	96.56
473.968	98.56
474.187	112.56
474.406	90.56
474.625	81.56
474.844	92.56
475.063	88.56
475.282	95.56
475.501	86.56
475.72	100.56
475.939	70.56
476.158	91.56
476.377	94.56
476.596	76.56
476.814	87.56
477.033	78.56
477.252	87.56
477.471	88.56
477.69	88.56
477.908	103.56
478.127	88.56
478.346	85.56
478.564	86.56
478.783	97.56
479.002	94.56
479.22	98.56
479.439	114.56
479.658	125.56
479.876	97.56
480.095	99.56
480.313	117.56
480.532	125.56
480.751	170.56
480.969	486.56
481.188	1769.56
481.406	1022.56
481.624	198.56
481.843	122.56
482.061	99.56
482.28	99.56
482.498	103.56
482.717	81.56
482.935	86.56
483.153	94.56
483.372	99.56
483.59	98.56
483.808	92.56
484.027	93.56
484.245	78.56
484.463	94.56
484.681	115.56
484.9	101.56
485.118	90.56
485.336	91.56
485.554	101.56
485.772	110.56
485.99	106.56
486.209	93.56
486.427	112.56
486.645	117.56
486.863	124.56
487.081	96.56
487.299	102.56
487.517	96.56
487.735	84.56
487.953	100.56
488.171	90.56
488.389	89.56
488.607	101.56
488.825	97.56
489.043	95.56
489.261	92.56
489.479	99.56
489.696	104.56
489.914	93.56
490.132	83.56
490.35	88.56
490.568	94.56
490.786	91.56
491.003	77.56
491.221	89.56
491.439	104.56
491.657	100.56
491.874	93.56
492.092	99.56
492.31	90.56
492.527	99.56
492.745	94.56
492.963	109.56
493.18	101.56
493.398	96.56
493.615	92.56
493.833	85.56
494.05	98.56
494.268	92.56
494.485	90.56
494.703	103.56
494.92	86.56
495.138	78.56
495.355	73.56
495.573	86.56
495.79	96.56
496.008	83.56
496.225	89.56
496.442	87.56
496.66	84.56
496.877	85.56
497.094	106.56
497.312	84.56
497.529	96.56
497.746	94.56
497.963	100.56
498.181	94.56
498.398	99.56
498.615	92.56
498.832	102.56
499.049	93.56
499.267	97.56
499.484	85.56
499.701	99.56
499.918	86.56
500.135	99.56
500.352	106.56
500.569	84.56
500.786	91.56
501.003	96.56
501.22	83.56
501.437	100.56
501.654	98.56
501.871	108.56
502.088	99.56
502.305	97.56
502.522	76.56
502.739	104.56
502.956	105.56
503.172	82.56
503.389	91.56
503.606	115.56
503.823	105.56
504.04	87.56
504.256	87.56
504.473	97.56
504.69	86.56
504.907	93.56
505.123	86.56
505.34	93.56
505.557	91.56
505.773	87.56
505.99	88.56
506.207	96.56
506.423	89.56
506.64	106.56
506.856	89.56
507.073	87.56
507.289	94.56
507.506	99.56
507.722	104.56
507.939	134.56
508.155	106.56
508.372	92.56
508.588	96.56
508.805	88.56
509.021	100.56
509.238	107.56
509.454	106.56
509.67	99.56
509.887	117.56
510.103	128.56
510.319	223.56
510.536	785.56
510.752	2580.56
510.968	695.56
511.184	162.56
511.401	120.56
511.617	108.56
511.833	93.56
512.049	117.56
512.265	82.56
512.481	80.56
512.698	86.56
512.914	91.56
513.13	100.56
513.346	98.56
513.562	85.56
513.778	85.56
513.994	102.56
514.21	104.56
514.426	135.56
