Data from Circ_2000_H10_HRD10591_00004.txt Node
Date: Wed Jan 03 10:49:34 EST 2024
User: Yrep
Spectrometer: HR+D1059
Trigger mode: 1
Integration Time (sec): 1.000000E-1
Scans to average: 1
Electric dark correction enabled: true
Nonlinearity correction enabled: false
Boxcar width: 0
XAxis mode: Wavelengths
Number of Pixels in Spectrum: 2048
>>>>>Begin Spectral Data<<<<<
223.165	-18.06
223.4	-18.06
223.635	-18.06
223.869	-25.06
224.104	-32.06
224.338	-20.06
224.573	-17.06
224.808	-4.06
225.042	-2.06
225.277	-3.06
225.511	1.94
225.746	9.94
225.98	10.94
226.215	10.94
226.449	8.94
226.683	22.94
226.918	22.94
227.152	32.94
227.387	33.94
227.621	42.94
227.856	41.94
228.09	38.94
228.324	47.94
228.559	43.94
228.793	54.94
229.027	72.94
229.262	71.94
229.496	71.94
229.73	90.94
229.964	93.94
230.199	85.94
230.433	72.94
230.667	76.94
230.901	82.94
231.136	79.94
231.37	99.94
231.604	80.94
231.838	71.94
232.072	86.94
232.306	75.94
232.541	85.94
232.775	89.94
233.009	77.94
233.243	60.94
233.477	72.94
233.711	64.94
233.945	81.94
234.179	79.94
234.413	82.94
234.647	69.94
234.881	75.94
235.115	94.94
235.349	70.94
235.583	76.94
235.817	75.94
236.051	90.94
236.285	82.94
236.519	78.94
236.753	78.94
236.987	66.94
237.221	87.94
237.455	87.94
237.689	86.94
237.922	71.94
238.156	81.94
238.39	68.94
238.624	70.94
238.858	85.94
239.091	76.94
239.325	70.94
239.559	85.94
239.793	69.94
240.027	83.94
240.26	79.94
240.494	79.94
240.728	81.94
240.961	86.94
241.195	77.94
241.429	72.94
241.662	94.94
241.896	84.94
242.13	72.94
242.363	81.94
242.597	86.94
242.83	74.94
243.064	77.94
243.298	91.94
243.531	74.94
243.765	79.94
243.998	85.94
244.232	87.94
244.465	79.94
244.699	70.94
244.932	73.94
245.166	80.94
245.399	69.94
245.633	84.94
245.866	82.94
246.099	82.94
246.333	80.94
246.566	85.94
246.8	74.94
247.033	86.94
247.266	75.94
247.5	74.94
247.733	75.94
247.966	82.94
248.2	79.94
248.433	81.94
248.666	65.94
248.899	82.94
249.133	87.94
249.366	93.94
249.599	83.94
249.832	81.94
250.066	75.94
250.299	81.94
250.532	94.94
250.765	81.94
250.998	65.94
251.231	81.94
251.465	71.94
251.698	85.94
251.931	78.94
252.164	77.94
252.397	80.94
252.63	92.94
252.863	80.94
253.096	81.94
253.329	74.94
253.562	86.94
253.795	90.94
254.028	82.94
254.261	85.94
254.494	75.94
254.727	81.94
254.96	74.94
255.193	80.94
255.426	74.94
255.659	78.94
255.892	86.94
256.124	93.94
256.357	93.94
256.59	54.94
256.823	88.94
257.056	82.94
257.289	91.94
257.521	92.94
257.754	90.94
257.987	84.94
258.22	76.94
258.452	93.94
258.685	83.94
258.918	69.94
259.151	82.94
259.383	83.94
259.616	80.94
259.849	81.94
260.081	86.94
260.314	86.94
260.547	95.94
260.779	73.94
261.012	83.94
261.244	83.94
261.477	73.94
261.71	87.94
261.942	103.94
262.175	100.94
262.407	77.94
262.64	93.94
262.872	84.94
263.105	77.94
263.337	94.94
263.57	85.94
263.802	82.94
264.035	91.94
264.267	78.94
264.499	90.94
264.732	94.94
264.964	82.94
265.197	79.94
265.429	91.94
265.661	81.94
265.894	91.94
266.126	67.94
266.358	76.94
266.591	74.94
266.823	85.94
267.055	81.94
267.287	86.94
267.52	90.94
267.752	74.94
267.984	93.94
268.216	92.94
268.448	89.94
268.681	87.94
268.913	87.94
269.145	81.94
269.377	94.94
269.609	85.94
269.841	78.94
270.073	83.94
270.306	83.94
270.538	92.94
270.77	74.94
271.002	87.94
271.234	83.94
271.466	84.94
271.698	83.94
271.93	77.94
272.162	95.94
272.394	74.94
272.626	79.94
272.858	79.94
273.09	86.94
273.322	92.94
273.553	96.94
273.785	81.94
274.017	90.94
274.249	87.94
274.481	88.94
274.713	76.94
274.945	78.94
275.176	98.94
275.408	89.94
275.64	99.94
275.872	97.94
276.104	102.94
276.335	105.94
276.567	89.94
276.799	100.94
277.031	101.94
277.262	103.94
277.494	101.94
277.726	89.94
277.957	85.94
278.189	97.94
278.421	90.94
278.652	94.94
278.884	94.94
279.115	86.94
279.347	99.94
279.579	104.94
279.81	90.94
280.042	109.94
280.273	93.94
280.505	92.94
280.736	101.94
280.968	94.94
281.199	85.94
281.431	82.94
281.662	91.94
281.894	99.94
282.125	95.94
282.356	122.94
282.588	139.94
282.819	122.94
283.051	84.94
283.282	65.94
283.513	102.94
283.745	85.94
283.976	98.94
284.207	92.94
284.439	91.94
284.67	95.94
284.901	69.94
285.132	101.94
285.364	102.94
285.595	103.94
285.826	101.94
286.057	91.94
286.288	86.94
286.52	89.94
286.751	89.94
286.982	89.94
287.213	88.94
287.444	101.94
287.675	80.94
287.906	75.94
288.138	80.94
288.369	103.94
288.6	108.94
288.831	87.94
289.062	98.94
289.293	91.94
289.524	76.94
289.755	85.94
289.986	93.94
290.217	92.94
290.448	80.94
290.679	87.94
290.91	87.94
291.141	86.94
291.371	91.94
291.602	93.94
291.833	89.94
292.064	89.94
292.295	80.94
292.526	90.94
292.757	79.94
292.987	82.94
293.218	84.94
293.449	96.94
293.68	89.94
293.91	97.94
294.141	100.94
294.372	76.94
294.603	87.94
294.833	82.94
295.064	84.94
295.295	95.94
295.525	98.94
295.756	102.94
295.987	126.94
296.217	133.94
296.448	128.94
296.679	80.94
296.909	91.94
297.14	83.94
297.37	79.94
297.601	97.94
297.831	106.94
298.062	90.94
298.292	84.94
298.523	94.94
298.753	86.94
298.984	101.94
299.214	81.94
299.445	92.94
299.675	93.94
299.905	95.94
300.136	95.94
300.366	96.94
300.597	90.94
300.827	100.94
301.057	94.94
301.288	105.94
301.518	94.94
301.748	101.94
301.979	90.94
302.209	94.94
302.439	90.94
302.669	87.94
302.9	91.94
303.13	95.94
303.36	96.94
303.59	85.94
303.82	101.94
304.051	94.94
304.281	100.94
304.511	97.94
304.741	96.94
304.971	87.94
305.201	94.94
305.431	88.94
305.661	102.94
305.891	85.94
306.121	92.94
306.352	110.94
306.582	91.94
306.812	92.94
307.042	103.94
307.272	88.94
307.502	93.94
307.731	111.94
307.961	99.94
308.191	95.94
308.421	99.94
308.651	91.94
308.881	81.94
309.111	81.94
309.341	75.94
309.571	102.94
309.8	107.94
310.03	92.94
310.26	102.94
310.49	99.94
310.72	103.94
310.949	118.94
311.179	101.94
311.409	97.94
311.639	97.94
311.868	87.94
312.098	97.94
312.328	94.94
312.557	99.94
312.787	101.94
313.017	110.94
313.246	95.94
313.476	89.94
313.706	94.94
313.935	97.94
314.165	111.94
314.394	98.94
314.624	98.94
314.853	98.94
315.083	99.94
315.312	101.94
315.542	113.94
315.771	100.94
316.001	72.94
316.23	88.94
316.46	87.94
316.689	78.94
316.919	105.94
317.148	94.94
317.377	91.94
317.607	94.94
317.836	94.94
318.065	85.94
318.295	97.94
318.524	86.94
318.753	95.94
318.983	89.94
319.212	92.94
319.441	80.94
319.67	105.94
319.9	94.94
320.129	85.94
320.358	93.94
320.587	101.94
320.816	109.94
321.046	101.94
321.275	100.94
321.504	103.94
321.733	99.94
321.962	110.94
322.191	102.94
322.42	93.94
322.649	110.94
322.878	100.94
323.108	117.94
323.337	108.94
323.566	110.94
323.795	140.94
324.024	197.94
324.253	327.94
324.482	675.94
324.71	1412.94
324.939	1837.94
325.168	679.94
325.397	222.94
325.626	131.94
325.855	140.94
326.084	123.94
326.313	120.94
326.542	144.94
326.77	204.94
326.999	394.94
327.228	802.94
327.457	1466.94
327.686	1154.94
327.914	341.94
328.143	191.94
328.372	180.94
328.6	134.94
328.829	121.94
329.058	122.94
329.287	109.94
329.515	127.94
329.744	117.94
329.972	128.94
330.201	192.94
330.43	251.94
330.658	163.94
330.887	135.94
331.115	107.94
331.344	91.94
331.572	103.94
331.801	106.94
332.03	98.94
332.258	94.94
332.486	101.94
332.715	84.94
332.943	94.94
333.172	89.94
333.4	85.94
333.629	119.94
333.857	121.94
334.085	139.94
334.314	202.94
334.542	306.94
334.771	305.94
334.999	144.94
335.227	103.94
335.455	83.94
335.684	93.94
335.912	97.94
336.14	84.94
336.369	93.94
336.597	107.94
336.825	91.94
337.053	86.94
337.281	104.94
337.51	84.94
337.738	104.94
337.966	96.94
338.194	99.94
338.422	97.94
338.65	106.94
338.878	82.94
339.106	94.94
339.334	106.94
339.562	98.94
339.79	84.94
340.018	89.94
340.246	102.94
340.474	95.94
340.702	102.94
340.93	95.94
341.158	89.94
341.386	105.94
341.614	105.94
341.842	97.94
342.07	93.94
342.298	100.94
342.526	89.94
342.754	97.94
342.981	94.94
343.209	92.94
343.437	92.94
343.665	91.94
343.893	97.94
344.12	92.94
344.348	87.94
344.576	94.94
344.804	94.94
345.031	101.94
345.259	108.94
345.487	90.94
345.714	103.94
345.942	93.94
346.17	92.94
346.397	81.94
346.625	88.94
346.853	90.94
347.08	87.94
347.308	91.94
347.535	101.94
347.763	103.94
347.99	100.94
348.218	111.94
348.445	125.94
348.673	85.94
348.9	102.94
349.128	98.94
349.355	93.94
349.583	95.94
349.81	95.94
350.037	85.94
350.265	99.94
350.492	99.94
350.72	81.94
350.947	116.94
351.174	92.94
351.402	95.94
351.629	101.94
351.856	104.94
352.083	81.94
352.311	104.94
352.538	99.94
352.765	98.94
352.992	110.94
353.22	116.94
353.447	101.94
353.674	95.94
353.901	90.94
354.128	92.94
354.355	96.94
354.583	105.94
354.81	103.94
355.037	88.94
355.264	88.94
355.491	89.94
355.718	100.94
355.945	106.94
356.172	100.94
356.399	94.94
356.626	95.94
356.853	97.94
357.08	96.94
357.307	85.94
357.534	94.94
357.761	85.94
357.988	95.94
358.215	107.94
358.441	107.94
358.668	102.94
358.895	94.94
359.122	97.94
359.349	94.94
359.576	103.94
359.802	109.94
360.029	116.94
360.256	99.94
360.483	107.94
360.709	85.94
360.936	94.94
361.163	83.94
361.39	94.94
361.616	89.94
361.843	86.94
362.07	85.94
362.296	78.94
362.523	95.94
362.749	99.94
362.976	92.94
363.203	103.94
363.429	85.94
363.656	92.94
363.882	85.94
364.109	80.94
364.335	90.94
364.562	88.94
364.788	88.94
365.015	94.94
365.241	99.94
365.468	97.94
365.694	90.94
365.92	103.94
366.147	98.94
366.373	74.94
366.599	95.94
366.826	98.94
367.052	89.94
367.278	81.94
367.505	70.94
367.731	99.94
367.957	104.94
368.184	97.94
368.41	91.94
368.636	107.94
368.862	109.94
369.089	102.94
369.315	86.94
369.541	90.94
369.767	75.94
369.993	97.94
370.219	88.94
370.445	94.94
370.672	95.94
370.898	91.94
371.124	99.94
371.35	86.94
371.576	83.94
371.802	101.94
372.028	99.94
372.254	84.94
372.48	86.94
372.706	102.94
372.932	89.94
373.158	86.94
373.384	88.94
373.61	92.94
373.835	100.94
374.061	84.94
374.287	84.94
374.513	98.94
374.739	82.94
374.965	93.94
375.191	87.94
375.416	90.94
375.642	93.94
375.868	89.94
376.094	95.94
376.319	82.94
376.545	97.94
376.771	86.94
376.997	91.94
377.222	103.94
377.448	122.94
377.674	93.94
377.899	103.94
378.125	95.94
378.35	100.94
378.576	80.94
378.802	102.94
379.027	103.94
379.253	109.94
379.478	108.94
379.704	94.94
379.929	99.94
380.155	95.94
380.38	113.94
380.606	97.94
380.831	94.94
381.057	99.94
381.282	113.94
381.507	105.94
381.733	116.94
381.958	112.94
382.184	125.94
382.409	119.94
382.634	113.94
382.86	123.94
383.085	118.94
383.31	120.94
383.535	123.94
383.761	121.94
383.986	119.94
384.211	114.94
384.436	114.94
384.662	110.94
384.887	130.94
385.112	125.94
385.337	129.94
385.562	128.94
385.787	126.94
386.013	131.94
386.238	126.94
386.463	119.94
386.688	142.94
386.913	137.94
387.138	141.94
387.363	121.94
387.588	106.94
387.813	116.94
388.038	126.94
388.263	135.94
388.488	152.94
388.713	110.94
388.938	80.94
389.163	95.94
389.387	103.94
389.612	86.94
389.837	92.94
390.062	79.94
390.287	95.94
390.512	85.94
390.736	92.94
390.961	86.94
391.186	101.94
391.411	94.94
391.636	85.94
391.86	85.94
392.085	82.94
392.31	81.94
392.534	80.94
392.759	87.94
392.984	81.94
393.208	107.94
393.433	107.94
393.658	113.94
393.882	78.94
394.107	90.94
394.331	78.94
394.556	99.94
394.78	93.94
395.005	96.94
395.229	93.94
395.454	79.94
395.678	78.94
395.903	100.94
396.127	93.94
396.352	82.94
396.576	82.94
396.801	81.94
397.025	92.94
397.249	82.94
397.474	93.94
397.698	90.94
397.922	75.94
398.147	90.94
398.371	82.94
398.595	93.94
398.82	84.94
399.044	84.94
399.268	85.94
399.492	77.94
399.717	96.94
399.941	96.94
400.165	92.94
400.389	79.94
400.613	81.94
400.837	83.94
401.062	86.94
401.286	102.94
401.51	95.94
401.734	84.94
401.958	98.94
402.182	105.94
402.406	133.94
402.63	109.94
402.854	84.94
403.078	76.94
403.302	87.94
403.526	110.94
403.75	99.94
403.974	87.94
404.198	81.94
404.422	94.94
404.645	92.94
404.869	104.94
405.093	93.94
405.317	105.94
405.541	97.94
405.765	99.94
405.988	116.94
406.212	148.94
406.436	210.94
406.66	146.94
406.883	86.94
407.107	93.94
407.331	84.94
407.555	101.94
407.778	98.94
408.002	103.94
408.226	102.94
408.449	98.94
408.673	108.94
408.896	98.94
409.12	100.94
409.344	101.94
409.567	106.94
409.791	80.94
410.014	90.94
410.238	94.94
410.461	84.94
410.685	94.94
410.908	101.94
411.132	103.94
411.355	102.94
411.578	93.94
411.802	86.94
412.025	98.94
412.249	109.94
412.472	100.94
412.695	94.94
412.919	110.94
413.142	86.94
413.365	92.94
413.589	90.94
413.812	78.94
414.035	73.94
414.258	92.94
414.482	97.94
414.705	94.94
414.928	93.94
415.151	98.94
415.374	90.94
415.597	97.94
415.821	94.94
416.044	101.94
416.267	92.94
416.49	80.94
416.713	90.94
416.936	87.94
417.159	107.94
417.382	99.94
417.605	91.94
417.828	92.94
418.051	91.94
418.274	81.94
418.497	97.94
418.72	92.94
418.943	70.94
419.166	81.94
419.389	87.94
419.611	90.94
419.834	94.94
420.057	87.94
420.28	98.94
420.503	95.94
420.726	89.94
420.948	81.94
421.171	89.94
421.394	92.94
421.617	85.94
421.839	98.94
422.062	102.94
422.285	76.94
422.507	93.94
422.73	107.94
422.953	102.94
423.175	86.94
423.398	88.94
423.621	68.94
423.843	97.94
424.066	108.94
424.288	84.94
424.511	89.94
424.733	95.94
424.956	85.94
425.178	99.94
425.401	93.94
425.623	97.94
425.846	93.94
426.068	90.94
426.291	90.94
426.513	89.94
426.735	74.94
426.958	106.94
427.18	112.94
427.402	127.94
427.625	151.94
427.847	143.94
428.069	126.94
428.292	98.94
428.514	83.94
428.736	86.94
428.958	87.94
429.181	95.94
429.403	86.94
429.625	93.94
429.847	89.94
430.069	92.94
430.292	95.94
430.514	95.94
430.736	82.94
430.958	89.94
431.18	86.94
431.402	82.94
431.624	85.94
431.846	82.94
432.068	85.94
432.29	84.94
432.512	82.94
432.734	92.94
432.956	90.94
433.178	102.94
433.4	89.94
433.622	92.94
433.844	78.94
434.066	102.94
434.287	106.94
434.509	87.94
434.731	85.94
434.953	87.94
435.175	94.94
435.397	90.94
435.618	98.94
435.84	91.94
436.062	126.94
436.284	108.94
436.505	116.94
436.727	108.94
436.949	76.94
437.17	88.94
437.392	108.94
437.614	107.94
437.835	110.94
438.057	116.94
438.278	103.94
438.5	117.94
438.721	116.94
438.943	103.94
439.165	100.94
439.386	85.94
439.608	101.94
439.829	97.94
440.05	119.94
440.272	132.94
440.493	99.94
440.715	99.94
440.936	102.94
441.158	77.94
441.379	91.94
441.6	101.94
441.822	95.94
442.043	102.94
442.264	104.94
442.486	97.94
442.707	86.94
442.928	95.94
443.149	115.94
443.371	115.94
443.592	100.94
443.813	109.94
444.034	106.94
444.255	88.94
444.476	88.94
444.698	96.94
444.919	99.94
445.14	120.94
445.361	109.94
445.582	103.94
445.803	117.94
446.024	124.94
446.245	146.94
446.466	94.94
446.687	82.94
446.908	92.94
447.129	97.94
447.35	92.94
447.571	79.94
447.792	81.94
448.013	91.94
448.234	105.94
448.455	110.94
448.675	111.94
448.896	107.94
449.117	101.94
449.338	109.94
449.559	137.94
449.779	126.94
450	98.94
450.221	87.94
450.442	100.94
450.662	96.94
450.883	101.94
451.104	125.94
451.324	98.94
451.545	97.94
451.766	77.94
451.986	71.94
452.207	89.94
452.428	88.94
452.648	101.94
452.869	105.94
453.089	102.94
453.31	113.94
453.53	101.94
453.751	90.94
453.971	93.94
454.192	98.94
454.412	90.94
454.633	87.94
454.853	81.94
455.073	89.94
455.294	87.94
455.514	97.94
455.734	82.94
455.955	89.94
456.175	83.94
456.395	73.94
456.616	82.94
456.836	75.94
457.056	85.94
457.276	83.94
457.497	97.94
457.717	102.94
457.937	83.94
458.157	94.94
458.377	87.94
458.598	98.94
458.818	128.94
459.038	151.94
459.258	114.94
459.478	86.94
459.698	86.94
459.918	95.94
460.138	93.94
460.358	85.94
460.578	73.94
460.798	62.94
461.018	82.94
461.238	94.94
461.458	77.94
461.678	78.94
461.898	87.94
462.118	92.94
462.338	78.94
462.558	97.94
462.777	84.94
462.997	99.94
463.217	84.94
463.437	90.94
463.657	84.94
463.876	81.94
464.096	79.94
464.316	101.94
464.536	82.94
464.755	99.94
464.975	119.94
465.195	159.94
465.414	130.94
465.634	93.94
465.854	92.94
466.073	88.94
466.293	88.94
466.512	84.94
466.732	75.94
466.951	91.94
467.171	90.94
467.391	105.94
467.61	88.94
467.829	104.94
468.049	150.94
468.268	184.94
468.488	101.94
468.707	107.94
468.927	86.94
469.146	93.94
469.365	81.94
469.585	86.94
469.804	83.94
470.023	93.94
470.243	83.94
470.462	93.94
470.681	95.94
470.901	103.94
471.12	84.94
471.339	88.94
471.558	93.94
471.777	111.94
471.997	102.94
472.216	213.94
472.435	407.94
472.654	145.94
472.873	92.94
473.092	88.94
473.311	98.94
473.53	81.94
473.749	76.94
473.968	104.94
474.187	89.94
474.406	95.94
474.625	90.94
474.844	83.94
475.063	86.94
475.282	87.94
475.501	100.94
475.72	95.94
475.939	70.94
476.158	93.94
476.377	82.94
476.596	91.94
476.814	105.94
477.033	101.94
477.252	101.94
477.471	93.94
477.69	99.94
477.908	95.94
478.127	92.94
478.346	88.94
478.564	97.94
478.783	83.94
479.002	89.94
479.22	87.94
479.439	106.94
479.658	106.94
479.876	103.94
480.095	95.94
480.313	85.94
480.532	91.94
480.751	108.94
480.969	205.94
481.188	603.94
481.406	405.94
481.624	109.94
481.843	108.94
482.061	93.94
482.28	94.94
482.498	89.94
482.717	79.94
482.935	93.94
483.153	86.94
483.372	88.94
483.59	91.94
483.808	91.94
484.027	91.94
484.245	90.94
484.463	82.94
484.681	96.94
484.9	101.94
485.118	99.94
485.336	104.94
485.554	111.94
485.772	105.94
485.99	85.94
486.209	108.94
486.427	117.94
486.645	120.94
486.863	112.94
487.081	122.94
487.299	107.94
487.517	102.94
487.735	94.94
487.953	105.94
488.171	83.94
488.389	96.94
488.607	90.94
488.825	89.94
489.043	93.94
489.261	93.94
489.479	92.94
489.696	97.94
489.914	91.94
490.132	68.94
490.35	85.94
490.568	82.94
490.786	91.94
491.003	89.94
491.221	90.94
491.439	90.94
491.657	93.94
491.874	97.94
492.092	77.94
492.31	89.94
492.527	95.94
492.745	85.94
492.963	84.94
493.18	105.94
493.398	97.94
493.615	99.94
493.833	108.94
494.05	88.94
494.268	94.94
494.485	77.94
494.703	86.94
494.92	95.94
495.138	89.94
495.355	93.94
495.573	94.94
495.79	79.94
496.008	99.94
496.225	73.94
496.442	90.94
496.66	83.94
496.877	95.94
497.094	101.94
497.312	73.94
497.529	89.94
497.746	94.94
497.963	92.94
498.181	102.94
498.398	95.94
498.615	104.94
498.832	100.94
499.049	78.94
499.267	94.94
499.484	95.94
499.701	88.94
499.918	87.94
500.135	81.94
500.352	95.94
500.569	87.94
500.786	90.94
501.003	97.94
501.22	88.94
501.437	96.94
501.654	100.94
501.871	97.94
502.088	95.94
502.305	93.94
502.522	91.94
502.739	88.94
502.956	81.94
503.172	81.94
503.389	102.94
503.606	104.94
503.823	102.94
504.04	90.94
504.256	84.94
504.473	84.94
504.69	89.94
504.907	102.94
505.123	85.94
505.34	82.94
505.557	91.94
505.773	95.94
505.99	80.94
506.207	105.94
506.423	98.94
506.64	103.94
506.856	97.94
507.073	91.94
507.289	113.94
507.506	92.94
507.722	97.94
507.939	109.94
508.155	97.94
508.372	95.94
508.588	93.94
508.805	81.94
509.021	89.94
509.238	98.94
509.454	96.94
509.67	98.94
509.887	95.94
510.103	118.94
510.319	180.94
510.536	597.94
510.752	1852.94
510.968	532.94
511.184	138.94
511.401	108.94
511.617	90.94
511.833	93.94
512.049	90.94
512.265	94.94
512.481	99.94
512.698	94.94
512.914	100.94
513.13	89.94
513.346	94.94
513.562	102.94
513.778	89.94
513.994	93.94
514.21	95.94
514.426	116.94
514.642	118.94
514.858	116.94
