Data from Circ_2000_H10_HRD10591_00018.txt Node
Date: Wed Jan 03 10:49:37 EST 2024
User: Yrep
Spectrometer: HR+D1059
Trigger mode: 1
Integration Time (sec): 1.000000E-1
Scans to average: 1
Electric dark correction enabled: true
Nonlinearity correction enabled: false
Boxcar width: 0
XAxis mode: Wavelengths
Number of Pixels in Spectrum: 2048
>>>>>Begin Spectral Data<<<<<
223.165	-4.94
223.4	-4.94
223.635	-4.94
223.869	-24.94
224.104	-33.94
224.338	-3.94
224.573	-12.94
224.808	-11.94
225.042	-4.94
225.277	-2.94
225.511	-10.94
225.746	10.06
225.98	1.06
226.215	10.06
226.449	13.06
226.683	15.06
226.918	26.06
227.152	36.06
227.387	44.06
227.621	50.06
227.856	58.06
228.09	41.06
228.324	40.06
228.559	63.06
228.793	65.06
229.027	65.06
229.262	82.06
229.496	64.06
229.73	84.06
229.964	93.06
230.199	77.06
230.433	70.06
230.667	90.06
230.901	83.06
231.136	93.06
231.37	74.06
231.604	89.06
231.838	74.06
232.072	71.06
232.306	78.06
232.541	83.06
232.775	83.06
233.009	70.06
233.243	92.06
233.477	79.06
233.711	75.06
233.945	87.06
234.179	79.06
234.413	80.06
234.647	75.06
234.881	88.06
235.115	84.06
235.349	70.06
235.583	81.06
235.817	83.06
236.051	84.06
236.285	84.06
236.519	71.06
236.753	85.06
236.987	72.06
237.221	86.06
237.455	97.06
237.689	87.06
237.922	92.06
238.156	77.06
238.39	90.06
238.624	64.06
238.858	69.06
239.091	74.06
239.325	91.06
239.559	75.06
239.793	78.06
240.027	95.06
240.26	79.06
240.494	84.06
240.728	73.06
240.961	73.06
241.195	77.06
241.429	90.06
241.662	65.06
241.896	71.06
242.13	76.06
242.363	83.06
242.597	81.06
242.83	81.06
243.064	87.06
243.298	67.06
243.531	90.06
243.765	66.06
243.998	79.06
244.232	83.06
244.465	85.06
244.699	79.06
244.932	94.06
245.166	84.06
245.399	87.06
245.633	78.06
245.866	76.06
246.099	81.06
246.333	81.06
246.566	82.06
246.8	66.06
247.033	85.06
247.266	69.06
247.5	76.06
247.733	79.06
247.966	77.06
248.2	79.06
248.433	72.06
248.666	74.06
248.899	78.06
249.133	98.06
249.366	90.06
249.599	102.06
249.832	87.06
250.066	77.06
250.299	72.06
250.532	92.06
250.765	73.06
250.998	70.06
251.231	68.06
251.465	73.06
251.698	78.06
251.931	76.06
252.164	87.06
252.397	93.06
252.63	88.06
252.863	77.06
253.096	76.06
253.329	90.06
253.562	79.06
253.795	70.06
254.028	102.06
254.261	93.06
254.494	93.06
254.727	69.06
254.96	91.06
255.193	92.06
255.426	76.06
255.659	96.06
255.892	69.06
256.124	93.06
256.357	86.06
256.59	69.06
256.823	61.06
257.056	89.06
257.289	94.06
257.521	83.06
257.754	76.06
257.987	81.06
258.22	85.06
258.452	86.06
258.685	83.06
258.918	83.06
259.151	92.06
259.383	85.06
259.616	75.06
259.849	84.06
260.081	77.06
260.314	87.06
260.547	78.06
260.779	89.06
261.012	84.06
261.244	88.06
261.477	96.06
261.71	95.06
261.942	95.06
262.175	109.06
262.407	77.06
262.64	76.06
262.872	89.06
263.105	85.06
263.337	85.06
263.57	86.06
263.802	88.06
264.035	79.06
264.267	90.06
264.499	81.06
264.732	73.06
264.964	83.06
265.197	70.06
265.429	94.06
265.661	90.06
265.894	79.06
266.126	94.06
266.358	88.06
266.591	96.06
266.823	90.06
267.055	90.06
267.287	85.06
267.52	75.06
267.752	92.06
267.984	83.06
268.216	86.06
268.448	66.06
268.681	81.06
268.913	87.06
269.145	83.06
269.377	81.06
269.609	80.06
269.841	88.06
270.073	77.06
270.306	95.06
270.538	85.06
270.77	83.06
271.002	79.06
271.234	83.06
271.466	96.06
271.698	92.06
271.93	80.06
272.162	83.06
272.394	91.06
272.626	82.06
272.858	90.06
273.09	75.06
273.322	74.06
273.553	90.06
273.785	82.06
274.017	88.06
274.249	88.06
274.481	95.06
274.713	97.06
274.945	93.06
275.176	91.06
275.408	97.06
275.64	95.06
275.872	100.06
276.104	85.06
276.335	95.06
276.567	91.06
276.799	102.06
277.031	106.06
277.262	114.06
277.494	97.06
277.726	92.06
277.957	79.06
278.189	94.06
278.421	88.06
278.652	90.06
278.884	86.06
279.115	97.06
279.347	76.06
279.579	84.06
279.81	79.06
280.042	104.06
280.273	121.06
280.505	88.06
280.736	77.06
280.968	88.06
281.199	90.06
281.431	83.06
281.662	89.06
281.894	101.06
282.125	95.06
282.356	105.06
282.588	138.06
282.819	131.06
283.051	91.06
283.282	72.06
283.513	99.06
283.745	77.06
283.976	78.06
284.207	72.06
284.439	93.06
284.67	88.06
284.901	95.06
285.132	89.06
285.364	93.06
285.595	94.06
285.826	86.06
286.057	91.06
286.288	98.06
286.52	102.06
286.751	98.06
286.982	84.06
287.213	84.06
287.444	84.06
287.675	98.06
287.906	85.06
288.138	96.06
288.369	105.06
288.6	93.06
288.831	79.06
289.062	84.06
289.293	77.06
289.524	78.06
289.755	81.06
289.986	78.06
290.217	100.06
290.448	97.06
290.679	91.06
290.91	86.06
291.141	86.06
291.371	77.06
291.602	91.06
291.833	95.06
292.064	89.06
292.295	83.06
292.526	91.06
292.757	84.06
292.987	88.06
293.218	86.06
293.449	85.06
293.68	101.06
293.91	91.06
294.141	93.06
294.372	93.06
294.603	96.06
294.833	91.06
295.064	77.06
295.295	79.06
295.525	88.06
295.756	102.06
295.987	115.06
296.217	145.06
296.448	123.06
296.679	91.06
296.909	91.06
297.14	94.06
297.37	93.06
297.601	94.06
297.831	94.06
298.062	81.06
298.292	91.06
298.523	107.06
298.753	101.06
298.984	67.06
299.214	71.06
299.445	101.06
299.675	88.06
299.905	100.06
300.136	91.06
300.366	93.06
300.597	87.06
300.827	107.06
301.057	109.06
301.288	103.06
301.518	94.06
301.748	88.06
301.979	113.06
302.209	93.06
302.439	82.06
302.669	101.06
302.9	78.06
303.13	104.06
303.36	117.06
303.59	113.06
303.82	99.06
304.051	90.06
304.281	101.06
304.511	75.06
304.741	80.06
304.971	101.06
305.201	85.06
305.431	92.06
305.661	95.06
305.891	93.06
306.121	110.06
306.352	112.06
306.582	113.06
306.812	81.06
307.042	100.06
307.272	112.06
307.502	108.06
307.731	114.06
307.961	98.06
308.191	106.06
308.421	115.06
308.651	104.06
308.881	92.06
309.111	103.06
309.341	103.06
309.571	100.06
309.8	91.06
310.03	99.06
310.26	97.06
310.49	90.06
310.72	110.06
310.949	95.06
311.179	95.06
311.409	113.06
311.639	97.06
311.868	102.06
312.098	103.06
312.328	90.06
312.557	85.06
312.787	116.06
313.017	99.06
313.246	90.06
313.476	91.06
313.706	100.06
313.935	103.06
314.165	100.06
314.394	89.06
314.624	105.06
314.853	95.06
315.083	88.06
315.312	90.06
315.542	86.06
315.771	85.06
316.001	84.06
316.23	89.06
316.46	97.06
316.689	102.06
316.919	98.06
317.148	106.06
317.377	101.06
317.607	78.06
317.836	84.06
318.065	75.06
318.295	90.06
318.524	99.06
318.753	99.06
318.983	104.06
319.212	100.06
319.441	110.06
319.67	98.06
319.9	93.06
320.129	96.06
320.358	95.06
320.587	96.06
320.816	103.06
321.046	94.06
321.275	100.06
321.504	83.06
321.733	104.06
321.962	99.06
322.191	95.06
322.42	106.06
322.649	116.06
322.878	111.06
323.108	114.06
323.337	125.06
323.566	136.06
323.795	155.06
324.024	209.06
324.253	428.06
324.482	891.06
324.71	1857.06
324.939	2418.06
325.168	893.06
325.397	262.06
325.626	143.06
325.855	129.06
326.084	114.06
326.313	122.06
326.542	158.06
326.77	261.06
326.999	498.06
327.228	998.06
327.457	1887.06
327.686	1480.06
327.914	429.06
328.143	283.06
328.372	271.06
328.6	172.06
328.829	159.06
329.058	153.06
329.287	153.06
329.515	126.06
329.744	151.06
329.972	197.06
330.201	348.06
330.43	449.06
330.658	267.06
330.887	190.06
331.115	149.06
331.344	105.06
331.572	107.06
331.801	91.06
332.03	113.06
332.258	105.06
332.486	104.06
332.715	102.06
332.943	100.06
333.172	88.06
333.4	104.06
333.629	117.06
333.857	125.06
334.085	203.06
334.314	333.06
334.542	553.06
334.771	515.06
334.999	193.06
335.227	113.06
335.455	101.06
335.684	107.06
335.912	106.06
336.14	111.06
336.369	107.06
336.597	100.06
336.825	103.06
337.053	97.06
337.281	107.06
337.51	107.06
337.738	94.06
337.966	92.06
338.194	121.06
338.422	113.06
338.65	99.06
338.878	108.06
339.106	84.06
339.334	98.06
339.562	92.06
339.79	85.06
340.018	92.06
340.246	89.06
340.474	94.06
340.702	104.06
340.93	89.06
341.158	101.06
341.386	92.06
341.614	104.06
341.842	87.06
342.07	94.06
342.298	93.06
342.526	93.06
342.754	72.06
342.981	100.06
343.209	81.06
343.437	87.06
343.665	93.06
343.893	99.06
344.12	84.06
344.348	108.06
344.576	83.06
344.804	78.06
345.031	97.06
345.259	102.06
345.487	108.06
345.714	94.06
345.942	91.06
346.17	84.06
346.397	92.06
346.625	88.06
346.853	89.06
347.08	94.06
347.308	86.06
347.535	98.06
347.763	107.06
347.99	103.06
348.218	92.06
348.445	109.06
348.673	94.06
348.9	94.06
349.128	95.06
349.355	95.06
349.583	98.06
349.81	101.06
350.037	94.06
350.265	105.06
350.492	107.06
350.72	111.06
350.947	100.06
351.174	100.06
351.402	111.06
351.629	98.06
351.856	94.06
352.083	94.06
352.311	112.06
352.538	120.06
352.765	113.06
352.992	118.06
353.22	126.06
353.447	110.06
353.674	89.06
353.901	103.06
354.128	94.06
354.355	90.06
354.583	102.06
354.81	92.06
355.037	95.06
355.264	93.06
355.491	95.06
355.718	102.06
355.945	99.06
356.172	83.06
356.399	93.06
356.626	101.06
356.853	85.06
357.08	84.06
357.307	92.06
357.534	91.06
357.761	94.06
357.988	94.06
358.215	90.06
358.441	99.06
358.668	101.06
358.895	99.06
359.122	79.06
359.349	88.06
359.576	97.06
359.802	99.06
360.029	130.06
360.256	106.06
360.483	92.06
360.709	101.06
360.936	94.06
361.163	99.06
361.39	110.06
361.616	93.06
361.843	90.06
362.07	97.06
362.296	108.06
362.523	91.06
362.749	101.06
362.976	93.06
363.203	95.06
363.429	100.06
363.656	100.06
363.882	96.06
364.109	88.06
364.335	110.06
364.562	91.06
364.788	85.06
365.015	84.06
365.241	98.06
365.468	95.06
365.694	124.06
365.92	104.06
366.147	104.06
366.373	115.06
366.599	92.06
366.826	85.06
367.052	85.06
367.278	95.06
367.505	83.06
367.731	94.06
367.957	100.06
368.184	95.06
368.41	105.06
368.636	106.06
368.862	130.06
369.089	108.06
369.315	84.06
369.541	95.06
369.767	91.06
369.993	93.06
370.219	109.06
370.445	78.06
370.672	86.06
370.898	106.06
371.124	85.06
371.35	92.06
371.576	82.06
371.802	100.06
372.028	88.06
372.254	81.06
372.48	100.06
372.706	79.06
372.932	71.06
373.158	88.06
373.384	99.06
373.61	86.06
373.835	90.06
374.061	98.06
374.287	91.06
374.513	90.06
374.739	97.06
374.965	114.06
375.191	89.06
375.416	89.06
375.642	84.06
375.868	95.06
376.094	102.06
376.319	96.06
376.545	92.06
376.771	90.06
376.997	92.06
377.222	100.06
377.448	91.06
377.674	85.06
377.899	91.06
378.125	100.06
378.35	91.06
378.576	92.06
378.802	96.06
379.027	101.06
379.253	105.06
379.478	102.06
379.704	82.06
379.929	79.06
380.155	92.06
380.38	102.06
380.606	101.06
380.831	96.06
381.057	105.06
381.282	100.06
381.507	116.06
381.733	108.06
381.958	92.06
382.184	97.06
382.409	101.06
382.634	119.06
382.86	103.06
383.085	106.06
383.31	106.06
383.535	101.06
383.761	99.06
383.986	106.06
384.211	97.06
384.436	114.06
384.662	105.06
384.887	115.06
385.112	124.06
385.337	107.06
385.562	115.06
385.787	131.06
386.013	119.06
386.238	129.06
386.463	101.06
386.688	102.06
386.913	123.06
387.138	129.06
387.363	119.06
387.588	111.06
387.813	118.06
388.038	129.06
388.263	141.06
388.488	128.06
388.713	94.06
388.938	103.06
389.163	102.06
389.387	86.06
389.612	80.06
389.837	83.06
390.062	91.06
390.287	93.06
390.512	81.06
390.736	90.06
390.961	77.06
391.186	86.06
391.411	85.06
391.636	99.06
391.86	92.06
392.085	81.06
392.31	96.06
392.534	91.06
392.759	87.06
392.984	93.06
393.208	87.06
393.433	108.06
393.658	89.06
393.882	93.06
394.107	93.06
394.331	91.06
394.556	93.06
394.78	82.06
395.005	74.06
395.229	74.06
395.454	76.06
395.678	75.06
395.903	79.06
396.127	93.06
396.352	82.06
396.576	94.06
396.801	92.06
397.025	80.06
397.249	95.06
397.474	104.06
397.698	84.06
397.922	92.06
398.147	87.06
398.371	85.06
398.595	89.06
398.82	93.06
399.044	75.06
399.268	90.06
399.492	84.06
399.717	82.06
399.941	91.06
400.165	92.06
400.389	87.06
400.613	77.06
400.837	94.06
401.062	91.06
401.286	97.06
401.51	97.06
401.734	104.06
401.958	107.06
402.182	127.06
402.406	156.06
402.63	130.06
402.854	109.06
403.078	93.06
403.302	92.06
403.526	88.06
403.75	86.06
403.974	76.06
404.198	104.06
404.422	102.06
404.645	77.06
404.869	103.06
405.093	105.06
405.317	124.06
405.541	138.06
405.765	106.06
405.988	109.06
406.212	177.06
406.436	230.06
406.66	151.06
406.883	108.06
407.107	93.06
407.331	93.06
407.555	100.06
407.778	95.06
408.002	96.06
408.226	87.06
408.449	94.06
408.673	94.06
408.896	79.06
409.12	110.06
409.344	86.06
409.567	87.06
409.791	105.06
410.014	85.06
410.238	93.06
410.461	95.06
410.685	106.06
410.908	97.06
411.132	102.06
411.355	105.06
411.578	92.06
411.802	87.06
412.025	91.06
412.249	103.06
412.472	113.06
412.695	114.06
412.919	108.06
413.142	93.06
413.365	100.06
413.589	86.06
413.812	92.06
414.035	86.06
414.258	85.06
414.482	85.06
414.705	74.06
414.928	95.06
415.151	91.06
415.374	91.06
415.597	95.06
415.821	92.06
416.044	83.06
416.267	95.06
416.49	111.06
416.713	92.06
416.936	85.06
417.159	85.06
417.382	96.06
417.605	92.06
417.828	105.06
418.051	93.06
418.274	73.06
418.497	104.06
418.72	97.06
418.943	92.06
419.166	94.06
419.389	101.06
419.611	84.06
419.834	78.06
420.057	99.06
420.28	92.06
420.503	82.06
420.726	93.06
420.948	95.06
421.171	108.06
421.394	105.06
421.617	98.06
421.839	97.06
422.062	81.06
422.285	91.06
422.507	95.06
422.73	115.06
422.953	107.06
423.175	81.06
423.398	88.06
423.621	77.06
423.843	88.06
424.066	89.06
424.288	93.06
424.511	82.06
424.733	104.06
424.956	114.06
425.178	100.06
425.401	97.06
425.623	105.06
425.846	90.06
426.068	100.06
426.291	87.06
426.513	77.06
426.735	96.06
426.958	92.06
427.18	115.06
427.402	152.06
427.625	202.06
427.847	177.06
428.069	158.06
428.292	107.06
428.514	85.06
428.736	109.06
428.958	95.06
429.181	86.06
429.403	95.06
429.625	85.06
429.847	106.06
430.069	113.06
430.292	87.06
430.514	89.06
430.736	93.06
430.958	78.06
431.18	88.06
431.402	105.06
431.624	104.06
431.846	82.06
432.068	90.06
432.29	108.06
432.512	101.06
432.734	94.06
432.956	107.06
433.178	99.06
433.4	97.06
433.622	99.06
433.844	90.06
434.066	86.06
434.287	85.06
434.509	85.06
434.731	95.06
434.953	93.06
435.175	92.06
435.397	80.06
435.618	106.06
435.84	113.06
436.062	131.06
436.284	118.06
436.505	102.06
436.727	99.06
436.949	94.06
437.17	85.06
437.392	77.06
437.614	100.06
437.835	101.06
438.057	120.06
438.278	126.06
438.5	109.06
438.721	121.06
438.943	110.06
439.165	94.06
439.386	103.06
439.608	93.06
439.829	113.06
440.05	126.06
440.272	163.06
440.493	103.06
440.715	84.06
440.936	102.06
441.158	84.06
441.379	80.06
441.6	105.06
441.822	105.06
442.043	105.06
442.264	116.06
442.486	98.06
442.707	78.06
442.928	111.06
443.149	139.06
443.371	159.06
443.592	138.06
443.813	126.06
444.034	119.06
444.255	107.06
444.476	100.06
444.698	85.06
444.919	93.06
445.14	144.06
445.361	130.06
445.582	114.06
445.803	157.06
446.024	148.06
446.245	152.06
446.466	112.06
446.687	90.06
446.908	94.06
447.129	72.06
447.35	88.06
447.571	97.06
447.792	90.06
448.013	86.06
448.234	101.06
448.455	89.06
448.675	132.06
448.896	126.06
449.117	113.06
449.338	123.06
449.559	133.06
449.779	151.06
450	103.06
450.221	89.06
450.442	97.06
450.662	94.06
450.883	112.06
451.104	128.06
451.324	95.06
451.545	83.06
451.766	106.06
451.986	100.06
452.207	109.06
452.428	84.06
452.648	101.06
452.869	105.06
453.089	128.06
453.31	119.06
453.53	102.06
453.751	106.06
453.971	95.06
454.192	110.06
454.412	87.06
454.633	104.06
454.853	82.06
455.073	82.06
455.294	94.06
455.514	93.06
455.734	85.06
455.955	89.06
456.175	75.06
456.395	84.06
456.616	86.06
456.836	83.06
457.056	98.06
457.276	76.06
457.497	86.06
457.717	90.06
457.937	86.06
458.157	89.06
458.377	99.06
458.598	109.06
458.818	160.06
459.038	174.06
459.258	139.06
459.478	103.06
459.698	94.06
459.918	89.06
460.138	76.06
460.358	88.06
460.578	93.06
460.798	94.06
461.018	95.06
461.238	86.06
461.458	96.06
461.678	84.06
461.898	83.06
462.118	89.06
462.338	87.06
462.558	77.06
462.777	101.06
462.997	88.06
463.217	101.06
463.437	86.06
463.657	93.06
463.876	87.06
464.096	98.06
464.316	108.06
464.536	101.06
464.755	109.06
464.975	115.06
465.195	183.06
465.414	157.06
465.634	102.06
465.854	95.06
466.073	79.06
466.293	92.06
466.512	92.06
466.732	67.06
466.951	79.06
467.171	78.06
467.391	96.06
467.61	107.06
467.829	133.06
468.049	212.06
468.268	264.06
468.488	124.06
468.707	101.06
468.927	88.06
469.146	77.06
469.365	90.06
469.585	90.06
469.804	98.06
470.023	116.06
470.243	108.06
470.462	105.06
470.681	124.06
470.901	92.06
471.12	101.06
471.339	95.06
471.558	104.06
471.777	102.06
471.997	148.06
472.216	333.06
472.435	675.06
472.654	219.06
472.873	104.06
473.092	101.06
473.311	88.06
473.53	90.06
473.749	102.06
473.968	88.06
474.187	121.06
474.406	106.06
474.625	83.06
474.844	99.06
475.063	81.06
475.282	86.06
475.501	84.06
475.72	83.06
475.939	86.06
476.158	75.06
476.377	78.06
476.596	89.06
476.814	94.06
477.033	87.06
477.252	91.06
477.471	78.06
477.69	90.06
477.908	101.06
478.127	86.06
478.346	88.06
478.564	91.06
478.783	94.06
479.002	87.06
479.22	110.06
479.439	113.06
479.658	98.06
479.876	107.06
480.095	106.06
480.313	94.06
480.532	118.06
480.751	135.06
480.969	334.06
481.188	1159.06
481.406	727.06
481.624	159.06
481.843	108.06
482.061	79.06
482.28	107.06
482.498	83.06
482.717	96.06
482.935	95.06
483.153	99.06
483.372	90.06
483.59	97.06
483.808	110.06
484.027	93.06
484.245	99.06
484.463	101.06
484.681	102.06
484.9	83.06
485.118	98.06
485.336	107.06
485.554	109.06
485.772	107.06
485.99	107.06
486.209	105.06
486.427	114.06
486.645	121.06
486.863	103.06
487.081	109.06
487.299	90.06
487.517	94.06
487.735	86.06
487.953	121.06
488.171	88.06
488.389	84.06
488.607	113.06
488.825	87.06
489.043	110.06
489.261	95.06
489.479	94.06
489.696	82.06
489.914	91.06
490.132	98.06
490.35	83.06
490.568	87.06
490.786	84.06
491.003	87.06
491.221	110.06
491.439	103.06
491.657	114.06
491.874	103.06
492.092	105.06
492.31	80.06
492.527	88.06
492.745	91.06
492.963	88.06
493.18	98.06
493.398	91.06
493.615	93.06
493.833	100.06
494.05	105.06
494.268	89.06
494.485	89.06
494.703	75.06
494.92	89.06
495.138	99.06
495.355	91.06
495.573	84.06
495.79	85.06
496.008	100.06
496.225	84.06
496.442	99.06
496.66	91.06
496.877	95.06
497.094	96.06
497.312	91.06
497.529	98.06
497.746	108.06
497.963	81.06
498.181	95.06
498.398	108.06
498.615	116.06
498.832	106.06
499.049	109.06
499.267	76.06
499.484	95.06
499.701	85.06
499.918	89.06
500.135	95.06
500.352	83.06
500.569	84.06
500.786	106.06
501.003	101.06
501.22	101.06
501.437	100.06
501.654	103.06
501.871	103.06
502.088	91.06
502.305	90.06
502.522	100.06
502.739	100.06
502.956	83.06
503.172	100.06
503.389	88.06
503.606	103.06
503.823	96.06
504.04	102.06
504.256	84.06
504.473	94.06
504.69	98.06
504.907	89.06
505.123	94.06
505.34	92.06
505.557	99.06
505.773	99.06
505.99	87.06
506.207	111.06
506.423	99.06
506.64	98.06
506.856	94.06
507.073	72.06
507.289	105.06
507.506	101.06
507.722	118.06
507.939	127.06
508.155	102.06
508.372	106.06
508.588	104.06
508.805	98.06
509.021	94.06
509.238	84.06
509.454	89.06
509.67	110.06
509.887	99.06
510.103	130.06
510.319	205.06
510.536	729.06
510.752	2325.06
510.968	646.06
511.184	149.06
511.401	123.06
511.617	112.06
511.833	103.06
512.049	83.06
512.265	101.06
512.481	101.06
512.698	96.06
512.914	97.06
513.13	101.06
513.346	82.06
513.562	87.06
