Data from Circ_2000_H10_HRD10591_00042.txt Node
Date: Wed Jan 03 10:49:42 EST 2024
User: Yrep
Spectrometer: HR+D1059
Trigger mode: 1
Integration Time (sec): 1.000000E-1
Scans to average: 1
Electric dark correction enabled: true
Nonlinearity correction enabled: false
Boxcar width: 0
XAxis mode: Wavelengths
Number of Pixels in Spectrum: 2048
>>>>>Begin Spectral Data<<<<<
223.165	-22.69
223.4	-22.69
223.635	-22.69
223.869	-26.69
224.104	0.31
224.338	-31.69
224.573	-4.69
224.808	-21.69
225.042	-11.69
225.277	-9.69
225.511	-4.69
225.746	-5.69
225.98	8.31
226.215	13.31
226.449	17.31
226.683	29.31
226.918	25.31
227.152	45.31
227.387	39.31
227.621	45.31
227.856	31.31
228.09	42.31
228.324	47.31
228.559	56.31
228.793	58.31
229.027	63.31
229.262	64.31
229.496	60.31
229.73	89.31
229.964	93.31
230.199	81.31
230.433	83.31
230.667	84.31
230.901	80.31
231.136	73.31
231.37	66.31
231.604	85.31
231.838	73.31
232.072	88.31
232.306	85.31
232.541	86.31
232.775	74.31
233.009	82.31
233.243	70.31
233.477	87.31
233.711	84.31
233.945	84.31
234.179	85.31
234.413	92.31
234.647	84.31
234.881	84.31
235.115	76.31
235.349	74.31
235.583	82.31
235.817	84.31
236.051	68.31
236.285	73.31
236.519	82.31
236.753	92.31
236.987	92.31
237.221	93.31
237.455	92.31
237.689	85.31
237.922	77.31
238.156	76.31
238.39	92.31
238.624	67.31
238.858	68.31
239.091	85.31
239.325	76.31
239.559	85.31
239.793	84.31
240.027	84.31
240.26	89.31
240.494	84.31
240.728	80.31
240.961	83.31
241.195	92.31
241.429	68.31
241.662	92.31
241.896	86.31
242.13	73.31
242.363	68.31
242.597	68.31
242.83	67.31
243.064	77.31
243.298	86.31
243.531	88.31
243.765	69.31
243.998	82.31
244.232	66.31
244.465	80.31
244.699	69.31
244.932	83.31
245.166	84.31
245.399	74.31
245.633	73.31
245.866	93.31
246.099	72.31
246.333	77.31
246.566	86.31
246.8	75.31
247.033	83.31
247.266	74.31
247.5	82.31
247.733	82.31
247.966	76.31
248.2	93.31
248.433	77.31
248.666	82.31
248.899	77.31
249.133	90.31
249.366	100.31
249.599	101.31
249.832	86.31
250.066	86.31
250.299	78.31
250.532	98.31
250.765	75.31
250.998	76.31
251.231	83.31
251.465	87.31
251.698	82.31
251.931	73.31
252.164	71.31
252.397	58.31
252.63	82.31
252.863	74.31
253.096	82.31
253.329	84.31
253.562	87.31
253.795	72.31
254.028	77.31
254.261	85.31
254.494	85.31
254.727	84.31
254.96	88.31
255.193	74.31
255.426	85.31
255.659	78.31
255.892	93.31
256.124	89.31
256.357	90.31
256.59	87.31
256.823	71.31
257.056	80.31
257.289	87.31
257.521	84.31
257.754	90.31
257.987	78.31
258.22	89.31
258.452	88.31
258.685	84.31
258.918	67.31
259.151	86.31
259.383	81.31
259.616	79.31
259.849	88.31
260.081	80.31
260.314	84.31
260.547	98.31
260.779	90.31
261.012	92.31
261.244	108.31
261.477	102.31
261.71	114.31
261.942	142.31
262.175	135.31
262.407	92.31
262.64	92.31
262.872	84.31
263.105	73.31
263.337	90.31
263.57	73.31
263.802	93.31
264.035	86.31
264.267	82.31
264.499	83.31
264.732	80.31
264.964	79.31
265.197	82.31
265.429	77.31
265.661	84.31
265.894	83.31
266.126	94.31
266.358	76.31
266.591	77.31
266.823	81.31
267.055	82.31
267.287	84.31
267.52	91.31
267.752	75.31
267.984	80.31
268.216	104.31
268.448	89.31
268.681	88.31
268.913	80.31
269.145	95.31
269.377	90.31
269.609	90.31
269.841	92.31
270.073	88.31
270.306	91.31
270.538	92.31
270.77	73.31
271.002	89.31
271.234	83.31
271.466	101.31
271.698	89.31
271.93	81.31
272.162	90.31
272.394	79.31
272.626	80.31
272.858	82.31
273.09	101.31
273.322	68.31
273.553	73.31
273.785	89.31
274.017	82.31
274.249	69.31
274.481	91.31
274.713	89.31
274.945	78.31
275.176	91.31
275.408	82.31
275.64	113.31
275.872	120.31
276.104	112.31
276.335	101.31
276.567	114.31
276.799	146.31
277.031	148.31
277.262	154.31
277.494	112.31
277.726	89.31
277.957	100.31
278.189	101.31
278.421	84.31
278.652	74.31
278.884	95.31
279.115	87.31
279.347	104.31
279.579	96.31
279.81	110.31
280.042	149.31
280.273	199.31
280.505	143.31
280.736	85.31
280.968	92.31
281.199	104.31
281.431	81.31
281.662	96.31
281.894	94.31
282.125	100.31
282.356	129.31
282.588	186.31
282.819	151.31
283.051	101.31
283.282	86.31
283.513	94.31
283.745	94.31
283.976	88.31
284.207	84.31
284.439	101.31
284.67	88.31
284.901	84.31
285.132	90.31
285.364	96.31
285.595	91.31
285.826	83.31
286.057	99.31
286.288	84.31
286.52	79.31
286.751	83.31
286.982	82.31
287.213	90.31
287.444	107.31
287.675	84.31
287.906	80.31
288.138	107.31
288.369	93.31
288.6	105.31
288.831	89.31
289.062	93.31
289.293	89.31
289.524	84.31
289.755	97.31
289.986	93.31
290.217	90.31
290.448	91.31
290.679	73.31
290.91	92.31
291.141	90.31
291.371	91.31
291.602	96.31
291.833	80.31
292.064	83.31
292.295	104.31
292.526	91.31
292.757	83.31
292.987	76.31
293.218	86.31
293.449	95.31
293.68	80.31
293.91	100.31
294.141	82.31
294.372	92.31
294.603	87.31
294.833	82.31
295.064	83.31
295.295	103.31
295.525	91.31
295.756	113.31
295.987	148.31
296.217	170.31
296.448	167.31
296.679	109.31
296.909	91.31
297.14	78.31
297.37	94.31
297.601	91.31
297.831	93.31
298.062	92.31
298.292	95.31
298.523	89.31
298.753	88.31
298.984	91.31
299.214	92.31
299.445	83.31
299.675	86.31
299.905	109.31
300.136	100.31
300.366	86.31
300.597	89.31
300.827	107.31
301.057	114.31
301.288	131.31
301.518	102.31
301.748	102.31
301.979	121.31
302.209	112.31
302.439	105.31
302.669	107.31
302.9	96.31
303.13	103.31
303.36	101.31
303.59	117.31
303.82	137.31
304.051	107.31
304.281	99.31
304.511	99.31
304.741	100.31
304.971	83.31
305.201	86.31
305.431	106.31
305.661	98.31
305.891	88.31
306.121	103.31
306.352	123.31
306.582	117.31
306.812	105.31
307.042	122.31
307.272	132.31
307.502	171.31
307.731	148.31
307.961	112.31
308.191	99.31
308.421	93.31
308.651	105.31
308.881	90.31
309.111	96.31
309.341	106.31
309.571	105.31
309.8	104.31
310.03	112.31
310.26	113.31
310.49	112.31
310.72	105.31
310.949	131.31
311.179	110.31
311.409	90.31
311.639	101.31
311.868	108.31
312.098	109.31
312.328	104.31
312.557	113.31
312.787	122.31
313.017	118.31
313.246	101.31
313.476	93.31
313.706	101.31
313.935	109.31
314.165	108.31
314.394	133.31
314.624	122.31
314.853	112.31
315.083	107.31
315.312	91.31
315.542	100.31
315.771	93.31
316.001	82.31
316.23	94.31
316.46	85.31
316.689	97.31
316.919	80.31
317.148	95.31
317.377	102.31
317.607	119.31
317.836	100.31
318.065	97.31
318.295	105.31
318.524	101.31
318.753	88.31
318.983	102.31
319.212	102.31
319.441	127.31
319.67	116.31
319.9	110.31
320.129	102.31
320.358	95.31
320.587	97.31
320.816	115.31
321.046	112.31
321.275	110.31
321.504	94.31
321.733	88.31
321.962	106.31
322.191	112.31
322.42	109.31
322.649	141.31
322.878	116.31
323.108	125.31
323.337	172.31
323.566	158.31
323.795	204.31
324.024	295.31
324.253	569.31
324.482	1243.31
324.71	2610.31
324.939	3426.31
325.168	1206.31
325.397	336.31
325.626	193.31
325.855	140.31
326.084	140.31
326.313	159.31
326.542	194.31
326.77	305.31
326.999	615.31
327.228	1325.31
327.457	2496.31
327.686	1956.31
327.914	610.31
328.143	453.31
328.372	528.31
328.6	315.31
328.829	173.31
329.058	215.31
329.287	198.31
329.515	161.31
329.744	218.31
329.972	358.31
330.201	672.31
330.43	1028.31
330.658	497.31
330.887	281.31
331.115	207.31
331.344	140.31
331.572	131.31
331.801	123.31
332.03	140.31
332.258	119.31
332.486	112.31
332.715	95.31
332.943	104.31
333.172	134.31
333.4	130.31
333.629	150.31
333.857	214.31
334.085	317.31
334.314	658.31
334.542	1225.31
334.771	1181.31
334.999	337.31
335.227	157.31
335.455	100.31
335.684	107.31
335.912	109.31
336.14	99.31
336.369	115.31
336.597	117.31
336.825	114.31
337.053	102.31
337.281	94.31
337.51	93.31
337.738	117.31
337.966	112.31
338.194	115.31
338.422	107.31
338.65	106.31
338.878	101.31
339.106	88.31
339.334	108.31
339.562	91.31
339.79	95.31
340.018	107.31
340.246	107.31
340.474	101.31
340.702	104.31
340.93	96.31
341.158	94.31
341.386	104.31
341.614	105.31
341.842	108.31
342.07	105.31
342.298	100.31
342.526	108.31
342.754	107.31
342.981	86.31
343.209	85.31
343.437	102.31
343.665	102.31
343.893	93.31
344.12	78.31
344.348	94.31
344.576	94.31
344.804	117.31
345.031	105.31
345.259	106.31
345.487	99.31
345.714	93.31
345.942	97.31
346.17	90.31
346.397	97.31
346.625	83.31
346.853	91.31
347.08	85.31
347.308	97.31
347.535	107.31
347.763	101.31
347.99	102.31
348.218	127.31
348.445	130.31
348.673	120.31
348.9	88.31
349.128	97.31
349.355	105.31
349.583	90.31
349.81	102.31
350.037	104.31
350.265	104.31
350.492	106.31
350.72	117.31
350.947	118.31
351.174	116.31
351.402	133.31
351.629	101.31
351.856	123.31
352.083	108.31
352.311	138.31
352.538	130.31
352.765	133.31
352.992	135.31
353.22	120.31
353.447	109.31
353.674	98.31
353.901	100.31
354.128	96.31
354.355	101.31
354.583	92.31
354.81	93.31
355.037	97.31
355.264	92.31
355.491	98.31
355.718	88.31
355.945	102.31
356.172	96.31
356.399	93.31
356.626	88.31
356.853	99.31
357.08	93.31
357.307	92.31
357.534	104.31
357.761	100.31
357.988	85.31
358.215	95.31
358.441	93.31
358.668	86.31
358.895	102.31
359.122	92.31
359.349	96.31
359.576	94.31
359.802	123.31
360.029	153.31
360.256	144.31
360.483	114.31
360.709	102.31
360.936	95.31
361.163	114.31
361.39	108.31
361.616	109.31
361.843	102.31
362.07	95.31
362.296	123.31
362.523	105.31
362.749	95.31
362.976	101.31
363.203	105.31
363.429	97.31
363.656	101.31
363.882	90.31
364.109	82.31
364.335	109.31
364.562	80.31
364.788	94.31
365.015	104.31
365.241	123.31
365.468	122.31
365.694	130.31
365.92	112.31
366.147	93.31
366.373	107.31
366.599	98.31
366.826	92.31
367.052	90.31
367.278	99.31
367.505	93.31
367.731	94.31
367.957	95.31
368.184	95.31
368.41	118.31
368.636	129.31
368.862	130.31
369.089	122.31
369.315	115.31
369.541	92.31
369.767	95.31
369.993	104.31
370.219	85.31
370.445	84.31
370.672	83.31
370.898	100.31
371.124	92.31
371.35	80.31
371.576	81.31
371.802	96.31
372.028	93.31
372.254	78.31
372.48	90.31
372.706	102.31
372.932	88.31
373.158	95.31
373.384	106.31
373.61	103.31
373.835	100.31
374.061	72.31
374.287	88.31
374.513	78.31
374.739	85.31
374.965	101.31
375.191	101.31
375.416	89.31
375.642	91.31
375.868	88.31
376.094	87.31
376.319	91.31
376.545	81.31
376.771	94.31
376.997	94.31
377.222	81.31
377.448	83.31
377.674	97.31
377.899	90.31
378.125	72.31
378.35	97.31
378.576	80.31
378.802	96.31
379.027	101.31
379.253	103.31
379.478	89.31
379.704	97.31
379.929	89.31
380.155	99.31
380.38	89.31
380.606	100.31
380.831	99.31
381.057	108.31
381.282	96.31
381.507	89.31
381.733	97.31
381.958	89.31
382.184	99.31
382.409	114.31
382.634	108.31
382.86	111.31
383.085	112.31
383.31	126.31
383.535	119.31
383.761	105.31
383.986	105.31
384.211	92.31
384.436	102.31
384.662	114.31
384.887	116.31
385.112	105.31
385.337	105.31
385.562	101.31
385.787	133.31
386.013	117.31
386.238	136.31
386.463	113.31
386.688	117.31
386.913	121.31
387.138	101.31
387.363	107.31
387.588	106.31
387.813	91.31
388.038	109.31
388.263	119.31
388.488	111.31
388.713	116.31
388.938	96.31
389.163	99.31
389.387	91.31
389.612	93.31
389.837	95.31
390.062	90.31
390.287	106.31
390.512	90.31
390.736	94.31
390.961	91.31
391.186	93.31
391.411	93.31
391.636	93.31
391.86	84.31
392.085	94.31
392.31	89.31
392.534	91.31
392.759	94.31
392.984	81.31
393.208	102.31
393.433	96.31
393.658	94.31
393.882	109.31
394.107	90.31
394.331	88.31
394.556	88.31
394.78	108.31
395.005	89.31
395.229	82.31
395.454	93.31
395.678	86.31
395.903	96.31
396.127	108.31
396.352	95.31
396.576	96.31
396.801	83.31
397.025	91.31
397.249	98.31
397.474	104.31
397.698	77.31
397.922	90.31
398.147	88.31
398.371	87.31
398.595	98.31
398.82	94.31
399.044	92.31
399.268	76.31
399.492	75.31
399.717	96.31
399.941	104.31
400.165	102.31
400.389	103.31
400.613	110.31
400.837	104.31
401.062	94.31
401.286	84.31
401.51	85.31
401.734	105.31
401.958	120.31
402.182	152.31
402.406	230.31
402.63	173.31
402.854	109.31
403.078	86.31
403.302	90.31
403.526	98.31
403.75	98.31
403.974	92.31
404.198	77.31
404.422	92.31
404.645	110.31
404.869	108.31
405.093	123.31
405.317	143.31
405.541	124.31
405.765	128.31
405.988	160.31
406.212	248.31
406.436	385.31
406.66	242.31
406.883	136.31
407.107	105.31
407.331	115.31
407.555	122.31
407.778	113.31
408.002	113.31
408.226	97.31
408.449	96.31
408.673	88.31
408.896	101.31
409.12	108.31
409.344	95.31
409.567	96.31
409.791	98.31
410.014	91.31
410.238	85.31
410.461	90.31
410.685	89.31
410.908	96.31
411.132	99.31
411.355	82.31
411.578	95.31
411.802	95.31
412.025	94.31
412.249	114.31
412.472	121.31
412.695	120.31
412.919	118.31
413.142	87.31
413.365	97.31
413.589	101.31
413.812	86.31
414.035	96.31
414.258	93.31
414.482	85.31
414.705	90.31
414.928	99.31
415.151	89.31
415.374	103.31
415.597	92.31
415.821	82.31
416.044	80.31
416.267	90.31
416.49	90.31
416.713	86.31
416.936	83.31
417.159	102.31
417.382	84.31
417.605	97.31
417.828	104.31
418.051	98.31
418.274	101.31
418.497	82.31
418.72	85.31
418.943	90.31
419.166	84.31
419.389	98.31
419.611	95.31
419.834	90.31
420.057	99.31
420.28	92.31
420.503	102.31
420.726	78.31
420.948	108.31
421.171	106.31
421.394	100.31
421.617	93.31
421.839	90.31
422.062	83.31
422.285	94.31
422.507	107.31
422.73	111.31
422.953	103.31
423.175	81.31
423.398	88.31
423.621	85.31
423.843	101.31
424.066	100.31
424.288	90.31
424.511	99.31
424.733	102.31
424.956	109.31
425.178	102.31
425.401	119.31
425.623	107.31
425.846	103.31
426.068	102.31
426.291	107.31
426.513	92.31
426.735	96.31
426.958	97.31
427.18	134.31
427.402	197.31
427.625	290.31
427.847	234.31
428.069	197.31
428.292	114.31
428.514	96.31
428.736	89.31
428.958	87.31
429.181	78.31
429.403	93.31
429.625	104.31
429.847	107.31
430.069	112.31
430.292	103.31
430.514	95.31
430.736	87.31
430.958	97.31
431.18	88.31
431.402	94.31
431.624	91.31
431.846	86.31
432.068	93.31
432.29	85.31
432.512	86.31
432.734	87.31
432.956	74.31
433.178	91.31
433.4	104.31
433.622	108.31
433.844	99.31
434.066	83.31
434.287	101.31
434.509	99.31
434.731	85.31
434.953	96.31
435.175	94.31
435.397	93.31
435.618	108.31
435.84	114.31
436.062	150.31
436.284	124.31
436.505	116.31
436.727	107.31
436.949	94.31
437.17	107.31
437.392	91.31
437.614	105.31
437.835	141.31
438.057	158.31
438.278	142.31
438.5	104.31
438.721	134.31
438.943	119.31
439.165	96.31
439.386	92.31
439.608	104.31
439.829	110.31
440.05	146.31
440.272	196.31
440.493	128.31
440.715	84.31
440.936	90.31
441.158	95.31
441.379	88.31
441.6	92.31
441.822	110.31
442.043	102.31
442.264	119.31
442.486	109.31
442.707	106.31
442.928	133.31
443.149	168.31
443.371	186.31
443.592	134.31
443.813	132.31
444.034	126.31
444.255	98.31
444.476	98.31
444.698	91.31
444.919	92.31
445.14	137.31
445.361	144.31
445.582	144.31
445.803	197.31
446.024	187.31
446.245	174.31
446.466	139.31
446.687	106.31
446.908	101.31
447.129	90.31
447.35	89.31
447.571	99.31
447.792	116.31
448.013	114.31
448.234	132.31
448.455	117.31
448.675	128.31
448.896	135.31
449.117	105.31
449.338	122.31
449.559	136.31
449.779	146.31
450	115.31
450.221	88.31
450.442	91.31
450.662	96.31
450.883	111.31
451.104	156.31
451.324	121.31
451.545	103.31
451.766	97.31
451.986	80.31
452.207	98.31
452.428	100.31
452.648	105.31
452.869	156.31
453.089	148.31
453.31	161.31
453.53	107.31
453.751	111.31
453.971	135.31
454.192	148.31
454.412	112.31
454.633	88.31
454.853	99.31
455.073	88.31
455.294	108.31
455.514	113.31
455.734	98.31
455.955	89.31
456.175	88.31
456.395	88.31
456.616	93.31
456.836	102.31
457.056	88.31
457.276	90.31
457.497	97.31
457.717	84.31
457.937	92.31
458.157	94.31
458.377	114.31
458.598	134.31
458.818	238.31
459.038	259.31
459.258	166.31
459.478	98.31
459.698	92.31
459.918	88.31
460.138	93.31
460.358	81.31
460.578	101.31
460.798	102.31
461.018	112.31
461.238	101.31
461.458	100.31
461.678	84.31
461.898	91.31
462.118	94.31
462.338	87.31
462.558	90.31
462.777	82.31
462.997	98.31
463.217	89.31
463.437	105.31
463.657	90.31
463.876	98.31
464.096	88.31
464.316	96.31
464.536	104.31
464.755	98.31
464.975	150.31
465.195	284.31
465.414	272.31
465.634	119.31
465.854	98.31
466.073	86.31
466.293	94.31
466.512	95.31
466.732	92.31
466.951	89.31
467.171	101.31
467.391	111.31
467.61	163.31
467.829	173.31
468.049	395.31
468.268	581.31
468.488	164.31
468.707	104.31
468.927	100.31
469.146	100.31
469.365	91.31
469.585	97.31
469.804	114.31
470.023	124.31
470.243	102.31
470.462	123.31
470.681	146.31
470.901	94.31
471.12	85.31
471.339	97.31
471.558	119.31
471.777	132.31
471.997	232.31
472.216	754.31
472.435	1714.31
472.654	410.31
472.873	130.31
473.092	98.31
473.311	107.31
473.53	99.31
473.749	102.31
473.968	105.31
474.187	120.31
474.406	92.31
474.625	98.31
474.844	93.31
475.063	90.31
475.282	87.31
475.501	83.31
475.72	96.31
475.939	86.31
476.158	85.31
476.377	85.31
476.596	100.31
476.814	106.31
477.033	95.31
477.252	93.31
477.471	95.31
477.69	101.31
477.908	98.31
478.127	98.31
478.346	79.31
478.564	102.31
478.783	100.31
479.002	110.31
479.22	101.31
479.439	137.31
479.658	151.31
479.876	125.31
480.095	111.31
480.313	112.31
480.532	124.31
480.751	213.31
480.969	714.31
481.188	2834.31
481.406	1758.31
481.624	285.31
481.843	125.31
482.061	80.31
482.28	83.31
482.498	93.31
482.717	89.31
482.935	94.31
483.153	108.31
483.372	92.31
483.59	109.31
483.808	91.31
484.027	83.31
484.245	81.31
484.463	104.31
484.681	99.31
484.9	107.31
485.118	102.31
485.336	99.31
485.554	118.31
485.772	112.31
485.99	114.31
486.209	107.31
486.427	116.31
486.645	135.31
486.863	128.31
487.081	118.31
487.299	96.31
487.517	88.31
487.735	104.31
487.953	85.31
488.171	101.31
488.389	104.31
488.607	108.31
488.825	87.31
489.043	109.31
489.261	85.31
489.479	91.31
489.696	90.31
489.914	97.31
490.132	90.31
490.35	94.31
490.568	90.31
490.786	103.31
491.003	89.31
491.221	87.31
491.439	81.31
491.657	75.31
491.874	92.31
492.092	89.31
492.31	88.31
492.527	93.31
492.745	108.31
492.963	93.31
493.18	98.31
493.398	89.31
493.615	96.31
493.833	103.31
494.05	92.31
494.268	103.31
494.485	98.31
494.703	82.31
494.92	90.31
495.138	89.31
495.355	98.31
495.573	91.31
495.79	93.31
496.008	99.31
496.225	107.31
496.442	116.31
496.66	108.31
496.877	97.31
497.094	96.31
497.312	82.31
497.529	75.31
497.746	107.31
497.963	100.31
498.181	104.31
498.398	92.31
498.615	122.31
498.832	107.31
499.049	93.31
499.267	104.31
499.484	96.31
499.701	77.31
499.918	95.31
500.135	81.31
500.352	91.31
500.569	101.31
500.786	81.31
501.003	93.31
501.22	77.31
501.437	88.31
501.654	105.31
501.871	131.31
502.088	106.31
502.305	94.31
502.522	98.31
502.739	91.31
502.956	104.31
503.172	88.31
503.389	101.31
503.606	141.31
503.823	115.31
504.04	106.31
504.256	79.31
504.473	90.31
504.69	87.31
504.907	101.31
505.123	92.31
505.34	82.31
505.557	92.31
505.773	89.31
505.99	81.31
506.207	81.31
506.423	90.31
506.64	92.31
506.856	89.31
507.073	81.31
507.289	97.31
507.506	110.31
507.722	152.31
507.939	129.31
508.155	106.31
508.372	94.31
508.588	94.31
508.805	97.31
509.021	97.31
509.238	104.31
509.454	111.31
509.67	106.31
509.887	124.31
510.103	165.31
510.319	272.31
510.536	1090.31
510.752	3953.31
510.968	1036.31
511.184	204.31
511.401	145.31
511.617	101.31
511.833	108.31
512.049	98.31
