Data from Circ_2000_H10_HRD10591_00039.txt Node
Date: Wed Jan 03 10:49:41 EST 2024
User: Yrep
Spectrometer: HR+D1059
Trigger mode: 1
Integration Time (sec): 1.000000E-1
Scans to average: 1
Electric dark correction enabled: true
Nonlinearity correction enabled: false
Boxcar width: 0
XAxis mode: Wavelengths
Number of Pixels in Spectrum: 2048
>>>>>Begin Spectral Data<<<<<
223.165	-31.44
223.4	-31.44
223.635	-31.44
223.869	-15.44
224.104	-15.44
224.338	-37.44
224.573	-17.44
224.808	-1.44
225.042	-4.44
225.277	-7.44
225.511	11.56
225.746	8.56
225.98	3.56
226.215	10.56
226.449	9.56
226.683	33.56
226.918	28.56
227.152	24.56
227.387	39.56
227.621	34.56
227.856	41.56
228.09	31.56
228.324	60.56
228.559	59.56
228.793	51.56
229.027	63.56
229.262	71.56
229.496	75.56
229.73	96.56
229.964	88.56
230.199	76.56
230.433	80.56
230.667	74.56
230.901	80.56
231.136	88.56
231.37	79.56
231.604	81.56
231.838	92.56
232.072	64.56
232.306	82.56
232.541	88.56
232.775	78.56
233.009	95.56
233.243	96.56
233.477	71.56
233.711	75.56
233.945	74.56
234.179	96.56
234.413	85.56
234.647	88.56
234.881	84.56
235.115	97.56
235.349	85.56
235.583	87.56
235.817	80.56
236.051	95.56
236.285	76.56
236.519	95.56
236.753	70.56
236.987	81.56
237.221	98.56
237.455	73.56
237.689	84.56
237.922	86.56
238.156	93.56
238.39	70.56
238.624	82.56
238.858	78.56
239.091	81.56
239.325	67.56
239.559	81.56
239.793	76.56
240.027	79.56
240.26	88.56
240.494	80.56
240.728	91.56
240.961	88.56
241.195	77.56
241.429	94.56
241.662	97.56
241.896	70.56
242.13	84.56
242.363	84.56
242.597	74.56
242.83	79.56
243.064	83.56
243.298	77.56
243.531	83.56
243.765	75.56
243.998	85.56
244.232	81.56
244.465	83.56
244.699	79.56
244.932	84.56
245.166	92.56
245.399	80.56
245.633	94.56
245.866	76.56
246.099	78.56
246.333	75.56
246.566	81.56
246.8	77.56
247.033	79.56
247.266	75.56
247.5	75.56
247.733	90.56
247.966	83.56
248.2	94.56
248.433	93.56
248.666	88.56
248.899	84.56
249.133	101.56
249.366	100.56
249.599	114.56
249.832	89.56
250.066	88.56
250.299	92.56
250.532	91.56
250.765	93.56
250.998	83.56
251.231	75.56
251.465	85.56
251.698	74.56
251.931	87.56
252.164	86.56
252.397	92.56
252.63	84.56
252.863	71.56
253.096	96.56
253.329	85.56
253.562	87.56
253.795	85.56
254.028	89.56
254.261	90.56
254.494	81.56
254.727	84.56
254.96	96.56
255.193	80.56
255.426	76.56
255.659	90.56
255.892	103.56
256.124	93.56
256.357	75.56
256.59	76.56
256.823	77.56
257.056	87.56
257.289	83.56
257.521	81.56
257.754	95.56
257.987	96.56
258.22	103.56
258.452	79.56
258.685	95.56
258.918	95.56
259.151	76.56
259.383	87.56
259.616	82.56
259.849	81.56
260.081	76.56
260.314	89.56
260.547	87.56
260.779	82.56
261.012	92.56
261.244	111.56
261.477	92.56
261.71	97.56
261.942	117.56
262.175	133.56
262.407	99.56
262.64	91.56
262.872	83.56
263.105	77.56
263.337	89.56
263.57	78.56
263.802	98.56
264.035	77.56
264.267	83.56
264.499	89.56
264.732	89.56
264.964	73.56
265.197	81.56
265.429	86.56
265.661	86.56
265.894	83.56
266.126	87.56
266.358	85.56
266.591	80.56
266.823	83.56
267.055	72.56
267.287	94.56
267.52	90.56
267.752	85.56
267.984	92.56
268.216	104.56
268.448	76.56
268.681	87.56
268.913	86.56
269.145	92.56
269.377	91.56
269.609	97.56
269.841	86.56
270.073	93.56
270.306	102.56
270.538	78.56
270.77	91.56
271.002	89.56
271.234	101.56
271.466	103.56
271.698	90.56
271.93	90.56
272.162	78.56
272.394	95.56
272.626	95.56
272.858	69.56
273.09	109.56
273.322	98.56
273.553	91.56
273.785	81.56
274.017	90.56
274.249	88.56
274.481	83.56
274.713	97.56
274.945	100.56
275.176	103.56
275.408	102.56
275.64	95.56
275.872	96.56
276.104	94.56
276.335	90.56
276.567	112.56
276.799	113.56
277.031	126.56
277.262	141.56
277.494	112.56
277.726	94.56
277.957	90.56
278.189	92.56
278.421	101.56
278.652	95.56
278.884	119.56
279.115	78.56
279.347	95.56
279.579	86.56
279.81	102.56
280.042	129.56
280.273	141.56
280.505	105.56
280.736	109.56
280.968	81.56
281.199	103.56
281.431	80.56
281.662	111.56
281.894	94.56
282.125	106.56
282.356	117.56
282.588	144.56
282.819	124.56
283.051	87.56
283.282	82.56
283.513	99.56
283.745	85.56
283.976	93.56
284.207	90.56
284.439	82.56
284.67	86.56
284.901	87.56
285.132	84.56
285.364	87.56
285.595	90.56
285.826	93.56
286.057	87.56
286.288	84.56
286.52	94.56
286.751	91.56
286.982	90.56
287.213	92.56
287.444	81.56
287.675	83.56
287.906	92.56
288.138	97.56
288.369	100.56
288.6	107.56
288.831	98.56
289.062	96.56
289.293	103.56
289.524	97.56
289.755	87.56
289.986	94.56
290.217	86.56
290.448	85.56
290.679	85.56
290.91	103.56
291.141	98.56
291.371	99.56
291.602	89.56
291.833	83.56
292.064	95.56
292.295	96.56
292.526	102.56
292.757	85.56
292.987	99.56
293.218	69.56
293.449	73.56
293.68	84.56
293.91	101.56
294.141	94.56
294.372	101.56
294.603	87.56
294.833	83.56
295.064	92.56
295.295	95.56
295.525	88.56
295.756	103.56
295.987	119.56
296.217	134.56
296.448	129.56
296.679	108.56
296.909	103.56
297.14	78.56
297.37	98.56
297.601	86.56
297.831	81.56
298.062	99.56
298.292	103.56
298.523	95.56
298.753	100.56
298.984	94.56
299.214	96.56
299.445	93.56
299.675	87.56
299.905	103.56
300.136	92.56
300.366	90.56
300.597	90.56
300.827	98.56
301.057	95.56
301.288	104.56
301.518	89.56
301.748	99.56
301.979	117.56
302.209	79.56
302.439	108.56
302.669	87.56
302.9	91.56
303.13	96.56
303.36	118.56
303.59	96.56
303.82	112.56
304.051	101.56
304.281	90.56
304.511	85.56
304.741	81.56
304.971	88.56
305.201	85.56
305.431	92.56
305.661	105.56
305.891	93.56
306.121	101.56
306.352	111.56
306.582	112.56
306.812	108.56
307.042	114.56
307.272	107.56
307.502	115.56
307.731	120.56
307.961	102.56
308.191	92.56
308.421	105.56
308.651	95.56
308.881	105.56
309.111	98.56
309.341	86.56
309.571	99.56
309.8	110.56
310.03	99.56
310.26	104.56
310.49	106.56
310.72	109.56
310.949	113.56
311.179	106.56
311.409	95.56
311.639	100.56
311.868	95.56
312.098	115.56
312.328	113.56
312.557	109.56
312.787	107.56
313.017	111.56
313.246	96.56
313.476	99.56
313.706	98.56
313.935	110.56
314.165	103.56
314.394	93.56
314.624	101.56
314.853	107.56
315.083	95.56
315.312	95.56
315.542	93.56
315.771	96.56
316.001	98.56
316.23	78.56
316.46	95.56
316.689	101.56
316.919	100.56
317.148	95.56
317.377	102.56
317.607	106.56
317.836	114.56
318.065	99.56
318.295	99.56
318.524	84.56
318.753	88.56
318.983	99.56
319.212	109.56
319.441	122.56
319.67	110.56
319.9	91.56
320.129	113.56
320.358	98.56
320.587	102.56
320.816	91.56
321.046	107.56
321.275	97.56
321.504	108.56
321.733	106.56
321.962	108.56
322.191	101.56
322.42	109.56
322.649	129.56
322.878	112.56
323.108	123.56
323.337	130.56
323.566	147.56
323.795	164.56
324.024	221.56
324.253	453.56
324.482	923.56
324.71	1931.56
324.939	2543.56
325.168	900.56
325.397	277.56
325.626	167.56
325.855	132.56
326.084	143.56
326.313	155.56
326.542	161.56
326.77	261.56
326.999	520.56
327.228	1070.56
327.457	1979.56
327.686	1569.56
327.914	454.56
328.143	304.56
328.372	337.56
328.6	227.56
328.829	154.56
329.058	149.56
329.287	175.56
329.515	136.56
329.744	167.56
329.972	267.56
330.201	443.56
330.43	622.56
330.658	349.56
330.887	216.56
331.115	136.56
331.344	114.56
331.572	118.56
331.801	102.56
332.03	104.56
332.258	105.56
332.486	104.56
332.715	98.56
332.943	101.56
333.172	103.56
333.4	102.56
333.629	136.56
333.857	181.56
334.085	248.56
334.314	455.56
334.542	796.56
334.771	711.56
334.999	229.56
335.227	119.56
335.455	109.56
335.684	101.56
335.912	94.56
336.14	115.56
336.369	110.56
336.597	111.56
336.825	94.56
337.053	89.56
337.281	100.56
337.51	103.56
337.738	101.56
337.966	90.56
338.194	97.56
338.422	104.56
338.65	102.56
338.878	91.56
339.106	99.56
339.334	95.56
339.562	92.56
339.79	87.56
340.018	82.56
340.246	106.56
340.474	111.56
340.702	92.56
340.93	93.56
341.158	102.56
341.386	95.56
341.614	98.56
341.842	107.56
342.07	103.56
342.298	93.56
342.526	99.56
342.754	90.56
342.981	96.56
343.209	111.56
343.437	101.56
343.665	99.56
343.893	102.56
344.12	97.56
344.348	83.56
344.576	104.56
344.804	93.56
345.031	92.56
345.259	101.56
345.487	94.56
345.714	89.56
345.942	92.56
346.17	109.56
346.397	91.56
346.625	103.56
346.853	75.56
347.08	92.56
347.308	89.56
347.535	111.56
347.763	108.56
347.99	103.56
348.218	97.56
348.445	127.56
348.673	113.56
348.9	110.56
349.128	100.56
349.355	103.56
349.583	93.56
349.81	95.56
350.037	102.56
350.265	113.56
350.492	91.56
350.72	101.56
350.947	115.56
351.174	120.56
351.402	123.56
351.629	103.56
351.856	109.56
352.083	98.56
352.311	107.56
352.538	117.56
352.765	111.56
352.992	122.56
353.22	116.56
353.447	112.56
353.674	110.56
353.901	107.56
354.128	92.56
354.355	88.56
354.583	111.56
354.81	102.56
355.037	102.56
355.264	92.56
355.491	92.56
355.718	105.56
355.945	93.56
356.172	92.56
356.399	87.56
356.626	100.56
356.853	99.56
357.08	90.56
357.307	104.56
357.534	86.56
357.761	99.56
357.988	115.56
358.215	96.56
358.441	103.56
358.668	95.56
358.895	90.56
359.122	83.56
359.349	101.56
359.576	97.56
359.802	105.56
360.029	120.56
360.256	116.56
360.483	121.56
360.709	95.56
360.936	94.56
361.163	105.56
361.39	94.56
361.616	106.56
361.843	99.56
362.07	107.56
362.296	107.56
362.523	88.56
362.749	93.56
362.976	100.56
363.203	96.56
363.429	107.56
363.656	83.56
363.882	75.56
364.109	109.56
364.335	94.56
364.562	92.56
364.788	102.56
365.015	110.56
365.241	97.56
365.468	112.56
365.694	111.56
365.92	94.56
366.147	101.56
366.373	94.56
366.599	95.56
366.826	90.56
367.052	101.56
367.278	111.56
367.505	102.56
367.731	98.56
367.957	88.56
368.184	99.56
368.41	104.56
368.636	117.56
368.862	116.56
369.089	105.56
369.315	102.56
369.541	95.56
369.767	91.56
369.993	99.56
370.219	86.56
370.445	96.56
370.672	84.56
370.898	93.56
371.124	81.56
371.35	100.56
371.576	95.56
371.802	100.56
372.028	102.56
372.254	103.56
372.48	89.56
372.706	79.56
372.932	101.56
373.158	85.56
373.384	76.56
373.61	90.56
373.835	93.56
374.061	88.56
374.287	98.56
374.513	86.56
374.739	96.56
374.965	93.56
375.191	87.56
375.416	87.56
375.642	79.56
375.868	92.56
376.094	86.56
376.319	100.56
376.545	95.56
376.771	84.56
376.997	99.56
377.222	94.56
377.448	86.56
377.674	91.56
377.899	105.56
378.125	112.56
378.35	100.56
378.576	92.56
378.802	96.56
379.027	99.56
379.253	95.56
379.478	101.56
379.704	96.56
379.929	108.56
380.155	83.56
380.38	95.56
380.606	96.56
380.831	101.56
381.057	118.56
381.282	107.56
381.507	103.56
381.733	110.56
381.958	96.56
382.184	117.56
382.409	118.56
382.634	120.56
382.86	104.56
383.085	98.56
383.31	103.56
383.535	109.56
383.761	93.56
383.986	103.56
384.211	112.56
384.436	94.56
384.662	112.56
384.887	120.56
385.112	104.56
385.337	131.56
385.562	109.56
385.787	115.56
386.013	122.56
386.238	122.56
386.463	103.56
386.688	110.56
386.913	105.56
387.138	119.56
387.363	107.56
387.588	120.56
387.813	120.56
388.038	99.56
388.263	117.56
388.488	108.56
388.713	91.56
388.938	97.56
389.163	97.56
389.387	97.56
389.612	105.56
389.837	100.56
390.062	101.56
390.287	89.56
390.512	94.56
390.736	82.56
390.961	100.56
391.186	103.56
391.411	101.56
391.636	90.56
391.86	92.56
392.085	92.56
392.31	80.56
392.534	79.56
392.759	97.56
392.984	87.56
393.208	97.56
393.433	98.56
393.658	104.56
393.882	91.56
394.107	78.56
394.331	94.56
394.556	88.56
394.78	99.56
395.005	93.56
395.229	86.56
395.454	88.56
395.678	98.56
395.903	91.56
396.127	97.56
396.352	85.56
396.576	82.56
396.801	88.56
397.025	99.56
397.249	99.56
397.474	88.56
397.698	87.56
397.922	90.56
398.147	80.56
398.371	92.56
398.595	98.56
398.82	96.56
399.044	104.56
399.268	100.56
399.492	102.56
399.717	101.56
399.941	106.56
400.165	99.56
400.389	90.56
400.613	105.56
400.837	95.56
401.062	93.56
401.286	89.56
401.51	99.56
401.734	107.56
401.958	117.56
402.182	148.56
402.406	173.56
402.63	140.56
402.854	100.56
403.078	99.56
403.302	91.56
403.526	86.56
403.75	89.56
403.974	97.56
404.198	89.56
404.422	80.56
404.645	90.56
404.869	85.56
405.093	99.56
405.317	112.56
405.541	128.56
405.765	112.56
405.988	134.56
406.212	172.56
406.436	277.56
406.66	175.56
406.883	127.56
407.107	107.56
407.331	109.56
407.555	96.56
407.778	96.56
408.002	107.56
408.226	100.56
408.449	86.56
408.673	97.56
408.896	99.56
409.12	117.56
409.344	107.56
409.567	93.56
409.791	86.56
410.014	92.56
410.238	94.56
410.461	79.56
410.685	96.56
410.908	110.56
411.132	104.56
411.355	92.56
411.578	92.56
411.802	91.56
412.025	87.56
412.249	91.56
412.472	98.56
412.695	128.56
412.919	103.56
413.142	112.56
413.365	102.56
413.589	97.56
413.812	85.56
414.035	103.56
414.258	95.56
414.482	92.56
414.705	93.56
414.928	101.56
415.151	98.56
415.374	92.56
415.597	103.56
415.821	103.56
416.044	100.56
416.267	97.56
416.49	92.56
416.713	86.56
416.936	100.56
417.159	96.56
417.382	91.56
417.605	92.56
417.828	102.56
418.051	114.56
418.274	97.56
418.497	102.56
418.72	94.56
418.943	106.56
419.166	81.56
419.389	77.56
419.611	98.56
419.834	87.56
420.057	101.56
420.28	93.56
420.503	93.56
420.726	97.56
420.948	102.56
421.171	84.56
421.394	103.56
421.617	87.56
421.839	98.56
422.062	81.56
422.285	89.56
422.507	106.56
422.73	102.56
422.953	105.56
423.175	88.56
423.398	91.56
423.621	90.56
423.843	90.56
424.066	101.56
424.288	83.56
424.511	95.56
424.733	97.56
424.956	111.56
425.178	111.56
425.401	91.56
425.623	103.56
425.846	87.56
426.068	87.56
426.291	104.56
426.513	92.56
426.735	95.56
426.958	103.56
427.18	128.56
427.402	161.56
427.625	201.56
427.847	203.56
428.069	180.56
428.292	120.56
428.514	93.56
428.736	74.56
428.958	93.56
429.181	99.56
429.403	79.56
429.625	82.56
429.847	106.56
430.069	121.56
430.292	113.56
430.514	101.56
430.736	92.56
430.958	81.56
431.18	88.56
431.402	87.56
431.624	101.56
431.846	85.56
432.068	91.56
432.29	93.56
432.512	92.56
432.734	88.56
432.956	106.56
433.178	105.56
433.4	89.56
433.622	108.56
433.844	92.56
434.066	103.56
434.287	95.56
434.509	93.56
434.731	93.56
434.953	90.56
435.175	89.56
435.397	102.56
435.618	96.56
435.84	118.56
436.062	139.56
436.284	127.56
436.505	124.56
436.727	110.56
436.949	94.56
437.17	97.56
437.392	89.56
437.614	100.56
437.835	116.56
438.057	132.56
438.278	118.56
438.5	115.56
438.721	129.56
438.943	113.56
439.165	96.56
439.386	100.56
439.608	105.56
439.829	112.56
440.05	153.56
440.272	161.56
440.493	110.56
440.715	91.56
440.936	87.56
441.158	103.56
441.379	101.56
441.6	99.56
441.822	99.56
442.043	95.56
442.264	110.56
442.486	104.56
442.707	92.56
442.928	115.56
443.149	147.56
443.371	138.56
443.592	138.56
443.813	128.56
444.034	119.56
444.255	94.56
444.476	89.56
444.698	95.56
444.919	93.56
445.14	141.56
445.361	139.56
445.582	133.56
445.803	177.56
446.024	174.56
446.245	168.56
446.466	130.56
446.687	89.56
446.908	95.56
447.129	95.56
447.35	104.56
447.571	107.56
447.792	85.56
448.013	103.56
448.234	125.56
448.455	109.56
448.675	134.56
448.896	131.56
449.117	117.56
449.338	113.56
449.559	155.56
449.779	142.56
450	97.56
450.221	92.56
450.442	98.56
450.662	88.56
450.883	109.56
451.104	112.56
451.324	110.56
451.545	95.56
451.766	96.56
451.986	94.56
452.207	81.56
452.428	96.56
452.648	99.56
452.869	109.56
453.089	116.56
453.31	131.56
453.53	102.56
453.751	87.56
453.971	90.56
454.192	125.56
454.412	83.56
454.633	81.56
454.853	92.56
455.073	85.56
455.294	111.56
455.514	105.56
455.734	107.56
455.955	94.56
456.175	97.56
456.395	82.56
456.616	85.56
456.836	97.56
457.056	88.56
457.276	96.56
457.497	87.56
457.717	79.56
457.937	87.56
458.157	105.56
458.377	101.56
458.598	124.56
458.818	167.56
459.038	187.56
459.258	131.56
459.478	107.56
459.698	98.56
459.918	77.56
460.138	86.56
460.358	99.56
460.578	78.56
460.798	84.56
461.018	88.56
461.238	79.56
461.458	99.56
461.678	80.56
461.898	85.56
462.118	91.56
462.338	111.56
462.558	94.56
462.777	105.56
462.997	83.56
463.217	97.56
463.437	94.56
463.657	94.56
463.876	84.56
464.096	104.56
464.316	89.56
464.536	86.56
464.755	95.56
464.975	116.56
465.195	174.56
465.414	175.56
465.634	104.56
465.854	99.56
466.073	90.56
466.293	97.56
466.512	87.56
466.732	85.56
466.951	94.56
467.171	106.56
467.391	105.56
467.61	128.56
467.829	143.56
468.049	267.56
468.268	351.56
468.488	126.56
468.707	100.56
468.927	92.56
469.146	101.56
469.365	96.56
469.585	92.56
469.804	92.56
470.023	93.56
470.243	96.56
470.462	108.56
470.681	128.56
470.901	99.56
471.12	89.56
471.339	108.56
471.558	105.56
471.777	102.56
471.997	176.56
472.216	478.56
472.435	964.56
472.654	268.56
472.873	115.56
473.092	111.56
473.311	94.56
473.53	80.56
473.749	97.56
473.968	95.56
474.187	119.56
474.406	115.56
474.625	88.56
474.844	90.56
475.063	98.56
475.282	86.56
475.501	97.56
475.72	92.56
475.939	93.56
476.158	89.56
476.377	96.56
476.596	87.56
476.814	91.56
477.033	96.56
477.252	87.56
477.471	99.56
477.69	89.56
477.908	93.56
478.127	100.56
478.346	99.56
478.564	93.56
478.783	97.56
479.002	75.56
479.22	105.56
479.439	111.56
479.658	112.56
479.876	106.56
480.095	99.56
480.313	122.56
480.532	118.56
480.751	157.56
480.969	465.56
481.188	1685.56
481.406	1028.56
481.624	205.56
481.843	105.56
482.061	101.56
482.28	92.56
482.498	88.56
482.717	88.56
482.935	86.56
483.153	82.56
483.372	91.56
483.59	92.56
483.808	90.56
484.027	106.56
484.245	101.56
484.463	112.56
484.681	100.56
484.9	95.56
485.118	104.56
485.336	93.56
485.554	98.56
485.772	108.56
485.99	122.56
486.209	110.56
486.427	102.56
486.645	112.56
486.863	119.56
487.081	116.56
487.299	110.56
487.517	100.56
487.735	93.56
487.953	100.56
488.171	97.56
488.389	88.56
488.607	99.56
488.825	97.56
489.043	85.56
489.261	98.56
489.479	81.56
489.696	89.56
489.914	91.56
490.132	90.56
490.35	87.56
490.568	84.56
490.786	80.56
491.003	87.56
491.221	114.56
491.439	107.56
491.657	95.56
491.874	91.56
492.092	88.56
492.31	108.56
492.527	101.56
492.745	104.56
492.963	101.56
493.18	96.56
493.398	95.56
493.615	101.56
493.833	117.56
494.05	98.56
494.268	103.56
494.485	97.56
494.703	105.56
494.92	114.56
495.138	96.56
495.355	87.56
495.573	94.56
495.79	92.56
496.008	103.56
496.225	99.56
496.442	92.56
496.66	92.56
496.877	90.56
497.094	91.56
497.312	96.56
497.529	86.56
497.746	94.56
497.963	88.56
498.181	97.56
498.398	100.56
498.615	106.56
498.832	100.56
499.049	99.56
499.267	88.56
499.484	102.56
499.701	94.56
499.918	100.56
500.135	90.56
500.352	81.56
500.569	105.56
500.786	109.56
501.003	107.56
501.22	91.56
501.437	105.56
501.654	95.56
501.871	112.56
502.088	88.56
502.305	88.56
502.522	78.56
502.739	101.56
502.956	95.56
503.172	82.56
503.389	106.56
503.606	117.56
503.823	89.56
504.04	94.56
504.256	100.56
504.473	94.56
504.69	103.56
504.907	110.56
505.123	93.56
505.34	97.56
505.557	84.56
505.773	85.56
505.99	97.56
506.207	98.56
506.423	99.56
506.64	84.56
506.856	91.56
507.073	92.56
507.289	96.56
507.506	93.56
507.722	113.56
507.939	110.56
508.155	89.56
508.372	86.56
508.588	95.56
508.805	93.56
509.021	110.56
509.238	88.56
509.454	94.56
509.67	105.56
509.887	115.56
510.103	154.56
510.319	219.56
510.536	775.56
510.752	2516.56
510.968	701.56
511.184	161.56
511.401	121.56
511.617	106.56
511.833	101.56
512.049	108.56
512.265	106.56
512.481	100.56
512.698	100.56
