Data from Circ_2000_H10_HRD10591_00094.txt Node
Date: Wed Jan 03 10:49:52 EST 2024
User: Yrep
Spectrometer: HR+D1059
Trigger mode: 1
Integration Time (sec): 1.000000E-1
Scans to average: 1
Electric dark correction enabled: true
Nonlinearity correction enabled: false
Boxcar width: 0
XAxis mode: Wavelengths
Number of Pixels in Spectrum: 2048
>>>>>Begin Spectral Data<<<<<
223.165	-11.5
223.4	-11.5
223.635	-11.5
223.869	-20.5
224.104	-26.5
224.338	-12.5
224.573	-14.5
224.808	-10.5
225.042	3.5
225.277	-14.5
225.511	5.5
225.746	-6.5
225.98	-1.5
226.215	2.5
226.449	26.5
226.683	16.5
226.918	26.5
227.152	37.5
227.387	40.5
227.621	44.5
227.856	46.5
228.09	32.5
228.324	48.5
228.559	54.5
228.793	55.5
229.027	74.5
229.262	72.5
229.496	70.5
229.73	106.5
229.964	91.5
230.199	68.5
230.433	77.5
230.667	88.5
230.901	86.5
231.136	77.5
231.37	87.5
231.604	66.5
231.838	78.5
232.072	73.5
232.306	94.5
232.541	74.5
232.775	71.5
233.009	83.5
233.243	77.5
233.477	80.5
233.711	79.5
233.945	78.5
234.179	76.5
234.413	60.5
234.647	79.5
234.881	84.5
235.115	93.5
235.349	81.5
235.583	81.5
235.817	74.5
236.051	72.5
236.285	69.5
236.519	77.5
236.753	69.5
236.987	92.5
237.221	107.5
237.455	88.5
237.689	84.5
237.922	90.5
238.156	82.5
238.39	77.5
238.624	76.5
238.858	70.5
239.091	81.5
239.325	73.5
239.559	78.5
239.793	81.5
240.027	82.5
240.26	93.5
240.494	81.5
240.728	92.5
240.961	80.5
241.195	80.5
241.429	75.5
241.662	85.5
241.896	77.5
242.13	86.5
242.363	83.5
242.597	80.5
242.83	63.5
243.064	87.5
243.298	72.5
243.531	72.5
243.765	93.5
243.998	83.5
244.232	91.5
244.465	95.5
244.699	68.5
244.932	76.5
245.166	74.5
245.399	86.5
245.633	74.5
245.866	80.5
246.099	78.5
246.333	88.5
246.566	77.5
246.8	84.5
247.033	80.5
247.266	83.5
247.5	89.5
247.733	99.5
247.966	79.5
248.2	86.5
248.433	88.5
248.666	85.5
248.899	77.5
249.133	88.5
249.366	112.5
249.599	106.5
249.832	80.5
250.066	90.5
250.299	94.5
250.532	91.5
250.765	83.5
250.998	97.5
251.231	93.5
251.465	92.5
251.698	95.5
251.931	89.5
252.164	80.5
252.397	90.5
252.63	82.5
252.863	76.5
253.096	78.5
253.329	72.5
253.562	89.5
253.795	87.5
254.028	89.5
254.261	81.5
254.494	79.5
254.727	89.5
254.96	93.5
255.193	79.5
255.426	88.5
255.659	90.5
255.892	99.5
256.124	111.5
256.357	88.5
256.59	82.5
256.823	83.5
257.056	93.5
257.289	104.5
257.521	82.5
257.754	91.5
257.987	85.5
258.22	77.5
258.452	88.5
258.685	87.5
258.918	74.5
259.151	84.5
259.383	91.5
259.616	80.5
259.849	81.5
260.081	93.5
260.314	80.5
260.547	88.5
260.779	86.5
261.012	109.5
261.244	103.5
261.477	98.5
261.71	98.5
261.942	135.5
262.175	160.5
262.407	97.5
262.64	90.5
262.872	76.5
263.105	90.5
263.337	94.5
263.57	82.5
263.802	88.5
264.035	82.5
264.267	87.5
264.499	82.5
264.732	90.5
264.964	99.5
265.197	81.5
265.429	84.5
265.661	90.5
265.894	89.5
266.126	86.5
266.358	95.5
266.591	82.5
266.823	83.5
267.055	79.5
267.287	90.5
267.52	91.5
267.752	85.5
267.984	77.5
268.216	93.5
268.448	99.5
268.681	86.5
268.913	76.5
269.145	99.5
269.377	95.5
269.609	87.5
269.841	94.5
270.073	96.5
270.306	91.5
270.538	66.5
270.77	91.5
271.002	83.5
271.234	91.5
271.466	93.5
271.698	92.5
271.93	74.5
272.162	87.5
272.394	83.5
272.626	78.5
272.858	90.5
273.09	96.5
273.322	88.5
273.553	90.5
273.785	89.5
274.017	77.5
274.249	93.5
274.481	84.5
274.713	81.5
274.945	84.5
275.176	91.5
275.408	88.5
275.64	129.5
275.872	124.5
276.104	102.5
276.335	109.5
276.567	130.5
276.799	147.5
277.031	162.5
277.262	195.5
277.494	152.5
277.726	95.5
277.957	96.5
278.189	91.5
278.421	96.5
278.652	84.5
278.884	86.5
279.115	104.5
279.347	93.5
279.579	101.5
279.81	127.5
280.042	182.5
280.273	241.5
280.505	181.5
280.736	112.5
280.968	85.5
281.199	88.5
281.431	92.5
281.662	99.5
281.894	97.5
282.125	93.5
282.356	138.5
282.588	165.5
282.819	131.5
283.051	108.5
283.282	89.5
283.513	88.5
283.745	80.5
283.976	98.5
284.207	107.5
284.439	84.5
284.67	80.5
284.901	82.5
285.132	102.5
285.364	72.5
285.595	92.5
285.826	86.5
286.057	77.5
286.288	81.5
286.52	69.5
286.751	85.5
286.982	77.5
287.213	83.5
287.444	81.5
287.675	88.5
287.906	94.5
288.138	83.5
288.369	93.5
288.6	94.5
288.831	86.5
289.062	101.5
289.293	93.5
289.524	77.5
289.755	97.5
289.986	88.5
290.217	71.5
290.448	79.5
290.679	76.5
290.91	86.5
291.141	76.5
291.371	92.5
291.602	88.5
291.833	89.5
292.064	97.5
292.295	90.5
292.526	110.5
292.757	88.5
292.987	76.5
293.218	75.5
293.449	91.5
293.68	86.5
293.91	84.5
294.141	88.5
294.372	87.5
294.603	89.5
294.833	76.5
295.064	87.5
295.295	87.5
295.525	97.5
295.756	110.5
295.987	134.5
296.217	158.5
296.448	137.5
296.679	102.5
296.909	80.5
297.14	87.5
297.37	80.5
297.601	105.5
297.831	94.5
298.062	108.5
298.292	93.5
298.523	86.5
298.753	98.5
298.984	88.5
299.214	96.5
299.445	89.5
299.675	99.5
299.905	107.5
300.136	88.5
300.366	91.5
300.597	100.5
300.827	87.5
301.057	119.5
301.288	113.5
301.518	100.5
301.748	96.5
301.979	112.5
302.209	107.5
302.439	98.5
302.669	94.5
302.9	99.5
303.13	97.5
303.36	104.5
303.59	133.5
303.82	134.5
304.051	110.5
304.281	89.5
304.511	98.5
304.741	92.5
304.971	80.5
305.201	90.5
305.431	88.5
305.661	82.5
305.891	93.5
306.121	87.5
306.352	118.5
306.582	113.5
306.812	96.5
307.042	116.5
307.272	155.5
307.502	158.5
307.731	149.5
307.961	125.5
308.191	97.5
308.421	75.5
308.651	91.5
308.881	98.5
309.111	84.5
309.341	100.5
309.571	103.5
309.8	101.5
310.03	109.5
310.26	117.5
310.49	94.5
310.72	111.5
310.949	130.5
311.179	117.5
311.409	100.5
311.639	101.5
311.868	114.5
312.098	101.5
312.328	110.5
312.557	119.5
312.787	136.5
313.017	114.5
313.246	112.5
313.476	84.5
313.706	90.5
313.935	102.5
314.165	116.5
314.394	122.5
314.624	107.5
314.853	101.5
315.083	97.5
315.312	99.5
315.542	104.5
315.771	97.5
316.001	85.5
316.23	105.5
316.46	96.5
316.689	85.5
316.919	93.5
317.148	113.5
317.377	84.5
317.607	100.5
317.836	103.5
318.065	98.5
318.295	100.5
318.524	90.5
318.753	95.5
318.983	98.5
319.212	122.5
319.441	106.5
319.67	107.5
319.9	94.5
320.129	86.5
320.358	101.5
320.587	111.5
320.816	107.5
321.046	98.5
321.275	107.5
321.504	91.5
321.733	98.5
321.962	96.5
322.191	114.5
322.42	134.5
322.649	126.5
322.878	142.5
323.108	136.5
323.337	148.5
323.566	164.5
323.795	188.5
324.024	280.5
324.253	559.5
324.482	1202.5
324.71	2487.5
324.939	3292.5
325.168	1137.5
325.397	324.5
325.626	182.5
325.855	142.5
326.084	147.5
326.313	156.5
326.542	189.5
326.77	299.5
326.999	618.5
327.228	1306.5
327.457	2420.5
327.686	1921.5
327.914	590.5
328.143	528.5
328.372	613.5
328.6	370.5
328.829	213.5
329.058	213.5
329.287	232.5
329.515	188.5
329.744	247.5
329.972	490.5
330.201	999.5
330.43	1384.5
330.658	633.5
330.887	305.5
331.115	195.5
331.344	140.5
331.572	138.5
331.801	139.5
332.03	128.5
332.258	107.5
332.486	115.5
332.715	121.5
332.943	110.5
333.172	114.5
333.4	128.5
333.629	179.5
333.857	246.5
334.085	440.5
334.314	899.5
334.542	1752.5
334.771	1606.5
334.999	412.5
335.227	174.5
335.455	131.5
335.684	118.5
335.912	112.5
336.14	134.5
336.369	110.5
336.597	117.5
336.825	111.5
337.053	122.5
337.281	91.5
337.51	94.5
337.738	100.5
337.966	109.5
338.194	120.5
338.422	96.5
338.65	87.5
338.878	93.5
339.106	79.5
339.334	97.5
339.562	79.5
339.79	88.5
340.018	90.5
340.246	101.5
340.474	96.5
340.702	105.5
340.93	98.5
341.158	99.5
341.386	111.5
341.614	105.5
341.842	109.5
342.07	94.5
342.298	98.5
342.526	99.5
342.754	88.5
342.981	92.5
343.209	101.5
343.437	94.5
343.665	96.5
343.893	82.5
344.12	84.5
344.348	97.5
344.576	96.5
344.804	86.5
345.031	107.5
345.259	118.5
345.487	106.5
345.714	108.5
345.942	81.5
346.17	96.5
346.397	105.5
346.625	98.5
346.853	89.5
347.08	100.5
347.308	93.5
347.535	105.5
347.763	113.5
347.99	110.5
348.218	119.5
348.445	131.5
348.673	111.5
348.9	84.5
349.128	92.5
349.355	98.5
349.583	98.5
349.81	90.5
350.037	113.5
350.265	102.5
350.492	97.5
350.72	96.5
350.947	110.5
351.174	124.5
351.402	136.5
351.629	112.5
351.856	100.5
352.083	125.5
352.311	136.5
352.538	130.5
352.765	118.5
352.992	126.5
353.22	116.5
353.447	109.5
353.674	88.5
353.901	95.5
354.128	93.5
354.355	106.5
354.583	98.5
354.81	78.5
355.037	90.5
355.264	79.5
355.491	90.5
355.718	90.5
355.945	91.5
356.172	96.5
356.399	99.5
356.626	97.5
356.853	101.5
357.08	97.5
357.307	88.5
357.534	92.5
357.761	96.5
357.988	94.5
358.215	103.5
358.441	109.5
358.668	90.5
358.895	99.5
359.122	92.5
359.349	101.5
359.576	105.5
359.802	109.5
360.029	156.5
360.256	141.5
360.483	122.5
360.709	103.5
360.936	103.5
361.163	116.5
361.39	133.5
361.616	105.5
361.843	100.5
362.07	95.5
362.296	112.5
362.523	100.5
362.749	102.5
362.976	97.5
363.203	88.5
363.429	92.5
363.656	90.5
363.882	103.5
364.109	85.5
364.335	109.5
364.562	97.5
364.788	97.5
365.015	98.5
365.241	106.5
365.468	126.5
365.694	125.5
365.92	112.5
366.147	109.5
366.373	97.5
366.599	94.5
366.826	94.5
367.052	96.5
367.278	90.5
367.505	113.5
367.731	105.5
367.957	107.5
368.184	95.5
368.41	113.5
368.636	128.5
368.862	126.5
369.089	122.5
369.315	101.5
369.541	105.5
369.767	98.5
369.993	101.5
370.219	98.5
370.445	92.5
370.672	82.5
370.898	79.5
371.124	88.5
371.35	91.5
371.576	85.5
371.802	85.5
372.028	93.5
372.254	82.5
372.48	91.5
372.706	93.5
372.932	79.5
373.158	109.5
373.384	91.5
373.61	89.5
373.835	92.5
374.061	91.5
374.287	108.5
374.513	92.5
374.739	91.5
374.965	82.5
375.191	89.5
375.416	79.5
375.642	83.5
375.868	94.5
376.094	110.5
376.319	84.5
376.545	82.5
376.771	77.5
376.997	94.5
377.222	90.5
377.448	94.5
377.674	99.5
377.899	91.5
378.125	93.5
378.35	90.5
378.576	92.5
378.802	85.5
379.027	93.5
379.253	90.5
379.478	82.5
379.704	98.5
379.929	91.5
380.155	99.5
380.38	101.5
380.606	91.5
380.831	96.5
381.057	97.5
381.282	99.5
381.507	94.5
381.733	94.5
381.958	96.5
382.184	101.5
382.409	93.5
382.634	97.5
382.86	92.5
383.085	84.5
383.31	98.5
383.535	98.5
383.761	96.5
383.986	89.5
384.211	113.5
384.436	109.5
384.662	100.5
384.887	100.5
385.112	93.5
385.337	89.5
385.562	102.5
385.787	104.5
386.013	113.5
386.238	116.5
386.463	114.5
386.688	87.5
386.913	116.5
387.138	108.5
387.363	91.5
387.588	97.5
387.813	102.5
388.038	102.5
388.263	113.5
388.488	102.5
388.713	100.5
388.938	96.5
389.163	85.5
389.387	100.5
389.612	89.5
389.837	89.5
390.062	100.5
390.287	77.5
390.512	66.5
390.736	95.5
390.961	94.5
391.186	91.5
391.411	80.5
391.636	88.5
391.86	94.5
392.085	96.5
392.31	79.5
392.534	87.5
392.759	87.5
392.984	90.5
393.208	91.5
393.433	82.5
393.658	93.5
393.882	82.5
394.107	94.5
394.331	73.5
394.556	85.5
394.78	98.5
395.005	102.5
395.229	97.5
395.454	91.5
395.678	96.5
395.903	87.5
396.127	94.5
396.352	85.5
396.576	92.5
396.801	89.5
397.025	104.5
397.249	90.5
397.474	102.5
397.698	97.5
397.922	91.5
398.147	90.5
398.371	99.5
398.595	90.5
398.82	84.5
399.044	81.5
399.268	88.5
399.492	81.5
399.717	88.5
399.941	86.5
400.165	115.5
400.389	110.5
400.613	80.5
400.837	100.5
401.062	90.5
401.286	100.5
401.51	90.5
401.734	101.5
401.958	106.5
402.182	162.5
402.406	203.5
402.63	150.5
402.854	101.5
403.078	97.5
403.302	100.5
403.526	95.5
403.75	91.5
403.974	94.5
404.198	104.5
404.422	94.5
404.645	100.5
404.869	100.5
405.093	121.5
405.317	156.5
405.541	134.5
405.765	123.5
405.988	148.5
406.212	226.5
406.436	324.5
406.66	213.5
406.883	130.5
407.107	117.5
407.331	99.5
407.555	102.5
407.778	111.5
408.002	94.5
408.226	98.5
408.449	89.5
408.673	94.5
408.896	99.5
409.12	109.5
409.344	75.5
409.567	91.5
409.791	99.5
410.014	99.5
410.238	84.5
410.461	97.5
410.685	94.5
410.908	100.5
411.132	101.5
411.355	103.5
411.578	96.5
411.802	95.5
412.025	89.5
412.249	112.5
412.472	118.5
412.695	142.5
412.919	117.5
413.142	117.5
413.365	90.5
413.589	84.5
413.812	94.5
414.035	96.5
414.258	73.5
414.482	84.5
414.705	69.5
414.928	90.5
415.151	96.5
415.374	89.5
415.597	92.5
415.821	90.5
416.044	88.5
416.267	85.5
416.49	104.5
416.713	83.5
416.936	85.5
417.159	89.5
417.382	105.5
417.605	94.5
417.828	111.5
418.051	107.5
418.274	96.5
418.497	84.5
418.72	105.5
418.943	85.5
419.166	99.5
419.389	95.5
419.611	89.5
419.834	101.5
420.057	93.5
420.28	97.5
420.503	91.5
420.726	101.5
420.948	107.5
421.171	103.5
421.394	107.5
421.617	85.5
421.839	83.5
422.062	114.5
422.285	91.5
422.507	99.5
422.73	100.5
422.953	103.5
423.175	74.5
423.398	85.5
423.621	94.5
423.843	89.5
424.066	86.5
424.288	91.5
424.511	98.5
424.733	121.5
424.956	120.5
425.178	109.5
425.401	100.5
425.623	117.5
425.846	108.5
426.068	108.5
426.291	101.5
426.513	99.5
426.735	93.5
426.958	92.5
427.18	130.5
427.402	202.5
427.625	286.5
427.847	253.5
428.069	228.5
428.292	120.5
428.514	89.5
428.736	90.5
428.958	101.5
429.181	96.5
429.403	104.5
429.625	81.5
429.847	94.5
430.069	126.5
430.292	95.5
430.514	97.5
430.736	113.5
430.958	74.5
431.18	94.5
431.402	92.5
431.624	80.5
431.846	97.5
432.068	86.5
432.29	86.5
432.512	97.5
432.734	95.5
432.956	99.5
433.178	91.5
433.4	113.5
433.622	87.5
433.844	88.5
434.066	72.5
434.287	105.5
434.509	91.5
434.731	87.5
434.953	99.5
435.175	103.5
435.397	91.5
435.618	106.5
435.84	117.5
436.062	156.5
436.284	152.5
436.505	116.5
436.727	118.5
436.949	99.5
437.17	75.5
437.392	93.5
437.614	97.5
437.835	135.5
438.057	156.5
438.278	140.5
438.5	129.5
438.721	148.5
438.943	123.5
439.165	101.5
439.386	93.5
439.608	112.5
439.829	111.5
440.05	162.5
440.272	205.5
440.493	109.5
440.715	92.5
440.936	106.5
441.158	92.5
441.379	86.5
441.6	105.5
441.822	104.5
442.043	85.5
442.264	128.5
442.486	113.5
442.707	101.5
442.928	132.5
443.149	198.5
443.371	192.5
443.592	133.5
443.813	142.5
444.034	123.5
444.255	101.5
444.476	98.5
444.698	93.5
444.919	95.5
445.14	139.5
445.361	150.5
445.582	164.5
445.803	206.5
446.024	181.5
446.245	170.5
446.466	150.5
446.687	103.5
446.908	98.5
447.129	89.5
447.35	94.5
447.571	109.5
447.792	89.5
448.013	107.5
448.234	123.5
448.455	118.5
448.675	131.5
448.896	150.5
449.117	116.5
449.338	133.5
449.559	158.5
449.779	183.5
450	99.5
450.221	86.5
450.442	90.5
450.662	93.5
450.883	142.5
451.104	144.5
451.324	101.5
451.545	96.5
451.766	88.5
451.986	88.5
452.207	83.5
452.428	94.5
452.648	118.5
452.869	133.5
453.089	146.5
453.31	138.5
453.53	111.5
453.751	102.5
453.971	104.5
454.192	132.5
454.412	100.5
454.633	90.5
454.853	80.5
455.073	94.5
455.294	106.5
455.514	113.5
455.734	100.5
455.955	79.5
456.175	89.5
456.395	98.5
456.616	96.5
456.836	77.5
457.056	91.5
457.276	90.5
457.497	83.5
457.717	92.5
457.937	94.5
458.157	78.5
458.377	83.5
458.598	134.5
458.818	235.5
459.038	245.5
459.258	158.5
459.478	108.5
459.698	85.5
459.918	82.5
460.138	85.5
460.358	86.5
460.578	89.5
460.798	87.5
461.018	102.5
461.238	82.5
461.458	69.5
461.678	93.5
461.898	88.5
462.118	85.5
462.338	92.5
462.558	99.5
462.777	80.5
462.997	98.5
463.217	102.5
463.437	106.5
463.657	94.5
463.876	106.5
464.096	89.5
464.316	107.5
464.536	103.5
464.755	86.5
464.975	135.5
465.195	264.5
465.414	252.5
465.634	109.5
465.854	104.5
466.073	89.5
466.293	102.5
466.512	81.5
466.732	86.5
466.951	90.5
467.171	99.5
467.391	128.5
467.61	150.5
467.829	202.5
468.049	514.5
468.268	746.5
468.488	198.5
468.707	106.5
468.927	80.5
469.146	91.5
469.365	91.5
469.585	94.5
469.804	107.5
470.023	117.5
470.243	115.5
470.462	131.5
470.681	145.5
470.901	115.5
471.12	96.5
471.339	89.5
471.558	108.5
471.777	132.5
471.997	278.5
472.216	1054.5
472.435	2275.5
472.654	538.5
472.873	157.5
473.092	103.5
473.311	107.5
473.53	89.5
473.749	82.5
473.968	114.5
474.187	118.5
474.406	115.5
474.625	84.5
474.844	91.5
475.063	82.5
475.282	78.5
475.501	98.5
475.72	106.5
475.939	83.5
476.158	90.5
476.377	100.5
476.596	87.5
476.814	107.5
477.033	98.5
477.252	90.5
477.471	81.5
477.69	99.5
477.908	96.5
478.127	103.5
478.346	91.5
478.564	109.5
478.783	109.5
479.002	109.5
479.22	106.5
479.439	136.5
479.658	142.5
479.876	145.5
480.095	114.5
480.313	137.5
480.532	167.5
480.751	272.5
480.969	948.5
481.188	3948.5
481.406	2287.5
481.624	360.5
481.843	134.5
482.061	104.5
482.28	96.5
482.498	83.5
482.717	115.5
482.935	94.5
483.153	94.5
483.372	86.5
483.59	98.5
483.808	79.5
484.027	97.5
484.245	88.5
484.463	107.5
484.681	99.5
484.9	102.5
485.118	102.5
485.336	109.5
485.554	105.5
485.772	94.5
485.99	102.5
486.209	112.5
486.427	92.5
486.645	120.5
486.863	133.5
487.081	109.5
487.299	101.5
487.517	94.5
487.735	99.5
487.953	91.5
488.171	91.5
488.389	94.5
488.607	113.5
488.825	90.5
489.043	104.5
489.261	103.5
489.479	104.5
489.696	103.5
489.914	93.5
490.132	88.5
490.35	97.5
490.568	93.5
490.786	95.5
491.003	87.5
491.221	97.5
491.439	102.5
491.657	99.5
491.874	111.5
492.092	95.5
492.31	97.5
492.527	107.5
492.745	96.5
492.963	89.5
493.18	93.5
493.398	97.5
493.615	110.5
493.833	99.5
494.05	102.5
494.268	90.5
494.485	81.5
494.703	97.5
494.92	107.5
495.138	94.5
495.355	114.5
495.573	104.5
495.79	102.5
496.008	82.5
496.225	67.5
496.442	89.5
496.66	74.5
496.877	84.5
497.094	87.5
497.312	77.5
497.529	86.5
497.746	98.5
497.963	86.5
498.181	101.5
498.398	92.5
498.615	123.5
498.832	121.5
499.049	104.5
499.267	86.5
499.484	89.5
499.701	78.5
499.918	92.5
500.135	82.5
500.352	89.5
500.569	88.5
500.786	104.5
501.003	87.5
501.22	106.5
501.437	84.5
501.654	96.5
501.871	125.5
502.088	104.5
502.305	89.5
502.522	86.5
502.739	92.5
502.956	85.5
503.172	99.5
503.389	93.5
503.606	124.5
503.823	103.5
504.04	92.5
504.256	100.5
504.473	106.5
504.69	97.5
504.907	100.5
505.123	94.5
505.34	88.5
505.557	72.5
505.773	80.5
505.99	92.5
506.207	97.5
506.423	104.5
506.64	98.5
506.856	95.5
507.073	92.5
507.289	94.5
507.506	111.5
507.722	153.5
507.939	144.5
508.155	98.5
508.372	91.5
508.588	81.5
508.805	98.5
509.021	110.5
509.238	114.5
509.454	107.5
509.67	94.5
509.887	121.5
510.103	135.5
510.319	248.5
510.536	960.5
510.752	3383.5
510.968	890.5
511.184	197.5
511.401	144.5
511.617	119.5
511.833	116.5
512.049	108.5
512.265	104.5
512.481	93.5
512.698	104.5
512.914	91.5
513.13	92.5
513.346	107.5
513.562	101.5
513.778	94.5
513.994	91.5
514.21	117.5
514.426	153.5
514.642	192.5
514.858	179.5
515.074	253.5
515.29	803.5
515.506	2776.5
515.721	972.5
515.937	249.5
516.153	149.5
516.369	123.5
516.585	114.5
516.801	98.5
517.016	90.5
517.232	102.5
517.448	106.5
517.664	90.5
517.879	99.5
518.095	88.5
518.311	100.5
518.527	114.5
518.742	104.5
518.958	105.5
519.173	107.5
519.389	98.5
519.605	97.5
519.82	110.5
520.036	129.5
520.251	161.5
520.467	138.5
520.682	127.5
520.898	133.5
521.113	146.5
521.329	194.5
521.544	340.5
521.76	1054.5
521.975	4702.5
522.19	2804.5
522.406	535.5
522.621	164.5
522.836	126.5
523.052	114.5
523.267	100.5
523.482	103.5
523.698	124.5
523.913	138.5
524.128	115.5
524.343	100.5
524.559	103.5
524.774	101.5
524.989	100.5
525.204	130.5
525.419	123.5
525.634	94.5
525.849	113.5
526.064	85.5
526.28	103.5
526.495	92.5
526.71	88.5
526.925	114.5
527.14	98.5
527.355	106.5
527.57	101.5
527.785	82.5
527.999	97.5
528.214	103.5
528.429	104.5
528.644	89.5
528.859	102.5
529.074	97.5
529.289	169.5
529.503	298.5
529.718	115.5
529.933	108.5
530.148	105.5
530.363	97.5
530.577	93.5
530.792	98.5
531.007	83.5
531.221	87.5
531.436	93.5
