Data from Circ_2000_H10_HRD10591_00056.txt Node
Date: Wed Jan 03 10:49:45 EST 2024
User: Yrep
Spectrometer: HR+D1059
Trigger mode: 1
Integration Time (sec): 1.000000E-1
Scans to average: 1
Electric dark correction enabled: true
Nonlinearity correction enabled: false
Boxcar width: 0
XAxis mode: Wavelengths
Number of Pixels in Spectrum: 2048
>>>>>Begin Spectral Data<<<<<
223.165	-35.94
223.4	-35.94
223.635	-35.94
223.869	-31.94
224.104	-21.94
224.338	-11.94
224.573	-8.94
224.808	-3.94
225.042	-5.94
225.277	-1.94
225.511	9.06
225.746	10.06
225.98	1.06
226.215	15.06
226.449	20.06
226.683	11.06
226.918	23.06
227.152	33.06
227.387	26.06
227.621	24.06
227.856	35.06
228.09	33.06
228.324	59.06
228.559	40.06
228.793	50.06
229.027	59.06
229.262	76.06
229.496	72.06
229.73	93.06
229.964	89.06
230.199	68.06
230.433	75.06
230.667	83.06
230.901	85.06
231.136	84.06
231.37	89.06
231.604	83.06
231.838	79.06
232.072	76.06
232.306	77.06
232.541	82.06
232.775	74.06
233.009	69.06
233.243	83.06
233.477	75.06
233.711	85.06
233.945	80.06
234.179	89.06
234.413	74.06
234.647	76.06
234.881	74.06
235.115	84.06
235.349	69.06
235.583	98.06
235.817	84.06
236.051	61.06
236.285	82.06
236.519	81.06
236.753	78.06
236.987	74.06
237.221	79.06
237.455	86.06
237.689	84.06
237.922	64.06
238.156	79.06
238.39	75.06
238.624	83.06
238.858	91.06
239.091	87.06
239.325	81.06
239.559	69.06
239.793	82.06
240.027	90.06
240.26	87.06
240.494	83.06
240.728	81.06
240.961	75.06
241.195	73.06
241.429	73.06
241.662	76.06
241.896	75.06
242.13	80.06
242.363	74.06
242.597	83.06
242.83	88.06
243.064	64.06
243.298	69.06
243.531	75.06
243.765	80.06
243.998	73.06
244.232	90.06
244.465	85.06
244.699	96.06
244.932	72.06
245.166	77.06
245.399	70.06
245.633	85.06
245.866	87.06
246.099	83.06
246.333	77.06
246.566	81.06
246.8	73.06
247.033	89.06
247.266	76.06
247.5	69.06
247.733	79.06
247.966	91.06
248.2	88.06
248.433	70.06
248.666	68.06
248.899	79.06
249.133	74.06
249.366	103.06
249.599	103.06
249.832	81.06
250.066	82.06
250.299	80.06
250.532	89.06
250.765	66.06
250.998	70.06
251.231	79.06
251.465	82.06
251.698	91.06
251.931	100.06
252.164	91.06
252.397	71.06
252.63	80.06
252.863	80.06
253.096	81.06
253.329	88.06
253.562	75.06
253.795	84.06
254.028	92.06
254.261	80.06
254.494	79.06
254.727	85.06
254.96	91.06
255.193	81.06
255.426	83.06
255.659	86.06
255.892	78.06
256.124	80.06
256.357	65.06
256.59	82.06
256.823	92.06
257.056	79.06
257.289	79.06
257.521	87.06
257.754	79.06
257.987	84.06
258.22	103.06
258.452	81.06
258.685	91.06
258.918	83.06
259.151	88.06
259.383	92.06
259.616	81.06
259.849	90.06
260.081	74.06
260.314	81.06
260.547	93.06
260.779	83.06
261.012	94.06
261.244	96.06
261.477	91.06
261.71	103.06
261.942	143.06
262.175	122.06
262.407	91.06
262.64	97.06
262.872	88.06
263.105	92.06
263.337	95.06
263.57	85.06
263.802	89.06
264.035	86.06
264.267	74.06
264.499	90.06
264.732	80.06
264.964	79.06
265.197	89.06
265.429	84.06
265.661	91.06
265.894	76.06
266.126	99.06
266.358	92.06
266.591	88.06
266.823	78.06
267.055	84.06
267.287	84.06
267.52	91.06
267.752	74.06
267.984	84.06
268.216	102.06
268.448	87.06
268.681	78.06
268.913	77.06
269.145	88.06
269.377	84.06
269.609	77.06
269.841	90.06
270.073	86.06
270.306	73.06
270.538	83.06
270.77	81.06
271.002	84.06
271.234	84.06
271.466	85.06
271.698	92.06
271.93	76.06
272.162	78.06
272.394	96.06
272.626	82.06
272.858	89.06
273.09	87.06
273.322	78.06
273.553	69.06
273.785	86.06
274.017	95.06
274.249	70.06
274.481	83.06
274.713	77.06
274.945	95.06
275.176	94.06
275.408	106.06
275.64	103.06
275.872	117.06
276.104	97.06
276.335	91.06
276.567	104.06
276.799	134.06
277.031	146.06
277.262	151.06
277.494	134.06
277.726	83.06
277.957	94.06
278.189	91.06
278.421	85.06
278.652	88.06
278.884	89.06
279.115	94.06
279.347	92.06
279.579	104.06
279.81	114.06
280.042	143.06
280.273	188.06
280.505	120.06
280.736	93.06
280.968	83.06
281.199	93.06
281.431	83.06
281.662	91.06
281.894	77.06
282.125	106.06
282.356	125.06
282.588	163.06
282.819	122.06
283.051	99.06
283.282	102.06
283.513	96.06
283.745	88.06
283.976	83.06
284.207	74.06
284.439	71.06
284.67	86.06
284.901	75.06
285.132	83.06
285.364	93.06
285.595	83.06
285.826	97.06
286.057	83.06
286.288	90.06
286.52	92.06
286.751	67.06
286.982	93.06
287.213	96.06
287.444	71.06
287.675	86.06
287.906	83.06
288.138	98.06
288.369	103.06
288.6	89.06
288.831	81.06
289.062	93.06
289.293	86.06
289.524	90.06
289.755	93.06
289.986	84.06
290.217	73.06
290.448	67.06
290.679	87.06
290.91	92.06
291.141	87.06
291.371	91.06
291.602	86.06
291.833	94.06
292.064	97.06
292.295	95.06
292.526	87.06
292.757	100.06
292.987	95.06
293.218	84.06
293.449	92.06
293.68	86.06
293.91	88.06
294.141	92.06
294.372	96.06
294.603	92.06
294.833	79.06
295.064	80.06
295.295	86.06
295.525	89.06
295.756	101.06
295.987	134.06
296.217	167.06
296.448	148.06
296.679	97.06
296.909	81.06
297.14	81.06
297.37	93.06
297.601	64.06
297.831	88.06
298.062	105.06
298.292	100.06
298.523	83.06
298.753	79.06
298.984	81.06
299.214	96.06
299.445	96.06
299.675	97.06
299.905	87.06
300.136	93.06
300.366	104.06
300.597	89.06
300.827	85.06
301.057	98.06
301.288	107.06
301.518	91.06
301.748	92.06
301.979	117.06
302.209	102.06
302.439	101.06
302.669	94.06
302.9	93.06
303.13	91.06
303.36	98.06
303.59	115.06
303.82	134.06
304.051	97.06
304.281	96.06
304.511	85.06
304.741	91.06
304.971	81.06
305.201	83.06
305.431	91.06
305.661	91.06
305.891	81.06
306.121	92.06
306.352	107.06
306.582	114.06
306.812	103.06
307.042	110.06
307.272	147.06
307.502	147.06
307.731	155.06
307.961	106.06
308.191	82.06
308.421	106.06
308.651	95.06
308.881	96.06
309.111	105.06
309.341	93.06
309.571	90.06
309.8	99.06
310.03	94.06
310.26	106.06
310.49	89.06
310.72	104.06
310.949	117.06
311.179	109.06
311.409	93.06
311.639	109.06
311.868	96.06
312.098	88.06
312.328	101.06
312.557	115.06
312.787	114.06
313.017	114.06
313.246	98.06
313.476	99.06
313.706	92.06
313.935	100.06
314.165	109.06
314.394	108.06
314.624	91.06
314.853	92.06
315.083	93.06
315.312	89.06
315.542	88.06
315.771	88.06
316.001	85.06
316.23	83.06
316.46	86.06
316.689	93.06
316.919	103.06
317.148	104.06
317.377	101.06
317.607	101.06
317.836	100.06
318.065	98.06
318.295	88.06
318.524	98.06
318.753	108.06
318.983	83.06
319.212	103.06
319.441	128.06
319.67	106.06
319.9	98.06
320.129	95.06
320.358	107.06
320.587	102.06
320.816	109.06
321.046	107.06
321.275	99.06
321.504	94.06
321.733	96.06
321.962	107.06
322.191	113.06
322.42	129.06
322.649	118.06
322.878	119.06
323.108	141.06
323.337	137.06
323.566	132.06
323.795	175.06
324.024	259.06
324.253	500.06
324.482	1068.06
324.71	2270.06
324.939	3025.06
325.168	1089.06
325.397	323.06
325.626	167.06
325.855	149.06
326.084	143.06
326.313	154.06
326.542	184.06
326.77	274.06
326.999	582.06
327.228	1180.06
327.457	2186.06
327.686	1775.06
327.914	536.06
328.143	407.06
328.372	450.06
328.6	266.06
328.829	177.06
329.058	181.06
329.287	187.06
329.515	145.06
329.744	189.06
329.972	310.06
330.201	607.06
330.43	900.06
330.658	420.06
330.887	245.06
331.115	181.06
331.344	132.06
331.572	114.06
331.801	121.06
332.03	130.06
332.258	111.06
332.486	101.06
332.715	90.06
332.943	101.06
333.172	106.06
333.4	113.06
333.629	142.06
333.857	188.06
334.085	289.06
334.314	575.06
334.542	1049.06
334.771	1030.06
334.999	321.06
335.227	149.06
335.455	134.06
335.684	115.06
335.912	103.06
336.14	114.06
336.369	98.06
336.597	109.06
336.825	116.06
337.053	81.06
337.281	83.06
337.51	99.06
337.738	104.06
337.966	100.06
338.194	120.06
338.422	104.06
338.65	96.06
338.878	105.06
339.106	81.06
339.334	87.06
339.562	88.06
339.79	89.06
340.018	100.06
340.246	99.06
340.474	90.06
340.702	97.06
340.93	92.06
341.158	84.06
341.386	84.06
341.614	108.06
341.842	98.06
342.07	88.06
342.298	100.06
342.526	99.06
342.754	76.06
342.981	97.06
343.209	99.06
343.437	101.06
343.665	77.06
343.893	90.06
344.12	101.06
344.348	88.06
344.576	87.06
344.804	97.06
345.031	115.06
345.259	102.06
345.487	103.06
345.714	98.06
345.942	87.06
346.17	101.06
346.397	85.06
346.625	80.06
346.853	97.06
347.08	93.06
347.308	99.06
347.535	113.06
347.763	112.06
347.99	98.06
348.218	114.06
348.445	107.06
348.673	113.06
348.9	97.06
349.128	102.06
349.355	98.06
349.583	93.06
349.81	103.06
350.037	80.06
350.265	98.06
350.492	87.06
350.72	97.06
350.947	87.06
351.174	116.06
351.402	137.06
351.629	116.06
351.856	102.06
352.083	110.06
352.311	119.06
352.538	125.06
352.765	135.06
352.992	117.06
353.22	104.06
353.447	108.06
353.674	103.06
353.901	104.06
354.128	93.06
354.355	105.06
354.583	103.06
354.81	101.06
355.037	98.06
355.264	90.06
355.491	83.06
355.718	84.06
355.945	94.06
356.172	89.06
356.399	89.06
356.626	94.06
356.853	88.06
357.08	87.06
357.307	90.06
357.534	92.06
357.761	79.06
357.988	99.06
358.215	98.06
358.441	88.06
358.668	95.06
358.895	104.06
359.122	95.06
359.349	92.06
359.576	89.06
359.802	114.06
360.029	139.06
360.256	131.06
360.483	111.06
360.709	97.06
360.936	91.06
361.163	104.06
361.39	102.06
361.616	118.06
361.843	102.06
362.07	104.06
362.296	112.06
362.523	83.06
362.749	96.06
362.976	97.06
363.203	102.06
363.429	86.06
363.656	86.06
363.882	93.06
364.109	94.06
364.335	93.06
364.562	99.06
364.788	107.06
365.015	102.06
365.241	107.06
365.468	101.06
365.694	109.06
365.92	99.06
366.147	104.06
366.373	83.06
366.599	73.06
366.826	93.06
367.052	86.06
367.278	113.06
367.505	102.06
367.731	95.06
367.957	96.06
368.184	99.06
368.41	98.06
368.636	125.06
368.862	121.06
369.089	123.06
369.315	116.06
369.541	96.06
369.767	91.06
369.993	91.06
370.219	90.06
370.445	84.06
370.672	92.06
370.898	82.06
371.124	96.06
371.35	85.06
371.576	97.06
371.802	72.06
372.028	86.06
372.254	84.06
372.48	93.06
372.706	99.06
372.932	105.06
373.158	94.06
373.384	95.06
373.61	92.06
373.835	90.06
374.061	78.06
374.287	98.06
374.513	96.06
374.739	94.06
374.965	91.06
375.191	76.06
375.416	93.06
375.642	87.06
375.868	93.06
376.094	85.06
376.319	84.06
376.545	88.06
376.771	88.06
376.997	96.06
377.222	90.06
377.448	95.06
377.674	90.06
377.899	78.06
378.125	76.06
378.35	76.06
378.576	89.06
378.802	100.06
379.027	90.06
379.253	113.06
379.478	87.06
379.704	89.06
379.929	118.06
380.155	92.06
380.38	100.06
380.606	103.06
380.831	90.06
381.057	96.06
381.282	104.06
381.507	86.06
381.733	102.06
381.958	101.06
382.184	104.06
382.409	112.06
382.634	95.06
382.86	101.06
383.085	115.06
383.31	119.06
383.535	92.06
383.761	112.06
383.986	97.06
384.211	86.06
384.436	86.06
384.662	90.06
384.887	101.06
385.112	104.06
385.337	107.06
385.562	104.06
385.787	105.06
386.013	105.06
386.238	132.06
386.463	106.06
386.688	111.06
386.913	111.06
387.138	102.06
387.363	109.06
387.588	81.06
387.813	111.06
388.038	104.06
388.263	112.06
388.488	103.06
388.713	96.06
388.938	92.06
389.163	92.06
389.387	100.06
389.612	90.06
389.837	90.06
390.062	96.06
390.287	95.06
390.512	94.06
390.736	81.06
390.961	99.06
391.186	89.06
391.411	89.06
391.636	93.06
391.86	85.06
392.085	82.06
392.31	81.06
392.534	84.06
392.759	98.06
392.984	87.06
393.208	93.06
393.433	100.06
393.658	73.06
393.882	80.06
394.107	85.06
394.331	89.06
394.556	80.06
394.78	93.06
395.005	92.06
395.229	82.06
395.454	81.06
395.678	93.06
395.903	78.06
396.127	86.06
396.352	87.06
396.576	95.06
396.801	89.06
397.025	97.06
397.249	95.06
397.474	86.06
397.698	87.06
397.922	93.06
398.147	85.06
398.371	87.06
398.595	89.06
398.82	83.06
399.044	89.06
399.268	107.06
399.492	84.06
399.717	92.06
399.941	103.06
400.165	74.06
400.389	99.06
400.613	89.06
400.837	93.06
401.062	93.06
401.286	97.06
401.51	91.06
401.734	79.06
401.958	99.06
402.182	152.06
402.406	201.06
402.63	150.06
402.854	104.06
403.078	100.06
403.302	90.06
403.526	98.06
403.75	95.06
403.974	87.06
404.198	95.06
404.422	81.06
404.645	90.06
404.869	100.06
405.093	108.06
405.317	127.06
405.541	137.06
405.765	113.06
405.988	151.06
406.212	220.06
406.436	321.06
406.66	200.06
406.883	99.06
407.107	109.06
407.331	101.06
407.555	112.06
407.778	106.06
408.002	104.06
408.226	95.06
408.449	99.06
408.673	98.06
408.896	96.06
409.12	96.06
409.344	81.06
409.567	79.06
409.791	98.06
410.014	99.06
410.238	94.06
410.461	108.06
410.685	93.06
410.908	92.06
411.132	105.06
411.355	119.06
411.578	91.06
411.802	89.06
412.025	88.06
412.249	113.06
412.472	118.06
412.695	124.06
412.919	110.06
413.142	89.06
413.365	91.06
413.589	101.06
413.812	88.06
414.035	92.06
414.258	102.06
414.482	83.06
414.705	101.06
414.928	95.06
415.151	88.06
415.374	77.06
415.597	87.06
415.821	96.06
416.044	91.06
416.267	90.06
416.49	100.06
416.713	89.06
416.936	86.06
417.159	90.06
417.382	89.06
417.605	93.06
417.828	102.06
418.051	102.06
418.274	89.06
418.497	95.06
418.72	77.06
418.943	89.06
419.166	66.06
419.389	88.06
419.611	84.06
419.834	86.06
420.057	102.06
420.28	98.06
420.503	70.06
420.726	97.06
420.948	90.06
421.171	95.06
421.394	99.06
421.617	87.06
421.839	80.06
422.062	92.06
422.285	93.06
422.507	95.06
422.73	99.06
422.953	84.06
423.175	86.06
423.398	100.06
423.621	93.06
423.843	103.06
424.066	90.06
424.288	81.06
424.511	97.06
424.733	108.06
424.956	127.06
425.178	98.06
425.401	101.06
425.623	113.06
425.846	96.06
426.068	91.06
426.291	95.06
426.513	94.06
426.735	88.06
426.958	92.06
427.18	116.06
427.402	174.06
427.625	228.06
427.847	216.06
428.069	188.06
428.292	122.06
428.514	95.06
428.736	90.06
428.958	92.06
429.181	92.06
429.403	93.06
429.625	84.06
429.847	87.06
430.069	92.06
430.292	103.06
430.514	93.06
430.736	78.06
430.958	81.06
431.18	96.06
431.402	89.06
431.624	92.06
431.846	80.06
432.068	97.06
432.29	70.06
432.512	101.06
432.734	89.06
432.956	95.06
433.178	87.06
433.4	103.06
433.622	97.06
433.844	90.06
434.066	80.06
434.287	74.06
434.509	98.06
434.731	93.06
434.953	83.06
435.175	88.06
435.397	101.06
435.618	105.06
435.84	108.06
436.062	147.06
436.284	127.06
436.505	102.06
436.727	86.06
436.949	89.06
437.17	107.06
437.392	86.06
437.614	93.06
437.835	108.06
438.057	141.06
438.278	125.06
438.5	104.06
438.721	132.06
438.943	101.06
439.165	88.06
439.386	92.06
439.608	108.06
439.829	97.06
440.05	139.06
440.272	191.06
440.493	119.06
440.715	107.06
440.936	90.06
441.158	88.06
441.379	89.06
441.6	98.06
441.822	97.06
442.043	99.06
442.264	118.06
442.486	104.06
442.707	103.06
442.928	112.06
443.149	178.06
443.371	177.06
443.592	128.06
443.813	115.06
444.034	113.06
444.255	94.06
444.476	88.06
444.698	89.06
444.919	84.06
445.14	145.06
445.361	150.06
445.582	137.06
445.803	161.06
446.024	159.06
446.245	163.06
446.466	131.06
446.687	90.06
446.908	89.06
447.129	99.06
447.35	91.06
447.571	90.06
447.792	103.06
448.013	101.06
448.234	116.06
448.455	116.06
448.675	113.06
448.896	122.06
449.117	92.06
449.338	123.06
449.559	140.06
449.779	140.06
450	101.06
450.221	87.06
450.442	71.06
450.662	93.06
450.883	124.06
451.104	130.06
451.324	119.06
451.545	95.06
451.766	81.06
451.986	97.06
452.207	88.06
452.428	97.06
452.648	123.06
452.869	118.06
453.089	137.06
453.31	136.06
453.53	88.06
453.751	89.06
453.971	112.06
454.192	129.06
454.412	96.06
454.633	93.06
454.853	90.06
455.073	91.06
455.294	87.06
455.514	93.06
455.734	93.06
455.955	87.06
456.175	73.06
456.395	97.06
456.616	90.06
456.836	95.06
457.056	97.06
457.276	66.06
457.497	87.06
457.717	87.06
457.937	87.06
458.157	83.06
458.377	93.06
458.598	118.06
458.818	216.06
459.038	238.06
459.258	132.06
459.478	106.06
459.698	88.06
459.918	85.06
460.138	87.06
460.358	98.06
460.578	86.06
460.798	99.06
461.018	90.06
461.238	93.06
461.458	80.06
461.678	87.06
461.898	89.06
462.118	73.06
462.338	87.06
462.558	86.06
462.777	82.06
462.997	101.06
463.217	94.06
463.437	101.06
463.657	92.06
463.876	102.06
464.096	89.06
464.316	113.06
464.536	101.06
464.755	102.06
464.975	124.06
465.195	218.06
465.414	225.06
465.634	93.06
465.854	93.06
466.073	90.06
466.293	84.06
466.512	99.06
466.732	93.06
466.951	92.06
467.171	97.06
467.391	116.06
467.61	129.06
467.829	149.06
468.049	320.06
468.268	518.06
468.488	167.06
468.707	99.06
468.927	89.06
469.146	88.06
469.365	77.06
469.585	87.06
469.804	111.06
470.023	105.06
470.243	99.06
470.462	111.06
470.681	130.06
470.901	103.06
471.12	90.06
471.339	103.06
471.558	97.06
471.777	125.06
471.997	211.06
472.216	684.06
472.435	1529.06
472.654	397.06
472.873	122.06
473.092	91.06
473.311	79.06
473.53	90.06
473.749	82.06
473.968	103.06
474.187	111.06
474.406	105.06
474.625	69.06
474.844	83.06
475.063	99.06
475.282	85.06
475.501	95.06
475.72	87.06
475.939	93.06
476.158	93.06
476.377	92.06
476.596	102.06
476.814	97.06
477.033	93.06
477.252	94.06
477.471	90.06
477.69	99.06
477.908	79.06
478.127	80.06
478.346	95.06
478.564	88.06
478.783	90.06
479.002	88.06
479.22	104.06
479.439	126.06
479.658	130.06
479.876	122.06
480.095	110.06
480.313	121.06
480.532	115.06
480.751	199.06
480.969	602.06
481.188	2537.06
481.406	1571.06
481.624	253.06
481.843	113.06
482.061	103.06
482.28	100.06
482.498	98.06
482.717	86.06
482.935	89.06
483.153	86.06
483.372	97.06
483.59	90.06
483.808	95.06
484.027	89.06
484.245	104.06
484.463	93.06
484.681	103.06
484.9	88.06
485.118	93.06
485.336	92.06
485.554	110.06
485.772	114.06
485.99	105.06
486.209	111.06
486.427	105.06
486.645	117.06
486.863	138.06
487.081	116.06
487.299	87.06
487.517	96.06
487.735	89.06
487.953	103.06
488.171	91.06
488.389	86.06
488.607	111.06
488.825	100.06
489.043	96.06
489.261	99.06
489.479	90.06
489.696	85.06
489.914	107.06
490.132	86.06
490.35	86.06
490.568	95.06
490.786	88.06
491.003	90.06
491.221	92.06
491.439	88.06
491.657	98.06
491.874	88.06
492.092	89.06
492.31	93.06
492.527	99.06
492.745	74.06
492.963	97.06
493.18	105.06
493.398	85.06
493.615	90.06
493.833	87.06
494.05	93.06
494.268	82.06
494.485	95.06
494.703	69.06
494.92	90.06
495.138	90.06
495.355	88.06
495.573	90.06
495.79	95.06
496.008	79.06
496.225	88.06
496.442	101.06
496.66	100.06
496.877	102.06
497.094	91.06
497.312	101.06
497.529	95.06
497.746	83.06
497.963	85.06
498.181	93.06
498.398	84.06
498.615	117.06
498.832	111.06
499.049	93.06
499.267	94.06
499.484	73.06
499.701	98.06
499.918	98.06
500.135	94.06
500.352	82.06
500.569	99.06
500.786	87.06
501.003	91.06
501.22	85.06
501.437	95.06
501.654	93.06
501.871	127.06
502.088	105.06
502.305	83.06
502.522	99.06
502.739	82.06
502.956	88.06
503.172	98.06
503.389	105.06
503.606	120.06
503.823	109.06
504.04	89.06
504.256	108.06
504.473	101.06
504.69	99.06
504.907	82.06
505.123	81.06
505.34	83.06
505.557	92.06
505.773	99.06
505.99	90.06
506.207	89.06
506.423	75.06
506.64	84.06
506.856	90.06
507.073	90.06
507.289	91.06
507.506	99.06
507.722	126.06
507.939	122.06
508.155	97.06
508.372	99.06
508.588	86.06
508.805	94.06
509.021	87.06
509.238	90.06
509.454	104.06
509.67	96.06
509.887	114.06
510.103	145.06
510.319	263.06
510.536	926.06
510.752	3399.06
510.968	900.06
511.184	180.06
511.401	142.06
511.617	112.06
511.833	100.06
512.049	97.06
512.265	89.06
512.481	85.06
512.698	93.06
512.914	93.06
513.13	98.06
513.346	104.06
513.562	106.06
513.778	100.06
