Data from Circ_2000_H10_HRD10591_00093.txt Node
Date: Wed Jan 03 10:49:52 EST 2024
User: Yrep
Spectrometer: HR+D1059
Trigger mode: 1
Integration Time (sec): 1.000000E-1
Scans to average: 1
Electric dark correction enabled: true
Nonlinearity correction enabled: false
Boxcar width: 0
XAxis mode: Wavelengths
Number of Pixels in Spectrum: 2048
>>>>>Begin Spectral Data<<<<<
223.165	-19.31
223.4	-19.31
223.635	-19.31
223.869	-22.31
224.104	-5.31
224.338	-24.31
224.573	-11.31
224.808	-24.31
225.042	-3.31
225.277	-17.31
225.511	-12.31
225.746	-10.31
225.98	19.69
226.215	23.69
226.449	19.69
226.683	24.69
226.918	31.69
227.152	30.69
227.387	43.69
227.621	41.69
227.856	43.69
228.09	47.69
228.324	39.69
228.559	63.69
228.793	59.69
229.027	63.69
229.262	73.69
229.496	83.69
229.73	114.69
229.964	110.69
230.199	74.69
230.433	73.69
230.667	87.69
230.901	76.69
231.136	80.69
231.37	78.69
231.604	77.69
231.838	72.69
232.072	81.69
232.306	94.69
232.541	67.69
232.775	73.69
233.009	93.69
233.243	82.69
233.477	97.69
233.711	84.69
233.945	80.69
234.179	88.69
234.413	85.69
234.647	67.69
234.881	75.69
235.115	84.69
235.349	93.69
235.583	72.69
235.817	79.69
236.051	84.69
236.285	84.69
236.519	87.69
236.753	101.69
236.987	71.69
237.221	99.69
237.455	106.69
237.689	70.69
237.922	96.69
238.156	60.69
238.39	78.69
238.624	73.69
238.858	74.69
239.091	78.69
239.325	83.69
239.559	106.69
239.793	95.69
240.027	85.69
240.26	76.69
240.494	82.69
240.728	92.69
240.961	87.69
241.195	76.69
241.429	85.69
241.662	68.69
241.896	74.69
242.13	72.69
242.363	80.69
242.597	77.69
242.83	86.69
243.064	75.69
243.298	85.69
243.531	88.69
243.765	80.69
243.998	78.69
244.232	90.69
244.465	92.69
244.699	90.69
244.932	75.69
245.166	86.69
245.399	95.69
245.633	84.69
245.866	77.69
246.099	73.69
246.333	72.69
246.566	76.69
246.8	86.69
247.033	77.69
247.266	83.69
247.5	89.69
247.733	90.69
247.966	111.69
248.2	82.69
248.433	75.69
248.666	79.69
248.899	88.69
249.133	96.69
249.366	105.69
249.599	108.69
249.832	90.69
250.066	78.69
250.299	80.69
250.532	75.69
250.765	87.69
250.998	94.69
251.231	91.69
251.465	73.69
251.698	85.69
251.931	77.69
252.164	69.69
252.397	73.69
252.63	93.69
252.863	89.69
253.096	78.69
253.329	81.69
253.562	91.69
253.795	83.69
254.028	81.69
254.261	85.69
254.494	88.69
254.727	83.69
254.96	99.69
255.193	78.69
255.426	83.69
255.659	87.69
255.892	99.69
256.124	89.69
256.357	83.69
256.59	96.69
256.823	94.69
257.056	89.69
257.289	95.69
257.521	96.69
257.754	93.69
257.987	100.69
258.22	83.69
258.452	93.69
258.685	116.69
258.918	86.69
259.151	92.69
259.383	87.69
259.616	84.69
259.849	89.69
260.081	84.69
260.314	88.69
260.547	85.69
260.779	88.69
261.012	107.69
261.244	115.69
261.477	104.69
261.71	113.69
261.942	134.69
262.175	157.69
262.407	91.69
262.64	78.69
262.872	85.69
263.105	88.69
263.337	92.69
263.57	96.69
263.802	77.69
264.035	70.69
264.267	92.69
264.499	85.69
264.732	83.69
264.964	82.69
265.197	83.69
265.429	99.69
265.661	89.69
265.894	88.69
266.126	96.69
266.358	89.69
266.591	84.69
266.823	84.69
267.055	99.69
267.287	80.69
267.52	87.69
267.752	101.69
267.984	88.69
268.216	85.69
268.448	83.69
268.681	94.69
268.913	102.69
269.145	89.69
269.377	87.69
269.609	82.69
269.841	95.69
270.073	93.69
270.306	85.69
270.538	85.69
270.77	92.69
271.002	85.69
271.234	87.69
271.466	94.69
271.698	89.69
271.93	94.69
272.162	92.69
272.394	89.69
272.626	85.69
272.858	90.69
273.09	89.69
273.322	89.69
273.553	92.69
273.785	90.69
274.017	87.69
274.249	91.69
274.481	81.69
274.713	99.69
274.945	99.69
275.176	108.69
275.408	109.69
275.64	125.69
275.872	121.69
276.104	114.69
276.335	104.69
276.567	121.69
276.799	171.69
277.031	190.69
277.262	195.69
277.494	149.69
277.726	103.69
277.957	101.69
278.189	93.69
278.421	91.69
278.652	92.69
278.884	93.69
279.115	104.69
279.347	91.69
279.579	101.69
279.81	135.69
280.042	192.69
280.273	250.69
280.505	187.69
280.736	104.69
280.968	97.69
281.199	93.69
281.431	77.69
281.662	85.69
281.894	108.69
282.125	115.69
282.356	148.69
282.588	193.69
282.819	158.69
283.051	95.69
283.282	84.69
283.513	86.69
283.745	96.69
283.976	90.69
284.207	95.69
284.439	74.69
284.67	101.69
284.901	87.69
285.132	78.69
285.364	90.69
285.595	94.69
285.826	84.69
286.057	91.69
286.288	86.69
286.52	88.69
286.751	88.69
286.982	89.69
287.213	84.69
287.444	78.69
287.675	99.69
287.906	91.69
288.138	102.69
288.369	95.69
288.6	96.69
288.831	97.69
289.062	97.69
289.293	76.69
289.524	82.69
289.755	105.69
289.986	96.69
290.217	105.69
290.448	90.69
290.679	76.69
290.91	88.69
291.141	85.69
291.371	92.69
291.602	69.69
291.833	90.69
292.064	93.69
292.295	106.69
292.526	85.69
292.757	98.69
292.987	80.69
293.218	105.69
293.449	96.69
293.68	97.69
293.91	88.69
294.141	98.69
294.372	60.69
294.603	99.69
294.833	84.69
295.064	93.69
295.295	108.69
295.525	104.69
295.756	110.69
295.987	134.69
296.217	180.69
296.448	160.69
296.679	94.69
296.909	107.69
297.14	87.69
297.37	113.69
297.601	103.69
297.831	109.69
298.062	95.69
298.292	92.69
298.523	96.69
298.753	77.69
298.984	93.69
299.214	95.69
299.445	107.69
299.675	96.69
299.905	95.69
300.136	99.69
300.366	101.69
300.597	108.69
300.827	110.69
301.057	118.69
301.288	128.69
301.518	114.69
301.748	90.69
301.979	120.69
302.209	91.69
302.439	118.69
302.669	102.69
302.9	97.69
303.13	107.69
303.36	127.69
303.59	131.69
303.82	159.69
304.051	113.69
304.281	103.69
304.511	96.69
304.741	83.69
304.971	90.69
305.201	95.69
305.431	96.69
305.661	94.69
305.891	92.69
306.121	105.69
306.352	131.69
306.582	122.69
306.812	103.69
307.042	120.69
307.272	168.69
307.502	177.69
307.731	167.69
307.961	150.69
308.191	105.69
308.421	97.69
308.651	85.69
308.881	86.69
309.111	92.69
309.341	93.69
309.571	110.69
309.8	109.69
310.03	107.69
310.26	120.69
310.49	114.69
310.72	117.69
310.949	136.69
311.179	111.69
311.409	106.69
311.639	112.69
311.868	107.69
312.098	97.69
312.328	111.69
312.557	122.69
312.787	131.69
313.017	124.69
313.246	108.69
313.476	103.69
313.706	100.69
313.935	111.69
314.165	126.69
314.394	123.69
314.624	128.69
314.853	117.69
315.083	112.69
315.312	103.69
315.542	93.69
315.771	85.69
316.001	104.69
316.23	92.69
316.46	98.69
316.689	95.69
316.919	106.69
317.148	112.69
317.377	116.69
317.607	93.69
317.836	109.69
318.065	115.69
318.295	100.69
318.524	92.69
318.753	101.69
318.983	102.69
319.212	98.69
319.441	128.69
319.67	125.69
319.9	102.69
320.129	110.69
320.358	110.69
320.587	107.69
320.816	100.69
321.046	115.69
321.275	109.69
321.504	100.69
321.733	116.69
321.962	122.69
322.191	108.69
322.42	108.69
322.649	134.69
322.878	145.69
323.108	156.69
323.337	161.69
323.566	159.69
323.795	196.69
324.024	279.69
324.253	559.69
324.482	1206.69
324.71	2535.69
324.939	3376.69
325.168	1202.69
325.397	344.69
325.626	183.69
325.855	167.69
326.084	155.69
326.313	159.69
326.542	185.69
326.77	309.69
326.999	614.69
327.228	1269.69
327.457	2410.69
327.686	1901.69
327.914	620.69
328.143	565.69
328.372	709.69
328.6	383.69
328.829	226.69
329.058	213.69
329.287	224.69
329.515	215.69
329.744	268.69
329.972	495.69
330.201	1053.69
330.43	1517.69
330.658	679.69
330.887	335.69
331.115	223.69
331.344	126.69
331.572	134.69
331.801	151.69
332.03	150.69
332.258	112.69
332.486	117.69
332.715	107.69
332.943	117.69
333.172	139.69
333.4	147.69
333.629	187.69
333.857	268.69
334.085	486.69
334.314	1022.69
334.542	1924.69
334.771	1776.69
334.999	462.69
335.227	192.69
335.455	147.69
335.684	120.69
335.912	111.69
336.14	115.69
336.369	121.69
336.597	128.69
336.825	123.69
337.053	109.69
337.281	116.69
337.51	95.69
337.738	112.69
337.966	110.69
338.194	103.69
338.422	111.69
338.65	109.69
338.878	111.69
339.106	96.69
339.334	102.69
339.562	101.69
339.79	109.69
340.018	83.69
340.246	105.69
340.474	94.69
340.702	103.69
340.93	101.69
341.158	100.69
341.386	110.69
341.614	123.69
341.842	93.69
342.07	93.69
342.298	107.69
342.526	99.69
342.754	103.69
342.981	105.69
343.209	85.69
343.437	111.69
343.665	94.69
343.893	96.69
344.12	111.69
344.348	98.69
344.576	89.69
344.804	89.69
345.031	110.69
345.259	123.69
345.487	126.69
345.714	110.69
345.942	111.69
346.17	104.69
346.397	109.69
346.625	103.69
346.853	112.69
347.08	104.69
347.308	116.69
347.535	120.69
347.763	122.69
347.99	124.69
348.218	120.69
348.445	124.69
348.673	114.69
348.9	106.69
349.128	107.69
349.355	100.69
349.583	80.69
349.81	93.69
350.037	110.69
350.265	109.69
350.492	92.69
350.72	98.69
350.947	104.69
351.174	124.69
351.402	143.69
351.629	123.69
351.856	111.69
352.083	111.69
352.311	131.69
352.538	138.69
352.765	128.69
352.992	144.69
353.22	128.69
353.447	127.69
353.674	116.69
353.901	87.69
354.128	112.69
354.355	102.69
354.583	112.69
354.81	101.69
355.037	101.69
355.264	115.69
355.491	92.69
355.718	95.69
355.945	95.69
356.172	84.69
356.399	97.69
356.626	106.69
356.853	91.69
357.08	88.69
357.307	96.69
357.534	105.69
357.761	104.69
357.988	92.69
358.215	100.69
358.441	103.69
358.668	87.69
358.895	87.69
359.122	104.69
359.349	98.69
359.576	89.69
359.802	133.69
360.029	138.69
360.256	138.69
360.483	127.69
360.709	95.69
360.936	101.69
361.163	109.69
361.39	113.69
361.616	116.69
361.843	117.69
362.07	108.69
362.296	120.69
362.523	96.69
362.749	101.69
362.976	99.69
363.203	106.69
363.429	103.69
363.656	109.69
363.882	103.69
364.109	94.69
364.335	110.69
364.562	103.69
364.788	94.69
365.015	99.69
365.241	108.69
365.468	134.69
365.694	121.69
365.92	108.69
366.147	100.69
366.373	108.69
366.599	85.69
366.826	107.69
367.052	92.69
367.278	111.69
367.505	99.69
367.731	104.69
367.957	101.69
368.184	108.69
368.41	117.69
368.636	135.69
368.862	141.69
369.089	133.69
369.315	115.69
369.541	100.69
369.767	100.69
369.993	105.69
370.219	101.69
370.445	91.69
370.672	87.69
370.898	93.69
371.124	94.69
371.35	94.69
371.576	99.69
371.802	98.69
372.028	99.69
372.254	98.69
372.48	88.69
372.706	98.69
372.932	115.69
373.158	99.69
373.384	96.69
373.61	93.69
373.835	91.69
374.061	96.69
374.287	95.69
374.513	102.69
374.739	88.69
374.965	87.69
375.191	103.69
375.416	94.69
375.642	108.69
375.868	94.69
376.094	92.69
376.319	94.69
376.545	83.69
376.771	99.69
376.997	94.69
377.222	93.69
377.448	97.69
377.674	93.69
377.899	92.69
378.125	89.69
378.35	83.69
378.576	94.69
378.802	87.69
379.027	80.69
379.253	93.69
379.478	82.69
379.704	100.69
379.929	105.69
380.155	92.69
380.38	96.69
380.606	104.69
380.831	105.69
381.057	123.69
381.282	102.69
381.507	109.69
381.733	91.69
381.958	93.69
382.184	87.69
382.409	102.69
382.634	103.69
382.86	116.69
383.085	101.69
383.31	97.69
383.535	112.69
383.761	120.69
383.986	108.69
384.211	94.69
384.436	109.69
384.662	107.69
384.887	95.69
385.112	105.69
385.337	118.69
385.562	95.69
385.787	113.69
386.013	113.69
386.238	141.69
386.463	120.69
386.688	107.69
386.913	110.69
387.138	117.69
387.363	110.69
387.588	97.69
387.813	116.69
388.038	116.69
388.263	111.69
388.488	119.69
388.713	89.69
388.938	78.69
389.163	84.69
389.387	92.69
389.612	90.69
389.837	93.69
390.062	97.69
390.287	110.69
390.512	94.69
390.736	96.69
390.961	104.69
391.186	96.69
391.411	94.69
391.636	87.69
391.86	86.69
392.085	92.69
392.31	87.69
392.534	86.69
392.759	84.69
392.984	93.69
393.208	88.69
393.433	101.69
393.658	85.69
393.882	82.69
394.107	79.69
394.331	90.69
394.556	90.69
394.78	96.69
395.005	109.69
395.229	89.69
395.454	95.69
395.678	90.69
395.903	87.69
396.127	97.69
396.352	96.69
396.576	89.69
396.801	91.69
397.025	96.69
397.249	75.69
397.474	92.69
397.698	93.69
397.922	97.69
398.147	102.69
398.371	84.69
398.595	106.69
398.82	95.69
399.044	85.69
399.268	97.69
399.492	88.69
399.717	97.69
399.941	87.69
400.165	109.69
400.389	118.69
400.613	98.69
400.837	92.69
401.062	94.69
401.286	95.69
401.51	103.69
401.734	107.69
401.958	118.69
402.182	179.69
402.406	218.69
402.63	167.69
402.854	116.69
403.078	105.69
403.302	103.69
403.526	88.69
403.75	88.69
403.974	93.69
404.198	104.69
404.422	101.69
404.645	93.69
404.869	108.69
405.093	113.69
405.317	138.69
405.541	140.69
405.765	128.69
405.988	145.69
406.212	234.69
406.436	361.69
406.66	220.69
406.883	129.69
407.107	115.69
407.331	125.69
407.555	110.69
407.778	116.69
408.002	107.69
408.226	107.69
408.449	96.69
408.673	95.69
408.896	93.69
409.12	100.69
409.344	117.69
409.567	95.69
409.791	92.69
410.014	82.69
410.238	113.69
410.461	84.69
410.685	94.69
410.908	105.69
411.132	118.69
411.355	116.69
411.578	88.69
411.802	97.69
412.025	92.69
412.249	126.69
412.472	126.69
412.695	158.69
412.919	113.69
413.142	97.69
413.365	94.69
413.589	97.69
413.812	94.69
414.035	103.69
414.258	109.69
414.482	85.69
414.705	79.69
414.928	79.69
415.151	90.69
415.374	109.69
415.597	89.69
415.821	91.69
416.044	87.69
416.267	111.69
416.49	92.69
416.713	91.69
416.936	97.69
417.159	80.69
417.382	100.69
417.605	108.69
417.828	114.69
418.051	104.69
418.274	95.69
418.497	83.69
418.72	89.69
418.943	84.69
419.166	83.69
419.389	107.69
419.611	99.69
419.834	92.69
420.057	108.69
420.28	102.69
420.503	104.69
420.726	100.69
420.948	99.69
421.171	103.69
421.394	100.69
421.617	104.69
421.839	95.69
422.062	87.69
422.285	93.69
422.507	119.69
422.73	120.69
422.953	106.69
423.175	91.69
423.398	88.69
423.621	95.69
423.843	91.69
424.066	102.69
424.288	89.69
424.511	107.69
424.733	103.69
424.956	145.69
425.178	116.69
425.401	124.69
425.623	127.69
425.846	100.69
426.068	101.69
426.291	113.69
426.513	85.69
426.735	94.69
426.958	106.69
427.18	143.69
427.402	201.69
427.625	305.69
427.847	286.69
428.069	255.69
428.292	137.69
428.514	88.69
428.736	87.69
428.958	76.69
429.181	94.69
429.403	85.69
429.625	103.69
429.847	91.69
430.069	127.69
430.292	115.69
430.514	109.69
430.736	92.69
430.958	76.69
431.18	96.69
431.402	89.69
431.624	94.69
431.846	79.69
432.068	78.69
432.29	96.69
432.512	79.69
432.734	97.69
432.956	91.69
433.178	110.69
433.4	109.69
433.622	93.69
433.844	101.69
434.066	103.69
434.287	94.69
434.509	96.69
434.731	92.69
434.953	97.69
435.175	95.69
435.397	103.69
435.618	101.69
435.84	126.69
436.062	137.69
436.284	136.69
436.505	135.69
436.727	115.69
436.949	101.69
437.17	93.69
437.392	94.69
437.614	112.69
437.835	148.69
438.057	151.69
438.278	147.69
438.5	138.69
438.721	141.69
438.943	128.69
439.165	115.69
439.386	104.69
439.608	104.69
439.829	132.69
440.05	167.69
440.272	205.69
440.493	126.69
440.715	105.69
440.936	111.69
441.158	92.69
441.379	97.69
441.6	111.69
441.822	104.69
442.043	100.69
442.264	115.69
442.486	128.69
442.707	119.69
442.928	157.69
443.149	198.69
443.371	215.69
443.592	145.69
443.813	144.69
444.034	134.69
444.255	114.69
444.476	96.69
444.698	105.69
444.919	97.69
445.14	149.69
445.361	151.69
445.582	164.69
445.803	214.69
446.024	211.69
446.245	177.69
446.466	135.69
446.687	96.69
446.908	101.69
447.129	111.69
447.35	101.69
447.571	89.69
447.792	110.69
448.013	115.69
448.234	142.69
448.455	110.69
448.675	151.69
448.896	145.69
449.117	113.69
449.338	114.69
449.559	158.69
449.779	167.69
450	97.69
450.221	108.69
450.442	90.69
450.662	122.69
450.883	151.69
451.104	168.69
451.324	116.69
451.545	97.69
451.766	102.69
451.986	108.69
452.207	96.69
452.428	106.69
452.648	99.69
452.869	148.69
453.089	161.69
453.31	167.69
453.53	108.69
453.751	92.69
453.971	127.69
454.192	163.69
454.412	121.69
454.633	94.69
454.853	108.69
455.073	98.69
455.294	104.69
455.514	116.69
455.734	112.69
455.955	88.69
456.175	96.69
456.395	87.69
456.616	94.69
456.836	82.69
457.056	102.69
457.276	88.69
457.497	87.69
457.717	109.69
457.937	107.69
458.157	86.69
458.377	99.69
458.598	144.69
458.818	236.69
459.038	264.69
459.258	178.69
459.478	103.69
459.698	91.69
459.918	86.69
460.138	94.69
460.358	92.69
460.578	97.69
460.798	113.69
461.018	93.69
461.238	83.69
461.458	96.69
461.678	81.69
461.898	84.69
462.118	108.69
462.338	101.69
462.558	99.69
462.777	114.69
462.997	103.69
463.217	108.69
463.437	118.69
463.657	113.69
463.876	94.69
464.096	107.69
464.316	107.69
464.536	105.69
464.755	104.69
464.975	148.69
465.195	259.69
465.414	263.69
465.634	133.69
465.854	91.69
466.073	103.69
466.293	93.69
466.512	108.69
466.732	83.69
466.951	105.69
467.171	106.69
467.391	110.69
467.61	169.69
467.829	216.69
468.049	556.69
468.268	811.69
468.488	214.69
468.707	111.69
468.927	87.69
469.146	93.69
469.365	101.69
469.585	85.69
469.804	121.69
470.023	128.69
470.243	106.69
470.462	134.69
470.681	156.69
470.901	114.69
471.12	111.69
471.339	117.69
471.558	116.69
471.777	167.69
471.997	285.69
472.216	1110.69
472.435	2511.69
472.654	591.69
472.873	166.69
473.092	96.69
473.311	79.69
473.53	94.69
473.749	86.69
473.968	115.69
474.187	147.69
474.406	131.69
474.625	93.69
474.844	90.69
475.063	77.69
475.282	87.69
475.501	96.69
475.72	97.69
475.939	101.69
476.158	102.69
476.377	94.69
476.596	99.69
476.814	125.69
477.033	96.69
477.252	97.69
477.471	93.69
477.69	100.69
477.908	98.69
478.127	102.69
478.346	100.69
478.564	120.69
478.783	96.69
479.002	127.69
479.22	115.69
479.439	126.69
479.658	133.69
479.876	126.69
480.095	128.69
480.313	153.69
480.532	155.69
480.751	280.69
480.969	999.69
481.188	4346.69
481.406	2526.69
481.624	384.69
481.843	143.69
482.061	112.69
482.28	94.69
482.498	89.69
482.717	103.69
482.935	99.69
483.153	98.69
483.372	95.69
483.59	91.69
483.808	84.69
484.027	94.69
484.245	103.69
484.463	93.69
484.681	90.69
484.9	95.69
485.118	93.69
485.336	106.69
485.554	101.69
485.772	110.69
485.99	116.69
486.209	113.69
486.427	107.69
486.645	124.69
486.863	137.69
487.081	117.69
487.299	115.69
487.517	102.69
487.735	98.69
487.953	106.69
488.171	103.69
488.389	112.69
488.607	125.69
488.825	101.69
489.043	104.69
489.261	83.69
489.479	92.69
489.696	99.69
489.914	98.69
490.132	99.69
490.35	86.69
490.568	87.69
490.786	104.69
491.003	91.69
491.221	103.69
491.439	108.69
491.657	96.69
491.874	87.69
492.092	97.69
492.31	98.69
492.527	106.69
492.745	103.69
492.963	90.69
493.18	101.69
493.398	95.69
493.615	89.69
493.833	98.69
494.05	91.69
494.268	86.69
494.485	89.69
494.703	85.69
494.92	87.69
495.138	100.69
495.355	95.69
495.573	92.69
495.79	103.69
496.008	100.69
496.225	94.69
496.442	107.69
496.66	99.69
496.877	100.69
497.094	95.69
497.312	103.69
497.529	89.69
497.746	102.69
497.963	112.69
498.181	98.69
498.398	112.69
498.615	127.69
498.832	111.69
499.049	106.69
499.267	83.69
499.484	83.69
499.701	86.69
499.918	107.69
500.135	88.69
500.352	87.69
500.569	95.69
500.786	106.69
501.003	95.69
501.22	91.69
501.437	112.69
501.654	100.69
501.871	146.69
502.088	109.69
502.305	94.69
502.522	101.69
502.739	110.69
502.956	100.69
503.172	107.69
503.389	97.69
503.606	133.69
503.823	101.69
504.04	104.69
504.256	87.69
504.473	92.69
504.69	99.69
504.907	90.69
505.123	88.69
505.34	90.69
505.557	90.69
505.773	92.69
505.99	96.69
506.207	87.69
506.423	91.69
506.64	99.69
506.856	91.69
507.073	97.69
507.289	91.69
507.506	106.69
507.722	139.69
507.939	155.69
508.155	110.69
508.372	101.69
508.588	105.69
508.805	108.69
509.021	107.69
509.238	108.69
509.454	125.69
509.67	117.69
509.887	131.69
510.103	159.69
510.319	265.69
510.536	1033.69
