Data from Circ_2000_H10_HRD10591_00047.txt Node
Date: Wed Jan 03 10:49:43 EST 2024
User: Yrep
Spectrometer: HR+D1059
Trigger mode: 1
Integration Time (sec): 1.000000E-1
Scans to average: 1
Electric dark correction enabled: true
Nonlinearity correction enabled: false
Boxcar width: 0
XAxis mode: Wavelengths
Number of Pixels in Spectrum: 2048
>>>>>Begin Spectral Data<<<<<
223.165	-8.62
223.4	-8.62
223.635	-8.62
223.869	-16.62
224.104	-33.62
224.338	-10.62
224.573	-21.62
224.808	-11.62
225.042	-2.62
225.277	-11.62
225.511	-21.62
225.746	2.38
225.98	17.38
226.215	9.38
226.449	27.38
226.683	20.38
226.918	39.38
227.152	22.38
227.387	31.38
227.621	45.38
227.856	54.38
228.09	39.38
228.324	66.38
228.559	45.38
228.793	56.38
229.027	58.38
229.262	56.38
229.496	73.38
229.73	80.38
229.964	88.38
230.199	75.38
230.433	82.38
230.667	81.38
230.901	74.38
231.136	87.38
231.37	74.38
231.604	78.38
231.838	69.38
232.072	65.38
232.306	84.38
232.541	73.38
232.775	77.38
233.009	69.38
233.243	80.38
233.477	91.38
233.711	74.38
233.945	89.38
234.179	87.38
234.413	73.38
234.647	88.38
234.881	73.38
235.115	79.38
235.349	81.38
235.583	69.38
235.817	77.38
236.051	81.38
236.285	68.38
236.519	76.38
236.753	67.38
236.987	73.38
237.221	84.38
237.455	94.38
237.689	75.38
237.922	82.38
238.156	76.38
238.39	65.38
238.624	73.38
238.858	74.38
239.091	75.38
239.325	81.38
239.559	78.38
239.793	77.38
240.027	81.38
240.26	85.38
240.494	88.38
240.728	69.38
240.961	63.38
241.195	77.38
241.429	72.38
241.662	67.38
241.896	66.38
242.13	71.38
242.363	67.38
242.597	72.38
242.83	76.38
243.064	90.38
243.298	79.38
243.531	65.38
243.765	74.38
243.998	77.38
244.232	84.38
244.465	88.38
244.699	76.38
244.932	76.38
245.166	83.38
245.399	74.38
245.633	71.38
245.866	69.38
246.099	77.38
246.333	74.38
246.566	72.38
246.8	73.38
247.033	70.38
247.266	91.38
247.5	79.38
247.733	70.38
247.966	98.38
248.2	79.38
248.433	81.38
248.666	79.38
248.899	87.38
249.133	83.38
249.366	99.38
249.599	93.38
249.832	78.38
250.066	77.38
250.299	72.38
250.532	80.38
250.765	83.38
250.998	69.38
251.231	80.38
251.465	79.38
251.698	79.38
251.931	78.38
252.164	90.38
252.397	86.38
252.63	74.38
252.863	74.38
253.096	74.38
253.329	68.38
253.562	87.38
253.795	85.38
254.028	81.38
254.261	73.38
254.494	83.38
254.727	78.38
254.96	91.38
255.193	83.38
255.426	76.38
255.659	85.38
255.892	86.38
256.124	87.38
256.357	84.38
256.59	85.38
256.823	78.38
257.056	91.38
257.289	81.38
257.521	70.38
257.754	85.38
257.987	80.38
258.22	90.38
258.452	78.38
258.685	69.38
258.918	102.38
259.151	79.38
259.383	86.38
259.616	77.38
259.849	74.38
260.081	86.38
260.314	81.38
260.547	73.38
260.779	88.38
261.012	86.38
261.244	91.38
261.477	91.38
261.71	89.38
261.942	114.38
262.175	119.38
262.407	106.38
262.64	90.38
262.872	96.38
263.105	74.38
263.337	81.38
263.57	77.38
263.802	82.38
264.035	89.38
264.267	88.38
264.499	67.38
264.732	65.38
264.964	82.38
265.197	68.38
265.429	65.38
265.661	74.38
265.894	85.38
266.126	68.38
266.358	69.38
266.591	76.38
266.823	94.38
267.055	77.38
267.287	87.38
267.52	89.38
267.752	90.38
267.984	87.38
268.216	86.38
268.448	81.38
268.681	82.38
268.913	63.38
269.145	77.38
269.377	66.38
269.609	81.38
269.841	83.38
270.073	84.38
270.306	91.38
270.538	82.38
270.77	89.38
271.002	81.38
271.234	90.38
271.466	86.38
271.698	88.38
271.93	79.38
272.162	84.38
272.394	77.38
272.626	80.38
272.858	89.38
273.09	85.38
273.322	77.38
273.553	88.38
273.785	90.38
274.017	76.38
274.249	84.38
274.481	84.38
274.713	95.38
274.945	93.38
275.176	85.38
275.408	78.38
275.64	94.38
275.872	102.38
276.104	97.38
276.335	96.38
276.567	92.38
276.799	114.38
277.031	137.38
277.262	123.38
277.494	109.38
277.726	88.38
277.957	100.38
278.189	92.38
278.421	86.38
278.652	93.38
278.884	87.38
279.115	89.38
279.347	86.38
279.579	92.38
279.81	106.38
280.042	120.38
280.273	155.38
280.505	111.38
280.736	90.38
280.968	88.38
281.199	82.38
281.431	106.38
281.662	102.38
281.894	84.38
282.125	109.38
282.356	130.38
282.588	159.38
282.819	128.38
283.051	79.38
283.282	72.38
283.513	92.38
283.745	93.38
283.976	87.38
284.207	77.38
284.439	94.38
284.67	94.38
284.901	97.38
285.132	63.38
285.364	85.38
285.595	78.38
285.826	77.38
286.057	84.38
286.288	69.38
286.52	90.38
286.751	90.38
286.982	75.38
287.213	80.38
287.444	82.38
287.675	82.38
287.906	88.38
288.138	77.38
288.369	102.38
288.6	91.38
288.831	80.38
289.062	86.38
289.293	72.38
289.524	85.38
289.755	89.38
289.986	75.38
290.217	87.38
290.448	87.38
290.679	82.38
290.91	97.38
291.141	85.38
291.371	98.38
291.602	89.38
291.833	82.38
292.064	91.38
292.295	93.38
292.526	81.38
292.757	83.38
292.987	94.38
293.218	82.38
293.449	85.38
293.68	96.38
293.91	102.38
294.141	95.38
294.372	98.38
294.603	86.38
294.833	83.38
295.064	101.38
295.295	75.38
295.525	92.38
295.756	101.38
295.987	125.38
296.217	155.38
296.448	145.38
296.679	87.38
296.909	91.38
297.14	95.38
297.37	82.38
297.601	87.38
297.831	88.38
298.062	89.38
298.292	88.38
298.523	88.38
298.753	79.38
298.984	85.38
299.214	73.38
299.445	96.38
299.675	99.38
299.905	103.38
300.136	93.38
300.366	78.38
300.597	105.38
300.827	102.38
301.057	90.38
301.288	112.38
301.518	86.38
301.748	94.38
301.979	101.38
302.209	95.38
302.439	101.38
302.669	74.38
302.9	77.38
303.13	95.38
303.36	90.38
303.59	110.38
303.82	135.38
304.051	93.38
304.281	87.38
304.511	95.38
304.741	86.38
304.971	99.38
305.201	100.38
305.431	93.38
305.661	86.38
305.891	92.38
306.121	92.38
306.352	98.38
306.582	98.38
306.812	93.38
307.042	104.38
307.272	118.38
307.502	112.38
307.731	122.38
307.961	114.38
308.191	96.38
308.421	102.38
308.651	93.38
308.881	80.38
309.111	97.38
309.341	88.38
309.571	97.38
309.8	90.38
310.03	103.38
310.26	91.38
310.49	95.38
310.72	101.38
310.949	116.38
311.179	93.38
311.409	96.38
311.639	98.38
311.868	99.38
312.098	97.38
312.328	86.38
312.557	89.38
312.787	112.38
313.017	110.38
313.246	79.38
313.476	85.38
313.706	94.38
313.935	99.38
314.165	93.38
314.394	121.38
314.624	105.38
314.853	101.38
315.083	94.38
315.312	91.38
315.542	90.38
315.771	89.38
316.001	87.38
316.23	91.38
316.46	88.38
316.689	98.38
316.919	85.38
317.148	87.38
317.377	95.38
317.607	101.38
317.836	100.38
318.065	86.38
318.295	97.38
318.524	93.38
318.753	106.38
318.983	98.38
319.212	92.38
319.441	108.38
319.67	102.38
319.9	89.38
320.129	86.38
320.358	81.38
320.587	105.38
320.816	93.38
321.046	99.38
321.275	103.38
321.504	86.38
321.733	87.38
321.962	104.38
322.191	82.38
322.42	106.38
322.649	109.38
322.878	119.38
323.108	117.38
323.337	125.38
323.566	133.38
323.795	151.38
324.024	221.38
324.253	431.38
324.482	900.38
324.71	1880.38
324.939	2437.38
325.168	895.38
325.397	270.38
325.626	144.38
325.855	129.38
326.084	144.38
326.313	138.38
326.542	152.38
326.77	249.38
326.999	479.38
327.228	1000.38
327.457	1824.38
327.686	1449.38
327.914	445.38
328.143	318.38
328.372	359.38
328.6	240.38
328.829	149.38
329.058	154.38
329.287	147.38
329.515	136.38
329.744	183.38
329.972	245.38
330.201	468.38
330.43	685.38
330.658	353.38
330.887	202.38
331.115	156.38
331.344	101.38
331.572	111.38
331.801	109.38
332.03	121.38
332.258	101.38
332.486	88.38
332.715	101.38
332.943	100.38
333.172	90.38
333.4	84.38
333.629	138.38
333.857	166.38
334.085	263.38
334.314	467.38
334.542	849.38
334.771	822.38
334.999	246.38
335.227	127.38
335.455	114.38
335.684	107.38
335.912	108.38
336.14	107.38
336.369	84.38
336.597	102.38
336.825	103.38
337.053	89.38
337.281	90.38
337.51	79.38
337.738	81.38
337.966	88.38
338.194	96.38
338.422	94.38
338.65	77.38
338.878	96.38
339.106	84.38
339.334	83.38
339.562	103.38
339.79	95.38
340.018	88.38
340.246	90.38
340.474	90.38
340.702	101.38
340.93	83.38
341.158	88.38
341.386	110.38
341.614	89.38
341.842	93.38
342.07	85.38
342.298	98.38
342.526	87.38
342.754	93.38
342.981	72.38
343.209	88.38
343.437	98.38
343.665	91.38
343.893	90.38
344.12	95.38
344.348	83.38
344.576	90.38
344.804	91.38
345.031	101.38
345.259	89.38
345.487	100.38
345.714	88.38
345.942	101.38
346.17	81.38
346.397	96.38
346.625	74.38
346.853	82.38
347.08	90.38
347.308	95.38
347.535	105.38
347.763	99.38
347.99	95.38
348.218	113.38
348.445	106.38
348.673	100.38
348.9	95.38
349.128	91.38
349.355	97.38
349.583	80.38
349.81	105.38
350.037	94.38
350.265	99.38
350.492	85.38
350.72	82.38
350.947	104.38
351.174	107.38
351.402	125.38
351.629	101.38
351.856	86.38
352.083	98.38
352.311	107.38
352.538	112.38
352.765	109.38
352.992	120.38
353.22	115.38
353.447	109.38
353.674	99.38
353.901	90.38
354.128	98.38
354.355	87.38
354.583	89.38
354.81	111.38
355.037	94.38
355.264	93.38
355.491	95.38
355.718	94.38
355.945	96.38
356.172	95.38
356.399	94.38
356.626	94.38
356.853	101.38
357.08	91.38
357.307	82.38
357.534	80.38
357.761	85.38
357.988	102.38
358.215	91.38
358.441	83.38
358.668	67.38
358.895	81.38
359.122	93.38
359.349	85.38
359.576	93.38
359.802	111.38
360.029	114.38
360.256	130.38
360.483	111.38
360.709	91.38
360.936	86.38
361.163	93.38
361.39	105.38
361.616	96.38
361.843	90.38
362.07	109.38
362.296	85.38
362.523	86.38
362.749	92.38
362.976	85.38
363.203	93.38
363.429	85.38
363.656	104.38
363.882	85.38
364.109	79.38
364.335	83.38
364.562	76.38
364.788	94.38
365.015	96.38
365.241	120.38
365.468	106.38
365.694	125.38
365.92	97.38
366.147	85.38
366.373	101.38
366.599	73.38
366.826	95.38
367.052	84.38
367.278	85.38
367.505	86.38
367.731	87.38
367.957	82.38
368.184	80.38
368.41	88.38
368.636	100.38
368.862	124.38
369.089	122.38
369.315	107.38
369.541	90.38
369.767	96.38
369.993	91.38
370.219	105.38
370.445	73.38
370.672	83.38
370.898	95.38
371.124	94.38
371.35	73.38
371.576	99.38
371.802	90.38
372.028	89.38
372.254	85.38
372.48	71.38
372.706	91.38
372.932	71.38
373.158	90.38
373.384	83.38
373.61	79.38
373.835	89.38
374.061	87.38
374.287	90.38
374.513	82.38
374.739	86.38
374.965	72.38
375.191	87.38
375.416	81.38
375.642	96.38
375.868	88.38
376.094	91.38
376.319	85.38
376.545	97.38
376.771	81.38
376.997	105.38
377.222	69.38
377.448	94.38
377.674	98.38
377.899	107.38
378.125	82.38
378.35	79.38
378.576	78.38
378.802	79.38
379.027	72.38
379.253	85.38
379.478	95.38
379.704	93.38
379.929	100.38
380.155	88.38
380.38	95.38
380.606	92.38
380.831	94.38
381.057	105.38
381.282	85.38
381.507	90.38
381.733	96.38
381.958	95.38
382.184	90.38
382.409	98.38
382.634	96.38
382.86	102.38
383.085	101.38
383.31	100.38
383.535	100.38
383.761	93.38
383.986	98.38
384.211	101.38
384.436	94.38
384.662	100.38
384.887	95.38
385.112	106.38
385.337	110.38
385.562	103.38
385.787	114.38
386.013	92.38
386.238	117.38
386.463	93.38
386.688	112.38
386.913	101.38
387.138	104.38
387.363	96.38
387.588	94.38
387.813	111.38
388.038	114.38
388.263	109.38
388.488	111.38
388.713	97.38
388.938	87.38
389.163	89.38
389.387	87.38
389.612	94.38
389.837	91.38
390.062	103.38
390.287	78.38
390.512	90.38
390.736	79.38
390.961	84.38
391.186	92.38
391.411	104.38
391.636	96.38
391.86	98.38
392.085	83.38
392.31	82.38
392.534	83.38
392.759	75.38
392.984	87.38
393.208	83.38
393.433	94.38
393.658	75.38
393.882	80.38
394.107	76.38
394.331	83.38
394.556	83.38
394.78	97.38
395.005	81.38
395.229	79.38
395.454	89.38
395.678	71.38
395.903	67.38
396.127	87.38
396.352	88.38
396.576	83.38
396.801	94.38
397.025	90.38
397.249	89.38
397.474	80.38
397.698	86.38
397.922	87.38
398.147	92.38
398.371	96.38
398.595	73.38
398.82	81.38
399.044	85.38
399.268	84.38
399.492	92.38
399.717	83.38
399.941	87.38
400.165	82.38
400.389	67.38
400.613	90.38
400.837	81.38
401.062	71.38
401.286	75.38
401.51	93.38
401.734	87.38
401.958	101.38
402.182	155.38
402.406	186.38
402.63	121.38
402.854	83.38
403.078	77.38
403.302	93.38
403.526	80.38
403.75	78.38
403.974	74.38
404.198	90.38
404.422	81.38
404.645	99.38
404.869	83.38
405.093	106.38
405.317	123.38
405.541	115.38
405.765	105.38
405.988	125.38
406.212	202.38
406.436	278.38
406.66	178.38
406.883	92.38
407.107	88.38
407.331	99.38
407.555	108.38
407.778	109.38
408.002	94.38
408.226	88.38
408.449	83.38
408.673	83.38
408.896	109.38
409.12	104.38
409.344	70.38
409.567	97.38
409.791	79.38
410.014	102.38
410.238	97.38
410.461	91.38
410.685	85.38
410.908	97.38
411.132	105.38
411.355	101.38
411.578	94.38
411.802	90.38
412.025	91.38
412.249	99.38
412.472	82.38
412.695	105.38
412.919	97.38
413.142	83.38
413.365	86.38
413.589	82.38
413.812	86.38
414.035	82.38
414.258	92.38
414.482	91.38
414.705	88.38
414.928	98.38
415.151	85.38
415.374	91.38
415.597	95.38
415.821	91.38
416.044	86.38
416.267	86.38
416.49	105.38
416.713	85.38
416.936	86.38
417.159	85.38
417.382	100.38
417.605	101.38
417.828	97.38
418.051	78.38
418.274	82.38
418.497	93.38
418.72	83.38
418.943	86.38
419.166	88.38
419.389	93.38
419.611	86.38
419.834	91.38
420.057	86.38
420.28	83.38
420.503	97.38
420.726	99.38
420.948	90.38
421.171	82.38
421.394	91.38
421.617	84.38
421.839	90.38
422.062	81.38
422.285	91.38
422.507	107.38
422.73	97.38
422.953	107.38
423.175	71.38
423.398	88.38
423.621	89.38
423.843	73.38
424.066	79.38
424.288	78.38
424.511	77.38
424.733	107.38
424.956	116.38
425.178	95.38
425.401	95.38
425.623	100.38
425.846	80.38
426.068	88.38
426.291	86.38
426.513	90.38
426.735	88.38
426.958	96.38
427.18	101.38
427.402	153.38
427.625	207.38
427.847	178.38
428.069	151.38
428.292	104.38
428.514	110.38
428.736	85.38
428.958	84.38
429.181	86.38
429.403	92.38
429.625	81.38
429.847	95.38
430.069	98.38
430.292	73.38
430.514	91.38
430.736	77.38
430.958	88.38
431.18	91.38
431.402	95.38
431.624	92.38
431.846	85.38
432.068	73.38
432.29	69.38
432.512	87.38
432.734	74.38
432.956	89.38
433.178	95.38
433.4	91.38
433.622	84.38
433.844	89.38
434.066	104.38
434.287	101.38
434.509	94.38
434.731	91.38
434.953	93.38
435.175	81.38
435.397	90.38
435.618	85.38
435.84	122.38
436.062	128.38
436.284	121.38
436.505	107.38
436.727	90.38
436.949	94.38
437.17	97.38
437.392	93.38
437.614	95.38
437.835	114.38
438.057	147.38
438.278	125.38
438.5	110.38
438.721	128.38
438.943	106.38
439.165	105.38
439.386	82.38
439.608	95.38
439.829	117.38
440.05	128.38
440.272	148.38
440.493	100.38
440.715	84.38
440.936	87.38
441.158	74.38
441.379	93.38
441.6	100.38
441.822	81.38
442.043	88.38
442.264	111.38
442.486	101.38
442.707	88.38
442.928	119.38
443.149	144.38
443.371	143.38
443.592	105.38
443.813	126.38
444.034	104.38
444.255	97.38
444.476	85.38
444.698	97.38
444.919	94.38
445.14	143.38
445.361	139.38
445.582	127.38
445.803	148.38
446.024	154.38
446.245	149.38
446.466	117.38
446.687	92.38
446.908	74.38
447.129	97.38
447.35	114.38
447.571	99.38
447.792	92.38
448.013	101.38
448.234	105.38
448.455	99.38
448.675	112.38
448.896	118.38
449.117	98.38
449.338	106.38
449.559	122.38
449.779	110.38
450	88.38
450.221	80.38
450.442	76.38
450.662	105.38
450.883	91.38
451.104	121.38
451.324	97.38
451.545	95.38
451.766	90.38
451.986	81.38
452.207	90.38
452.428	93.38
452.648	109.38
452.869	127.38
453.089	129.38
453.31	141.38
453.53	101.38
453.751	102.38
453.971	97.38
454.192	111.38
454.412	90.38
454.633	85.38
454.853	80.38
455.073	76.38
455.294	81.38
455.514	110.38
455.734	88.38
455.955	84.38
456.175	90.38
456.395	81.38
456.616	96.38
456.836	79.38
457.056	83.38
457.276	87.38
457.497	90.38
457.717	87.38
457.937	94.38
458.157	90.38
458.377	82.38
458.598	130.38
458.818	171.38
459.038	200.38
459.258	128.38
459.478	104.38
459.698	78.38
459.918	82.38
460.138	70.38
460.358	94.38
460.578	86.38
460.798	98.38
461.018	95.38
461.238	91.38
461.458	81.38
461.678	90.38
461.898	87.38
462.118	98.38
462.338	85.38
462.558	75.38
462.777	87.38
462.997	104.38
463.217	87.38
463.437	88.38
463.657	79.38
463.876	93.38
464.096	95.38
464.316	89.38
464.536	109.38
464.755	99.38
464.975	125.38
465.195	201.38
465.414	191.38
465.634	107.38
465.854	98.38
466.073	86.38
466.293	89.38
466.512	77.38
466.732	94.38
466.951	106.38
467.171	89.38
467.391	102.38
467.61	134.38
467.829	149.38
468.049	321.38
468.268	435.38
468.488	144.38
468.707	90.38
468.927	89.38
469.146	71.38
469.365	91.38
469.585	86.38
469.804	104.38
470.023	103.38
470.243	83.38
470.462	93.38
470.681	146.38
470.901	83.38
471.12	90.38
471.339	88.38
471.558	107.38
471.777	131.38
471.997	191.38
472.216	558.38
472.435	1179.38
472.654	327.38
472.873	122.38
473.092	87.38
473.311	88.38
473.53	101.38
473.749	92.38
473.968	89.38
474.187	117.38
474.406	101.38
474.625	85.38
474.844	84.38
475.063	82.38
475.282	71.38
475.501	80.38
475.72	81.38
475.939	91.38
476.158	88.38
476.377	96.38
476.596	95.38
476.814	91.38
477.033	81.38
477.252	85.38
477.471	99.38
477.69	99.38
477.908	87.38
478.127	85.38
478.346	75.38
478.564	79.38
478.783	107.38
479.002	102.38
479.22	110.38
479.439	122.38
479.658	125.38
479.876	117.38
480.095	105.38
480.313	105.38
480.532	122.38
480.751	177.38
480.969	521.38
481.188	2049.38
481.406	1235.38
481.624	226.38
481.843	103.38
482.061	106.38
482.28	87.38
482.498	86.38
482.717	94.38
482.935	99.38
483.153	87.38
483.372	92.38
483.59	95.38
483.808	89.38
484.027	87.38
484.245	104.38
484.463	97.38
484.681	84.38
484.9	112.38
485.118	96.38
485.336	99.38
485.554	101.38
485.772	109.38
485.99	105.38
486.209	119.38
486.427	104.38
486.645	116.38
486.863	117.38
487.081	98.38
487.299	87.38
487.517	101.38
487.735	95.38
487.953	87.38
488.171	98.38
488.389	103.38
488.607	108.38
488.825	90.38
489.043	96.38
489.261	87.38
489.479	103.38
489.696	70.38
489.914	96.38
490.132	83.38
490.35	88.38
490.568	80.38
490.786	93.38
491.003	91.38
491.221	92.38
491.439	96.38
491.657	85.38
491.874	110.38
492.092	100.38
492.31	85.38
492.527	87.38
492.745	85.38
492.963	88.38
493.18	83.38
493.398	85.38
493.615	101.38
493.833	90.38
494.05	87.38
494.268	94.38
494.485	81.38
494.703	90.38
494.92	90.38
495.138	90.38
495.355	99.38
495.573	95.38
495.79	89.38
496.008	95.38
496.225	85.38
496.442	96.38
496.66	91.38
496.877	105.38
497.094	89.38
497.312	81.38
497.529	77.38
497.746	89.38
497.963	94.38
498.181	88.38
498.398	96.38
498.615	99.38
498.832	110.38
499.049	90.38
499.267	109.38
499.484	84.38
499.701	61.38
499.918	97.38
500.135	80.38
500.352	103.38
500.569	90.38
500.786	90.38
501.003	89.38
501.22	83.38
501.437	91.38
501.654	103.38
501.871	134.38
502.088	93.38
502.305	78.38
502.522	89.38
502.739	90.38
502.956	87.38
503.172	104.38
503.389	87.38
503.606	104.38
503.823	101.38
504.04	101.38
504.256	90.38
504.473	80.38
504.69	82.38
504.907	98.38
505.123	94.38
505.34	99.38
505.557	88.38
505.773	90.38
505.99	92.38
506.207	85.38
506.423	80.38
506.64	84.38
506.856	91.38
507.073	90.38
507.289	106.38
507.506	94.38
507.722	111.38
507.939	130.38
508.155	97.38
508.372	108.38
508.588	97.38
508.805	111.38
509.021	101.38
509.238	95.38
509.454	98.38
509.67	103.38
509.887	107.38
510.103	131.38
510.319	218.38
510.536	868.38
510.752	3036.38
510.968	814.38
511.184	171.38
511.401	129.38
511.617	104.38
511.833	92.38
512.049	86.38
512.265	96.38
512.481	85.38
512.698	99.38
512.914	102.38
513.13	96.38
513.346	87.38
513.562	107.38
513.778	86.38
513.994	106.38
514.21	105.38
514.426	142.38
514.642	174.38
514.858	146.38
