Data from Circ_2000_H10_HRD10591_00029.txt Node
Date: Wed Jan 03 10:49:39 EST 2024
User: Yrep
Spectrometer: HR+D1059
Trigger mode: 1
Integration Time (sec): 1.000000E-1
Scans to average: 1
Electric dark correction enabled: true
Nonlinearity correction enabled: false
Boxcar width: 0
XAxis mode: Wavelengths
Number of Pixels in Spectrum: 2048
>>>>>Begin Spectral Data<<<<<
223.165	-19.69
223.4	-19.69
223.635	-19.69
223.869	-17.69
224.104	-8.69
224.338	-30.69
224.573	-19.69
224.808	-27.69
225.042	-9.69
225.277	-5.69
225.511	6.31
225.746	9.31
225.98	10.31
226.215	21.31
226.449	3.31
226.683	29.31
226.918	29.31
227.152	30.31
227.387	35.31
227.621	51.31
227.856	53.31
228.09	52.31
228.324	61.31
228.559	58.31
228.793	54.31
229.027	53.31
229.262	56.31
229.496	85.31
229.73	87.31
229.964	78.31
230.199	64.31
230.433	81.31
230.667	85.31
230.901	74.31
231.136	78.31
231.37	83.31
231.604	79.31
231.838	73.31
232.072	95.31
232.306	95.31
232.541	91.31
232.775	87.31
233.009	91.31
233.243	81.31
233.477	100.31
233.711	74.31
233.945	79.31
234.179	94.31
234.413	74.31
234.647	90.31
234.881	79.31
235.115	95.31
235.349	83.31
235.583	73.31
235.817	89.31
236.051	79.31
236.285	89.31
236.519	81.31
236.753	87.31
236.987	75.31
237.221	85.31
237.455	65.31
237.689	81.31
237.922	73.31
238.156	84.31
238.39	79.31
238.624	78.31
238.858	73.31
239.091	80.31
239.325	72.31
239.559	87.31
239.793	87.31
240.027	92.31
240.26	61.31
240.494	80.31
240.728	62.31
240.961	71.31
241.195	82.31
241.429	72.31
241.662	74.31
241.896	70.31
242.13	74.31
242.363	77.31
242.597	70.31
242.83	79.31
243.064	71.31
243.298	75.31
243.531	80.31
243.765	85.31
243.998	82.31
244.232	91.31
244.465	84.31
244.699	92.31
244.932	80.31
245.166	94.31
245.399	92.31
245.633	80.31
245.866	93.31
246.099	88.31
246.333	101.31
246.566	79.31
246.8	77.31
247.033	79.31
247.266	75.31
247.5	83.31
247.733	95.31
247.966	92.31
248.2	81.31
248.433	94.31
248.666	77.31
248.899	95.31
249.133	87.31
249.366	107.31
249.599	105.31
249.832	77.31
250.066	96.31
250.299	72.31
250.532	84.31
250.765	82.31
250.998	84.31
251.231	81.31
251.465	83.31
251.698	68.31
251.931	81.31
252.164	86.31
252.397	71.31
252.63	94.31
252.863	70.31
253.096	81.31
253.329	79.31
253.562	80.31
253.795	89.31
254.028	90.31
254.261	81.31
254.494	84.31
254.727	106.31
254.96	84.31
255.193	76.31
255.426	91.31
255.659	84.31
255.892	75.31
256.124	92.31
256.357	86.31
256.59	82.31
256.823	86.31
257.056	70.31
257.289	55.31
257.521	79.31
257.754	86.31
257.987	83.31
258.22	88.31
258.452	92.31
258.685	73.31
258.918	81.31
259.151	73.31
259.383	83.31
259.616	91.31
259.849	88.31
260.081	94.31
260.314	96.31
260.547	88.31
260.779	91.31
261.012	90.31
261.244	83.31
261.477	103.31
261.71	100.31
261.942	96.31
262.175	112.31
262.407	95.31
262.64	81.31
262.872	96.31
263.105	91.31
263.337	87.31
263.57	70.31
263.802	87.31
264.035	84.31
264.267	81.31
264.499	79.31
264.732	92.31
264.964	79.31
265.197	77.31
265.429	79.31
265.661	95.31
265.894	76.31
266.126	103.31
266.358	78.31
266.591	94.31
266.823	82.31
267.055	85.31
267.287	92.31
267.52	77.31
267.752	90.31
267.984	79.31
268.216	80.31
268.448	86.31
268.681	79.31
268.913	99.31
269.145	82.31
269.377	95.31
269.609	92.31
269.841	86.31
270.073	79.31
270.306	84.31
270.538	84.31
270.77	76.31
271.002	81.31
271.234	95.31
271.466	106.31
271.698	99.31
271.93	91.31
272.162	103.31
272.394	85.31
272.626	85.31
272.858	81.31
273.09	92.31
273.322	85.31
273.553	76.31
273.785	92.31
274.017	87.31
274.249	99.31
274.481	84.31
274.713	102.31
274.945	82.31
275.176	96.31
275.408	105.31
275.64	87.31
275.872	93.31
276.104	91.31
276.335	103.31
276.567	97.31
276.799	93.31
277.031	103.31
277.262	108.31
277.494	89.31
277.726	97.31
277.957	81.31
278.189	96.31
278.421	79.31
278.652	88.31
278.884	89.31
279.115	89.31
279.347	84.31
279.579	83.31
279.81	94.31
280.042	106.31
280.273	108.31
280.505	95.31
280.736	85.31
280.968	90.31
281.199	71.31
281.431	79.31
281.662	87.31
281.894	90.31
282.125	101.31
282.356	122.31
282.588	126.31
282.819	111.31
283.051	89.31
283.282	94.31
283.513	85.31
283.745	94.31
283.976	98.31
284.207	87.31
284.439	75.31
284.67	90.31
284.901	103.31
285.132	77.31
285.364	98.31
285.595	96.31
285.826	85.31
286.057	89.31
286.288	89.31
286.52	81.31
286.751	81.31
286.982	73.31
287.213	77.31
287.444	98.31
287.675	103.31
287.906	89.31
288.138	85.31
288.369	96.31
288.6	101.31
288.831	94.31
289.062	86.31
289.293	88.31
289.524	77.31
289.755	81.31
289.986	99.31
290.217	96.31
290.448	95.31
290.679	88.31
290.91	83.31
291.141	101.31
291.371	79.31
291.602	86.31
291.833	100.31
292.064	96.31
292.295	90.31
292.526	81.31
292.757	74.31
292.987	100.31
293.218	86.31
293.449	89.31
293.68	94.31
293.91	86.31
294.141	85.31
294.372	98.31
294.603	104.31
294.833	85.31
295.064	108.31
295.295	90.31
295.525	94.31
295.756	96.31
295.987	108.31
296.217	143.31
296.448	116.31
296.679	96.31
296.909	87.31
297.14	90.31
297.37	96.31
297.601	95.31
297.831	97.31
298.062	98.31
298.292	89.31
298.523	82.31
298.753	89.31
298.984	96.31
299.214	85.31
299.445	95.31
299.675	89.31
299.905	83.31
300.136	88.31
300.366	103.31
300.597	96.31
300.827	95.31
301.057	116.31
301.288	107.31
301.518	77.31
301.748	94.31
301.979	107.31
302.209	118.31
302.439	96.31
302.669	93.31
302.9	87.31
303.13	97.31
303.36	110.31
303.59	115.31
303.82	103.31
304.051	77.31
304.281	104.31
304.511	95.31
304.741	84.31
304.971	86.31
305.201	81.31
305.431	84.31
305.661	97.31
305.891	97.31
306.121	94.31
306.352	100.31
306.582	101.31
306.812	91.31
307.042	113.31
307.272	104.31
307.502	103.31
307.731	113.31
307.961	99.31
308.191	100.31
308.421	84.31
308.651	103.31
308.881	89.31
309.111	97.31
309.341	92.31
309.571	104.31
309.8	111.31
310.03	106.31
310.26	91.31
310.49	91.31
310.72	102.31
310.949	92.31
311.179	114.31
311.409	86.31
311.639	94.31
311.868	97.31
312.098	106.31
312.328	91.31
312.557	110.31
312.787	101.31
313.017	106.31
313.246	113.31
313.476	101.31
313.706	84.31
313.935	90.31
314.165	90.31
314.394	105.31
314.624	90.31
314.853	103.31
315.083	94.31
315.312	89.31
315.542	95.31
315.771	91.31
316.001	91.31
316.23	88.31
316.46	87.31
316.689	91.31
316.919	89.31
317.148	89.31
317.377	91.31
317.607	93.31
317.836	116.31
318.065	104.31
318.295	111.31
318.524	95.31
318.753	106.31
318.983	91.31
319.212	92.31
319.441	105.31
319.67	103.31
319.9	88.31
320.129	101.31
320.358	85.31
320.587	82.31
320.816	100.31
321.046	93.31
321.275	103.31
321.504	81.31
321.733	101.31
321.962	108.31
322.191	98.31
322.42	103.31
322.649	116.31
322.878	110.31
323.108	123.31
323.337	127.31
323.566	132.31
323.795	149.31
324.024	182.31
324.253	380.31
324.482	754.31
324.71	1626.31
324.939	2109.31
325.168	771.31
325.397	228.31
325.626	144.31
325.855	143.31
326.084	123.31
326.313	122.31
326.542	147.31
326.77	209.31
326.999	419.31
327.228	893.31
327.457	1597.31
327.686	1303.31
327.914	403.31
328.143	233.31
328.372	219.31
328.6	151.31
328.829	107.31
329.058	124.31
329.287	128.31
329.515	115.31
329.744	136.31
329.972	171.31
330.201	261.31
330.43	329.31
330.658	196.31
330.887	152.31
331.115	117.31
331.344	106.31
331.572	118.31
331.801	94.31
332.03	94.31
332.258	106.31
332.486	92.31
332.715	97.31
332.943	117.31
333.172	82.31
333.4	106.31
333.629	103.31
333.857	125.31
334.085	157.31
334.314	257.31
334.542	408.31
334.771	367.31
334.999	156.31
335.227	107.31
335.455	82.31
335.684	110.31
335.912	91.31
336.14	96.31
336.369	95.31
336.597	104.31
336.825	101.31
337.053	99.31
337.281	96.31
337.51	86.31
337.738	92.31
337.966	104.31
338.194	106.31
338.422	102.31
338.65	94.31
338.878	80.31
339.106	100.31
339.334	96.31
339.562	93.31
339.79	90.31
340.018	105.31
340.246	90.31
340.474	95.31
340.702	83.31
340.93	76.31
341.158	78.31
341.386	103.31
341.614	80.31
341.842	96.31
342.07	93.31
342.298	102.31
342.526	103.31
342.754	79.31
342.981	93.31
343.209	94.31
343.437	106.31
343.665	100.31
343.893	87.31
344.12	91.31
344.348	96.31
344.576	92.31
344.804	97.31
345.031	78.31
345.259	97.31
345.487	87.31
345.714	96.31
345.942	89.31
346.17	94.31
346.397	101.31
346.625	95.31
346.853	91.31
347.08	91.31
347.308	92.31
347.535	99.31
347.763	118.31
347.99	97.31
348.218	110.31
348.445	108.31
348.673	95.31
348.9	83.31
349.128	89.31
349.355	88.31
349.583	86.31
349.81	92.31
350.037	90.31
350.265	88.31
350.492	92.31
350.72	87.31
350.947	100.31
351.174	99.31
351.402	122.31
351.629	114.31
351.856	96.31
352.083	107.31
352.311	103.31
352.538	112.31
352.765	80.31
352.992	120.31
353.22	112.31
353.447	101.31
353.674	90.31
353.901	103.31
354.128	91.31
354.355	93.31
354.583	96.31
354.81	101.31
355.037	87.31
355.264	107.31
355.491	91.31
355.718	96.31
355.945	108.31
356.172	100.31
356.399	104.31
356.626	115.31
356.853	91.31
357.08	103.31
357.307	88.31
357.534	94.31
357.761	92.31
357.988	96.31
358.215	107.31
358.441	72.31
358.668	103.31
358.895	104.31
359.122	86.31
359.349	97.31
359.576	78.31
359.802	109.31
360.029	112.31
360.256	113.31
360.483	97.31
360.709	92.31
360.936	97.31
361.163	102.31
361.39	107.31
361.616	100.31
361.843	100.31
362.07	101.31
362.296	93.31
362.523	91.31
362.749	88.31
362.976	101.31
363.203	105.31
363.429	102.31
363.656	96.31
363.882	88.31
364.109	91.31
364.335	85.31
364.562	71.31
364.788	89.31
365.015	102.31
365.241	94.31
365.468	104.31
365.694	99.31
365.92	104.31
366.147	100.31
366.373	97.31
366.599	105.31
366.826	92.31
367.052	97.31
367.278	99.31
367.505	78.31
367.731	105.31
367.957	75.31
368.184	93.31
368.41	98.31
368.636	109.31
368.862	103.31
369.089	112.31
369.315	94.31
369.541	93.31
369.767	96.31
369.993	98.31
370.219	93.31
370.445	91.31
370.672	86.31
370.898	84.31
371.124	87.31
371.35	96.31
371.576	80.31
371.802	98.31
372.028	93.31
372.254	82.31
372.48	91.31
372.706	89.31
372.932	93.31
373.158	94.31
373.384	99.31
373.61	86.31
373.835	89.31
374.061	115.31
374.287	94.31
374.513	105.31
374.739	83.31
374.965	86.31
375.191	95.31
375.416	89.31
375.642	103.31
375.868	97.31
376.094	93.31
376.319	99.31
376.545	84.31
376.771	91.31
376.997	84.31
377.222	101.31
377.448	94.31
377.674	106.31
377.899	86.31
378.125	100.31
378.35	94.31
378.576	87.31
378.802	97.31
379.027	90.31
379.253	105.31
379.478	99.31
379.704	94.31
379.929	104.31
380.155	97.31
380.38	91.31
380.606	99.31
380.831	103.31
381.057	95.31
381.282	92.31
381.507	109.31
381.733	105.31
381.958	95.31
382.184	107.31
382.409	89.31
382.634	113.31
382.86	105.31
383.085	96.31
383.31	107.31
383.535	98.31
383.761	111.31
383.986	101.31
384.211	93.31
384.436	115.31
384.662	107.31
384.887	116.31
385.112	120.31
385.337	120.31
385.562	111.31
385.787	111.31
386.013	121.31
386.238	128.31
386.463	110.31
386.688	119.31
386.913	104.31
387.138	109.31
387.363	111.31
387.588	116.31
387.813	96.31
388.038	105.31
388.263	127.31
388.488	111.31
388.713	92.31
388.938	95.31
389.163	93.31
389.387	92.31
389.612	91.31
389.837	71.31
390.062	101.31
390.287	88.31
390.512	86.31
390.736	112.31
390.961	113.31
391.186	93.31
391.411	99.31
391.636	86.31
391.86	87.31
392.085	83.31
392.31	92.31
392.534	98.31
392.759	94.31
392.984	74.31
393.208	101.31
393.433	110.31
393.658	96.31
393.882	89.31
394.107	71.31
394.331	84.31
394.556	89.31
394.78	94.31
395.005	93.31
395.229	82.31
395.454	91.31
395.678	88.31
395.903	87.31
396.127	96.31
396.352	78.31
396.576	104.31
396.801	107.31
397.025	89.31
397.249	94.31
397.474	83.31
397.698	83.31
397.922	78.31
398.147	102.31
398.371	93.31
398.595	95.31
398.82	71.31
399.044	76.31
399.268	89.31
399.492	77.31
399.717	85.31
399.941	77.31
400.165	96.31
400.389	94.31
400.613	81.31
400.837	84.31
401.062	85.31
401.286	87.31
401.51	94.31
401.734	79.31
401.958	94.31
402.182	120.31
402.406	135.31
402.63	113.31
402.854	85.31
403.078	81.31
403.302	89.31
403.526	90.31
403.75	71.31
403.974	83.31
404.198	94.31
404.422	79.31
404.645	91.31
404.869	100.31
405.093	106.31
405.317	110.31
405.541	110.31
405.765	99.31
405.988	106.31
406.212	165.31
406.436	201.31
406.66	134.31
406.883	105.31
407.107	89.31
407.331	106.31
407.555	105.31
407.778	83.31
408.002	101.31
408.226	87.31
408.449	95.31
408.673	95.31
408.896	85.31
409.12	91.31
409.344	84.31
409.567	83.31
409.791	86.31
410.014	99.31
410.238	88.31
410.461	93.31
410.685	97.31
410.908	100.31
411.132	100.31
411.355	78.31
411.578	85.31
411.802	81.31
412.025	97.31
412.249	101.31
412.472	92.31
412.695	116.31
412.919	97.31
413.142	93.31
413.365	93.31
413.589	89.31
413.812	88.31
414.035	96.31
414.258	80.31
414.482	112.31
414.705	86.31
414.928	94.31
415.151	115.31
415.374	96.31
415.597	78.31
415.821	88.31
416.044	90.31
416.267	86.31
416.49	86.31
416.713	84.31
416.936	97.31
417.159	98.31
417.382	63.31
417.605	85.31
417.828	105.31
418.051	92.31
418.274	91.31
418.497	86.31
418.72	81.31
418.943	92.31
419.166	97.31
419.389	87.31
419.611	95.31
419.834	87.31
420.057	90.31
420.28	88.31
420.503	103.31
420.726	100.31
420.948	109.31
421.171	94.31
421.394	99.31
421.617	95.31
421.839	91.31
422.062	91.31
422.285	97.31
422.507	85.31
422.73	92.31
422.953	90.31
423.175	84.31
423.398	94.31
423.621	76.31
423.843	89.31
424.066	88.31
424.288	77.31
424.511	90.31
424.733	98.31
424.956	105.31
425.178	97.31
425.401	100.31
425.623	105.31
425.846	96.31
426.068	99.31
426.291	83.31
426.513	73.31
426.735	105.31
426.958	83.31
427.18	101.31
427.402	133.31
427.625	154.31
427.847	149.31
428.069	141.31
428.292	90.31
428.514	88.31
428.736	86.31
428.958	85.31
429.181	80.31
429.403	80.31
429.625	97.31
429.847	87.31
430.069	108.31
430.292	103.31
430.514	98.31
430.736	89.31
430.958	85.31
431.18	92.31
431.402	73.31
431.624	88.31
431.846	90.31
432.068	87.31
432.29	77.31
432.512	91.31
432.734	84.31
432.956	94.31
433.178	95.31
433.4	98.31
433.622	97.31
433.844	75.31
434.066	101.31
434.287	91.31
434.509	99.31
434.731	87.31
434.953	96.31
435.175	94.31
435.397	91.31
435.618	97.31
435.84	105.31
436.062	116.31
436.284	103.31
436.505	83.31
436.727	98.31
436.949	89.31
437.17	84.31
437.392	91.31
437.614	92.31
437.835	96.31
438.057	116.31
438.278	100.31
438.5	101.31
438.721	123.31
438.943	118.31
439.165	82.31
439.386	95.31
439.608	96.31
439.829	99.31
440.05	124.31
440.272	144.31
440.493	108.31
440.715	91.31
440.936	87.31
441.158	87.31
441.379	84.31
441.6	82.31
441.822	85.31
442.043	107.31
442.264	107.31
442.486	102.31
442.707	90.31
442.928	103.31
443.149	120.31
443.371	125.31
443.592	103.31
443.813	108.31
444.034	117.31
444.255	93.31
444.476	101.31
444.698	94.31
444.919	79.31
445.14	123.31
445.361	132.31
445.582	110.31
445.803	127.31
446.024	135.31
446.245	122.31
446.466	100.31
446.687	90.31
446.908	91.31
447.129	84.31
447.35	98.31
447.571	96.31
447.792	89.31
448.013	86.31
448.234	106.31
448.455	104.31
448.675	100.31
448.896	123.31
449.117	98.31
449.338	102.31
449.559	109.31
449.779	116.31
450	107.31
450.221	97.31
450.442	85.31
450.662	96.31
450.883	106.31
451.104	113.31
451.324	102.31
451.545	89.31
451.766	88.31
451.986	94.31
452.207	90.31
452.428	92.31
452.648	93.31
452.869	123.31
453.089	118.31
453.31	118.31
453.53	107.31
453.751	92.31
453.971	91.31
454.192	110.31
454.412	96.31
454.633	90.31
454.853	88.31
455.073	88.31
455.294	92.31
455.514	104.31
455.734	93.31
455.955	92.31
456.175	87.31
456.395	92.31
456.616	89.31
456.836	87.31
457.056	97.31
457.276	79.31
457.497	106.31
457.717	89.31
457.937	93.31
458.157	70.31
458.377	89.31
458.598	101.31
458.818	142.31
459.038	160.31
459.258	125.31
459.478	89.31
459.698	102.31
459.918	65.31
460.138	70.31
460.358	87.31
460.578	83.31
460.798	87.31
461.018	95.31
461.238	88.31
461.458	74.31
461.678	88.31
461.898	89.31
462.118	84.31
462.338	81.31
462.558	86.31
462.777	89.31
462.997	100.31
463.217	100.31
463.437	88.31
463.657	91.31
463.876	74.31
464.096	92.31
464.316	100.31
464.536	95.31
464.755	91.31
464.975	107.31
465.195	156.31
465.414	161.31
465.634	104.31
465.854	88.31
466.073	79.31
466.293	86.31
466.512	79.31
466.732	101.31
466.951	99.31
467.171	80.31
467.391	99.31
467.61	130.31
467.829	119.31
468.049	184.31
468.268	197.31
468.488	92.31
468.707	85.31
468.927	81.31
469.146	91.31
469.365	91.31
469.585	85.31
469.804	94.31
470.023	107.31
470.243	80.31
470.462	101.31
470.681	120.31
470.901	101.31
471.12	101.31
471.339	89.31
471.558	94.31
471.777	102.31
471.997	131.31
472.216	283.31
472.435	537.31
472.654	179.31
472.873	106.31
473.092	91.31
473.311	92.31
473.53	101.31
473.749	91.31
473.968	87.31
474.187	98.31
474.406	95.31
474.625	85.31
474.844	82.31
475.063	91.31
475.282	89.31
475.501	86.31
475.72	99.31
475.939	89.31
476.158	95.31
476.377	111.31
476.596	91.31
476.814	91.31
477.033	90.31
477.252	86.31
477.471	94.31
477.69	93.31
477.908	85.31
478.127	87.31
478.346	91.31
478.564	96.31
478.783	97.31
479.002	91.31
479.22	96.31
479.439	95.31
479.658	108.31
479.876	111.31
480.095	99.31
480.313	108.31
480.532	105.31
480.751	129.31
480.969	274.31
481.188	874.31
481.406	544.31
481.624	150.31
481.843	107.31
482.061	80.31
482.28	101.31
482.498	83.31
482.717	90.31
482.935	90.31
483.153	82.31
483.372	95.31
483.59	96.31
483.808	92.31
484.027	91.31
484.245	79.31
484.463	91.31
484.681	93.31
484.9	93.31
485.118	118.31
485.336	108.31
485.554	99.31
485.772	105.31
485.99	94.31
486.209	120.31
486.427	125.31
486.645	116.31
486.863	122.31
487.081	110.31
487.299	86.31
487.517	91.31
487.735	87.31
487.953	104.31
488.171	95.31
488.389	89.31
488.607	103.31
488.825	103.31
489.043	87.31
489.261	110.31
489.479	99.31
489.696	97.31
489.914	79.31
490.132	88.31
490.35	85.31
490.568	87.31
490.786	96.31
491.003	90.31
491.221	98.31
491.439	88.31
491.657	78.31
491.874	93.31
492.092	90.31
492.31	108.31
492.527	102.31
492.745	92.31
492.963	92.31
493.18	100.31
493.398	110.31
493.615	92.31
493.833	86.31
494.05	95.31
494.268	88.31
494.485	79.31
494.703	82.31
494.92	92.31
495.138	86.31
495.355	81.31
495.573	83.31
495.79	77.31
496.008	101.31
496.225	80.31
496.442	100.31
496.66	100.31
496.877	97.31
497.094	94.31
497.312	101.31
497.529	93.31
497.746	100.31
497.963	87.31
498.181	91.31
498.398	87.31
498.615	107.31
498.832	108.31
499.049	108.31
499.267	98.31
499.484	93.31
499.701	105.31
499.918	100.31
500.135	91.31
500.352	93.31
500.569	100.31
500.786	93.31
501.003	90.31
501.22	103.31
501.437	99.31
501.654	99.31
501.871	131.31
502.088	83.31
502.305	96.31
502.522	93.31
502.739	103.31
502.956	92.31
503.172	93.31
503.389	85.31
503.606	96.31
503.823	92.31
504.04	88.31
504.256	86.31
504.473	94.31
504.69	110.31
504.907	103.31
505.123	90.31
505.34	87.31
505.557	101.31
505.773	105.31
505.99	100.31
506.207	101.31
506.423	109.31
506.64	82.31
506.856	79.31
507.073	79.31
507.289	104.31
507.506	90.31
507.722	124.31
507.939	109.31
508.155	98.31
508.372	94.31
508.588	83.31
508.805	104.31
509.021	105.31
509.238	98.31
509.454	103.31
509.67	95.31
509.887	114.31
510.103	113.31
510.319	207.31
510.536	697.31
510.752	2217.31
510.968	626.31
511.184	155.31
511.401	107.31
511.617	110.31
511.833	106.31
512.049	100.31
512.265	97.31
512.481	87.31
512.698	86.31
512.914	98.31
513.13	99.31
513.346	91.31
513.562	99.31
513.778	109.31
513.994	109.31
514.21	109.31
