Data from Circ_2000_H10_HRD10591_00028.txt Node
Date: Wed Jan 03 10:49:39 EST 2024
User: Yrep
Spectrometer: HR+D1059
Trigger mode: 1
Integration Time (sec): 1.000000E-1
Scans to average: 1
Electric dark correction enabled: true
Nonlinearity correction enabled: false
Boxcar width: 0
XAxis mode: Wavelengths
Number of Pixels in Spectrum: 2048
>>>>>Begin Spectral Data<<<<<
223.165	-21.69
223.4	-21.69
223.635	-21.69
223.869	-18.69
224.104	-21.69
224.338	-12.69
224.573	-15.69
224.808	-11.69
225.042	1.31
225.277	-4.69
225.511	3.31
225.746	5.31
225.98	-4.69
226.215	11.31
226.449	15.31
226.683	14.31
226.918	26.31
227.152	34.31
227.387	39.31
227.621	23.31
227.856	39.31
228.09	41.31
228.324	62.31
228.559	54.31
228.793	58.31
229.027	60.31
229.262	67.31
229.496	69.31
229.73	73.31
229.964	68.31
230.199	74.31
230.433	57.31
230.667	89.31
230.901	66.31
231.136	81.31
231.37	70.31
231.604	69.31
231.838	74.31
232.072	89.31
232.306	83.31
232.541	84.31
232.775	90.31
233.009	80.31
233.243	71.31
233.477	73.31
233.711	79.31
233.945	71.31
234.179	71.31
234.413	85.31
234.647	97.31
234.881	76.31
235.115	79.31
235.349	70.31
235.583	85.31
235.817	77.31
236.051	68.31
236.285	80.31
236.519	75.31
236.753	83.31
236.987	82.31
237.221	72.31
237.455	81.31
237.689	65.31
237.922	86.31
238.156	87.31
238.39	81.31
238.624	72.31
238.858	78.31
239.091	88.31
239.325	73.31
239.559	85.31
239.793	68.31
240.027	80.31
240.26	63.31
240.494	81.31
240.728	76.31
240.961	89.31
241.195	61.31
241.429	78.31
241.662	67.31
241.896	65.31
242.13	77.31
242.363	77.31
242.597	74.31
242.83	90.31
243.064	79.31
243.298	82.31
243.531	77.31
243.765	77.31
243.998	85.31
244.232	88.31
244.465	102.31
244.699	83.31
244.932	75.31
245.166	68.31
245.399	96.31
245.633	75.31
245.866	72.31
246.099	84.31
246.333	88.31
246.566	74.31
246.8	88.31
247.033	72.31
247.266	81.31
247.5	85.31
247.733	89.31
247.966	81.31
248.2	84.31
248.433	91.31
248.666	85.31
248.899	75.31
249.133	79.31
249.366	89.31
249.599	95.31
249.832	80.31
250.066	77.31
250.299	81.31
250.532	82.31
250.765	87.31
250.998	81.31
251.231	73.31
251.465	83.31
251.698	86.31
251.931	86.31
252.164	73.31
252.397	82.31
252.63	65.31
252.863	75.31
253.096	82.31
253.329	95.31
253.562	81.31
253.795	80.31
254.028	98.31
254.261	77.31
254.494	79.31
254.727	79.31
254.96	74.31
255.193	80.31
255.426	87.31
255.659	77.31
255.892	89.31
256.124	78.31
256.357	82.31
256.59	81.31
256.823	94.31
257.056	77.31
257.289	82.31
257.521	85.31
257.754	76.31
257.987	85.31
258.22	77.31
258.452	88.31
258.685	82.31
258.918	87.31
259.151	83.31
259.383	81.31
259.616	84.31
259.849	74.31
260.081	82.31
260.314	75.31
260.547	76.31
260.779	78.31
261.012	84.31
261.244	94.31
261.477	99.31
261.71	91.31
261.942	100.31
262.175	113.31
262.407	83.31
262.64	70.31
262.872	83.31
263.105	70.31
263.337	85.31
263.57	78.31
263.802	73.31
264.035	71.31
264.267	80.31
264.499	85.31
264.732	84.31
264.964	86.31
265.197	78.31
265.429	76.31
265.661	82.31
265.894	91.31
266.126	75.31
266.358	76.31
266.591	81.31
266.823	68.31
267.055	88.31
267.287	81.31
267.52	82.31
267.752	93.31
267.984	70.31
268.216	75.31
268.448	83.31
268.681	71.31
268.913	87.31
269.145	76.31
269.377	81.31
269.609	86.31
269.841	95.31
270.073	86.31
270.306	82.31
270.538	83.31
270.77	93.31
271.002	92.31
271.234	94.31
271.466	94.31
271.698	83.31
271.93	93.31
272.162	89.31
272.394	86.31
272.626	78.31
272.858	89.31
273.09	86.31
273.322	88.31
273.553	80.31
273.785	74.31
274.017	90.31
274.249	74.31
274.481	89.31
274.713	71.31
274.945	81.31
275.176	87.31
275.408	99.31
275.64	97.31
275.872	99.31
276.104	75.31
276.335	90.31
276.567	81.31
276.799	106.31
277.031	103.31
277.262	105.31
277.494	95.31
277.726	82.31
277.957	76.31
278.189	73.31
278.421	89.31
278.652	89.31
278.884	78.31
279.115	103.31
279.347	80.31
279.579	90.31
279.81	87.31
280.042	110.31
280.273	100.31
280.505	92.31
280.736	80.31
280.968	79.31
281.199	90.31
281.431	92.31
281.662	86.31
281.894	95.31
282.125	84.31
282.356	114.31
282.588	123.31
282.819	99.31
283.051	82.31
283.282	91.31
283.513	95.31
283.745	87.31
283.976	75.31
284.207	88.31
284.439	85.31
284.67	82.31
284.901	97.31
285.132	83.31
285.364	88.31
285.595	90.31
285.826	81.31
286.057	77.31
286.288	82.31
286.52	90.31
286.751	95.31
286.982	87.31
287.213	85.31
287.444	88.31
287.675	76.31
287.906	90.31
288.138	98.31
288.369	88.31
288.6	88.31
288.831	88.31
289.062	91.31
289.293	92.31
289.524	89.31
289.755	87.31
289.986	82.31
290.217	71.31
290.448	95.31
290.679	92.31
290.91	93.31
291.141	87.31
291.371	87.31
291.602	74.31
291.833	67.31
292.064	103.31
292.295	78.31
292.526	92.31
292.757	90.31
292.987	94.31
293.218	90.31
293.449	93.31
293.68	92.31
293.91	78.31
294.141	79.31
294.372	83.31
294.603	95.31
294.833	90.31
295.064	85.31
295.295	97.31
295.525	90.31
295.756	95.31
295.987	83.31
296.217	115.31
296.448	114.31
296.679	79.31
296.909	96.31
297.14	89.31
297.37	85.31
297.601	79.31
297.831	80.31
298.062	87.31
298.292	86.31
298.523	78.31
298.753	77.31
298.984	89.31
299.214	77.31
299.445	69.31
299.675	103.31
299.905	98.31
300.136	88.31
300.366	89.31
300.597	84.31
300.827	73.31
301.057	99.31
301.288	77.31
301.518	84.31
301.748	87.31
301.979	100.31
302.209	101.31
302.439	72.31
302.669	75.31
302.9	87.31
303.13	89.31
303.36	102.31
303.59	98.31
303.82	97.31
304.051	86.31
304.281	91.31
304.511	89.31
304.741	85.31
304.971	84.31
305.201	86.31
305.431	87.31
305.661	78.31
305.891	94.31
306.121	100.31
306.352	85.31
306.582	93.31
306.812	89.31
307.042	100.31
307.272	85.31
307.502	95.31
307.731	107.31
307.961	94.31
308.191	85.31
308.421	76.31
308.651	87.31
308.881	81.31
309.111	99.31
309.341	94.31
309.571	107.31
309.8	93.31
310.03	101.31
310.26	98.31
310.49	101.31
310.72	104.31
310.949	95.31
311.179	105.31
311.409	94.31
311.639	85.31
311.868	90.31
312.098	83.31
312.328	91.31
312.557	93.31
312.787	90.31
313.017	100.31
313.246	106.31
313.476	92.31
313.706	85.31
313.935	89.31
314.165	89.31
314.394	87.31
314.624	89.31
314.853	86.31
315.083	98.31
315.312	82.31
315.542	91.31
315.771	82.31
316.001	87.31
316.23	74.31
316.46	85.31
316.689	86.31
316.919	84.31
317.148	93.31
317.377	100.31
317.607	91.31
317.836	85.31
318.065	89.31
318.295	92.31
318.524	85.31
318.753	91.31
318.983	95.31
319.212	92.31
319.441	99.31
319.67	99.31
319.9	105.31
320.129	90.31
320.358	98.31
320.587	101.31
320.816	104.31
321.046	91.31
321.275	85.31
321.504	95.31
321.733	94.31
321.962	85.31
322.191	106.31
322.42	91.31
322.649	106.31
322.878	107.31
323.108	113.31
323.337	107.31
323.566	130.31
323.795	134.31
324.024	169.31
324.253	343.31
324.482	707.31
324.71	1403.31
324.939	1877.31
325.168	693.31
325.397	232.31
325.626	137.31
325.855	123.31
326.084	119.31
326.313	105.31
326.542	121.31
326.77	202.31
326.999	401.31
327.228	801.31
327.457	1466.31
327.686	1170.31
327.914	343.31
328.143	185.31
328.372	181.31
328.6	133.31
328.829	116.31
329.058	126.31
329.287	118.31
329.515	110.31
329.744	126.31
329.972	138.31
330.201	202.31
330.43	260.31
330.658	178.31
330.887	155.31
331.115	106.31
331.344	100.31
331.572	99.31
331.801	93.31
332.03	92.31
332.258	100.31
332.486	99.31
332.715	105.31
332.943	96.31
333.172	103.31
333.4	101.31
333.629	103.31
333.857	116.31
334.085	155.31
334.314	221.31
334.542	333.31
334.771	306.31
334.999	121.31
335.227	97.31
335.455	94.31
335.684	109.31
335.912	105.31
336.14	90.31
336.369	89.31
336.597	92.31
336.825	95.31
337.053	99.31
337.281	93.31
337.51	92.31
337.738	102.31
337.966	70.31
338.194	93.31
338.422	90.31
338.65	95.31
338.878	78.31
339.106	86.31
339.334	93.31
339.562	107.31
339.79	75.31
340.018	93.31
340.246	93.31
340.474	81.31
340.702	85.31
340.93	82.31
341.158	105.31
341.386	89.31
341.614	101.31
341.842	92.31
342.07	79.31
342.298	90.31
342.526	86.31
342.754	90.31
342.981	82.31
343.209	98.31
343.437	93.31
343.665	87.31
343.893	84.31
344.12	90.31
344.348	93.31
344.576	87.31
344.804	94.31
345.031	85.31
345.259	95.31
345.487	89.31
345.714	82.31
345.942	73.31
346.17	85.31
346.397	83.31
346.625	92.31
346.853	95.31
347.08	86.31
347.308	95.31
347.535	89.31
347.763	89.31
347.99	100.31
348.218	100.31
348.445	90.31
348.673	96.31
348.9	77.31
349.128	80.31
349.355	92.31
349.583	101.31
349.81	107.31
350.037	92.31
350.265	82.31
350.492	99.31
350.72	93.31
350.947	102.31
351.174	102.31
351.402	112.31
351.629	85.31
351.856	105.31
352.083	95.31
352.311	96.31
352.538	98.31
352.765	93.31
352.992	103.31
353.22	105.31
353.447	107.31
353.674	103.31
353.901	95.31
354.128	88.31
354.355	106.31
354.583	104.31
354.81	99.31
355.037	103.31
355.264	99.31
355.491	83.31
355.718	92.31
355.945	86.31
356.172	99.31
356.399	96.31
356.626	82.31
356.853	91.31
357.08	92.31
357.307	97.31
357.534	94.31
357.761	90.31
357.988	113.31
358.215	100.31
358.441	83.31
358.668	94.31
358.895	97.31
359.122	89.31
359.349	86.31
359.576	92.31
359.802	107.31
360.029	102.31
360.256	115.31
360.483	78.31
360.709	100.31
360.936	93.31
361.163	108.31
361.39	109.31
361.616	89.31
361.843	85.31
362.07	86.31
362.296	100.31
362.523	83.31
362.749	91.31
362.976	82.31
363.203	92.31
363.429	90.31
363.656	84.31
363.882	102.31
364.109	85.31
364.335	79.31
364.562	98.31
364.788	80.31
365.015	101.31
365.241	102.31
365.468	106.31
365.694	92.31
365.92	100.31
366.147	86.31
366.373	98.31
366.599	92.31
366.826	105.31
367.052	89.31
367.278	88.31
367.505	89.31
367.731	93.31
367.957	95.31
368.184	90.31
368.41	87.31
368.636	96.31
368.862	120.31
369.089	109.31
369.315	86.31
369.541	99.31
369.767	86.31
369.993	97.31
370.219	85.31
370.445	90.31
370.672	84.31
370.898	88.31
371.124	86.31
371.35	81.31
371.576	95.31
371.802	86.31
372.028	94.31
372.254	88.31
372.48	101.31
372.706	91.31
372.932	90.31
373.158	77.31
373.384	99.31
373.61	102.31
373.835	94.31
374.061	86.31
374.287	91.31
374.513	87.31
374.739	95.31
374.965	87.31
375.191	92.31
375.416	90.31
375.642	93.31
375.868	99.31
376.094	93.31
376.319	78.31
376.545	98.31
376.771	91.31
376.997	93.31
377.222	90.31
377.448	73.31
377.674	94.31
377.899	83.31
378.125	89.31
378.35	103.31
378.576	99.31
378.802	99.31
379.027	83.31
379.253	89.31
379.478	84.31
379.704	100.31
379.929	93.31
380.155	98.31
380.38	87.31
380.606	98.31
380.831	96.31
381.057	86.31
381.282	105.31
381.507	104.31
381.733	98.31
381.958	99.31
382.184	105.31
382.409	103.31
382.634	96.31
382.86	101.31
383.085	103.31
383.31	104.31
383.535	102.31
383.761	100.31
383.986	98.31
384.211	101.31
384.436	111.31
384.662	113.31
384.887	108.31
385.112	112.31
385.337	103.31
385.562	122.31
385.787	117.31
386.013	115.31
386.238	123.31
386.463	107.31
386.688	127.31
386.913	112.31
387.138	107.31
387.363	115.31
387.588	100.31
387.813	106.31
388.038	125.31
388.263	111.31
388.488	103.31
388.713	80.31
388.938	105.31
389.163	107.31
389.387	92.31
389.612	105.31
389.837	85.31
390.062	99.31
390.287	93.31
390.512	85.31
390.736	102.31
390.961	90.31
391.186	100.31
391.411	104.31
391.636	97.31
391.86	75.31
392.085	80.31
392.31	98.31
392.534	91.31
392.759	104.31
392.984	95.31
393.208	102.31
393.433	90.31
393.658	89.31
393.882	96.31
394.107	96.31
394.331	91.31
394.556	86.31
394.78	85.31
395.005	86.31
395.229	89.31
395.454	91.31
395.678	94.31
395.903	98.31
396.127	77.31
396.352	92.31
396.576	83.31
396.801	103.31
397.025	87.31
397.249	95.31
397.474	77.31
397.698	93.31
397.922	87.31
398.147	91.31
398.371	76.31
398.595	77.31
398.82	82.31
399.044	80.31
399.268	77.31
399.492	97.31
399.717	98.31
399.941	89.31
400.165	85.31
400.389	91.31
400.613	76.31
400.837	98.31
401.062	94.31
401.286	88.31
401.51	91.31
401.734	94.31
401.958	104.31
402.182	101.31
402.406	133.31
402.63	107.31
402.854	86.31
403.078	92.31
403.302	95.31
403.526	93.31
403.75	98.31
403.974	95.31
404.198	91.31
404.422	84.31
404.645	90.31
404.869	81.31
405.093	95.31
405.317	102.31
405.541	99.31
405.765	94.31
405.988	106.31
406.212	165.31
406.436	182.31
406.66	133.31
406.883	71.31
407.107	93.31
407.331	97.31
407.555	95.31
407.778	98.31
408.002	85.31
408.226	91.31
408.449	88.31
408.673	110.31
408.896	90.31
409.12	100.31
409.344	100.31
409.567	86.31
409.791	88.31
410.014	99.31
410.238	86.31
410.461	81.31
410.685	97.31
410.908	90.31
411.132	109.31
411.355	98.31
411.578	85.31
411.802	96.31
412.025	67.31
412.249	80.31
412.472	103.31
412.695	115.31
412.919	97.31
413.142	106.31
413.365	86.31
413.589	85.31
413.812	90.31
414.035	103.31
414.258	85.31
414.482	89.31
414.705	91.31
414.928	95.31
415.151	89.31
415.374	85.31
415.597	84.31
415.821	77.31
416.044	96.31
416.267	90.31
416.49	80.31
416.713	86.31
416.936	81.31
417.159	96.31
417.382	92.31
417.605	79.31
417.828	87.31
418.051	87.31
418.274	103.31
418.497	84.31
418.72	82.31
418.943	88.31
419.166	78.31
419.389	84.31
419.611	86.31
419.834	91.31
420.057	83.31
420.28	86.31
420.503	87.31
420.726	91.31
420.948	89.31
421.171	81.31
421.394	102.31
421.617	93.31
421.839	92.31
422.062	88.31
422.285	81.31
422.507	95.31
422.73	95.31
422.953	94.31
423.175	91.31
423.398	84.31
423.621	91.31
423.843	102.31
424.066	91.31
424.288	91.31
424.511	93.31
424.733	99.31
424.956	94.31
425.178	83.31
425.401	86.31
425.623	91.31
425.846	81.31
426.068	86.31
426.291	88.31
426.513	97.31
426.735	89.31
426.958	105.31
427.18	99.31
427.402	124.31
427.625	153.31
427.847	145.31
428.069	129.31
428.292	103.31
428.514	84.31
428.736	85.31
428.958	98.31
429.181	102.31
429.403	89.31
429.625	84.31
429.847	102.31
430.069	119.31
430.292	97.31
430.514	97.31
430.736	92.31
430.958	85.31
431.18	74.31
431.402	77.31
431.624	75.31
431.846	93.31
432.068	73.31
432.29	84.31
432.512	84.31
432.734	87.31
432.956	94.31
433.178	94.31
433.4	99.31
433.622	85.31
433.844	81.31
434.066	86.31
434.287	101.31
434.509	90.31
434.731	100.31
434.953	96.31
435.175	82.31
435.397	100.31
435.618	87.31
435.84	97.31
436.062	95.31
436.284	93.31
436.505	85.31
436.727	88.31
436.949	72.31
437.17	103.31
437.392	104.31
437.614	82.31
437.835	101.31
438.057	103.31
438.278	113.31
438.5	82.31
438.721	117.31
438.943	103.31
439.165	87.31
439.386	100.31
439.608	82.31
439.829	93.31
440.05	101.31
440.272	131.31
440.493	93.31
440.715	85.31
440.936	88.31
441.158	75.31
441.379	81.31
441.6	88.31
441.822	110.31
442.043	96.31
442.264	95.31
442.486	100.31
442.707	91.31
442.928	102.31
443.149	118.31
443.371	114.31
443.592	103.31
443.813	95.31
444.034	104.31
444.255	93.31
444.476	85.31
444.698	96.31
444.919	84.31
445.14	134.31
445.361	124.31
445.582	106.31
445.803	130.31
446.024	116.31
446.245	120.31
446.466	118.31
446.687	87.31
446.908	89.31
447.129	93.31
447.35	86.31
447.571	75.31
447.792	92.31
448.013	85.31
448.234	101.31
448.455	97.31
448.675	106.31
448.896	109.31
449.117	103.31
449.338	103.31
449.559	122.31
449.779	133.31
450	93.31
450.221	98.31
450.442	81.31
450.662	98.31
450.883	86.31
451.104	100.31
451.324	97.31
451.545	69.31
451.766	88.31
451.986	93.31
452.207	92.31
452.428	88.31
452.648	94.31
452.869	102.31
453.089	103.31
453.31	101.31
453.53	99.31
453.751	98.31
453.971	94.31
454.192	96.31
454.412	77.31
454.633	84.31
454.853	86.31
455.073	84.31
455.294	93.31
455.514	84.31
455.734	84.31
455.955	93.31
456.175	76.31
456.395	79.31
456.616	79.31
456.836	82.31
457.056	77.31
457.276	92.31
457.497	90.31
457.717	74.31
457.937	86.31
458.157	82.31
458.377	102.31
458.598	98.31
458.818	140.31
459.038	129.31
459.258	109.31
459.478	90.31
459.698	78.31
459.918	89.31
460.138	87.31
460.358	85.31
460.578	87.31
460.798	97.31
461.018	85.31
461.238	95.31
461.458	86.31
461.678	98.31
461.898	106.31
462.118	85.31
462.338	83.31
462.558	79.31
462.777	97.31
462.997	71.31
463.217	103.31
463.437	89.31
463.657	82.31
463.876	93.31
464.096	108.31
464.316	102.31
464.536	90.31
464.755	91.31
464.975	97.31
465.195	147.31
465.414	130.31
465.634	95.31
465.854	87.31
466.073	83.31
466.293	94.31
466.512	77.31
466.732	83.31
466.951	82.31
467.171	89.31
467.391	98.31
467.61	114.31
467.829	110.31
468.049	156.31
468.268	176.31
468.488	100.31
468.707	88.31
468.927	92.31
469.146	89.31
469.365	92.31
469.585	77.31
469.804	86.31
470.023	101.31
470.243	100.31
470.462	93.31
470.681	108.31
470.901	94.31
471.12	93.31
471.339	105.31
471.558	108.31
471.777	99.31
471.997	105.31
472.216	242.31
472.435	419.31
472.654	169.31
472.873	110.31
473.092	98.31
473.311	80.31
473.53	90.31
473.749	100.31
473.968	92.31
474.187	106.31
474.406	104.31
474.625	97.31
474.844	90.31
475.063	76.31
475.282	86.31
475.501	93.31
475.72	86.31
475.939	83.31
476.158	67.31
476.377	84.31
476.596	93.31
476.814	95.31
477.033	78.31
477.252	90.31
477.471	93.31
477.69	91.31
477.908	94.31
478.127	106.31
478.346	82.31
478.564	101.31
478.783	91.31
479.002	96.31
479.22	105.31
479.439	110.31
479.658	98.31
479.876	93.31
480.095	88.31
480.313	93.31
480.532	98.31
480.751	99.31
480.969	225.31
481.188	702.31
481.406	450.31
481.624	121.31
481.843	93.31
482.061	91.31
482.28	85.31
482.498	80.31
482.717	107.31
482.935	91.31
483.153	95.31
483.372	87.31
483.59	84.31
483.808	87.31
484.027	95.31
484.245	101.31
484.463	98.31
484.681	93.31
484.9	88.31
485.118	89.31
485.336	116.31
485.554	95.31
485.772	108.31
485.99	87.31
486.209	109.31
486.427	117.31
486.645	110.31
486.863	101.31
487.081	107.31
487.299	111.31
487.517	100.31
487.735	91.31
487.953	99.31
488.171	97.31
488.389	105.31
488.607	107.31
488.825	92.31
489.043	78.31
489.261	82.31
489.479	107.31
489.696	85.31
489.914	79.31
490.132	95.31
490.35	104.31
490.568	105.31
490.786	87.31
491.003	83.31
491.221	90.31
491.439	87.31
491.657	92.31
491.874	106.31
492.092	98.31
492.31	95.31
492.527	102.31
492.745	104.31
492.963	105.31
493.18	88.31
493.398	91.31
493.615	98.31
493.833	79.31
494.05	93.31
494.268	94.31
494.485	80.31
494.703	90.31
494.92	85.31
495.138	95.31
495.355	98.31
495.573	83.31
495.79	91.31
496.008	99.31
496.225	98.31
496.442	97.31
496.66	80.31
496.877	86.31
497.094	92.31
497.312	93.31
497.529	93.31
497.746	94.31
497.963	86.31
498.181	95.31
498.398	87.31
498.615	105.31
498.832	104.31
499.049	88.31
499.267	92.31
499.484	97.31
499.701	90.31
499.918	84.31
500.135	95.31
500.352	90.31
500.569	94.31
500.786	92.31
501.003	98.31
501.22	84.31
501.437	68.31
501.654	105.31
501.871	101.31
502.088	97.31
502.305	94.31
502.522	82.31
502.739	101.31
502.956	89.31
503.172	102.31
503.389	81.31
503.606	97.31
503.823	90.31
504.04	101.31
504.256	91.31
504.473	89.31
504.69	85.31
504.907	88.31
505.123	85.31
505.34	89.31
505.557	88.31
505.773	98.31
505.99	95.31
506.207	81.31
506.423	77.31
506.64	94.31
506.856	80.31
507.073	87.31
507.289	86.31
507.506	97.31
507.722	92.31
507.939	104.31
508.155	89.31
508.372	92.31
508.588	108.31
508.805	86.31
509.021	80.31
509.238	94.31
509.454	111.31
509.67	96.31
509.887	105.31
510.103	124.31
510.319	172.31
510.536	617.31
510.752	1992.31
510.968	561.31
511.184	135.31
511.401	99.31
511.617	85.31
511.833	101.31
512.049	101.31
512.265	93.31
512.481	96.31
512.698	89.31
512.914	101.31
513.13	87.31
513.346	91.31
513.562	97.31
513.778	99.31
513.994	90.31
514.21	92.31
514.426	111.31
514.642	121.31
514.858	117.31
515.074	150.31
515.29	365.31
515.506	1128.31
515.721	413.31
