Data from Circ_2000_H10_HRD10591_00072.txt Node
Date: Wed Jan 03 10:49:48 EST 2024
User: Yrep
Spectrometer: HR+D1059
Trigger mode: 1
Integration Time (sec): 1.000000E-1
Scans to average: 1
Electric dark correction enabled: true
Nonlinearity correction enabled: false
Boxcar width: 0
XAxis mode: Wavelengths
Number of Pixels in Spectrum: 2048
>>>>>Begin Spectral Data<<<<<
223.165	-12.75
223.4	-12.75
223.635	-12.75
223.869	-6.75
224.104	-8.75
224.338	-20.75
224.573	-10.75
224.808	-31.75
225.042	-12.75
225.277	-10.75
225.511	5.25
225.746	-2.75
225.98	13.25
226.215	6.25
226.449	5.25
226.683	22.25
226.918	32.25
227.152	33.25
227.387	38.25
227.621	40.25
227.856	37.25
228.09	52.25
228.324	60.25
228.559	66.25
228.793	54.25
229.027	54.25
229.262	64.25
229.496	88.25
229.73	95.25
229.964	81.25
230.199	76.25
230.433	83.25
230.667	65.25
230.901	80.25
231.136	90.25
231.37	76.25
231.604	78.25
231.838	99.25
232.072	84.25
232.306	77.25
232.541	83.25
232.775	72.25
233.009	75.25
233.243	90.25
233.477	88.25
233.711	86.25
233.945	84.25
234.179	87.25
234.413	75.25
234.647	77.25
234.881	64.25
235.115	76.25
235.349	89.25
235.583	81.25
235.817	68.25
236.051	77.25
236.285	76.25
236.519	86.25
236.753	89.25
236.987	75.25
237.221	90.25
237.455	88.25
237.689	74.25
237.922	71.25
238.156	87.25
238.39	77.25
238.624	74.25
238.858	69.25
239.091	84.25
239.325	84.25
239.559	82.25
239.793	80.25
240.027	91.25
240.26	83.25
240.494	93.25
240.728	76.25
240.961	64.25
241.195	73.25
241.429	66.25
241.662	80.25
241.896	81.25
242.13	74.25
242.363	72.25
242.597	72.25
242.83	83.25
243.064	69.25
243.298	87.25
243.531	72.25
243.765	78.25
243.998	96.25
244.232	91.25
244.465	89.25
244.699	85.25
244.932	73.25
245.166	85.25
245.399	78.25
245.633	82.25
245.866	76.25
246.099	86.25
246.333	78.25
246.566	68.25
246.8	68.25
247.033	89.25
247.266	69.25
247.5	92.25
247.733	76.25
247.966	73.25
248.2	101.25
248.433	85.25
248.666	75.25
248.899	78.25
249.133	86.25
249.366	94.25
249.599	109.25
249.832	84.25
250.066	83.25
250.299	93.25
250.532	80.25
250.765	91.25
250.998	74.25
251.231	70.25
251.465	77.25
251.698	85.25
251.931	86.25
252.164	84.25
252.397	85.25
252.63	81.25
252.863	80.25
253.096	81.25
253.329	89.25
253.562	74.25
253.795	82.25
254.028	94.25
254.261	68.25
254.494	84.25
254.727	80.25
254.96	81.25
255.193	95.25
255.426	79.25
255.659	96.25
255.892	90.25
256.124	89.25
256.357	77.25
256.59	95.25
256.823	90.25
257.056	102.25
257.289	85.25
257.521	82.25
257.754	77.25
257.987	87.25
258.22	93.25
258.452	106.25
258.685	88.25
258.918	86.25
259.151	65.25
259.383	93.25
259.616	78.25
259.849	85.25
260.081	94.25
260.314	94.25
260.547	100.25
260.779	84.25
261.012	100.25
261.244	102.25
261.477	98.25
261.71	100.25
261.942	120.25
262.175	155.25
262.407	99.25
262.64	84.25
262.872	90.25
263.105	78.25
263.337	65.25
263.57	82.25
263.802	92.25
264.035	81.25
264.267	78.25
264.499	72.25
264.732	87.25
264.964	89.25
265.197	95.25
265.429	83.25
265.661	82.25
265.894	80.25
266.126	78.25
266.358	81.25
266.591	81.25
266.823	76.25
267.055	86.25
267.287	99.25
267.52	86.25
267.752	70.25
267.984	71.25
268.216	64.25
268.448	99.25
268.681	93.25
268.913	86.25
269.145	88.25
269.377	85.25
269.609	83.25
269.841	84.25
270.073	84.25
270.306	81.25
270.538	72.25
270.77	76.25
271.002	90.25
271.234	98.25
271.466	90.25
271.698	79.25
271.93	82.25
272.162	89.25
272.394	97.25
272.626	88.25
272.858	82.25
273.09	89.25
273.322	90.25
273.553	86.25
273.785	85.25
274.017	74.25
274.249	85.25
274.481	85.25
274.713	81.25
274.945	85.25
275.176	81.25
275.408	88.25
275.64	97.25
275.872	130.25
276.104	102.25
276.335	106.25
276.567	113.25
276.799	141.25
277.031	146.25
277.262	166.25
277.494	123.25
277.726	100.25
277.957	92.25
278.189	99.25
278.421	100.25
278.652	84.25
278.884	78.25
279.115	85.25
279.347	84.25
279.579	91.25
279.81	115.25
280.042	163.25
280.273	209.25
280.505	160.25
280.736	92.25
280.968	93.25
281.199	73.25
281.431	99.25
281.662	78.25
281.894	103.25
282.125	100.25
282.356	127.25
282.588	187.25
282.819	131.25
283.051	96.25
283.282	91.25
283.513	97.25
283.745	91.25
283.976	80.25
284.207	89.25
284.439	77.25
284.67	82.25
284.901	80.25
285.132	86.25
285.364	91.25
285.595	91.25
285.826	87.25
286.057	75.25
286.288	84.25
286.52	102.25
286.751	91.25
286.982	88.25
287.213	89.25
287.444	82.25
287.675	88.25
287.906	86.25
288.138	97.25
288.369	102.25
288.6	97.25
288.831	90.25
289.062	102.25
289.293	89.25
289.524	92.25
289.755	77.25
289.986	78.25
290.217	88.25
290.448	80.25
290.679	86.25
290.91	94.25
291.141	80.25
291.371	77.25
291.602	86.25
291.833	95.25
292.064	88.25
292.295	88.25
292.526	97.25
292.757	92.25
292.987	86.25
293.218	94.25
293.449	88.25
293.68	96.25
293.91	90.25
294.141	94.25
294.372	83.25
294.603	83.25
294.833	97.25
295.064	93.25
295.295	80.25
295.525	93.25
295.756	101.25
295.987	123.25
296.217	165.25
296.448	152.25
296.679	105.25
296.909	105.25
297.14	81.25
297.37	85.25
297.601	82.25
297.831	78.25
298.062	92.25
298.292	97.25
298.523	92.25
298.753	86.25
298.984	96.25
299.214	104.25
299.445	91.25
299.675	103.25
299.905	91.25
300.136	95.25
300.366	97.25
300.597	103.25
300.827	103.25
301.057	106.25
301.288	108.25
301.518	86.25
301.748	96.25
301.979	112.25
302.209	93.25
302.439	97.25
302.669	85.25
302.9	82.25
303.13	103.25
303.36	101.25
303.59	126.25
303.82	135.25
304.051	101.25
304.281	95.25
304.511	85.25
304.741	104.25
304.971	93.25
305.201	92.25
305.431	110.25
305.661	88.25
305.891	90.25
306.121	110.25
306.352	111.25
306.582	115.25
306.812	95.25
307.042	118.25
307.272	134.25
307.502	160.25
307.731	134.25
307.961	115.25
308.191	84.25
308.421	97.25
308.651	100.25
308.881	100.25
309.111	84.25
309.341	117.25
309.571	96.25
309.8	92.25
310.03	98.25
310.26	120.25
310.49	114.25
310.72	111.25
310.949	116.25
311.179	106.25
311.409	98.25
311.639	90.25
311.868	104.25
312.098	90.25
312.328	117.25
312.557	112.25
312.787	108.25
313.017	126.25
313.246	105.25
313.476	90.25
313.706	97.25
313.935	94.25
314.165	102.25
314.394	122.25
314.624	125.25
314.853	112.25
315.083	93.25
315.312	105.25
315.542	84.25
315.771	91.25
316.001	82.25
316.23	94.25
316.46	90.25
316.689	95.25
316.919	99.25
317.148	108.25
317.377	103.25
317.607	99.25
317.836	97.25
318.065	101.25
318.295	86.25
318.524	98.25
318.753	90.25
318.983	90.25
319.212	129.25
319.441	123.25
319.67	108.25
319.9	97.25
320.129	105.25
320.358	101.25
320.587	101.25
320.816	108.25
321.046	103.25
321.275	109.25
321.504	105.25
321.733	94.25
321.962	106.25
322.191	111.25
322.42	120.25
322.649	120.25
322.878	109.25
323.108	144.25
323.337	153.25
323.566	152.25
323.795	177.25
324.024	258.25
324.253	535.25
324.482	1174.25
324.71	2427.25
324.939	3228.25
325.168	1168.25
325.397	329.25
325.626	184.25
325.855	152.25
326.084	152.25
326.313	155.25
326.542	183.25
326.77	283.25
326.999	590.25
327.228	1258.25
327.457	2363.25
327.686	1890.25
327.914	570.25
328.143	454.25
328.372	525.25
328.6	322.25
328.829	179.25
329.058	202.25
329.287	193.25
329.515	167.25
329.744	222.25
329.972	405.25
330.201	776.25
330.43	1088.25
330.658	529.25
330.887	274.25
331.115	192.25
331.344	133.25
331.572	131.25
331.801	139.25
332.03	120.25
332.258	119.25
332.486	100.25
332.715	114.25
332.943	140.25
333.172	125.25
333.4	133.25
333.629	148.25
333.857	208.25
334.085	364.25
334.314	715.25
334.542	1377.25
334.771	1327.25
334.999	352.25
335.227	141.25
335.455	121.25
335.684	117.25
335.912	115.25
336.14	99.25
336.369	98.25
336.597	102.25
336.825	89.25
337.053	82.25
337.281	100.25
337.51	113.25
337.738	105.25
337.966	97.25
338.194	105.25
338.422	113.25
338.65	108.25
338.878	106.25
339.106	92.25
339.334	86.25
339.562	101.25
339.79	100.25
340.018	103.25
340.246	103.25
340.474	116.25
340.702	95.25
340.93	97.25
341.158	85.25
341.386	104.25
341.614	109.25
341.842	103.25
342.07	98.25
342.298	85.25
342.526	90.25
342.754	82.25
342.981	91.25
343.209	79.25
343.437	90.25
343.665	75.25
343.893	84.25
344.12	88.25
344.348	82.25
344.576	99.25
344.804	110.25
345.031	116.25
345.259	124.25
345.487	104.25
345.714	101.25
345.942	91.25
346.17	94.25
346.397	90.25
346.625	90.25
346.853	101.25
347.08	94.25
347.308	105.25
347.535	102.25
347.763	102.25
347.99	112.25
348.218	105.25
348.445	121.25
348.673	112.25
348.9	87.25
349.128	89.25
349.355	95.25
349.583	88.25
349.81	98.25
350.037	95.25
350.265	88.25
350.492	98.25
350.72	93.25
350.947	94.25
351.174	112.25
351.402	141.25
351.629	111.25
351.856	119.25
352.083	122.25
352.311	109.25
352.538	130.25
352.765	122.25
352.992	125.25
353.22	112.25
353.447	103.25
353.674	100.25
353.901	99.25
354.128	92.25
354.355	104.25
354.583	102.25
354.81	102.25
355.037	99.25
355.264	93.25
355.491	101.25
355.718	100.25
355.945	77.25
356.172	99.25
356.399	113.25
356.626	98.25
356.853	94.25
357.08	99.25
357.307	100.25
357.534	77.25
357.761	90.25
357.988	98.25
358.215	92.25
358.441	96.25
358.668	112.25
358.895	85.25
359.122	85.25
359.349	88.25
359.576	94.25
359.802	116.25
360.029	151.25
360.256	142.25
360.483	108.25
360.709	97.25
360.936	103.25
361.163	104.25
361.39	107.25
361.616	99.25
361.843	95.25
362.07	98.25
362.296	118.25
362.523	99.25
362.749	101.25
362.976	92.25
363.203	105.25
363.429	89.25
363.656	114.25
363.882	105.25
364.109	106.25
364.335	89.25
364.562	106.25
364.788	108.25
365.015	94.25
365.241	107.25
365.468	121.25
365.694	129.25
365.92	116.25
366.147	92.25
366.373	99.25
366.599	99.25
366.826	88.25
367.052	85.25
367.278	93.25
367.505	88.25
367.731	102.25
367.957	100.25
368.184	94.25
368.41	111.25
368.636	126.25
368.862	124.25
369.089	107.25
369.315	87.25
369.541	101.25
369.767	94.25
369.993	106.25
370.219	108.25
370.445	107.25
370.672	101.25
370.898	96.25
371.124	81.25
371.35	81.25
371.576	87.25
371.802	89.25
372.028	85.25
372.254	99.25
372.48	87.25
372.706	66.25
372.932	87.25
373.158	105.25
373.384	102.25
373.61	76.25
373.835	91.25
374.061	88.25
374.287	92.25
374.513	92.25
374.739	84.25
374.965	88.25
375.191	94.25
375.416	84.25
375.642	68.25
375.868	79.25
376.094	96.25
376.319	98.25
376.545	97.25
376.771	92.25
376.997	90.25
377.222	80.25
377.448	86.25
377.674	88.25
377.899	82.25
378.125	73.25
378.35	90.25
378.576	98.25
378.802	81.25
379.027	99.25
379.253	97.25
379.478	86.25
379.704	94.25
379.929	92.25
380.155	99.25
380.38	78.25
380.606	102.25
380.831	98.25
381.057	91.25
381.282	109.25
381.507	86.25
381.733	95.25
381.958	95.25
382.184	110.25
382.409	86.25
382.634	111.25
382.86	104.25
383.085	86.25
383.31	104.25
383.535	96.25
383.761	105.25
383.986	88.25
384.211	96.25
384.436	104.25
384.662	102.25
384.887	104.25
385.112	102.25
385.337	97.25
385.562	101.25
385.787	113.25
386.013	126.25
386.238	129.25
386.463	107.25
386.688	104.25
386.913	109.25
387.138	107.25
387.363	89.25
387.588	95.25
387.813	88.25
388.038	92.25
388.263	114.25
388.488	100.25
388.713	88.25
388.938	90.25
389.163	111.25
389.387	104.25
389.612	92.25
389.837	87.25
390.062	88.25
390.287	94.25
390.512	89.25
390.736	92.25
390.961	95.25
391.186	84.25
391.411	98.25
391.636	95.25
391.86	88.25
392.085	87.25
392.31	94.25
392.534	92.25
392.759	80.25
392.984	91.25
393.208	93.25
393.433	97.25
393.658	89.25
393.882	89.25
394.107	97.25
394.331	77.25
394.556	81.25
394.78	84.25
395.005	88.25
395.229	84.25
395.454	84.25
395.678	91.25
395.903	88.25
396.127	101.25
396.352	90.25
396.576	92.25
396.801	97.25
397.025	96.25
397.249	80.25
397.474	90.25
397.698	101.25
397.922	78.25
398.147	88.25
398.371	84.25
398.595	74.25
398.82	93.25
399.044	93.25
399.268	69.25
399.492	81.25
399.717	92.25
399.941	85.25
400.165	101.25
400.389	100.25
400.613	85.25
400.837	113.25
401.062	92.25
401.286	96.25
401.51	94.25
401.734	102.25
401.958	118.25
402.182	160.25
402.406	224.25
402.63	163.25
402.854	108.25
403.078	100.25
403.302	91.25
403.526	95.25
403.75	93.25
403.974	88.25
404.198	94.25
404.422	82.25
404.645	89.25
404.869	110.25
405.093	113.25
405.317	134.25
405.541	132.25
405.765	119.25
405.988	124.25
406.212	234.25
406.436	341.25
406.66	224.25
406.883	124.25
407.107	106.25
407.331	104.25
407.555	114.25
407.778	101.25
408.002	93.25
408.226	95.25
408.449	76.25
408.673	84.25
408.896	88.25
409.12	101.25
409.344	96.25
409.567	96.25
409.791	98.25
410.014	105.25
410.238	93.25
410.461	92.25
410.685	107.25
410.908	105.25
411.132	107.25
411.355	106.25
411.578	93.25
411.802	93.25
412.025	96.25
412.249	99.25
412.472	107.25
412.695	121.25
412.919	117.25
413.142	95.25
413.365	89.25
413.589	90.25
413.812	95.25
414.035	83.25
414.258	112.25
414.482	96.25
414.705	84.25
414.928	77.25
415.151	78.25
415.374	83.25
415.597	89.25
415.821	92.25
416.044	97.25
416.267	101.25
416.49	90.25
416.713	83.25
416.936	96.25
417.159	97.25
417.382	104.25
417.605	101.25
417.828	101.25
418.051	91.25
418.274	86.25
418.497	77.25
418.72	96.25
418.943	78.25
419.166	87.25
419.389	90.25
419.611	88.25
419.834	101.25
420.057	85.25
420.28	99.25
420.503	94.25
420.726	91.25
420.948	90.25
421.171	120.25
421.394	104.25
421.617	84.25
421.839	84.25
422.062	104.25
422.285	116.25
422.507	90.25
422.73	117.25
422.953	103.25
423.175	93.25
423.398	88.25
423.621	86.25
423.843	83.25
424.066	91.25
424.288	94.25
424.511	96.25
424.733	103.25
424.956	128.25
425.178	112.25
425.401	125.25
425.623	108.25
425.846	97.25
426.068	98.25
426.291	108.25
426.513	94.25
426.735	90.25
426.958	109.25
427.18	131.25
427.402	176.25
427.625	265.25
427.847	250.25
428.069	217.25
428.292	137.25
428.514	82.25
428.736	79.25
428.958	100.25
429.181	98.25
429.403	84.25
429.625	91.25
429.847	109.25
430.069	107.25
430.292	99.25
430.514	102.25
430.736	86.25
430.958	83.25
431.18	85.25
431.402	87.25
431.624	93.25
431.846	95.25
432.068	96.25
432.29	84.25
432.512	105.25
432.734	87.25
432.956	109.25
433.178	102.25
433.4	113.25
433.622	102.25
433.844	89.25
434.066	92.25
434.287	93.25
434.509	87.25
434.731	106.25
434.953	81.25
435.175	87.25
435.397	87.25
435.618	99.25
435.84	101.25
436.062	137.25
436.284	134.25
436.505	108.25
436.727	105.25
436.949	98.25
437.17	84.25
437.392	80.25
437.614	104.25
437.835	123.25
438.057	158.25
438.278	139.25
438.5	128.25
438.721	145.25
438.943	99.25
439.165	88.25
439.386	88.25
439.608	76.25
439.829	117.25
440.05	168.25
440.272	200.25
440.493	122.25
440.715	106.25
440.936	103.25
441.158	76.25
441.379	80.25
441.6	108.25
441.822	113.25
442.043	104.25
442.264	117.25
442.486	105.25
442.707	104.25
442.928	126.25
443.149	169.25
443.371	197.25
443.592	122.25
443.813	125.25
444.034	122.25
444.255	92.25
444.476	94.25
444.698	89.25
444.919	89.25
445.14	138.25
445.361	133.25
445.582	154.25
445.803	197.25
446.024	178.25
446.245	179.25
446.466	134.25
446.687	98.25
446.908	76.25
447.129	85.25
447.35	81.25
447.571	98.25
447.792	99.25
448.013	105.25
448.234	136.25
448.455	114.25
448.675	130.25
448.896	126.25
449.117	109.25
449.338	116.25
449.559	165.25
449.779	169.25
450	99.25
450.221	75.25
450.442	109.25
450.662	109.25
450.883	137.25
451.104	160.25
451.324	108.25
451.545	97.25
451.766	82.25
451.986	86.25
452.207	105.25
452.428	105.25
452.648	104.25
452.869	130.25
453.089	129.25
453.31	152.25
453.53	105.25
453.751	112.25
453.971	126.25
454.192	134.25
454.412	102.25
454.633	97.25
454.853	82.25
455.073	87.25
455.294	100.25
455.514	102.25
455.734	88.25
455.955	72.25
456.175	93.25
456.395	85.25
456.616	81.25
456.836	84.25
457.056	81.25
457.276	92.25
457.497	73.25
457.717	86.25
457.937	95.25
458.157	92.25
458.377	92.25
458.598	126.25
458.818	227.25
459.038	254.25
459.258	162.25
459.478	108.25
459.698	101.25
459.918	92.25
460.138	86.25
460.358	86.25
460.578	83.25
460.798	104.25
461.018	102.25
461.238	88.25
461.458	95.25
461.678	93.25
461.898	84.25
462.118	106.25
462.338	88.25
462.558	71.25
462.777	87.25
462.997	87.25
463.217	120.25
463.437	105.25
463.657	80.25
463.876	91.25
464.096	90.25
464.316	90.25
464.536	106.25
464.755	93.25
464.975	120.25
465.195	272.25
465.414	241.25
465.634	116.25
465.854	89.25
466.073	90.25
466.293	106.25
466.512	91.25
466.732	100.25
466.951	97.25
467.171	96.25
467.391	111.25
467.61	158.25
467.829	172.25
468.049	437.25
468.268	644.25
468.488	183.25
468.707	103.25
468.927	113.25
469.146	85.25
469.365	82.25
469.585	91.25
469.804	109.25
470.023	104.25
470.243	98.25
470.462	113.25
470.681	148.25
470.901	110.25
471.12	88.25
471.339	104.25
471.558	115.25
471.777	135.25
471.997	237.25
472.216	855.25
472.435	1864.25
472.654	468.25
472.873	146.25
473.092	102.25
473.311	101.25
473.53	91.25
473.749	96.25
473.968	111.25
474.187	131.25
474.406	117.25
474.625	92.25
474.844	107.25
475.063	81.25
475.282	84.25
475.501	80.25
475.72	94.25
475.939	85.25
476.158	92.25
476.377	87.25
476.596	101.25
476.814	116.25
477.033	106.25
477.252	98.25
477.471	103.25
477.69	91.25
477.908	98.25
478.127	99.25
478.346	90.25
478.564	88.25
478.783	102.25
479.002	101.25
479.22	122.25
479.439	134.25
479.658	136.25
479.876	116.25
480.095	109.25
480.313	117.25
480.532	146.25
480.751	243.25
480.969	779.25
481.188	3268.25
481.406	1923.25
481.624	314.25
481.843	125.25
482.061	102.25
482.28	110.25
482.498	96.25
482.717	79.25
482.935	96.25
483.153	68.25
483.372	89.25
483.59	90.25
483.808	107.25
484.027	94.25
484.245	98.25
484.463	97.25
484.681	93.25
484.9	95.25
485.118	92.25
485.336	92.25
485.554	87.25
485.772	100.25
485.99	100.25
486.209	97.25
486.427	112.25
486.645	124.25
486.863	130.25
487.081	109.25
487.299	94.25
487.517	108.25
487.735	95.25
487.953	84.25
488.171	98.25
488.389	110.25
488.607	106.25
488.825	90.25
489.043	81.25
489.261	82.25
489.479	88.25
489.696	102.25
489.914	98.25
490.132	84.25
490.35	99.25
490.568	89.25
490.786	93.25
491.003	82.25
491.221	96.25
491.439	113.25
491.657	98.25
491.874	92.25
492.092	99.25
492.31	94.25
492.527	100.25
492.745	103.25
492.963	84.25
493.18	93.25
493.398	98.25
493.615	111.25
493.833	93.25
494.05	77.25
494.268	107.25
494.485	92.25
494.703	97.25
494.92	99.25
495.138	86.25
495.355	86.25
495.573	96.25
495.79	84.25
496.008	84.25
496.225	98.25
496.442	84.25
496.66	99.25
496.877	99.25
497.094	100.25
497.312	94.25
497.529	84.25
497.746	88.25
497.963	86.25
498.181	90.25
498.398	85.25
498.615	131.25
498.832	108.25
499.049	105.25
499.267	92.25
499.484	85.25
499.701	80.25
499.918	97.25
500.135	82.25
500.352	73.25
500.569	87.25
500.786	94.25
501.003	92.25
501.22	87.25
501.437	103.25
501.654	96.25
501.871	133.25
502.088	111.25
502.305	94.25
502.522	88.25
502.739	83.25
502.956	101.25
503.172	106.25
503.389	108.25
503.606	115.25
503.823	106.25
504.04	90.25
504.256	82.25
504.473	93.25
504.69	89.25
504.907	96.25
505.123	88.25
505.34	93.25
505.557	90.25
505.773	86.25
505.99	92.25
506.207	104.25
506.423	94.25
506.64	95.25
506.856	87.25
507.073	106.25
507.289	104.25
507.506	101.25
507.722	142.25
507.939	119.25
508.155	96.25
508.372	93.25
508.588	114.25
508.805	101.25
509.021	91.25
509.238	119.25
509.454	101.25
509.67	89.25
509.887	132.25
510.103	158.25
510.319	260.25
510.536	994.25
510.752	3538.25
510.968	942.25
511.184	188.25
511.401	135.25
511.617	103.25
511.833	115.25
512.049	91.25
512.265	104.25
512.481	88.25
512.698	100.25
