Data from Circ_2000_H10_HRD10591_00081.txt Node
Date: Wed Jan 03 10:49:50 EST 2024
User: Yrep
Spectrometer: HR+D1059
Trigger mode: 1
Integration Time (sec): 1.000000E-1
Scans to average: 1
Electric dark correction enabled: true
Nonlinearity correction enabled: false
Boxcar width: 0
XAxis mode: Wavelengths
Number of Pixels in Spectrum: 2048
>>>>>Begin Spectral Data<<<<<
223.165	-28.31
223.4	-28.31
223.635	-28.31
223.869	-27.31
224.104	-18.31
224.338	-13.31
224.573	-9.31
224.808	2.69
225.042	-0.31
225.277	-1.31
225.511	-8.31
225.746	-1.31
225.98	5.69
226.215	7.69
226.449	-2.31
226.683	21.69
226.918	28.69
227.152	43.69
227.387	38.69
227.621	46.69
227.856	45.69
228.09	35.69
228.324	52.69
228.559	55.69
228.793	64.69
229.027	57.69
229.262	70.69
229.496	67.69
229.73	95.69
229.964	89.69
230.199	71.69
230.433	83.69
230.667	80.69
230.901	73.69
231.136	71.69
231.37	85.69
231.604	70.69
231.838	93.69
232.072	85.69
232.306	83.69
232.541	78.69
232.775	81.69
233.009	94.69
233.243	87.69
233.477	77.69
233.711	75.69
233.945	96.69
234.179	79.69
234.413	71.69
234.647	76.69
234.881	86.69
235.115	73.69
235.349	77.69
235.583	80.69
235.817	75.69
236.051	77.69
236.285	77.69
236.519	86.69
236.753	85.69
236.987	82.69
237.221	88.69
237.455	95.69
237.689	84.69
237.922	86.69
238.156	79.69
238.39	82.69
238.624	65.69
238.858	69.69
239.091	86.69
239.325	88.69
239.559	77.69
239.793	83.69
240.027	72.69
240.26	73.69
240.494	83.69
240.728	73.69
240.961	82.69
241.195	77.69
241.429	84.69
241.662	58.69
241.896	69.69
242.13	78.69
242.363	78.69
242.597	79.69
242.83	90.69
243.064	87.69
243.298	82.69
243.531	75.69
243.765	71.69
243.998	92.69
244.232	95.69
244.465	80.69
244.699	73.69
244.932	78.69
245.166	84.69
245.399	91.69
245.633	93.69
245.866	90.69
246.099	81.69
246.333	82.69
246.566	74.69
246.8	87.69
247.033	79.69
247.266	80.69
247.5	80.69
247.733	85.69
247.966	88.69
248.2	94.69
248.433	73.69
248.666	83.69
248.899	77.69
249.133	95.69
249.366	85.69
249.599	116.69
249.832	93.69
250.066	75.69
250.299	93.69
250.532	87.69
250.765	80.69
250.998	83.69
251.231	75.69
251.465	74.69
251.698	83.69
251.931	85.69
252.164	87.69
252.397	94.69
252.63	88.69
252.863	84.69
253.096	84.69
253.329	82.69
253.562	85.69
253.795	77.69
254.028	94.69
254.261	96.69
254.494	82.69
254.727	85.69
254.96	76.69
255.193	92.69
255.426	70.69
255.659	82.69
255.892	90.69
256.124	80.69
256.357	95.69
256.59	85.69
256.823	91.69
257.056	90.69
257.289	93.69
257.521	88.69
257.754	90.69
257.987	91.69
258.22	88.69
258.452	86.69
258.685	94.69
258.918	84.69
259.151	77.69
259.383	77.69
259.616	82.69
259.849	88.69
260.081	81.69
260.314	81.69
260.547	95.69
260.779	100.69
261.012	84.69
261.244	92.69
261.477	90.69
261.71	95.69
261.942	119.69
262.175	125.69
262.407	83.69
262.64	95.69
262.872	67.69
263.105	90.69
263.337	77.69
263.57	69.69
263.802	102.69
264.035	94.69
264.267	83.69
264.499	85.69
264.732	80.69
264.964	82.69
265.197	77.69
265.429	90.69
265.661	84.69
265.894	88.69
266.126	70.69
266.358	87.69
266.591	86.69
266.823	95.69
267.055	89.69
267.287	78.69
267.52	84.69
267.752	77.69
267.984	85.69
268.216	100.69
268.448	94.69
268.681	99.69
268.913	73.69
269.145	87.69
269.377	81.69
269.609	80.69
269.841	75.69
270.073	81.69
270.306	91.69
270.538	92.69
270.77	91.69
271.002	94.69
271.234	66.69
271.466	96.69
271.698	78.69
271.93	74.69
272.162	84.69
272.394	91.69
272.626	85.69
272.858	89.69
273.09	86.69
273.322	88.69
273.553	82.69
273.785	80.69
274.017	77.69
274.249	89.69
274.481	77.69
274.713	88.69
274.945	94.69
275.176	85.69
275.408	99.69
275.64	103.69
275.872	114.69
276.104	96.69
276.335	95.69
276.567	120.69
276.799	113.69
277.031	148.69
277.262	145.69
277.494	126.69
277.726	90.69
277.957	87.69
278.189	100.69
278.421	94.69
278.652	107.69
278.884	85.69
279.115	95.69
279.347	94.69
279.579	113.69
279.81	122.69
280.042	133.69
280.273	167.69
280.505	136.69
280.736	86.69
280.968	93.69
281.199	92.69
281.431	87.69
281.662	83.69
281.894	84.69
282.125	104.69
282.356	124.69
282.588	175.69
282.819	120.69
283.051	91.69
283.282	94.69
283.513	86.69
283.745	90.69
283.976	104.69
284.207	99.69
284.439	95.69
284.67	86.69
284.901	81.69
285.132	102.69
285.364	77.69
285.595	99.69
285.826	104.69
286.057	99.69
286.288	87.69
286.52	104.69
286.751	95.69
286.982	95.69
287.213	92.69
287.444	83.69
287.675	84.69
287.906	85.69
288.138	86.69
288.369	102.69
288.6	99.69
288.831	91.69
289.062	106.69
289.293	87.69
289.524	92.69
289.755	90.69
289.986	83.69
290.217	86.69
290.448	95.69
290.679	90.69
290.91	102.69
291.141	93.69
291.371	89.69
291.602	89.69
291.833	86.69
292.064	91.69
292.295	83.69
292.526	103.69
292.757	80.69
292.987	78.69
293.218	65.69
293.449	85.69
293.68	88.69
293.91	75.69
294.141	90.69
294.372	93.69
294.603	90.69
294.833	82.69
295.064	87.69
295.295	90.69
295.525	99.69
295.756	106.69
295.987	131.69
296.217	130.69
296.448	161.69
296.679	101.69
296.909	101.69
297.14	91.69
297.37	85.69
297.601	82.69
297.831	89.69
298.062	89.69
298.292	90.69
298.523	101.69
298.753	105.69
298.984	82.69
299.214	93.69
299.445	102.69
299.675	91.69
299.905	93.69
300.136	88.69
300.366	77.69
300.597	94.69
300.827	110.69
301.057	103.69
301.288	109.69
301.518	100.69
301.748	90.69
301.979	110.69
302.209	111.69
302.439	102.69
302.669	96.69
302.9	82.69
303.13	88.69
303.36	103.69
303.59	120.69
303.82	131.69
304.051	90.69
304.281	111.69
304.511	87.69
304.741	95.69
304.971	111.69
305.201	108.69
305.431	94.69
305.661	97.69
305.891	98.69
306.121	96.69
306.352	105.69
306.582	106.69
306.812	108.69
307.042	101.69
307.272	125.69
307.502	134.69
307.731	132.69
307.961	110.69
308.191	87.69
308.421	101.69
308.651	103.69
308.881	94.69
309.111	90.69
309.341	106.69
309.571	94.69
309.8	97.69
310.03	101.69
310.26	103.69
310.49	100.69
310.72	112.69
310.949	109.69
311.179	111.69
311.409	99.69
311.639	89.69
311.868	103.69
312.098	105.69
312.328	103.69
312.557	118.69
312.787	116.69
313.017	110.69
313.246	93.69
313.476	92.69
313.706	95.69
313.935	105.69
314.165	114.69
314.394	122.69
314.624	110.69
314.853	108.69
315.083	103.69
315.312	88.69
315.542	94.69
315.771	93.69
316.001	97.69
316.23	103.69
316.46	100.69
316.689	97.69
316.919	102.69
317.148	95.69
317.377	88.69
317.607	95.69
317.836	91.69
318.065	94.69
318.295	96.69
318.524	91.69
318.753	104.69
318.983	104.69
319.212	103.69
319.441	121.69
319.67	129.69
319.9	101.69
320.129	103.69
320.358	105.69
320.587	94.69
320.816	110.69
321.046	111.69
321.275	108.69
321.504	92.69
321.733	103.69
321.962	115.69
322.191	122.69
322.42	111.69
322.649	116.69
322.878	117.69
323.108	110.69
323.337	146.69
323.566	129.69
323.795	184.69
324.024	253.69
324.253	509.69
324.482	1079.69
324.71	2255.69
324.939	2955.69
325.168	1071.69
325.397	283.69
325.626	179.69
325.855	150.69
326.084	150.69
326.313	145.69
326.542	183.69
326.77	278.69
326.999	588.69
327.228	1235.69
327.457	2260.69
327.686	1776.69
327.914	519.69
328.143	393.69
328.372	441.69
328.6	272.69
328.829	162.69
329.058	174.69
329.287	166.69
329.515	165.69
329.744	195.69
329.972	308.69
330.201	603.69
330.43	852.69
330.658	430.69
330.887	247.69
331.115	153.69
331.344	117.69
331.572	106.69
331.801	104.69
332.03	115.69
332.258	113.69
332.486	95.69
332.715	95.69
332.943	107.69
333.172	105.69
333.4	114.69
333.629	131.69
333.857	186.69
334.085	297.69
334.314	581.69
334.542	1098.69
334.771	1036.69
334.999	284.69
335.227	143.69
335.455	113.69
335.684	108.69
335.912	109.69
336.14	108.69
336.369	114.69
336.597	113.69
336.825	111.69
337.053	102.69
337.281	98.69
337.51	109.69
337.738	93.69
337.966	99.69
338.194	115.69
338.422	105.69
338.65	101.69
338.878	96.69
339.106	88.69
339.334	99.69
339.562	92.69
339.79	88.69
340.018	86.69
340.246	91.69
340.474	118.69
340.702	100.69
340.93	88.69
341.158	103.69
341.386	99.69
341.614	98.69
341.842	99.69
342.07	89.69
342.298	90.69
342.526	88.69
342.754	92.69
342.981	99.69
343.209	91.69
343.437	107.69
343.665	90.69
343.893	105.69
344.12	94.69
344.348	106.69
344.576	92.69
344.804	85.69
345.031	103.69
345.259	105.69
345.487	96.69
345.714	99.69
345.942	117.69
346.17	90.69
346.397	94.69
346.625	95.69
346.853	90.69
347.08	95.69
347.308	93.69
347.535	98.69
347.763	94.69
347.99	110.69
348.218	110.69
348.445	116.69
348.673	99.69
348.9	106.69
349.128	102.69
349.355	90.69
349.583	91.69
349.81	98.69
350.037	93.69
350.265	80.69
350.492	92.69
350.72	103.69
350.947	106.69
351.174	117.69
351.402	120.69
351.629	106.69
351.856	102.69
352.083	106.69
352.311	102.69
352.538	129.69
352.765	111.69
352.992	125.69
353.22	118.69
353.447	108.69
353.674	98.69
353.901	90.69
354.128	94.69
354.355	108.69
354.583	77.69
354.81	94.69
355.037	98.69
355.264	98.69
355.491	92.69
355.718	85.69
355.945	89.69
356.172	87.69
356.399	107.69
356.626	95.69
356.853	86.69
357.08	98.69
357.307	88.69
357.534	89.69
357.761	94.69
357.988	103.69
358.215	106.69
358.441	95.69
358.668	93.69
358.895	83.69
359.122	102.69
359.349	107.69
359.576	85.69
359.802	105.69
360.029	138.69
360.256	134.69
360.483	112.69
360.709	92.69
360.936	103.69
361.163	89.69
361.39	91.69
361.616	91.69
361.843	109.69
362.07	105.69
362.296	113.69
362.523	92.69
362.749	91.69
362.976	97.69
363.203	99.69
363.429	86.69
363.656	99.69
363.882	95.69
364.109	93.69
364.335	93.69
364.562	104.69
364.788	86.69
365.015	94.69
365.241	113.69
365.468	121.69
365.694	110.69
365.92	105.69
366.147	107.69
366.373	87.69
366.599	87.69
366.826	109.69
367.052	103.69
367.278	95.69
367.505	103.69
367.731	106.69
367.957	85.69
368.184	96.69
368.41	102.69
368.636	122.69
368.862	115.69
369.089	123.69
369.315	90.69
369.541	115.69
369.767	100.69
369.993	85.69
370.219	101.69
370.445	88.69
370.672	102.69
370.898	93.69
371.124	83.69
371.35	97.69
371.576	93.69
371.802	90.69
372.028	81.69
372.254	87.69
372.48	89.69
372.706	92.69
372.932	90.69
373.158	79.69
373.384	101.69
373.61	91.69
373.835	101.69
374.061	77.69
374.287	92.69
374.513	93.69
374.739	95.69
374.965	87.69
375.191	89.69
375.416	95.69
375.642	94.69
375.868	94.69
376.094	92.69
376.319	100.69
376.545	103.69
376.771	93.69
376.997	89.69
377.222	87.69
377.448	91.69
377.674	80.69
377.899	93.69
378.125	82.69
378.35	82.69
378.576	83.69
378.802	84.69
379.027	95.69
379.253	71.69
379.478	86.69
379.704	89.69
379.929	91.69
380.155	99.69
380.38	94.69
380.606	103.69
380.831	92.69
381.057	106.69
381.282	96.69
381.507	92.69
381.733	100.69
381.958	103.69
382.184	93.69
382.409	94.69
382.634	92.69
382.86	99.69
383.085	95.69
383.31	99.69
383.535	106.69
383.761	89.69
383.986	102.69
384.211	91.69
384.436	100.69
384.662	91.69
384.887	92.69
385.112	117.69
385.337	110.69
385.562	98.69
385.787	101.69
386.013	113.69
386.238	107.69
386.463	113.69
386.688	99.69
386.913	96.69
387.138	91.69
387.363	111.69
387.588	97.69
387.813	102.69
388.038	99.69
388.263	101.69
388.488	98.69
388.713	98.69
388.938	79.69
389.163	86.69
389.387	88.69
389.612	97.69
389.837	95.69
390.062	100.69
390.287	95.69
390.512	88.69
390.736	66.69
390.961	88.69
391.186	85.69
391.411	94.69
391.636	82.69
391.86	82.69
392.085	89.69
392.31	76.69
392.534	91.69
392.759	81.69
392.984	72.69
393.208	86.69
393.433	93.69
393.658	91.69
393.882	84.69
394.107	91.69
394.331	94.69
394.556	87.69
394.78	90.69
395.005	99.69
395.229	86.69
395.454	93.69
395.678	88.69
395.903	85.69
396.127	87.69
396.352	91.69
396.576	86.69
396.801	83.69
397.025	90.69
397.249	94.69
397.474	96.69
397.698	75.69
397.922	88.69
398.147	89.69
398.371	78.69
398.595	72.69
398.82	102.69
399.044	92.69
399.268	87.69
399.492	100.69
399.717	94.69
399.941	95.69
400.165	95.69
400.389	97.69
400.613	102.69
400.837	86.69
401.062	86.69
401.286	91.69
401.51	86.69
401.734	92.69
401.958	99.69
402.182	122.69
402.406	169.69
402.63	121.69
402.854	93.69
403.078	100.69
403.302	88.69
403.526	89.69
403.75	97.69
403.974	83.69
404.198	85.69
404.422	97.69
404.645	101.69
404.869	86.69
405.093	109.69
405.317	140.69
405.541	127.69
405.765	114.69
405.988	122.69
406.212	188.69
406.436	278.69
406.66	164.69
406.883	109.69
407.107	105.69
407.331	116.69
407.555	104.69
407.778	91.69
408.002	101.69
408.226	89.69
408.449	98.69
408.673	85.69
408.896	101.69
409.12	102.69
409.344	87.69
409.567	106.69
409.791	99.69
410.014	88.69
410.238	91.69
410.461	106.69
410.685	104.69
410.908	86.69
411.132	94.69
411.355	110.69
411.578	93.69
411.802	98.69
412.025	85.69
412.249	97.69
412.472	113.69
412.695	127.69
412.919	102.69
413.142	99.69
413.365	98.69
413.589	80.69
413.812	86.69
414.035	79.69
414.258	82.69
414.482	103.69
414.705	95.69
414.928	92.69
415.151	84.69
415.374	95.69
415.597	87.69
415.821	95.69
416.044	83.69
416.267	98.69
416.49	84.69
416.713	94.69
416.936	96.69
417.159	102.69
417.382	98.69
417.605	105.69
417.828	99.69
418.051	97.69
418.274	89.69
418.497	84.69
418.72	94.69
418.943	98.69
419.166	66.69
419.389	84.69
419.611	89.69
419.834	85.69
420.057	91.69
420.28	94.69
420.503	86.69
420.726	100.69
420.948	92.69
421.171	109.69
421.394	95.69
421.617	97.69
421.839	104.69
422.062	73.69
422.285	85.69
422.507	95.69
422.73	93.69
422.953	82.69
423.175	100.69
423.398	89.69
423.621	79.69
423.843	81.69
424.066	91.69
424.288	89.69
424.511	92.69
424.733	107.69
424.956	122.69
425.178	103.69
425.401	103.69
425.623	111.69
425.846	97.69
426.068	102.69
426.291	101.69
426.513	95.69
426.735	85.69
426.958	91.69
427.18	113.69
427.402	167.69
427.625	232.69
427.847	229.69
428.069	203.69
428.292	116.69
428.514	99.69
428.736	99.69
428.958	84.69
429.181	89.69
429.403	78.69
429.625	89.69
429.847	95.69
430.069	107.69
430.292	107.69
430.514	97.69
430.736	95.69
430.958	103.69
431.18	98.69
431.402	69.69
431.624	79.69
431.846	89.69
432.068	78.69
432.29	85.69
432.512	100.69
432.734	71.69
432.956	98.69
433.178	98.69
433.4	100.69
433.622	88.69
433.844	93.69
434.066	94.69
434.287	73.69
434.509	85.69
434.731	96.69
434.953	85.69
435.175	89.69
435.397	92.69
435.618	94.69
435.84	102.69
436.062	133.69
436.284	133.69
436.505	103.69
436.727	102.69
436.949	90.69
437.17	79.69
437.392	83.69
437.614	115.69
437.835	130.69
438.057	133.69
438.278	135.69
438.5	130.69
438.721	151.69
438.943	126.69
439.165	81.69
439.386	102.69
439.608	97.69
439.829	111.69
440.05	153.69
440.272	166.69
440.493	102.69
440.715	76.69
440.936	86.69
441.158	101.69
441.379	82.69
441.6	99.69
441.822	115.69
442.043	104.69
442.264	125.69
442.486	125.69
442.707	94.69
442.928	129.69
443.149	156.69
443.371	162.69
443.592	123.69
443.813	145.69
444.034	136.69
444.255	100.69
444.476	81.69
444.698	76.69
444.919	78.69
445.14	133.69
445.361	130.69
445.582	148.69
445.803	177.69
446.024	180.69
446.245	158.69
446.466	119.69
446.687	105.69
446.908	89.69
447.129	103.69
447.35	98.69
447.571	91.69
447.792	91.69
448.013	102.69
448.234	104.69
448.455	109.69
448.675	130.69
448.896	141.69
449.117	117.69
449.338	110.69
449.559	147.69
449.779	159.69
450	104.69
450.221	89.69
450.442	99.69
450.662	97.69
450.883	115.69
451.104	125.69
451.324	98.69
451.545	89.69
451.766	83.69
451.986	92.69
452.207	101.69
452.428	97.69
452.648	115.69
452.869	126.69
453.089	118.69
453.31	134.69
453.53	113.69
453.751	103.69
453.971	110.69
454.192	129.69
454.412	90.69
454.633	85.69
454.853	83.69
455.073	77.69
455.294	108.69
455.514	98.69
455.734	85.69
455.955	89.69
456.175	86.69
456.395	92.69
456.616	92.69
456.836	89.69
457.056	76.69
457.276	81.69
457.497	92.69
457.717	92.69
457.937	96.69
458.157	108.69
458.377	81.69
458.598	107.69
458.818	185.69
459.038	213.69
459.258	150.69
459.478	93.69
459.698	83.69
459.918	74.69
460.138	97.69
460.358	97.69
460.578	86.69
460.798	98.69
461.018	73.69
461.238	81.69
461.458	79.69
461.678	80.69
461.898	80.69
462.118	82.69
462.338	96.69
462.558	101.69
462.777	77.69
462.997	107.69
463.217	98.69
463.437	101.69
463.657	71.69
463.876	88.69
464.096	88.69
464.316	106.69
464.536	88.69
464.755	101.69
464.975	119.69
465.195	205.69
465.414	220.69
465.634	105.69
465.854	84.69
466.073	99.69
466.293	91.69
466.512	83.69
466.732	89.69
466.951	84.69
467.171	81.69
467.391	112.69
467.61	138.69
467.829	162.69
468.049	326.69
468.268	481.69
468.488	169.69
468.707	120.69
468.927	92.69
469.146	78.69
469.365	89.69
469.585	93.69
469.804	107.69
470.023	114.69
470.243	106.69
470.462	117.69
470.681	143.69
470.901	94.69
471.12	103.69
471.339	107.69
471.558	90.69
471.777	120.69
471.997	213.69
472.216	665.69
472.435	1424.69
472.654	386.69
472.873	121.69
473.092	96.69
473.311	106.69
473.53	94.69
473.749	93.69
473.968	107.69
474.187	119.69
474.406	124.69
474.625	88.69
474.844	90.69
475.063	88.69
475.282	87.69
475.501	89.69
475.72	86.69
475.939	90.69
476.158	86.69
476.377	106.69
476.596	100.69
476.814	98.69
477.033	95.69
477.252	92.69
477.471	96.69
477.69	94.69
477.908	82.69
478.127	80.69
478.346	91.69
478.564	92.69
478.783	118.69
479.002	107.69
479.22	109.69
479.439	110.69
479.658	112.69
479.876	111.69
480.095	107.69
480.313	104.69
480.532	137.69
480.751	211.69
480.969	612.69
481.188	2490.69
481.406	1455.69
481.624	252.69
481.843	121.69
482.061	100.69
482.28	92.69
482.498	75.69
482.717	77.69
482.935	101.69
483.153	96.69
483.372	97.69
483.59	90.69
483.808	91.69
484.027	98.69
484.245	105.69
484.463	94.69
484.681	102.69
484.9	97.69
485.118	78.69
485.336	88.69
485.554	96.69
485.772	102.69
485.99	107.69
486.209	119.69
486.427	102.69
486.645	104.69
486.863	116.69
487.081	97.69
487.299	102.69
487.517	86.69
487.735	88.69
487.953	78.69
488.171	85.69
488.389	101.69
488.607	105.69
488.825	99.69
489.043	96.69
489.261	98.69
489.479	94.69
489.696	95.69
489.914	93.69
490.132	86.69
490.35	87.69
490.568	98.69
490.786	91.69
491.003	95.69
491.221	93.69
491.439	103.69
491.657	92.69
491.874	96.69
492.092	108.69
492.31	103.69
492.527	100.69
492.745	98.69
492.963	106.69
493.18	100.69
493.398	110.69
493.615	100.69
493.833	105.69
494.05	98.69
494.268	100.69
494.485	91.69
494.703	105.69
494.92	95.69
495.138	83.69
495.355	87.69
495.573	93.69
495.79	86.69
496.008	88.69
496.225	93.69
496.442	90.69
496.66	97.69
496.877	73.69
497.094	91.69
497.312	85.69
497.529	83.69
497.746	96.69
497.963	86.69
498.181	92.69
498.398	87.69
498.615	121.69
498.832	105.69
499.049	89.69
499.267	93.69
499.484	90.69
499.701	89.69
499.918	76.69
500.135	89.69
500.352	89.69
500.569	92.69
500.786	103.69
501.003	85.69
501.22	83.69
501.437	92.69
501.654	107.69
501.871	109.69
502.088	96.69
502.305	85.69
502.522	90.69
502.739	98.69
502.956	107.69
503.172	94.69
503.389	121.69
503.606	113.69
503.823	85.69
504.04	94.69
504.256	94.69
504.473	106.69
504.69	84.69
504.907	103.69
505.123	99.69
505.34	88.69
505.557	86.69
505.773	90.69
505.99	100.69
506.207	86.69
506.423	85.69
506.64	99.69
506.856	92.69
507.073	90.69
507.289	95.69
507.506	103.69
507.722	135.69
507.939	126.69
508.155	95.69
508.372	84.69
508.588	99.69
508.805	111.69
509.021	109.69
509.238	105.69
509.454	103.69
509.67	100.69
509.887	109.69
510.103	153.69
510.319	228.69
510.536	852.69
510.752	2849.69
510.968	766.69
511.184	163.69
511.401	130.69
511.617	92.69
511.833	103.69
512.049	95.69
512.265	85.69
512.481	95.69
512.698	98.69
512.914	89.69
513.13	87.69
513.346	86.69
