Data from Circ_2000_H10_HRD10591_00055.txt Node
Date: Wed Jan 03 10:49:44 EST 2024
User: Yrep
Spectrometer: HR+D1059
Trigger mode: 1
Integration Time (sec): 1.000000E-1
Scans to average: 1
Electric dark correction enabled: true
Nonlinearity correction enabled: false
Boxcar width: 0
XAxis mode: Wavelengths
Number of Pixels in Spectrum: 2048
>>>>>Begin Spectral Data<<<<<
223.165	-17.25
223.4	-17.25
223.635	-17.25
223.869	-22.25
224.104	-30.25
224.338	-10.25
224.573	-5.25
224.808	-16.25
225.042	-6.25
225.277	-10.25
225.511	7.75
225.746	1.75
225.98	8.75
226.215	-4.25
226.449	17.75
226.683	24.75
226.918	32.75
227.152	28.75
227.387	35.75
227.621	46.75
227.856	39.75
228.09	44.75
228.324	44.75
228.559	48.75
228.793	51.75
229.027	54.75
229.262	72.75
229.496	71.75
229.73	83.75
229.964	91.75
230.199	68.75
230.433	78.75
230.667	86.75
230.901	83.75
231.136	74.75
231.37	88.75
231.604	76.75
231.838	82.75
232.072	83.75
232.306	71.75
232.541	77.75
232.775	77.75
233.009	71.75
233.243	64.75
233.477	86.75
233.711	92.75
233.945	73.75
234.179	74.75
234.413	68.75
234.647	82.75
234.881	82.75
235.115	74.75
235.349	72.75
235.583	71.75
235.817	76.75
236.051	81.75
236.285	75.75
236.519	84.75
236.753	64.75
236.987	80.75
237.221	81.75
237.455	101.75
237.689	72.75
237.922	70.75
238.156	70.75
238.39	74.75
238.624	74.75
238.858	79.75
239.091	79.75
239.325	77.75
239.559	81.75
239.793	74.75
240.027	85.75
240.26	78.75
240.494	73.75
240.728	78.75
240.961	81.75
241.195	67.75
241.429	79.75
241.662	68.75
241.896	76.75
242.13	66.75
242.363	64.75
242.597	77.75
242.83	79.75
243.064	78.75
243.298	64.75
243.531	71.75
243.765	72.75
243.998	87.75
244.232	76.75
244.465	82.75
244.699	87.75
244.932	91.75
245.166	84.75
245.399	85.75
245.633	79.75
245.866	73.75
246.099	88.75
246.333	80.75
246.566	67.75
246.8	80.75
247.033	74.75
247.266	54.75
247.5	74.75
247.733	82.75
247.966	82.75
248.2	95.75
248.433	97.75
248.666	70.75
248.899	73.75
249.133	87.75
249.366	98.75
249.599	107.75
249.832	68.75
250.066	89.75
250.299	80.75
250.532	80.75
250.765	75.75
250.998	71.75
251.231	78.75
251.465	82.75
251.698	87.75
251.931	68.75
252.164	83.75
252.397	86.75
252.63	82.75
252.863	70.75
253.096	82.75
253.329	82.75
253.562	77.75
253.795	76.75
254.028	89.75
254.261	78.75
254.494	81.75
254.727	84.75
254.96	85.75
255.193	70.75
255.426	76.75
255.659	78.75
255.892	97.75
256.124	94.75
256.357	77.75
256.59	81.75
256.823	79.75
257.056	73.75
257.289	75.75
257.521	84.75
257.754	70.75
257.987	86.75
258.22	98.75
258.452	89.75
258.685	74.75
258.918	92.75
259.151	68.75
259.383	70.75
259.616	78.75
259.849	94.75
260.081	84.75
260.314	58.75
260.547	83.75
260.779	80.75
261.012	78.75
261.244	83.75
261.477	85.75
261.71	99.75
261.942	128.75
262.175	114.75
262.407	93.75
262.64	100.75
262.872	68.75
263.105	87.75
263.337	86.75
263.57	77.75
263.802	88.75
264.035	93.75
264.267	83.75
264.499	92.75
264.732	80.75
264.964	92.75
265.197	72.75
265.429	85.75
265.661	75.75
265.894	79.75
266.126	89.75
266.358	83.75
266.591	71.75
266.823	86.75
267.055	69.75
267.287	75.75
267.52	85.75
267.752	83.75
267.984	88.75
268.216	83.75
268.448	90.75
268.681	73.75
268.913	90.75
269.145	86.75
269.377	78.75
269.609	83.75
269.841	94.75
270.073	91.75
270.306	80.75
270.538	94.75
270.77	99.75
271.002	86.75
271.234	100.75
271.466	86.75
271.698	86.75
271.93	88.75
272.162	85.75
272.394	83.75
272.626	91.75
272.858	90.75
273.09	99.75
273.322	85.75
273.553	87.75
273.785	96.75
274.017	80.75
274.249	84.75
274.481	83.75
274.713	90.75
274.945	95.75
275.176	59.75
275.408	99.75
275.64	96.75
275.872	114.75
276.104	97.75
276.335	101.75
276.567	100.75
276.799	127.75
277.031	128.75
277.262	130.75
277.494	101.75
277.726	102.75
277.957	101.75
278.189	95.75
278.421	86.75
278.652	82.75
278.884	82.75
279.115	80.75
279.347	68.75
279.579	105.75
279.81	113.75
280.042	148.75
280.273	162.75
280.505	137.75
280.736	98.75
280.968	91.75
281.199	83.75
281.431	90.75
281.662	102.75
281.894	92.75
282.125	98.75
282.356	116.75
282.588	153.75
282.819	121.75
283.051	75.75
283.282	78.75
283.513	81.75
283.745	74.75
283.976	81.75
284.207	92.75
284.439	91.75
284.67	90.75
284.901	80.75
285.132	80.75
285.364	71.75
285.595	90.75
285.826	89.75
286.057	85.75
286.288	80.75
286.52	81.75
286.751	91.75
286.982	90.75
287.213	79.75
287.444	95.75
287.675	87.75
287.906	79.75
288.138	100.75
288.369	92.75
288.6	90.75
288.831	90.75
289.062	90.75
289.293	69.75
289.524	86.75
289.755	84.75
289.986	82.75
290.217	79.75
290.448	81.75
290.679	80.75
290.91	97.75
291.141	89.75
291.371	81.75
291.602	85.75
291.833	97.75
292.064	85.75
292.295	76.75
292.526	95.75
292.757	100.75
292.987	86.75
293.218	88.75
293.449	95.75
293.68	80.75
293.91	73.75
294.141	82.75
294.372	86.75
294.603	80.75
294.833	89.75
295.064	93.75
295.295	94.75
295.525	88.75
295.756	87.75
295.987	101.75
296.217	131.75
296.448	132.75
296.679	89.75
296.909	86.75
297.14	88.75
297.37	83.75
297.601	97.75
297.831	92.75
298.062	86.75
298.292	93.75
298.523	90.75
298.753	92.75
298.984	74.75
299.214	87.75
299.445	94.75
299.675	102.75
299.905	103.75
300.136	90.75
300.366	104.75
300.597	90.75
300.827	82.75
301.057	108.75
301.288	99.75
301.518	101.75
301.748	84.75
301.979	99.75
302.209	101.75
302.439	92.75
302.669	87.75
302.9	89.75
303.13	91.75
303.36	97.75
303.59	108.75
303.82	120.75
304.051	97.75
304.281	80.75
304.511	90.75
304.741	91.75
304.971	84.75
305.201	94.75
305.431	84.75
305.661	87.75
305.891	89.75
306.121	103.75
306.352	115.75
306.582	100.75
306.812	88.75
307.042	110.75
307.272	118.75
307.502	122.75
307.731	114.75
307.961	97.75
308.191	95.75
308.421	88.75
308.651	85.75
308.881	82.75
309.111	92.75
309.341	100.75
309.571	86.75
309.8	107.75
310.03	101.75
310.26	97.75
310.49	102.75
310.72	116.75
310.949	108.75
311.179	99.75
311.409	82.75
311.639	76.75
311.868	88.75
312.098	95.75
312.328	114.75
312.557	103.75
312.787	107.75
313.017	105.75
313.246	84.75
313.476	99.75
313.706	94.75
313.935	99.75
314.165	96.75
314.394	111.75
314.624	105.75
314.853	92.75
315.083	84.75
315.312	112.75
315.542	88.75
315.771	88.75
316.001	93.75
316.23	91.75
316.46	82.75
316.689	97.75
316.919	94.75
317.148	89.75
317.377	106.75
317.607	96.75
317.836	89.75
318.065	94.75
318.295	97.75
318.524	89.75
318.753	98.75
318.983	94.75
319.212	91.75
319.441	114.75
319.67	116.75
319.9	103.75
320.129	99.75
320.358	96.75
320.587	105.75
320.816	92.75
321.046	97.75
321.275	97.75
321.504	87.75
321.733	105.75
321.962	111.75
322.191	104.75
322.42	105.75
322.649	122.75
322.878	107.75
323.108	125.75
323.337	134.75
323.566	131.75
323.795	162.75
324.024	207.75
324.253	459.75
324.482	970.75
324.71	2047.75
324.939	2650.75
325.168	940.75
325.397	294.75
325.626	166.75
325.855	143.75
326.084	132.75
326.313	139.75
326.542	170.75
326.77	275.75
326.999	541.75
327.228	1127.75
327.457	1994.75
327.686	1600.75
327.914	474.75
328.143	375.75
328.372	407.75
328.6	247.75
328.829	139.75
329.058	149.75
329.287	156.75
329.515	143.75
329.744	187.75
329.972	303.75
330.201	566.75
330.43	781.75
330.658	386.75
330.887	226.75
331.115	156.75
331.344	106.75
331.572	113.75
331.801	123.75
332.03	116.75
332.258	102.75
332.486	98.75
332.715	114.75
332.943	112.75
333.172	110.75
333.4	112.75
333.629	134.75
333.857	175.75
334.085	278.75
334.314	540.75
334.542	1007.75
334.771	920.75
334.999	275.75
335.227	132.75
335.455	113.75
335.684	114.75
335.912	91.75
336.14	104.75
336.369	104.75
336.597	104.75
336.825	100.75
337.053	97.75
337.281	102.75
337.51	90.75
337.738	91.75
337.966	98.75
338.194	103.75
338.422	102.75
338.65	102.75
338.878	102.75
339.106	78.75
339.334	90.75
339.562	91.75
339.79	78.75
340.018	94.75
340.246	86.75
340.474	100.75
340.702	91.75
340.93	97.75
341.158	88.75
341.386	101.75
341.614	89.75
341.842	92.75
342.07	81.75
342.298	86.75
342.526	88.75
342.754	83.75
342.981	87.75
343.209	96.75
343.437	104.75
343.665	78.75
343.893	82.75
344.12	76.75
344.348	86.75
344.576	91.75
344.804	91.75
345.031	106.75
345.259	85.75
345.487	87.75
345.714	95.75
345.942	89.75
346.17	75.75
346.397	97.75
346.625	104.75
346.853	89.75
347.08	83.75
347.308	90.75
347.535	103.75
347.763	101.75
347.99	95.75
348.218	91.75
348.445	102.75
348.673	101.75
348.9	95.75
349.128	88.75
349.355	86.75
349.583	87.75
349.81	83.75
350.037	87.75
350.265	102.75
350.492	94.75
350.72	102.75
350.947	71.75
351.174	115.75
351.402	116.75
351.629	103.75
351.856	94.75
352.083	111.75
352.311	123.75
352.538	124.75
352.765	114.75
352.992	121.75
353.22	98.75
353.447	102.75
353.674	92.75
353.901	106.75
354.128	92.75
354.355	104.75
354.583	107.75
354.81	101.75
355.037	90.75
355.264	107.75
355.491	90.75
355.718	83.75
355.945	109.75
356.172	83.75
356.399	87.75
356.626	95.75
356.853	87.75
357.08	90.75
357.307	91.75
357.534	90.75
357.761	92.75
357.988	102.75
358.215	86.75
358.441	96.75
358.668	80.75
358.895	107.75
359.122	87.75
359.349	72.75
359.576	105.75
359.802	99.75
360.029	122.75
360.256	133.75
360.483	87.75
360.709	92.75
360.936	100.75
361.163	91.75
361.39	93.75
361.616	102.75
361.843	95.75
362.07	91.75
362.296	111.75
362.523	95.75
362.749	79.75
362.976	92.75
363.203	71.75
363.429	88.75
363.656	91.75
363.882	99.75
364.109	97.75
364.335	101.75
364.562	75.75
364.788	86.75
365.015	87.75
365.241	97.75
365.468	103.75
365.694	120.75
365.92	91.75
366.147	88.75
366.373	81.75
366.599	93.75
366.826	89.75
367.052	92.75
367.278	92.75
367.505	86.75
367.731	102.75
367.957	87.75
368.184	96.75
368.41	102.75
368.636	111.75
368.862	114.75
369.089	105.75
369.315	94.75
369.541	96.75
369.767	97.75
369.993	82.75
370.219	72.75
370.445	94.75
370.672	83.75
370.898	80.75
371.124	78.75
371.35	84.75
371.576	64.75
371.802	81.75
372.028	93.75
372.254	84.75
372.48	86.75
372.706	94.75
372.932	96.75
373.158	80.75
373.384	88.75
373.61	91.75
373.835	91.75
374.061	102.75
374.287	86.75
374.513	90.75
374.739	80.75
374.965	81.75
375.191	80.75
375.416	96.75
375.642	85.75
375.868	76.75
376.094	83.75
376.319	92.75
376.545	96.75
376.771	91.75
376.997	92.75
377.222	79.75
377.448	94.75
377.674	93.75
377.899	91.75
378.125	78.75
378.35	96.75
378.576	80.75
378.802	75.75
379.027	83.75
379.253	95.75
379.478	90.75
379.704	88.75
379.929	71.75
380.155	98.75
380.38	100.75
380.606	102.75
380.831	106.75
381.057	103.75
381.282	80.75
381.507	83.75
381.733	84.75
381.958	96.75
382.184	106.75
382.409	94.75
382.634	92.75
382.86	112.75
383.085	99.75
383.31	97.75
383.535	93.75
383.761	98.75
383.986	103.75
384.211	93.75
384.436	90.75
384.662	110.75
384.887	105.75
385.112	106.75
385.337	106.75
385.562	95.75
385.787	104.75
386.013	119.75
386.238	107.75
386.463	90.75
386.688	91.75
386.913	99.75
387.138	113.75
387.363	97.75
387.588	82.75
387.813	94.75
388.038	96.75
388.263	105.75
388.488	109.75
388.713	98.75
388.938	92.75
389.163	96.75
389.387	91.75
389.612	90.75
389.837	85.75
390.062	98.75
390.287	90.75
390.512	94.75
390.736	81.75
390.961	90.75
391.186	79.75
391.411	87.75
391.636	85.75
391.86	83.75
392.085	73.75
392.31	93.75
392.534	81.75
392.759	84.75
392.984	86.75
393.208	91.75
393.433	97.75
393.658	87.75
393.882	80.75
394.107	77.75
394.331	75.75
394.556	80.75
394.78	85.75
395.005	80.75
395.229	72.75
395.454	75.75
395.678	91.75
395.903	96.75
396.127	107.75
396.352	80.75
396.576	73.75
396.801	85.75
397.025	87.75
397.249	88.75
397.474	70.75
397.698	79.75
397.922	77.75
398.147	79.75
398.371	81.75
398.595	82.75
398.82	67.75
399.044	81.75
399.268	85.75
399.492	90.75
399.717	88.75
399.941	82.75
400.165	90.75
400.389	79.75
400.613	79.75
400.837	89.75
401.062	89.75
401.286	101.75
401.51	98.75
401.734	89.75
401.958	89.75
402.182	139.75
402.406	171.75
402.63	130.75
402.854	91.75
403.078	93.75
403.302	96.75
403.526	84.75
403.75	69.75
403.974	82.75
404.198	83.75
404.422	67.75
404.645	100.75
404.869	95.75
405.093	97.75
405.317	132.75
405.541	134.75
405.765	103.75
405.988	126.75
406.212	186.75
406.436	246.75
406.66	185.75
406.883	118.75
407.107	103.75
407.331	102.75
407.555	105.75
407.778	96.75
408.002	87.75
408.226	89.75
408.449	90.75
408.673	92.75
408.896	71.75
409.12	95.75
409.344	78.75
409.567	80.75
409.791	96.75
410.014	82.75
410.238	83.75
410.461	76.75
410.685	94.75
410.908	92.75
411.132	107.75
411.355	101.75
411.578	86.75
411.802	80.75
412.025	99.75
412.249	80.75
412.472	108.75
412.695	130.75
412.919	96.75
413.142	92.75
413.365	98.75
413.589	87.75
413.812	94.75
414.035	95.75
414.258	85.75
414.482	92.75
414.705	91.75
414.928	98.75
415.151	96.75
415.374	74.75
415.597	89.75
415.821	82.75
416.044	89.75
416.267	81.75
416.49	86.75
416.713	92.75
416.936	92.75
417.159	88.75
417.382	81.75
417.605	108.75
417.828	101.75
418.051	83.75
418.274	105.75
418.497	93.75
418.72	91.75
418.943	95.75
419.166	99.75
419.389	97.75
419.611	76.75
419.834	86.75
420.057	90.75
420.28	91.75
420.503	77.75
420.726	84.75
420.948	89.75
421.171	101.75
421.394	90.75
421.617	93.75
421.839	74.75
422.062	110.75
422.285	87.75
422.507	113.75
422.73	107.75
422.953	92.75
423.175	84.75
423.398	95.75
423.621	81.75
423.843	80.75
424.066	93.75
424.288	84.75
424.511	104.75
424.733	117.75
424.956	113.75
425.178	95.75
425.401	102.75
425.623	94.75
425.846	106.75
426.068	92.75
426.291	99.75
426.513	93.75
426.735	95.75
426.958	99.75
427.18	99.75
427.402	170.75
427.625	218.75
427.847	209.75
428.069	185.75
428.292	116.75
428.514	98.75
428.736	83.75
428.958	94.75
429.181	88.75
429.403	94.75
429.625	99.75
429.847	101.75
430.069	107.75
430.292	111.75
430.514	85.75
430.736	98.75
430.958	84.75
431.18	73.75
431.402	97.75
431.624	88.75
431.846	88.75
432.068	81.75
432.29	76.75
432.512	73.75
432.734	86.75
432.956	105.75
433.178	101.75
433.4	91.75
433.622	95.75
433.844	84.75
434.066	94.75
434.287	93.75
434.509	88.75
434.731	68.75
434.953	78.75
435.175	88.75
435.397	99.75
435.618	84.75
435.84	103.75
436.062	139.75
436.284	127.75
436.505	107.75
436.727	99.75
436.949	91.75
437.17	87.75
437.392	90.75
437.614	88.75
437.835	107.75
438.057	136.75
438.278	132.75
438.5	109.75
438.721	130.75
438.943	104.75
439.165	88.75
439.386	90.75
439.608	82.75
439.829	113.75
440.05	146.75
440.272	182.75
440.493	110.75
440.715	90.75
440.936	86.75
441.158	87.75
441.379	80.75
441.6	102.75
441.822	99.75
442.043	103.75
442.264	112.75
442.486	111.75
442.707	102.75
442.928	104.75
443.149	150.75
443.371	148.75
443.592	127.75
443.813	117.75
444.034	97.75
444.255	100.75
444.476	92.75
444.698	80.75
444.919	90.75
445.14	121.75
445.361	119.75
445.582	133.75
445.803	164.75
446.024	156.75
446.245	164.75
446.466	124.75
446.687	93.75
446.908	82.75
447.129	91.75
447.35	84.75
447.571	104.75
447.792	92.75
448.013	105.75
448.234	118.75
448.455	113.75
448.675	143.75
448.896	133.75
449.117	112.75
449.338	104.75
449.559	146.75
449.779	154.75
450	103.75
450.221	100.75
450.442	94.75
450.662	107.75
450.883	106.75
451.104	118.75
451.324	105.75
451.545	103.75
451.766	88.75
451.986	98.75
452.207	89.75
452.428	81.75
452.648	98.75
452.869	116.75
453.089	108.75
453.31	119.75
453.53	79.75
453.751	103.75
453.971	107.75
454.192	122.75
454.412	87.75
454.633	88.75
454.853	82.75
455.073	85.75
455.294	79.75
455.514	99.75
455.734	90.75
455.955	64.75
456.175	84.75
456.395	78.75
456.616	83.75
456.836	66.75
457.056	78.75
457.276	96.75
457.497	79.75
457.717	96.75
457.937	81.75
458.157	87.75
458.377	93.75
458.598	116.75
458.818	174.75
459.038	206.75
459.258	146.75
459.478	87.75
459.698	92.75
459.918	84.75
460.138	78.75
460.358	85.75
460.578	88.75
460.798	98.75
461.018	90.75
461.238	81.75
461.458	70.75
461.678	79.75
461.898	81.75
462.118	88.75
462.338	87.75
462.558	88.75
462.777	79.75
462.997	98.75
463.217	83.75
463.437	99.75
463.657	86.75
463.876	90.75
464.096	94.75
464.316	97.75
464.536	101.75
464.755	92.75
464.975	116.75
465.195	184.75
465.414	213.75
465.634	105.75
465.854	83.75
466.073	81.75
466.293	93.75
466.512	95.75
466.732	103.75
466.951	74.75
467.171	92.75
467.391	97.75
467.61	112.75
467.829	166.75
468.049	308.75
468.268	433.75
468.488	149.75
468.707	98.75
468.927	83.75
469.146	95.75
469.365	84.75
469.585	77.75
469.804	96.75
470.023	102.75
470.243	93.75
470.462	116.75
470.681	123.75
470.901	104.75
471.12	75.75
471.339	100.75
471.558	110.75
471.777	122.75
471.997	187.75
472.216	597.75
472.435	1299.75
472.654	336.75
472.873	124.75
473.092	96.75
473.311	96.75
473.53	83.75
473.749	80.75
473.968	87.75
474.187	104.75
474.406	102.75
474.625	80.75
474.844	95.75
475.063	88.75
475.282	100.75
475.501	82.75
475.72	90.75
475.939	98.75
476.158	94.75
476.377	80.75
476.596	96.75
476.814	96.75
477.033	97.75
477.252	102.75
477.471	80.75
477.69	96.75
477.908	75.75
478.127	80.75
478.346	92.75
478.564	95.75
478.783	97.75
479.002	96.75
479.22	93.75
479.439	114.75
479.658	127.75
479.876	111.75
480.095	108.75
480.313	103.75
480.532	119.75
480.751	214.75
480.969	586.75
481.188	2289.75
481.406	1330.75
481.624	238.75
481.843	123.75
482.061	103.75
482.28	91.75
482.498	98.75
482.717	87.75
482.935	81.75
483.153	98.75
483.372	87.75
483.59	87.75
483.808	93.75
484.027	97.75
484.245	94.75
484.463	100.75
484.681	99.75
484.9	88.75
485.118	104.75
485.336	103.75
485.554	97.75
485.772	96.75
485.99	103.75
486.209	107.75
486.427	115.75
486.645	120.75
486.863	106.75
487.081	113.75
487.299	102.75
487.517	96.75
487.735	103.75
487.953	86.75
488.171	86.75
488.389	103.75
488.607	90.75
488.825	89.75
489.043	87.75
489.261	94.75
489.479	99.75
489.696	78.75
489.914	92.75
490.132	87.75
490.35	84.75
490.568	78.75
490.786	89.75
491.003	97.75
491.221	88.75
491.439	84.75
491.657	92.75
491.874	97.75
492.092	91.75
492.31	103.75
492.527	86.75
492.745	96.75
492.963	88.75
493.18	79.75
493.398	95.75
493.615	89.75
493.833	90.75
494.05	90.75
494.268	89.75
494.485	70.75
494.703	75.75
494.92	79.75
495.138	90.75
495.355	87.75
495.573	94.75
495.79	77.75
496.008	94.75
496.225	91.75
496.442	71.75
496.66	82.75
496.877	80.75
497.094	88.75
497.312	96.75
497.529	91.75
497.746	87.75
497.963	82.75
498.181	74.75
498.398	97.75
498.615	101.75
498.832	103.75
499.049	93.75
499.267	88.75
499.484	89.75
499.701	91.75
499.918	82.75
500.135	80.75
500.352	94.75
500.569	94.75
500.786	91.75
501.003	104.75
501.22	79.75
501.437	86.75
501.654	90.75
501.871	116.75
502.088	98.75
502.305	95.75
502.522	94.75
502.739	86.75
502.956	102.75
503.172	95.75
503.389	110.75
503.606	98.75
503.823	96.75
504.04	94.75
504.256	79.75
504.473	88.75
504.69	99.75
504.907	91.75
505.123	95.75
505.34	94.75
505.557	77.75
505.773	74.75
505.99	94.75
506.207	89.75
506.423	96.75
506.64	91.75
506.856	89.75
507.073	96.75
507.289	89.75
507.506	98.75
507.722	122.75
507.939	129.75
508.155	95.75
508.372	103.75
508.588	91.75
508.805	99.75
509.021	85.75
509.238	83.75
509.454	100.75
509.67	94.75
509.887	107.75
510.103	121.75
510.319	198.75
510.536	769.75
510.752	2662.75
510.968	730.75
511.184	153.75
511.401	111.75
511.617	105.75
511.833	104.75
512.049	95.75
512.265	89.75
512.481	103.75
512.698	96.75
512.914	95.75
513.13	85.75
513.346	87.75
513.562	87.75
513.778	109.75
513.994	98.75
514.21	110.75
514.426	112.75
514.642	152.75
