Data from Circ_2000_H10_HRD10591_00077.txt Node
Date: Wed Jan 03 10:49:49 EST 2024
User: Yrep
Spectrometer: HR+D1059
Trigger mode: 1
Integration Time (sec): 1.000000E-1
Scans to average: 1
Electric dark correction enabled: true
Nonlinearity correction enabled: false
Boxcar width: 0
XAxis mode: Wavelengths
Number of Pixels in Spectrum: 2048
>>>>>Begin Spectral Data<<<<<
223.165	-26.62
223.4	-26.62
223.635	-26.62
223.869	-21.62
224.104	-28.62
224.338	-25.62
224.573	-2.62
224.808	-16.62
225.042	-9.62
225.277	-0.62
225.511	10.38
225.746	7.38
225.98	4.38
226.215	15.38
226.449	11.38
226.683	18.38
226.918	30.38
227.152	34.38
227.387	44.38
227.621	42.38
227.856	44.38
228.09	56.38
228.324	62.38
228.559	33.38
228.793	51.38
229.027	60.38
229.262	87.38
229.496	71.38
229.73	102.38
229.964	101.38
230.199	80.38
230.433	72.38
230.667	74.38
230.901	86.38
231.136	88.38
231.37	79.38
231.604	81.38
231.838	86.38
232.072	67.38
232.306	75.38
232.541	72.38
232.775	56.38
233.009	72.38
233.243	83.38
233.477	78.38
233.711	76.38
233.945	75.38
234.179	70.38
234.413	93.38
234.647	80.38
234.881	78.38
235.115	88.38
235.349	76.38
235.583	77.38
235.817	73.38
236.051	88.38
236.285	75.38
236.519	83.38
236.753	89.38
236.987	93.38
237.221	88.38
237.455	92.38
237.689	85.38
237.922	68.38
238.156	75.38
238.39	74.38
238.624	72.38
238.858	80.38
239.091	94.38
239.325	73.38
239.559	84.38
239.793	72.38
240.027	81.38
240.26	67.38
240.494	81.38
240.728	67.38
240.961	81.38
241.195	76.38
241.429	76.38
241.662	73.38
241.896	81.38
242.13	82.38
242.363	90.38
242.597	79.38
242.83	77.38
243.064	77.38
243.298	72.38
243.531	86.38
243.765	80.38
243.998	84.38
244.232	85.38
244.465	83.38
244.699	68.38
244.932	72.38
245.166	84.38
245.399	78.38
245.633	75.38
245.866	84.38
246.099	70.38
246.333	84.38
246.566	75.38
246.8	83.38
247.033	89.38
247.266	88.38
247.5	72.38
247.733	82.38
247.966	87.38
248.2	87.38
248.433	70.38
248.666	84.38
248.899	75.38
249.133	82.38
249.366	101.38
249.599	99.38
249.832	85.38
250.066	95.38
250.299	91.38
250.532	71.38
250.765	93.38
250.998	81.38
251.231	70.38
251.465	84.38
251.698	87.38
251.931	88.38
252.164	80.38
252.397	88.38
252.63	86.38
252.863	74.38
253.096	76.38
253.329	79.38
253.562	86.38
253.795	90.38
254.028	81.38
254.261	85.38
254.494	93.38
254.727	79.38
254.96	86.38
255.193	78.38
255.426	80.38
255.659	86.38
255.892	80.38
256.124	97.38
256.357	87.38
256.59	94.38
256.823	78.38
257.056	81.38
257.289	78.38
257.521	92.38
257.754	90.38
257.987	88.38
258.22	103.38
258.452	85.38
258.685	80.38
258.918	85.38
259.151	86.38
259.383	93.38
259.616	76.38
259.849	83.38
260.081	72.38
260.314	97.38
260.547	79.38
260.779	82.38
261.012	94.38
261.244	105.38
261.477	100.38
261.71	100.38
261.942	137.38
262.175	154.38
262.407	106.38
262.64	80.38
262.872	91.38
263.105	97.38
263.337	78.38
263.57	82.38
263.802	97.38
264.035	80.38
264.267	87.38
264.499	80.38
264.732	83.38
264.964	87.38
265.197	92.38
265.429	95.38
265.661	77.38
265.894	84.38
266.126	87.38
266.358	83.38
266.591	80.38
266.823	91.38
267.055	91.38
267.287	83.38
267.52	94.38
267.752	82.38
267.984	80.38
268.216	73.38
268.448	81.38
268.681	84.38
268.913	82.38
269.145	80.38
269.377	83.38
269.609	80.38
269.841	87.38
270.073	82.38
270.306	79.38
270.538	84.38
270.77	98.38
271.002	84.38
271.234	84.38
271.466	87.38
271.698	88.38
271.93	87.38
272.162	75.38
272.394	86.38
272.626	84.38
272.858	100.38
273.09	89.38
273.322	82.38
273.553	94.38
273.785	99.38
274.017	96.38
274.249	98.38
274.481	100.38
274.713	74.38
274.945	83.38
275.176	94.38
275.408	99.38
275.64	102.38
275.872	105.38
276.104	108.38
276.335	115.38
276.567	128.38
276.799	154.38
277.031	153.38
277.262	180.38
277.494	129.38
277.726	99.38
277.957	90.38
278.189	105.38
278.421	85.38
278.652	96.38
278.884	91.38
279.115	98.38
279.347	83.38
279.579	106.38
279.81	125.38
280.042	154.38
280.273	226.38
280.505	153.38
280.736	117.38
280.968	93.38
281.199	93.38
281.431	98.38
281.662	90.38
281.894	95.38
282.125	111.38
282.356	126.38
282.588	171.38
282.819	128.38
283.051	99.38
283.282	92.38
283.513	81.38
283.745	94.38
283.976	94.38
284.207	81.38
284.439	98.38
284.67	89.38
284.901	89.38
285.132	94.38
285.364	85.38
285.595	85.38
285.826	93.38
286.057	97.38
286.288	98.38
286.52	88.38
286.751	75.38
286.982	97.38
287.213	80.38
287.444	81.38
287.675	93.38
287.906	90.38
288.138	85.38
288.369	81.38
288.6	88.38
288.831	97.38
289.062	92.38
289.293	101.38
289.524	89.38
289.755	81.38
289.986	65.38
290.217	88.38
290.448	80.38
290.679	99.38
290.91	90.38
291.141	89.38
291.371	89.38
291.602	95.38
291.833	89.38
292.064	77.38
292.295	94.38
292.526	92.38
292.757	92.38
292.987	80.38
293.218	87.38
293.449	87.38
293.68	93.38
293.91	86.38
294.141	94.38
294.372	96.38
294.603	96.38
294.833	102.38
295.064	93.38
295.295	97.38
295.525	98.38
295.756	109.38
295.987	133.38
296.217	173.38
296.448	157.38
296.679	88.38
296.909	99.38
297.14	94.38
297.37	82.38
297.601	89.38
297.831	85.38
298.062	113.38
298.292	95.38
298.523	93.38
298.753	84.38
298.984	89.38
299.214	80.38
299.445	92.38
299.675	104.38
299.905	93.38
300.136	107.38
300.366	102.38
300.597	94.38
300.827	100.38
301.057	92.38
301.288	113.38
301.518	119.38
301.748	93.38
301.979	126.38
302.209	106.38
302.439	87.38
302.669	94.38
302.9	102.38
303.13	101.38
303.36	110.38
303.59	122.38
303.82	138.38
304.051	87.38
304.281	97.38
304.511	102.38
304.741	84.38
304.971	94.38
305.201	93.38
305.431	84.38
305.661	96.38
305.891	90.38
306.121	106.38
306.352	108.38
306.582	110.38
306.812	115.38
307.042	119.38
307.272	131.38
307.502	156.38
307.731	158.38
307.961	111.38
308.191	99.38
308.421	104.38
308.651	98.38
308.881	88.38
309.111	101.38
309.341	102.38
309.571	104.38
309.8	90.38
310.03	93.38
310.26	105.38
310.49	114.38
310.72	119.38
310.949	130.38
311.179	120.38
311.409	98.38
311.639	116.38
311.868	113.38
312.098	92.38
312.328	109.38
312.557	113.38
312.787	124.38
313.017	131.38
313.246	101.38
313.476	83.38
313.706	98.38
313.935	105.38
314.165	121.38
314.394	113.38
314.624	104.38
314.853	102.38
315.083	112.38
315.312	89.38
315.542	95.38
315.771	95.38
316.001	89.38
316.23	86.38
316.46	86.38
316.689	90.38
316.919	99.38
317.148	88.38
317.377	94.38
317.607	109.38
317.836	102.38
318.065	93.38
318.295	86.38
318.524	91.38
318.753	104.38
318.983	90.38
319.212	117.38
319.441	121.38
319.67	115.38
319.9	95.38
320.129	102.38
320.358	104.38
320.587	93.38
320.816	115.38
321.046	107.38
321.275	105.38
321.504	103.38
321.733	101.38
321.962	100.38
322.191	89.38
322.42	120.38
322.649	116.38
322.878	122.38
323.108	150.38
323.337	147.38
323.566	158.38
323.795	184.38
324.024	253.38
324.253	486.38
324.482	1087.38
324.71	2296.38
324.939	3072.38
325.168	1120.38
325.397	320.38
325.626	197.38
325.855	150.38
326.084	138.38
326.313	152.38
326.542	183.38
326.77	289.38
326.999	576.38
327.228	1178.38
327.457	2204.38
327.686	1744.38
327.914	573.38
328.143	454.38
328.372	562.38
328.6	329.38
328.829	171.38
329.058	206.38
329.287	204.38
329.515	169.38
329.744	222.38
329.972	390.38
330.201	753.38
330.43	1131.38
330.658	541.38
330.887	284.38
331.115	195.38
331.344	128.38
331.572	127.38
331.801	131.38
332.03	121.38
332.258	113.38
332.486	118.38
332.715	121.38
332.943	112.38
333.172	108.38
333.4	124.38
333.629	140.38
333.857	215.38
334.085	358.38
334.314	712.38
334.542	1374.38
334.771	1324.38
334.999	358.38
335.227	162.38
335.455	126.38
335.684	104.38
335.912	113.38
336.14	99.38
336.369	129.38
336.597	105.38
336.825	114.38
337.053	105.38
337.281	97.38
337.51	97.38
337.738	101.38
337.966	107.38
338.194	105.38
338.422	81.38
338.65	91.38
338.878	84.38
339.106	109.38
339.334	97.38
339.562	89.38
339.79	97.38
340.018	100.38
340.246	94.38
340.474	117.38
340.702	102.38
340.93	111.38
341.158	88.38
341.386	93.38
341.614	98.38
341.842	89.38
342.07	99.38
342.298	103.38
342.526	85.38
342.754	98.38
342.981	97.38
343.209	78.38
343.437	95.38
343.665	103.38
343.893	81.38
344.12	89.38
344.348	77.38
344.576	80.38
344.804	96.38
345.031	100.38
345.259	115.38
345.487	107.38
345.714	115.38
345.942	96.38
346.17	102.38
346.397	87.38
346.625	97.38
346.853	105.38
347.08	92.38
347.308	96.38
347.535	112.38
347.763	119.38
347.99	107.38
348.218	109.38
348.445	115.38
348.673	124.38
348.9	116.38
349.128	106.38
349.355	113.38
349.583	93.38
349.81	105.38
350.037	90.38
350.265	113.38
350.492	109.38
350.72	100.38
350.947	106.38
351.174	117.38
351.402	120.38
351.629	117.38
351.856	112.38
352.083	100.38
352.311	90.38
352.538	115.38
352.765	125.38
352.992	124.38
353.22	117.38
353.447	119.38
353.674	101.38
353.901	84.38
354.128	92.38
354.355	96.38
354.583	97.38
354.81	98.38
355.037	97.38
355.264	104.38
355.491	93.38
355.718	83.38
355.945	98.38
356.172	84.38
356.399	96.38
356.626	97.38
356.853	92.38
357.08	101.38
357.307	104.38
357.534	88.38
357.761	78.38
357.988	81.38
358.215	92.38
358.441	101.38
358.668	96.38
358.895	73.38
359.122	89.38
359.349	105.38
359.576	95.38
359.802	115.38
360.029	141.38
360.256	147.38
360.483	118.38
360.709	108.38
360.936	90.38
361.163	96.38
361.39	111.38
361.616	110.38
361.843	106.38
362.07	108.38
362.296	113.38
362.523	93.38
362.749	104.38
362.976	99.38
363.203	87.38
363.429	101.38
363.656	109.38
363.882	93.38
364.109	87.38
364.335	107.38
364.562	101.38
364.788	88.38
365.015	89.38
365.241	116.38
365.468	117.38
365.694	112.38
365.92	107.38
366.147	104.38
366.373	88.38
366.599	103.38
366.826	89.38
367.052	93.38
367.278	101.38
367.505	97.38
367.731	86.38
367.957	92.38
368.184	108.38
368.41	101.38
368.636	120.38
368.862	140.38
369.089	127.38
369.315	111.38
369.541	100.38
369.767	108.38
369.993	99.38
370.219	111.38
370.445	111.38
370.672	78.38
370.898	84.38
371.124	79.38
371.35	87.38
371.576	85.38
371.802	93.38
372.028	87.38
372.254	95.38
372.48	102.38
372.706	87.38
372.932	89.38
373.158	106.38
373.384	95.38
373.61	93.38
373.835	91.38
374.061	93.38
374.287	89.38
374.513	94.38
374.739	97.38
374.965	90.38
375.191	77.38
375.416	94.38
375.642	93.38
375.868	94.38
376.094	100.38
376.319	100.38
376.545	102.38
376.771	95.38
376.997	87.38
377.222	94.38
377.448	97.38
377.674	85.38
377.899	93.38
378.125	92.38
378.35	88.38
378.576	89.38
378.802	82.38
379.027	88.38
379.253	92.38
379.478	89.38
379.704	96.38
379.929	93.38
380.155	78.38
380.38	112.38
380.606	105.38
380.831	88.38
381.057	101.38
381.282	99.38
381.507	106.38
381.733	97.38
381.958	93.38
382.184	107.38
382.409	91.38
382.634	108.38
382.86	95.38
383.085	103.38
383.31	103.38
383.535	100.38
383.761	117.38
383.986	100.38
384.211	91.38
384.436	93.38
384.662	94.38
384.887	90.38
385.112	94.38
385.337	101.38
385.562	110.38
385.787	104.38
386.013	104.38
386.238	106.38
386.463	105.38
386.688	122.38
386.913	113.38
387.138	99.38
387.363	88.38
387.588	86.38
387.813	103.38
388.038	105.38
388.263	116.38
388.488	99.38
388.713	93.38
388.938	98.38
389.163	105.38
389.387	103.38
389.612	100.38
389.837	97.38
390.062	83.38
390.287	98.38
390.512	97.38
390.736	90.38
390.961	93.38
391.186	88.38
391.411	85.38
391.636	83.38
391.86	82.38
392.085	81.38
392.31	96.38
392.534	75.38
392.759	81.38
392.984	72.38
393.208	93.38
393.433	92.38
393.658	92.38
393.882	90.38
394.107	69.38
394.331	88.38
394.556	103.38
394.78	85.38
395.005	68.38
395.229	80.38
395.454	90.38
395.678	90.38
395.903	87.38
396.127	100.38
396.352	110.38
396.576	85.38
396.801	87.38
397.025	88.38
397.249	87.38
397.474	97.38
397.698	93.38
397.922	72.38
398.147	77.38
398.371	87.38
398.595	82.38
398.82	94.38
399.044	89.38
399.268	81.38
399.492	90.38
399.717	93.38
399.941	100.38
400.165	101.38
400.389	101.38
400.613	106.38
400.837	76.38
401.062	97.38
401.286	98.38
401.51	100.38
401.734	100.38
401.958	101.38
402.182	128.38
402.406	217.38
402.63	152.38
402.854	111.38
403.078	102.38
403.302	92.38
403.526	90.38
403.75	90.38
403.974	89.38
404.198	88.38
404.422	106.38
404.645	99.38
404.869	94.38
405.093	113.38
405.317	135.38
405.541	136.38
405.765	131.38
405.988	137.38
406.212	216.38
406.436	348.38
406.66	217.38
406.883	125.38
407.107	119.38
407.331	107.38
407.555	107.38
407.778	102.38
408.002	94.38
408.226	82.38
408.449	97.38
408.673	92.38
408.896	108.38
409.12	104.38
409.344	103.38
409.567	99.38
409.791	77.38
410.014	94.38
410.238	90.38
410.461	77.38
410.685	76.38
410.908	99.38
411.132	104.38
411.355	103.38
411.578	86.38
411.802	83.38
412.025	93.38
412.249	101.38
412.472	116.38
412.695	143.38
412.919	113.38
413.142	80.38
413.365	94.38
413.589	85.38
413.812	85.38
414.035	104.38
414.258	94.38
414.482	87.38
414.705	86.38
414.928	86.38
415.151	102.38
415.374	88.38
415.597	78.38
415.821	80.38
416.044	80.38
416.267	87.38
416.49	86.38
416.713	85.38
416.936	76.38
417.159	92.38
417.382	91.38
417.605	99.38
417.828	112.38
418.051	101.38
418.274	97.38
418.497	82.38
418.72	95.38
418.943	92.38
419.166	80.38
419.389	84.38
419.611	90.38
419.834	80.38
420.057	102.38
420.28	100.38
420.503	100.38
420.726	99.38
420.948	88.38
421.171	109.38
421.394	94.38
421.617	99.38
421.839	82.38
422.062	89.38
422.285	97.38
422.507	97.38
422.73	105.38
422.953	123.38
423.175	99.38
423.398	94.38
423.621	91.38
423.843	94.38
424.066	78.38
424.288	92.38
424.511	96.38
424.733	116.38
424.956	148.38
425.178	113.38
425.401	122.38
425.623	103.38
425.846	93.38
426.068	113.38
426.291	91.38
426.513	100.38
426.735	102.38
426.958	99.38
427.18	124.38
427.402	174.38
427.625	259.38
427.847	247.38
428.069	208.38
428.292	123.38
428.514	101.38
428.736	103.38
428.958	91.38
429.181	85.38
429.403	73.38
429.625	100.38
429.847	94.38
430.069	114.38
430.292	105.38
430.514	91.38
430.736	74.38
430.958	88.38
431.18	73.38
431.402	86.38
431.624	82.38
431.846	92.38
432.068	84.38
432.29	85.38
432.512	86.38
432.734	88.38
432.956	88.38
433.178	95.38
433.4	96.38
433.622	99.38
433.844	88.38
434.066	89.38
434.287	88.38
434.509	83.38
434.731	95.38
434.953	93.38
435.175	81.38
435.397	99.38
435.618	103.38
435.84	102.38
436.062	137.38
436.284	141.38
436.505	112.38
436.727	113.38
436.949	93.38
437.17	103.38
437.392	89.38
437.614	108.38
437.835	129.38
438.057	147.38
438.278	137.38
438.5	116.38
438.721	144.38
438.943	106.38
439.165	107.38
439.386	102.38
439.608	104.38
439.829	114.38
440.05	166.38
440.272	188.38
440.493	112.38
440.715	93.38
440.936	85.38
441.158	104.38
441.379	89.38
441.6	100.38
441.822	106.38
442.043	109.38
442.264	128.38
442.486	121.38
442.707	107.38
442.928	128.38
443.149	173.38
443.371	170.38
443.592	121.38
443.813	138.38
444.034	135.38
444.255	100.38
444.476	81.38
444.698	98.38
444.919	101.38
445.14	137.38
445.361	146.38
445.582	119.38
445.803	184.38
446.024	181.38
446.245	174.38
446.466	110.38
446.687	89.38
446.908	80.38
447.129	87.38
447.35	93.38
447.571	92.38
447.792	94.38
448.013	109.38
448.234	118.38
448.455	112.38
448.675	128.38
448.896	148.38
449.117	113.38
449.338	122.38
449.559	158.38
449.779	166.38
450	105.38
450.221	99.38
450.442	96.38
450.662	121.38
450.883	120.38
451.104	155.38
451.324	113.38
451.545	102.38
451.766	81.38
451.986	84.38
452.207	87.38
452.428	105.38
452.648	108.38
452.869	144.38
453.089	162.38
453.31	139.38
453.53	103.38
453.751	102.38
453.971	122.38
454.192	146.38
454.412	97.38
454.633	101.38
454.853	101.38
455.073	86.38
455.294	78.38
455.514	112.38
455.734	87.38
455.955	88.38
456.175	80.38
456.395	79.38
456.616	86.38
456.836	76.38
457.056	93.38
457.276	95.38
457.497	85.38
457.717	89.38
457.937	94.38
458.157	88.38
458.377	86.38
458.598	125.38
458.818	216.38
459.038	236.38
459.258	151.38
459.478	95.38
459.698	87.38
459.918	86.38
460.138	88.38
460.358	86.38
460.578	82.38
460.798	101.38
461.018	90.38
461.238	85.38
461.458	86.38
461.678	81.38
461.898	96.38
462.118	78.38
462.338	104.38
462.558	83.38
462.777	97.38
462.997	97.38
463.217	105.38
463.437	102.38
463.657	82.38
463.876	97.38
464.096	92.38
464.316	110.38
464.536	102.38
464.755	113.38
464.975	122.38
465.195	256.38
465.414	258.38
465.634	118.38
465.854	88.38
466.073	93.38
466.293	95.38
466.512	80.38
466.732	99.38
466.951	106.38
467.171	104.38
467.391	109.38
467.61	157.38
467.829	187.38
468.049	429.38
468.268	662.38
468.488	196.38
468.707	104.38
468.927	80.38
469.146	90.38
469.365	112.38
469.585	108.38
469.804	98.38
470.023	107.38
470.243	109.38
470.462	115.38
470.681	132.38
470.901	112.38
471.12	99.38
471.339	102.38
471.558	117.38
471.777	147.38
471.997	239.38
472.216	858.38
472.435	1940.38
472.654	472.38
472.873	144.38
473.092	104.38
473.311	97.38
473.53	102.38
473.749	82.38
473.968	101.38
474.187	125.38
474.406	118.38
474.625	93.38
474.844	86.38
475.063	99.38
475.282	93.38
475.501	99.38
475.72	113.38
475.939	82.38
476.158	86.38
476.377	91.38
476.596	87.38
476.814	89.38
477.033	109.38
477.252	109.38
477.471	97.38
477.69	89.38
477.908	98.38
478.127	91.38
478.346	116.38
478.564	105.38
478.783	119.38
479.002	106.38
479.22	89.38
479.439	125.38
479.658	122.38
479.876	142.38
480.095	130.38
480.313	126.38
480.532	138.38
480.751	244.38
480.969	812.38
481.188	3291.38
481.406	1941.38
481.624	308.38
481.843	121.38
482.061	112.38
482.28	97.38
482.498	102.38
482.717	87.38
482.935	81.38
483.153	72.38
483.372	95.38
483.59	89.38
483.808	90.38
484.027	89.38
484.245	98.38
484.463	88.38
484.681	95.38
484.9	93.38
485.118	88.38
485.336	98.38
485.554	93.38
485.772	100.38
485.99	107.38
486.209	101.38
486.427	100.38
486.645	125.38
486.863	122.38
487.081	122.38
487.299	103.38
487.517	107.38
487.735	99.38
487.953	94.38
488.171	98.38
488.389	103.38
488.607	106.38
488.825	91.38
489.043	80.38
489.261	92.38
489.479	75.38
489.696	86.38
489.914	92.38
490.132	93.38
490.35	77.38
490.568	80.38
490.786	85.38
491.003	104.38
491.221	95.38
491.439	97.38
491.657	93.38
491.874	104.38
492.092	89.38
492.31	96.38
492.527	88.38
492.745	100.38
492.963	93.38
493.18	94.38
493.398	102.38
493.615	95.38
493.833	109.38
494.05	77.38
494.268	101.38
494.485	93.38
494.703	90.38
494.92	98.38
495.138	92.38
495.355	94.38
495.573	95.38
495.79	102.38
496.008	87.38
496.225	82.38
496.442	94.38
496.66	74.38
496.877	77.38
497.094	92.38
497.312	91.38
497.529	109.38
497.746	94.38
497.963	91.38
498.181	92.38
498.398	97.38
498.615	112.38
498.832	112.38
499.049	86.38
499.267	80.38
499.484	95.38
499.701	72.38
499.918	85.38
500.135	92.38
500.352	85.38
500.569	94.38
500.786	89.38
501.003	88.38
501.22	88.38
501.437	100.38
501.654	110.38
501.871	130.38
502.088	108.38
502.305	92.38
502.522	106.38
502.739	90.38
502.956	95.38
503.172	102.38
503.389	107.38
503.606	112.38
503.823	112.38
504.04	100.38
504.256	96.38
504.473	92.38
504.69	95.38
504.907	107.38
505.123	92.38
505.34	87.38
505.557	96.38
505.773	98.38
505.99	76.38
506.207	96.38
506.423	89.38
506.64	87.38
506.856	105.38
507.073	87.38
507.289	90.38
507.506	106.38
507.722	124.38
507.939	141.38
508.155	122.38
508.372	117.38
508.588	85.38
508.805	93.38
509.021	96.38
509.238	112.38
509.454	100.38
509.67	98.38
509.887	115.38
510.103	149.38
510.319	254.38
510.536	989.38
510.752	3429.38
510.968	939.38
511.184	194.38
511.401	131.38
511.617	109.38
511.833	103.38
512.049	109.38
512.265	92.38
512.481	92.38
