Data from Circ_2000_H10_HRD10591_00052.txt Node
Date: Wed Jan 03 10:49:44 EST 2024
User: Yrep
Spectrometer: HR+D1059
Trigger mode: 1
Integration Time (sec): 1.000000E-1
Scans to average: 1
Electric dark correction enabled: true
Nonlinearity correction enabled: false
Boxcar width: 0
XAxis mode: Wavelengths
Number of Pixels in Spectrum: 2048
>>>>>Begin Spectral Data<<<<<
223.165	-22.94
223.4	-22.94
223.635	-22.94
223.869	-16.94
224.104	-17.94
224.338	-14.94
224.573	-11.94
224.808	-10.94
225.042	-5.94
225.277	-9.94
225.511	-7.94
225.746	3.06
225.98	3.06
226.215	18.06
226.449	18.06
226.683	18.06
226.918	29.06
227.152	30.06
227.387	20.06
227.621	29.06
227.856	38.06
228.09	51.06
228.324	62.06
228.559	48.06
228.793	68.06
229.027	71.06
229.262	56.06
229.496	73.06
229.73	80.06
229.964	85.06
230.199	79.06
230.433	82.06
230.667	92.06
230.901	89.06
231.136	72.06
231.37	85.06
231.604	78.06
231.838	84.06
232.072	79.06
232.306	83.06
232.541	81.06
232.775	91.06
233.009	98.06
233.243	71.06
233.477	73.06
233.711	71.06
233.945	82.06
234.179	84.06
234.413	78.06
234.647	73.06
234.881	90.06
235.115	73.06
235.349	90.06
235.583	81.06
235.817	91.06
236.051	70.06
236.285	81.06
236.519	82.06
236.753	90.06
236.987	90.06
237.221	99.06
237.455	94.06
237.689	71.06
237.922	80.06
238.156	75.06
238.39	81.06
238.624	85.06
238.858	81.06
239.091	77.06
239.325	92.06
239.559	77.06
239.793	79.06
240.027	85.06
240.26	86.06
240.494	72.06
240.728	74.06
240.961	90.06
241.195	83.06
241.429	72.06
241.662	77.06
241.896	92.06
242.13	72.06
242.363	75.06
242.597	77.06
242.83	82.06
243.064	76.06
243.298	78.06
243.531	89.06
243.765	87.06
243.998	79.06
244.232	87.06
244.465	84.06
244.699	87.06
244.932	83.06
245.166	79.06
245.399	83.06
245.633	85.06
245.866	73.06
246.099	77.06
246.333	75.06
246.566	75.06
246.8	71.06
247.033	82.06
247.266	75.06
247.5	83.06
247.733	58.06
247.966	79.06
248.2	87.06
248.433	98.06
248.666	81.06
248.899	76.06
249.133	82.06
249.366	92.06
249.599	106.06
249.832	84.06
250.066	87.06
250.299	92.06
250.532	100.06
250.765	91.06
250.998	84.06
251.231	82.06
251.465	89.06
251.698	94.06
251.931	81.06
252.164	84.06
252.397	70.06
252.63	69.06
252.863	89.06
253.096	87.06
253.329	79.06
253.562	74.06
253.795	73.06
254.028	81.06
254.261	87.06
254.494	84.06
254.727	73.06
254.96	93.06
255.193	86.06
255.426	89.06
255.659	85.06
255.892	82.06
256.124	88.06
256.357	79.06
256.59	80.06
256.823	84.06
257.056	89.06
257.289	87.06
257.521	80.06
257.754	93.06
257.987	75.06
258.22	92.06
258.452	98.06
258.685	75.06
258.918	85.06
259.151	77.06
259.383	78.06
259.616	55.06
259.849	83.06
260.081	92.06
260.314	80.06
260.547	73.06
260.779	85.06
261.012	94.06
261.244	89.06
261.477	96.06
261.71	96.06
261.942	116.06
262.175	134.06
262.407	106.06
262.64	86.06
262.872	78.06
263.105	87.06
263.337	86.06
263.57	73.06
263.802	71.06
264.035	85.06
264.267	86.06
264.499	93.06
264.732	71.06
264.964	83.06
265.197	90.06
265.429	95.06
265.661	82.06
265.894	71.06
266.126	100.06
266.358	79.06
266.591	86.06
266.823	81.06
267.055	93.06
267.287	102.06
267.52	95.06
267.752	85.06
267.984	72.06
268.216	93.06
268.448	69.06
268.681	93.06
268.913	89.06
269.145	81.06
269.377	94.06
269.609	98.06
269.841	97.06
270.073	91.06
270.306	81.06
270.538	84.06
270.77	83.06
271.002	85.06
271.234	80.06
271.466	104.06
271.698	82.06
271.93	75.06
272.162	95.06
272.394	79.06
272.626	93.06
272.858	89.06
273.09	84.06
273.322	88.06
273.553	60.06
273.785	98.06
274.017	89.06
274.249	94.06
274.481	85.06
274.713	95.06
274.945	89.06
275.176	94.06
275.408	97.06
275.64	99.06
275.872	104.06
276.104	86.06
276.335	89.06
276.567	105.06
276.799	135.06
277.031	134.06
277.262	136.06
277.494	100.06
277.726	89.06
277.957	88.06
278.189	86.06
278.421	100.06
278.652	88.06
278.884	78.06
279.115	91.06
279.347	72.06
279.579	85.06
279.81	118.06
280.042	130.06
280.273	155.06
280.505	124.06
280.736	93.06
280.968	93.06
281.199	90.06
281.431	93.06
281.662	92.06
281.894	85.06
282.125	94.06
282.356	132.06
282.588	158.06
282.819	124.06
283.051	94.06
283.282	91.06
283.513	88.06
283.745	85.06
283.976	81.06
284.207	87.06
284.439	87.06
284.67	91.06
284.901	77.06
285.132	99.06
285.364	81.06
285.595	78.06
285.826	86.06
286.057	101.06
286.288	94.06
286.52	79.06
286.751	92.06
286.982	79.06
287.213	94.06
287.444	93.06
287.675	81.06
287.906	91.06
288.138	77.06
288.369	90.06
288.6	88.06
288.831	90.06
289.062	97.06
289.293	95.06
289.524	101.06
289.755	77.06
289.986	92.06
290.217	82.06
290.448	95.06
290.679	94.06
290.91	82.06
291.141	89.06
291.371	99.06
291.602	85.06
291.833	95.06
292.064	93.06
292.295	91.06
292.526	81.06
292.757	82.06
292.987	86.06
293.218	80.06
293.449	95.06
293.68	102.06
293.91	92.06
294.141	87.06
294.372	82.06
294.603	84.06
294.833	83.06
295.064	75.06
295.295	87.06
295.525	91.06
295.756	90.06
295.987	118.06
296.217	140.06
296.448	139.06
296.679	87.06
296.909	90.06
297.14	77.06
297.37	78.06
297.601	80.06
297.831	91.06
298.062	100.06
298.292	102.06
298.523	91.06
298.753	94.06
298.984	89.06
299.214	87.06
299.445	96.06
299.675	95.06
299.905	108.06
300.136	107.06
300.366	74.06
300.597	84.06
300.827	87.06
301.057	106.06
301.288	123.06
301.518	98.06
301.748	113.06
301.979	94.06
302.209	96.06
302.439	99.06
302.669	110.06
302.9	78.06
303.13	100.06
303.36	99.06
303.59	121.06
303.82	126.06
304.051	108.06
304.281	90.06
304.511	84.06
304.741	83.06
304.971	95.06
305.201	87.06
305.431	97.06
305.661	99.06
305.891	77.06
306.121	101.06
306.352	101.06
306.582	109.06
306.812	104.06
307.042	107.06
307.272	130.06
307.502	136.06
307.731	121.06
307.961	119.06
308.191	82.06
308.421	85.06
308.651	80.06
308.881	95.06
309.111	92.06
309.341	103.06
309.571	109.06
309.8	83.06
310.03	100.06
310.26	105.06
310.49	102.06
310.72	106.06
310.949	103.06
311.179	114.06
311.409	97.06
311.639	116.06
311.868	109.06
312.098	101.06
312.328	92.06
312.557	118.06
312.787	115.06
313.017	120.06
313.246	104.06
313.476	100.06
313.706	107.06
313.935	95.06
314.165	100.06
314.394	119.06
314.624	87.06
314.853	107.06
315.083	108.06
315.312	99.06
315.542	99.06
315.771	106.06
316.001	92.06
316.23	85.06
316.46	96.06
316.689	85.06
316.919	83.06
317.148	108.06
317.377	118.06
317.607	114.06
317.836	99.06
318.065	101.06
318.295	93.06
318.524	91.06
318.753	76.06
318.983	92.06
319.212	126.06
319.441	125.06
319.67	123.06
319.9	95.06
320.129	92.06
320.358	81.06
320.587	103.06
320.816	92.06
321.046	108.06
321.275	91.06
321.504	100.06
321.733	97.06
321.962	97.06
322.191	109.06
322.42	114.06
322.649	118.06
322.878	109.06
323.108	113.06
323.337	134.06
323.566	157.06
323.795	161.06
324.024	234.06
324.253	475.06
324.482	978.06
324.71	1996.06
324.939	2590.06
325.168	965.06
325.397	281.06
325.626	155.06
325.855	141.06
326.084	133.06
326.313	146.06
326.542	168.06
326.77	251.06
326.999	515.06
327.228	1089.06
327.457	1945.06
327.686	1555.06
327.914	486.06
328.143	359.06
328.372	392.06
328.6	227.06
328.829	157.06
329.058	154.06
329.287	179.06
329.515	141.06
329.744	196.06
329.972	304.06
330.201	527.06
330.43	769.06
330.658	365.06
330.887	215.06
331.115	155.06
331.344	131.06
331.572	102.06
331.801	104.06
332.03	123.06
332.258	101.06
332.486	103.06
332.715	110.06
332.943	98.06
333.172	105.06
333.4	127.06
333.629	137.06
333.857	179.06
334.085	275.06
334.314	485.06
334.542	941.06
334.771	883.06
334.999	258.06
335.227	135.06
335.455	109.06
335.684	109.06
335.912	90.06
336.14	103.06
336.369	98.06
336.597	127.06
336.825	107.06
337.053	102.06
337.281	88.06
337.51	100.06
337.738	108.06
337.966	104.06
338.194	91.06
338.422	102.06
338.65	94.06
338.878	81.06
339.106	85.06
339.334	79.06
339.562	111.06
339.79	94.06
340.018	104.06
340.246	92.06
340.474	107.06
340.702	98.06
340.93	80.06
341.158	95.06
341.386	109.06
341.614	94.06
341.842	87.06
342.07	88.06
342.298	91.06
342.526	102.06
342.754	97.06
342.981	85.06
343.209	92.06
343.437	90.06
343.665	96.06
343.893	102.06
344.12	98.06
344.348	100.06
344.576	95.06
344.804	98.06
345.031	101.06
345.259	116.06
345.487	98.06
345.714	104.06
345.942	100.06
346.17	79.06
346.397	102.06
346.625	103.06
346.853	95.06
347.08	89.06
347.308	116.06
347.535	103.06
347.763	107.06
347.99	98.06
348.218	115.06
348.445	99.06
348.673	96.06
348.9	93.06
349.128	95.06
349.355	98.06
349.583	101.06
349.81	99.06
350.037	110.06
350.265	92.06
350.492	98.06
350.72	91.06
350.947	105.06
351.174	118.06
351.402	117.06
351.629	116.06
351.856	116.06
352.083	112.06
352.311	106.06
352.538	130.06
352.765	118.06
352.992	131.06
353.22	110.06
353.447	113.06
353.674	116.06
353.901	100.06
354.128	85.06
354.355	99.06
354.583	105.06
354.81	98.06
355.037	99.06
355.264	108.06
355.491	95.06
355.718	89.06
355.945	87.06
356.172	86.06
356.399	87.06
356.626	77.06
356.853	97.06
357.08	97.06
357.307	96.06
357.534	92.06
357.761	81.06
357.988	95.06
358.215	101.06
358.441	96.06
358.668	93.06
358.895	95.06
359.122	101.06
359.349	101.06
359.576	96.06
359.802	121.06
360.029	129.06
360.256	117.06
360.483	108.06
360.709	93.06
360.936	113.06
361.163	108.06
361.39	111.06
361.616	94.06
361.843	102.06
362.07	100.06
362.296	110.06
362.523	110.06
362.749	100.06
362.976	88.06
363.203	92.06
363.429	99.06
363.656	97.06
363.882	95.06
364.109	98.06
364.335	97.06
364.562	99.06
364.788	91.06
365.015	97.06
365.241	118.06
365.468	116.06
365.694	97.06
365.92	100.06
366.147	104.06
366.373	99.06
366.599	86.06
366.826	88.06
367.052	83.06
367.278	96.06
367.505	96.06
367.731	85.06
367.957	94.06
368.184	108.06
368.41	105.06
368.636	117.06
368.862	130.06
369.089	117.06
369.315	116.06
369.541	92.06
369.767	97.06
369.993	98.06
370.219	95.06
370.445	93.06
370.672	77.06
370.898	82.06
371.124	79.06
371.35	89.06
371.576	90.06
371.802	86.06
372.028	87.06
372.254	88.06
372.48	87.06
372.706	82.06
372.932	93.06
373.158	89.06
373.384	107.06
373.61	99.06
373.835	85.06
374.061	95.06
374.287	91.06
374.513	93.06
374.739	85.06
374.965	93.06
375.191	101.06
375.416	95.06
375.642	101.06
375.868	86.06
376.094	110.06
376.319	83.06
376.545	90.06
376.771	69.06
376.997	90.06
377.222	90.06
377.448	99.06
377.674	95.06
377.899	92.06
378.125	89.06
378.35	103.06
378.576	95.06
378.802	89.06
379.027	85.06
379.253	82.06
379.478	86.06
379.704	95.06
379.929	81.06
380.155	90.06
380.38	94.06
380.606	94.06
380.831	79.06
381.057	94.06
381.282	116.06
381.507	100.06
381.733	113.06
381.958	89.06
382.184	99.06
382.409	105.06
382.634	106.06
382.86	109.06
383.085	98.06
383.31	97.06
383.535	95.06
383.761	93.06
383.986	107.06
384.211	111.06
384.436	97.06
384.662	105.06
384.887	106.06
385.112	123.06
385.337	103.06
385.562	107.06
385.787	113.06
386.013	127.06
386.238	120.06
386.463	106.06
386.688	106.06
386.913	105.06
387.138	102.06
387.363	113.06
387.588	95.06
387.813	115.06
388.038	106.06
388.263	105.06
388.488	93.06
388.713	90.06
388.938	86.06
389.163	99.06
389.387	102.06
389.612	82.06
389.837	96.06
390.062	96.06
390.287	99.06
390.512	105.06
390.736	93.06
390.961	86.06
391.186	87.06
391.411	100.06
391.636	92.06
391.86	82.06
392.085	75.06
392.31	89.06
392.534	82.06
392.759	89.06
392.984	90.06
393.208	91.06
393.433	102.06
393.658	82.06
393.882	101.06
394.107	92.06
394.331	93.06
394.556	93.06
394.78	100.06
395.005	86.06
395.229	95.06
395.454	101.06
395.678	87.06
395.903	74.06
396.127	93.06
396.352	93.06
396.576	93.06
396.801	101.06
397.025	81.06
397.249	99.06
397.474	90.06
397.698	69.06
397.922	83.06
398.147	99.06
398.371	94.06
398.595	86.06
398.82	85.06
399.044	92.06
399.268	87.06
399.492	93.06
399.717	89.06
399.941	105.06
400.165	92.06
400.389	101.06
400.613	84.06
400.837	99.06
401.062	91.06
401.286	87.06
401.51	97.06
401.734	105.06
401.958	120.06
402.182	150.06
402.406	201.06
402.63	162.06
402.854	93.06
403.078	95.06
403.302	89.06
403.526	93.06
403.75	88.06
403.974	93.06
404.198	92.06
404.422	95.06
404.645	90.06
404.869	105.06
405.093	107.06
405.317	135.06
405.541	120.06
405.765	116.06
405.988	136.06
406.212	201.06
406.436	312.06
406.66	194.06
406.883	121.06
407.107	95.06
407.331	96.06
407.555	92.06
407.778	99.06
408.002	99.06
408.226	89.06
408.449	92.06
408.673	82.06
408.896	104.06
409.12	111.06
409.344	95.06
409.567	91.06
409.791	112.06
410.014	94.06
410.238	96.06
410.461	93.06
410.685	113.06
410.908	97.06
411.132	95.06
411.355	107.06
411.578	90.06
411.802	91.06
412.025	104.06
412.249	114.06
412.472	107.06
412.695	130.06
412.919	118.06
413.142	95.06
413.365	94.06
413.589	82.06
413.812	107.06
414.035	90.06
414.258	101.06
414.482	90.06
414.705	105.06
414.928	76.06
415.151	106.06
415.374	94.06
415.597	82.06
415.821	92.06
416.044	94.06
416.267	100.06
416.49	83.06
416.713	91.06
416.936	94.06
417.159	102.06
417.382	94.06
417.605	95.06
417.828	113.06
418.051	102.06
418.274	90.06
418.497	89.06
418.72	102.06
418.943	78.06
419.166	100.06
419.389	110.06
419.611	98.06
419.834	101.06
420.057	91.06
420.28	99.06
420.503	94.06
420.726	83.06
420.948	99.06
421.171	108.06
421.394	103.06
421.617	76.06
421.839	86.06
422.062	97.06
422.285	89.06
422.507	106.06
422.73	112.06
422.953	87.06
423.175	102.06
423.398	97.06
423.621	96.06
423.843	98.06
424.066	95.06
424.288	100.06
424.511	90.06
424.733	91.06
424.956	122.06
425.178	95.06
425.401	97.06
425.623	122.06
425.846	89.06
426.068	105.06
426.291	83.06
426.513	81.06
426.735	97.06
426.958	117.06
427.18	133.06
427.402	148.06
427.625	232.06
427.847	199.06
428.069	166.06
428.292	113.06
428.514	99.06
428.736	81.06
428.958	99.06
429.181	95.06
429.403	101.06
429.625	93.06
429.847	93.06
430.069	113.06
430.292	88.06
430.514	100.06
430.736	93.06
430.958	96.06
431.18	81.06
431.402	78.06
431.624	84.06
431.846	79.06
432.068	99.06
432.29	99.06
432.512	75.06
432.734	94.06
432.956	100.06
433.178	112.06
433.4	87.06
433.622	106.06
433.844	88.06
434.066	91.06
434.287	90.06
434.509	110.06
434.731	96.06
434.953	93.06
435.175	86.06
435.397	104.06
435.618	93.06
435.84	107.06
436.062	134.06
436.284	135.06
436.505	101.06
436.727	109.06
436.949	93.06
437.17	88.06
437.392	78.06
437.614	95.06
437.835	115.06
438.057	120.06
438.278	120.06
438.5	112.06
438.721	123.06
438.943	95.06
439.165	102.06
439.386	91.06
439.608	95.06
439.829	113.06
440.05	137.06
440.272	151.06
440.493	105.06
440.715	82.06
440.936	94.06
441.158	91.06
441.379	103.06
441.6	99.06
441.822	99.06
442.043	98.06
442.264	111.06
442.486	107.06
442.707	98.06
442.928	123.06
443.149	161.06
443.371	157.06
443.592	113.06
443.813	122.06
444.034	114.06
444.255	101.06
444.476	92.06
444.698	95.06
444.919	87.06
445.14	137.06
445.361	131.06
445.582	105.06
445.803	170.06
446.024	164.06
446.245	140.06
446.466	131.06
446.687	90.06
446.908	91.06
447.129	98.06
447.35	98.06
447.571	75.06
447.792	99.06
448.013	106.06
448.234	113.06
448.455	116.06
448.675	119.06
448.896	114.06
449.117	105.06
449.338	98.06
449.559	128.06
449.779	163.06
450	112.06
450.221	85.06
450.442	100.06
450.662	98.06
450.883	126.06
451.104	119.06
451.324	106.06
451.545	90.06
451.766	100.06
451.986	85.06
452.207	86.06
452.428	83.06
452.648	120.06
452.869	126.06
453.089	114.06
453.31	129.06
453.53	108.06
453.751	91.06
453.971	113.06
454.192	124.06
454.412	105.06
454.633	87.06
454.853	92.06
455.073	81.06
455.294	86.06
455.514	101.06
455.734	111.06
455.955	87.06
456.175	96.06
456.395	93.06
456.616	86.06
456.836	89.06
457.056	92.06
457.276	95.06
457.497	85.06
457.717	84.06
457.937	92.06
458.157	95.06
458.377	101.06
458.598	118.06
458.818	198.06
459.038	211.06
459.258	133.06
459.478	114.06
459.698	87.06
459.918	87.06
460.138	90.06
460.358	87.06
460.578	97.06
460.798	93.06
461.018	77.06
461.238	82.06
461.458	81.06
461.678	86.06
461.898	94.06
462.118	84.06
462.338	79.06
462.558	92.06
462.777	86.06
462.997	75.06
463.217	108.06
463.437	84.06
463.657	85.06
463.876	90.06
464.096	113.06
464.316	109.06
464.536	103.06
464.755	105.06
464.975	120.06
465.195	209.06
465.414	213.06
465.634	104.06
465.854	94.06
466.073	105.06
466.293	86.06
466.512	93.06
466.732	83.06
466.951	89.06
467.171	90.06
467.391	110.06
467.61	123.06
467.829	163.06
468.049	323.06
468.268	465.06
468.488	158.06
468.707	108.06
468.927	100.06
469.146	82.06
469.365	105.06
469.585	107.06
469.804	115.06
470.023	100.06
470.243	99.06
470.462	114.06
470.681	131.06
470.901	95.06
471.12	91.06
471.339	100.06
471.558	90.06
471.777	123.06
471.997	202.06
472.216	606.06
472.435	1315.06
472.654	341.06
472.873	129.06
473.092	93.06
473.311	92.06
473.53	94.06
473.749	96.06
473.968	97.06
474.187	126.06
474.406	89.06
474.625	96.06
474.844	73.06
475.063	84.06
475.282	98.06
475.501	78.06
475.72	88.06
475.939	99.06
476.158	92.06
476.377	86.06
476.596	99.06
476.814	107.06
477.033	95.06
477.252	95.06
477.471	82.06
477.69	91.06
477.908	88.06
478.127	77.06
478.346	94.06
478.564	98.06
478.783	106.06
479.002	113.06
479.22	105.06
479.439	122.06
479.658	117.06
479.876	106.06
480.095	114.06
480.313	107.06
480.532	126.06
480.751	203.06
480.969	573.06
481.188	2238.06
481.406	1352.06
481.624	243.06
481.843	108.06
482.061	113.06
482.28	86.06
482.498	98.06
482.717	88.06
482.935	111.06
483.153	95.06
483.372	93.06
483.59	86.06
483.808	105.06
484.027	85.06
484.245	87.06
484.463	81.06
484.681	87.06
484.9	107.06
485.118	90.06
485.336	110.06
485.554	109.06
485.772	103.06
485.99	113.06
486.209	113.06
486.427	107.06
486.645	125.06
486.863	134.06
487.081	115.06
487.299	93.06
487.517	94.06
487.735	102.06
487.953	101.06
488.171	90.06
488.389	101.06
488.607	101.06
488.825	106.06
489.043	87.06
489.261	94.06
489.479	100.06
489.696	85.06
489.914	94.06
490.132	79.06
490.35	99.06
490.568	87.06
490.786	92.06
491.003	99.06
491.221	102.06
491.439	93.06
491.657	93.06
491.874	103.06
492.092	89.06
492.31	87.06
492.527	94.06
492.745	74.06
492.963	96.06
493.18	94.06
493.398	100.06
493.615	94.06
493.833	99.06
494.05	93.06
494.268	92.06
494.485	95.06
494.703	93.06
494.92	79.06
495.138	71.06
495.355	90.06
495.573	101.06
495.79	94.06
496.008	89.06
496.225	95.06
496.442	92.06
496.66	112.06
496.877	86.06
497.094	89.06
497.312	89.06
497.529	102.06
497.746	113.06
497.963	90.06
498.181	99.06
498.398	98.06
498.615	129.06
498.832	108.06
499.049	92.06
499.267	101.06
499.484	94.06
499.701	94.06
499.918	110.06
500.135	83.06
500.352	85.06
500.569	77.06
500.786	96.06
501.003	83.06
501.22	92.06
501.437	105.06
501.654	101.06
501.871	110.06
502.088	97.06
502.305	99.06
502.522	86.06
502.739	93.06
502.956	91.06
503.172	104.06
503.389	108.06
503.606	124.06
503.823	106.06
504.04	90.06
504.256	76.06
504.473	89.06
504.69	105.06
504.907	77.06
505.123	101.06
505.34	88.06
505.557	75.06
505.773	90.06
505.99	90.06
506.207	95.06
506.423	98.06
506.64	99.06
506.856	94.06
507.073	98.06
507.289	115.06
507.506	105.06
507.722	119.06
507.939	137.06
508.155	99.06
508.372	94.06
508.588	91.06
508.805	101.06
509.021	95.06
509.238	104.06
509.454	114.06
509.67	113.06
509.887	110.06
510.103	135.06
510.319	248.06
510.536	927.06
510.752	3173.06
510.968	867.06
511.184	188.06
511.401	131.06
511.617	92.06
511.833	107.06
512.049	88.06
512.265	106.06
512.481	85.06
512.698	90.06
512.914	103.06
513.13	82.06
