Data from Circ_2000_H10_HRD10591_00049.txt Node
Date: Wed Jan 03 10:49:43 EST 2024
User: Yrep
Spectrometer: HR+D1059
Trigger mode: 1
Integration Time (sec): 1.000000E-1
Scans to average: 1
Electric dark correction enabled: true
Nonlinearity correction enabled: false
Boxcar width: 0
XAxis mode: Wavelengths
Number of Pixels in Spectrum: 2048
>>>>>Begin Spectral Data<<<<<
223.165	-13.25
223.4	-13.25
223.635	-13.25
223.869	-20.25
224.104	-15.25
224.338	-25.25
224.573	-20.25
224.808	-14.25
225.042	-7.25
225.277	-7.25
225.511	-2.25
225.746	11.75
225.98	10.75
226.215	5.75
226.449	16.75
226.683	31.75
226.918	17.75
227.152	30.75
227.387	23.75
227.621	21.75
227.856	38.75
228.09	53.75
228.324	57.75
228.559	56.75
228.793	51.75
229.027	58.75
229.262	68.75
229.496	69.75
229.73	107.75
229.964	97.75
230.199	75.75
230.433	71.75
230.667	93.75
230.901	87.75
231.136	88.75
231.37	87.75
231.604	85.75
231.838	89.75
232.072	90.75
232.306	84.75
232.541	84.75
232.775	95.75
233.009	83.75
233.243	77.75
233.477	82.75
233.711	97.75
233.945	89.75
234.179	88.75
234.413	87.75
234.647	73.75
234.881	85.75
235.115	87.75
235.349	81.75
235.583	90.75
235.817	88.75
236.051	81.75
236.285	75.75
236.519	72.75
236.753	84.75
236.987	97.75
237.221	81.75
237.455	88.75
237.689	79.75
237.922	82.75
238.156	80.75
238.39	70.75
238.624	85.75
238.858	81.75
239.091	79.75
239.325	68.75
239.559	89.75
239.793	79.75
240.027	90.75
240.26	91.75
240.494	87.75
240.728	63.75
240.961	77.75
241.195	94.75
241.429	89.75
241.662	70.75
241.896	75.75
242.13	72.75
242.363	80.75
242.597	79.75
242.83	71.75
243.064	61.75
243.298	79.75
243.531	84.75
243.765	84.75
243.998	78.75
244.232	81.75
244.465	75.75
244.699	90.75
244.932	81.75
245.166	75.75
245.399	80.75
245.633	83.75
245.866	74.75
246.099	75.75
246.333	69.75
246.566	77.75
246.8	65.75
247.033	74.75
247.266	75.75
247.5	92.75
247.733	76.75
247.966	69.75
248.2	72.75
248.433	75.75
248.666	79.75
248.899	83.75
249.133	93.75
249.366	93.75
249.599	109.75
249.832	76.75
250.066	92.75
250.299	84.75
250.532	88.75
250.765	85.75
250.998	81.75
251.231	85.75
251.465	84.75
251.698	90.75
251.931	73.75
252.164	84.75
252.397	90.75
252.63	70.75
252.863	70.75
253.096	88.75
253.329	82.75
253.562	73.75
253.795	62.75
254.028	79.75
254.261	73.75
254.494	79.75
254.727	87.75
254.96	85.75
255.193	83.75
255.426	82.75
255.659	91.75
255.892	85.75
256.124	81.75
256.357	74.75
256.59	92.75
256.823	81.75
257.056	73.75
257.289	87.75
257.521	90.75
257.754	84.75
257.987	76.75
258.22	92.75
258.452	85.75
258.685	95.75
258.918	69.75
259.151	82.75
259.383	96.75
259.616	85.75
259.849	86.75
260.081	90.75
260.314	84.75
260.547	96.75
260.779	92.75
261.012	97.75
261.244	103.75
261.477	103.75
261.71	84.75
261.942	123.75
262.175	134.75
262.407	93.75
262.64	76.75
262.872	91.75
263.105	95.75
263.337	77.75
263.57	79.75
263.802	79.75
264.035	76.75
264.267	72.75
264.499	73.75
264.732	77.75
264.964	91.75
265.197	86.75
265.429	88.75
265.661	79.75
265.894	82.75
266.126	89.75
266.358	89.75
266.591	87.75
266.823	74.75
267.055	83.75
267.287	84.75
267.52	76.75
267.752	79.75
267.984	89.75
268.216	73.75
268.448	80.75
268.681	87.75
268.913	90.75
269.145	84.75
269.377	89.75
269.609	85.75
269.841	78.75
270.073	85.75
270.306	95.75
270.538	84.75
270.77	68.75
271.002	75.75
271.234	83.75
271.466	97.75
271.698	82.75
271.93	91.75
272.162	89.75
272.394	87.75
272.626	85.75
272.858	99.75
273.09	80.75
273.322	92.75
273.553	84.75
273.785	80.75
274.017	94.75
274.249	92.75
274.481	97.75
274.713	92.75
274.945	74.75
275.176	76.75
275.408	90.75
275.64	99.75
275.872	100.75
276.104	92.75
276.335	83.75
276.567	118.75
276.799	123.75
277.031	142.75
277.262	128.75
277.494	137.75
277.726	88.75
277.957	87.75
278.189	90.75
278.421	87.75
278.652	104.75
278.884	93.75
279.115	76.75
279.347	72.75
279.579	100.75
279.81	98.75
280.042	135.75
280.273	161.75
280.505	124.75
280.736	91.75
280.968	86.75
281.199	88.75
281.431	81.75
281.662	92.75
281.894	100.75
282.125	112.75
282.356	121.75
282.588	163.75
282.819	122.75
283.051	87.75
283.282	89.75
283.513	94.75
283.745	81.75
283.976	80.75
284.207	80.75
284.439	76.75
284.67	86.75
284.901	86.75
285.132	74.75
285.364	91.75
285.595	79.75
285.826	82.75
286.057	97.75
286.288	84.75
286.52	99.75
286.751	89.75
286.982	77.75
287.213	95.75
287.444	84.75
287.675	97.75
287.906	75.75
288.138	89.75
288.369	93.75
288.6	87.75
288.831	77.75
289.062	83.75
289.293	71.75
289.524	104.75
289.755	88.75
289.986	83.75
290.217	86.75
290.448	87.75
290.679	83.75
290.91	98.75
291.141	85.75
291.371	85.75
291.602	97.75
291.833	90.75
292.064	98.75
292.295	80.75
292.526	86.75
292.757	83.75
292.987	93.75
293.218	83.75
293.449	85.75
293.68	90.75
293.91	94.75
294.141	88.75
294.372	90.75
294.603	86.75
294.833	92.75
295.064	85.75
295.295	90.75
295.525	88.75
295.756	109.75
295.987	126.75
296.217	159.75
296.448	139.75
296.679	96.75
296.909	88.75
297.14	94.75
297.37	91.75
297.601	95.75
297.831	87.75
298.062	82.75
298.292	92.75
298.523	80.75
298.753	100.75
298.984	105.75
299.214	76.75
299.445	87.75
299.675	85.75
299.905	96.75
300.136	102.75
300.366	100.75
300.597	92.75
300.827	87.75
301.057	99.75
301.288	92.75
301.518	97.75
301.748	89.75
301.979	119.75
302.209	108.75
302.439	96.75
302.669	92.75
302.9	95.75
303.13	92.75
303.36	92.75
303.59	113.75
303.82	112.75
304.051	106.75
304.281	92.75
304.511	79.75
304.741	80.75
304.971	77.75
305.201	88.75
305.431	90.75
305.661	82.75
305.891	80.75
306.121	95.75
306.352	103.75
306.582	103.75
306.812	108.75
307.042	108.75
307.272	116.75
307.502	130.75
307.731	137.75
307.961	123.75
308.191	100.75
308.421	97.75
308.651	91.75
308.881	106.75
309.111	96.75
309.341	94.75
309.571	83.75
309.8	104.75
310.03	101.75
310.26	114.75
310.49	99.75
310.72	116.75
310.949	119.75
311.179	97.75
311.409	92.75
311.639	100.75
311.868	101.75
312.098	83.75
312.328	104.75
312.557	118.75
312.787	117.75
313.017	105.75
313.246	96.75
313.476	103.75
313.706	80.75
313.935	107.75
314.165	103.75
314.394	115.75
314.624	92.75
314.853	93.75
315.083	90.75
315.312	88.75
315.542	83.75
315.771	106.75
316.001	82.75
316.23	89.75
316.46	85.75
316.689	92.75
316.919	98.75
317.148	93.75
317.377	93.75
317.607	103.75
317.836	92.75
318.065	85.75
318.295	99.75
318.524	90.75
318.753	96.75
318.983	93.75
319.212	113.75
319.441	118.75
319.67	106.75
319.9	85.75
320.129	74.75
320.358	105.75
320.587	104.75
320.816	102.75
321.046	91.75
321.275	98.75
321.504	88.75
321.733	107.75
321.962	98.75
322.191	96.75
322.42	115.75
322.649	118.75
322.878	110.75
323.108	129.75
323.337	148.75
323.566	140.75
323.795	181.75
324.024	230.75
324.253	464.75
324.482	963.75
324.71	2000.75
324.939	2620.75
325.168	988.75
325.397	272.75
325.626	157.75
325.855	125.75
326.084	150.75
326.313	151.75
326.542	172.75
326.77	258.75
326.999	508.75
327.228	1081.75
327.457	2017.75
327.686	1571.75
327.914	481.75
328.143	371.75
328.372	421.75
328.6	255.75
328.829	162.75
329.058	179.75
329.287	177.75
329.515	163.75
329.744	196.75
329.972	298.75
330.201	540.75
330.43	803.75
330.658	415.75
330.887	237.75
331.115	161.75
331.344	112.75
331.572	110.75
331.801	120.75
332.03	114.75
332.258	109.75
332.486	96.75
332.715	102.75
332.943	104.75
333.172	119.75
333.4	112.75
333.629	127.75
333.857	184.75
334.085	296.75
334.314	524.75
334.542	992.75
334.771	957.75
334.999	270.75
335.227	133.75
335.455	131.75
335.684	110.75
335.912	97.75
336.14	113.75
336.369	109.75
336.597	120.75
336.825	95.75
337.053	99.75
337.281	108.75
337.51	96.75
337.738	95.75
337.966	95.75
338.194	104.75
338.422	107.75
338.65	104.75
338.878	98.75
339.106	83.75
339.334	100.75
339.562	99.75
339.79	87.75
340.018	103.75
340.246	105.75
340.474	111.75
340.702	105.75
340.93	91.75
341.158	89.75
341.386	108.75
341.614	108.75
341.842	101.75
342.07	106.75
342.298	90.75
342.526	96.75
342.754	82.75
342.981	93.75
343.209	92.75
343.437	90.75
343.665	98.75
343.893	88.75
344.12	93.75
344.348	92.75
344.576	93.75
344.804	89.75
345.031	116.75
345.259	102.75
345.487	100.75
345.714	93.75
345.942	95.75
346.17	97.75
346.397	97.75
346.625	89.75
346.853	102.75
347.08	101.75
347.308	94.75
347.535	105.75
347.763	100.75
347.99	93.75
348.218	125.75
348.445	113.75
348.673	113.75
348.9	106.75
349.128	87.75
349.355	100.75
349.583	92.75
349.81	85.75
350.037	103.75
350.265	107.75
350.492	108.75
350.72	106.75
350.947	99.75
351.174	124.75
351.402	117.75
351.629	112.75
351.856	93.75
352.083	101.75
352.311	106.75
352.538	109.75
352.765	122.75
352.992	113.75
353.22	118.75
353.447	116.75
353.674	102.75
353.901	112.75
354.128	100.75
354.355	99.75
354.583	92.75
354.81	98.75
355.037	97.75
355.264	93.75
355.491	91.75
355.718	100.75
355.945	91.75
356.172	80.75
356.399	94.75
356.626	96.75
356.853	87.75
357.08	89.75
357.307	88.75
357.534	86.75
357.761	101.75
357.988	108.75
358.215	101.75
358.441	97.75
358.668	77.75
358.895	90.75
359.122	104.75
359.349	84.75
359.576	93.75
359.802	108.75
360.029	124.75
360.256	118.75
360.483	103.75
360.709	89.75
360.936	105.75
361.163	107.75
361.39	109.75
361.616	100.75
361.843	91.75
362.07	99.75
362.296	115.75
362.523	97.75
362.749	105.75
362.976	101.75
363.203	85.75
363.429	97.75
363.656	96.75
363.882	104.75
364.109	98.75
364.335	96.75
364.562	79.75
364.788	81.75
365.015	107.75
365.241	109.75
365.468	113.75
365.694	116.75
365.92	103.75
366.147	87.75
366.373	99.75
366.599	93.75
366.826	92.75
367.052	99.75
367.278	105.75
367.505	103.75
367.731	109.75
367.957	105.75
368.184	106.75
368.41	120.75
368.636	119.75
368.862	143.75
369.089	108.75
369.315	93.75
369.541	109.75
369.767	91.75
369.993	92.75
370.219	93.75
370.445	74.75
370.672	69.75
370.898	75.75
371.124	93.75
371.35	92.75
371.576	87.75
371.802	81.75
372.028	95.75
372.254	79.75
372.48	81.75
372.706	87.75
372.932	87.75
373.158	77.75
373.384	88.75
373.61	97.75
373.835	92.75
374.061	85.75
374.287	86.75
374.513	74.75
374.739	92.75
374.965	83.75
375.191	94.75
375.416	92.75
375.642	79.75
375.868	93.75
376.094	87.75
376.319	87.75
376.545	97.75
376.771	89.75
376.997	98.75
377.222	86.75
377.448	99.75
377.674	97.75
377.899	105.75
378.125	97.75
378.35	95.75
378.576	104.75
378.802	88.75
379.027	105.75
379.253	95.75
379.478	98.75
379.704	99.75
379.929	102.75
380.155	84.75
380.38	106.75
380.606	101.75
380.831	94.75
381.057	93.75
381.282	82.75
381.507	100.75
381.733	92.75
381.958	81.75
382.184	105.75
382.409	109.75
382.634	101.75
382.86	88.75
383.085	101.75
383.31	117.75
383.535	102.75
383.761	86.75
383.986	102.75
384.211	80.75
384.436	92.75
384.662	100.75
384.887	93.75
385.112	96.75
385.337	105.75
385.562	100.75
385.787	100.75
386.013	108.75
386.238	112.75
386.463	107.75
386.688	105.75
386.913	101.75
387.138	107.75
387.363	99.75
387.588	102.75
387.813	88.75
388.038	95.75
388.263	94.75
388.488	109.75
388.713	82.75
388.938	97.75
389.163	90.75
389.387	91.75
389.612	89.75
389.837	98.75
390.062	85.75
390.287	87.75
390.512	99.75
390.736	86.75
390.961	87.75
391.186	84.75
391.411	87.75
391.636	90.75
391.86	96.75
392.085	97.75
392.31	68.75
392.534	71.75
392.759	83.75
392.984	96.75
393.208	92.75
393.433	71.75
393.658	84.75
393.882	84.75
394.107	82.75
394.331	90.75
394.556	96.75
394.78	88.75
395.005	83.75
395.229	88.75
395.454	83.75
395.678	88.75
395.903	85.75
396.127	79.75
396.352	73.75
396.576	85.75
396.801	86.75
397.025	88.75
397.249	90.75
397.474	94.75
397.698	98.75
397.922	88.75
398.147	68.75
398.371	80.75
398.595	96.75
398.82	88.75
399.044	83.75
399.268	86.75
399.492	101.75
399.717	87.75
399.941	81.75
400.165	103.75
400.389	97.75
400.613	84.75
400.837	110.75
401.062	91.75
401.286	91.75
401.51	100.75
401.734	99.75
401.958	91.75
402.182	130.75
402.406	188.75
402.63	131.75
402.854	103.75
403.078	109.75
403.302	75.75
403.526	93.75
403.75	99.75
403.974	86.75
404.198	99.75
404.422	104.75
404.645	90.75
404.869	107.75
405.093	122.75
405.317	137.75
405.541	137.75
405.765	115.75
405.988	131.75
406.212	192.75
406.436	289.75
406.66	176.75
406.883	112.75
407.107	104.75
407.331	98.75
407.555	116.75
407.778	101.75
408.002	96.75
408.226	76.75
408.449	95.75
408.673	103.75
408.896	97.75
409.12	98.75
409.344	93.75
409.567	82.75
409.791	82.75
410.014	86.75
410.238	101.75
410.461	104.75
410.685	98.75
410.908	90.75
411.132	117.75
411.355	85.75
411.578	81.75
411.802	89.75
412.025	93.75
412.249	82.75
412.472	108.75
412.695	121.75
412.919	86.75
413.142	98.75
413.365	92.75
413.589	83.75
413.812	92.75
414.035	86.75
414.258	84.75
414.482	95.75
414.705	99.75
414.928	80.75
415.151	96.75
415.374	90.75
415.597	100.75
415.821	77.75
416.044	89.75
416.267	84.75
416.49	91.75
416.713	83.75
416.936	91.75
417.159	80.75
417.382	96.75
417.605	104.75
417.828	105.75
418.051	99.75
418.274	90.75
418.497	92.75
418.72	98.75
418.943	91.75
419.166	97.75
419.389	84.75
419.611	92.75
419.834	89.75
420.057	91.75
420.28	93.75
420.503	100.75
420.726	90.75
420.948	89.75
421.171	93.75
421.394	100.75
421.617	93.75
421.839	74.75
422.062	83.75
422.285	79.75
422.507	94.75
422.73	119.75
422.953	101.75
423.175	80.75
423.398	88.75
423.621	89.75
423.843	91.75
424.066	87.75
424.288	99.75
424.511	103.75
424.733	112.75
424.956	120.75
425.178	114.75
425.401	104.75
425.623	113.75
425.846	99.75
426.068	106.75
426.291	79.75
426.513	83.75
426.735	83.75
426.958	104.75
427.18	116.75
427.402	179.75
427.625	234.75
427.847	211.75
428.069	170.75
428.292	99.75
428.514	96.75
428.736	93.75
428.958	95.75
429.181	80.75
429.403	82.75
429.625	93.75
429.847	105.75
430.069	99.75
430.292	108.75
430.514	93.75
430.736	99.75
430.958	90.75
431.18	74.75
431.402	78.75
431.624	100.75
431.846	97.75
432.068	90.75
432.29	88.75
432.512	83.75
432.734	88.75
432.956	95.75
433.178	96.75
433.4	104.75
433.622	88.75
433.844	90.75
434.066	105.75
434.287	80.75
434.509	101.75
434.731	89.75
434.953	87.75
435.175	96.75
435.397	99.75
435.618	89.75
435.84	119.75
436.062	129.75
436.284	117.75
436.505	104.75
436.727	100.75
436.949	90.75
437.17	83.75
437.392	87.75
437.614	93.75
437.835	114.75
438.057	151.75
438.278	124.75
438.5	113.75
438.721	141.75
438.943	114.75
439.165	75.75
439.386	79.75
439.608	97.75
439.829	123.75
440.05	150.75
440.272	176.75
440.493	105.75
440.715	100.75
440.936	93.75
441.158	103.75
441.379	83.75
441.6	92.75
441.822	108.75
442.043	107.75
442.264	118.75
442.486	109.75
442.707	91.75
442.928	124.75
443.149	159.75
443.371	164.75
443.592	135.75
443.813	119.75
444.034	124.75
444.255	96.75
444.476	95.75
444.698	82.75
444.919	95.75
445.14	129.75
445.361	124.75
445.582	121.75
445.803	173.75
446.024	161.75
446.245	171.75
446.466	119.75
446.687	85.75
446.908	92.75
447.129	88.75
447.35	80.75
447.571	98.75
447.792	100.75
448.013	102.75
448.234	108.75
448.455	100.75
448.675	121.75
448.896	129.75
449.117	101.75
449.338	108.75
449.559	129.75
449.779	167.75
450	101.75
450.221	88.75
450.442	84.75
450.662	95.75
450.883	120.75
451.104	146.75
451.324	102.75
451.545	83.75
451.766	88.75
451.986	84.75
452.207	85.75
452.428	110.75
452.648	106.75
452.869	112.75
453.089	112.75
453.31	131.75
453.53	110.75
453.751	104.75
453.971	105.75
454.192	119.75
454.412	119.75
454.633	92.75
454.853	85.75
455.073	96.75
455.294	88.75
455.514	94.75
455.734	92.75
455.955	78.75
456.175	79.75
456.395	87.75
456.616	94.75
456.836	93.75
457.056	97.75
457.276	85.75
457.497	88.75
457.717	84.75
457.937	84.75
458.157	73.75
458.377	88.75
458.598	99.75
458.818	204.75
459.038	206.75
459.258	150.75
459.478	104.75
459.698	98.75
459.918	71.75
460.138	71.75
460.358	80.75
460.578	88.75
460.798	92.75
461.018	77.75
461.238	80.75
461.458	86.75
461.678	72.75
461.898	90.75
462.118	85.75
462.338	65.75
462.558	77.75
462.777	74.75
462.997	104.75
463.217	108.75
463.437	89.75
463.657	87.75
463.876	79.75
464.096	78.75
464.316	111.75
464.536	97.75
464.755	94.75
464.975	106.75
465.195	211.75
465.414	231.75
465.634	96.75
465.854	89.75
466.073	87.75
466.293	77.75
466.512	84.75
466.732	93.75
466.951	83.75
467.171	88.75
467.391	93.75
467.61	122.75
467.829	162.75
468.049	331.75
468.268	476.75
468.488	158.75
468.707	103.75
468.927	98.75
469.146	106.75
469.365	85.75
469.585	85.75
469.804	110.75
470.023	111.75
470.243	104.75
470.462	120.75
470.681	121.75
470.901	105.75
471.12	104.75
471.339	102.75
471.558	98.75
471.777	116.75
471.997	192.75
472.216	593.75
472.435	1326.75
472.654	348.75
472.873	121.75
473.092	89.75
473.311	93.75
473.53	84.75
473.749	102.75
473.968	110.75
474.187	129.75
474.406	122.75
474.625	96.75
474.844	93.75
475.063	92.75
475.282	74.75
475.501	89.75
475.72	90.75
475.939	69.75
476.158	95.75
476.377	87.75
476.596	90.75
476.814	92.75
477.033	108.75
477.252	90.75
477.471	78.75
477.69	87.75
477.908	85.75
478.127	92.75
478.346	95.75
478.564	85.75
478.783	99.75
479.002	95.75
479.22	95.75
479.439	111.75
479.658	138.75
479.876	127.75
480.095	92.75
480.313	119.75
480.532	135.75
480.751	192.75
480.969	546.75
481.188	2316.75
481.406	1374.75
481.624	236.75
481.843	108.75
482.061	96.75
482.28	103.75
482.498	84.75
482.717	83.75
482.935	83.75
483.153	92.75
483.372	93.75
483.59	108.75
483.808	88.75
484.027	96.75
484.245	80.75
484.463	90.75
484.681	100.75
484.9	89.75
485.118	98.75
485.336	100.75
485.554	101.75
485.772	92.75
485.99	111.75
486.209	119.75
486.427	98.75
486.645	122.75
486.863	113.75
487.081	102.75
487.299	108.75
487.517	92.75
487.735	103.75
487.953	97.75
488.171	85.75
488.389	83.75
488.607	91.75
488.825	102.75
489.043	94.75
489.261	98.75
489.479	69.75
489.696	83.75
489.914	82.75
490.132	86.75
490.35	94.75
490.568	91.75
490.786	92.75
491.003	100.75
491.221	81.75
491.439	88.75
491.657	86.75
491.874	88.75
492.092	99.75
492.31	93.75
492.527	83.75
492.745	100.75
492.963	94.75
493.18	81.75
493.398	106.75
493.615	103.75
493.833	84.75
494.05	87.75
494.268	87.75
494.485	83.75
494.703	88.75
494.92	85.75
495.138	89.75
495.355	100.75
495.573	97.75
495.79	88.75
496.008	85.75
496.225	79.75
496.442	89.75
496.66	89.75
496.877	93.75
497.094	98.75
497.312	96.75
497.529	89.75
497.746	89.75
497.963	88.75
498.181	93.75
498.398	98.75
498.615	117.75
498.832	114.75
499.049	79.75
499.267	97.75
499.484	104.75
499.701	90.75
499.918	94.75
500.135	90.75
500.352	79.75
500.569	85.75
500.786	72.75
501.003	100.75
501.22	108.75
501.437	85.75
501.654	99.75
501.871	116.75
502.088	100.75
502.305	87.75
502.522	91.75
502.739	99.75
502.956	95.75
503.172	103.75
503.389	89.75
503.606	119.75
503.823	109.75
504.04	93.75
504.256	88.75
504.473	92.75
504.69	86.75
504.907	91.75
505.123	97.75
505.34	76.75
505.557	97.75
505.773	88.75
505.99	74.75
506.207	81.75
506.423	88.75
506.64	95.75
506.856	86.75
507.073	94.75
507.289	99.75
507.506	108.75
507.722	119.75
507.939	123.75
508.155	96.75
508.372	101.75
508.588	82.75
508.805	99.75
509.021	100.75
509.238	100.75
509.454	87.75
509.67	106.75
509.887	132.75
510.103	153.75
510.319	220.75
510.536	865.75
510.752	2933.75
510.968	789.75
511.184	162.75
511.401	113.75
511.617	103.75
511.833	96.75
512.049	107.75
512.265	86.75
512.481	84.75
512.698	101.75
512.914	105.75
513.13	99.75
513.346	77.75
513.562	96.75
513.778	88.75
