Data from Circ_2000_H10_HRD10591_00068.txt Node
Date: Wed Jan 03 10:49:47 EST 2024
User: Yrep
Spectrometer: HR+D1059
Trigger mode: 1
Integration Time (sec): 1.000000E-1
Scans to average: 1
Electric dark correction enabled: true
Nonlinearity correction enabled: false
Boxcar width: 0
XAxis mode: Wavelengths
Number of Pixels in Spectrum: 2048
>>>>>Begin Spectral Data<<<<<
223.165	-19.75
223.4	-19.75
223.635	-19.75
223.869	-23.75
224.104	-15.75
224.338	-15.75
224.573	-17.75
224.808	-11.75
225.042	-11.75
225.277	-2.75
225.511	-2.75
225.746	5.25
225.98	10.25
226.215	1.25
226.449	14.25
226.683	26.25
226.918	30.25
227.152	34.25
227.387	52.25
227.621	40.25
227.856	32.25
228.09	42.25
228.324	50.25
228.559	56.25
228.793	60.25
229.027	84.25
229.262	70.25
229.496	74.25
229.73	104.25
229.964	82.25
230.199	73.25
230.433	78.25
230.667	87.25
230.901	97.25
231.136	79.25
231.37	81.25
231.604	76.25
231.838	85.25
232.072	84.25
232.306	87.25
232.541	81.25
232.775	85.25
233.009	90.25
233.243	91.25
233.477	68.25
233.711	61.25
233.945	82.25
234.179	87.25
234.413	90.25
234.647	99.25
234.881	78.25
235.115	67.25
235.349	83.25
235.583	88.25
235.817	79.25
236.051	80.25
236.285	79.25
236.519	60.25
236.753	81.25
236.987	80.25
237.221	99.25
237.455	78.25
237.689	81.25
237.922	90.25
238.156	67.25
238.39	68.25
238.624	84.25
238.858	79.25
239.091	79.25
239.325	90.25
239.559	86.25
239.793	77.25
240.027	87.25
240.26	84.25
240.494	70.25
240.728	79.25
240.961	85.25
241.195	80.25
241.429	88.25
241.662	88.25
241.896	85.25
242.13	77.25
242.363	86.25
242.597	65.25
242.83	73.25
243.064	94.25
243.298	75.25
243.531	55.25
243.765	72.25
243.998	87.25
244.232	90.25
244.465	90.25
244.699	84.25
244.932	66.25
245.166	81.25
245.399	80.25
245.633	69.25
245.866	77.25
246.099	75.25
246.333	76.25
246.566	73.25
246.8	92.25
247.033	78.25
247.266	77.25
247.5	84.25
247.733	82.25
247.966	80.25
248.2	80.25
248.433	75.25
248.666	72.25
248.899	84.25
249.133	86.25
249.366	86.25
249.599	99.25
249.832	91.25
250.066	85.25
250.299	100.25
250.532	102.25
250.765	91.25
250.998	81.25
251.231	77.25
251.465	87.25
251.698	76.25
251.931	78.25
252.164	72.25
252.397	84.25
252.63	94.25
252.863	81.25
253.096	86.25
253.329	81.25
253.562	83.25
253.795	75.25
254.028	86.25
254.261	87.25
254.494	76.25
254.727	85.25
254.96	74.25
255.193	81.25
255.426	75.25
255.659	86.25
255.892	93.25
256.124	97.25
256.357	106.25
256.59	80.25
256.823	94.25
257.056	101.25
257.289	92.25
257.521	100.25
257.754	86.25
257.987	81.25
258.22	83.25
258.452	80.25
258.685	87.25
258.918	84.25
259.151	95.25
259.383	82.25
259.616	80.25
259.849	100.25
260.081	93.25
260.314	79.25
260.547	87.25
260.779	77.25
261.012	118.25
261.244	103.25
261.477	110.25
261.71	110.25
261.942	153.25
262.175	149.25
262.407	98.25
262.64	101.25
262.872	78.25
263.105	99.25
263.337	76.25
263.57	69.25
263.802	70.25
264.035	76.25
264.267	82.25
264.499	70.25
264.732	87.25
264.964	79.25
265.197	104.25
265.429	86.25
265.661	84.25
265.894	95.25
266.126	76.25
266.358	93.25
266.591	85.25
266.823	86.25
267.055	96.25
267.287	88.25
267.52	81.25
267.752	76.25
267.984	90.25
268.216	100.25
268.448	94.25
268.681	81.25
268.913	78.25
269.145	88.25
269.377	95.25
269.609	68.25
269.841	88.25
270.073	94.25
270.306	85.25
270.538	100.25
270.77	74.25
271.002	62.25
271.234	92.25
271.466	107.25
271.698	102.25
271.93	81.25
272.162	91.25
272.394	108.25
272.626	90.25
272.858	75.25
273.09	90.25
273.322	87.25
273.553	80.25
273.785	88.25
274.017	85.25
274.249	101.25
274.481	89.25
274.713	91.25
274.945	97.25
275.176	95.25
275.408	107.25
275.64	97.25
275.872	116.25
276.104	112.25
276.335	108.25
276.567	138.25
276.799	157.25
277.031	163.25
277.262	188.25
277.494	138.25
277.726	95.25
277.957	89.25
278.189	97.25
278.421	84.25
278.652	82.25
278.884	91.25
279.115	90.25
279.347	91.25
279.579	114.25
279.81	128.25
280.042	171.25
280.273	228.25
280.505	165.25
280.736	103.25
280.968	87.25
281.199	109.25
281.431	88.25
281.662	83.25
281.894	80.25
282.125	100.25
282.356	148.25
282.588	180.25
282.819	139.25
283.051	89.25
283.282	86.25
283.513	90.25
283.745	94.25
283.976	78.25
284.207	88.25
284.439	84.25
284.67	87.25
284.901	75.25
285.132	83.25
285.364	83.25
285.595	88.25
285.826	82.25
286.057	82.25
286.288	80.25
286.52	101.25
286.751	90.25
286.982	80.25
287.213	84.25
287.444	99.25
287.675	93.25
287.906	104.25
288.138	98.25
288.369	98.25
288.6	91.25
288.831	80.25
289.062	78.25
289.293	92.25
289.524	86.25
289.755	86.25
289.986	87.25
290.217	82.25
290.448	97.25
290.679	107.25
290.91	101.25
291.141	101.25
291.371	88.25
291.602	98.25
291.833	100.25
292.064	94.25
292.295	92.25
292.526	97.25
292.757	93.25
292.987	90.25
293.218	84.25
293.449	102.25
293.68	101.25
293.91	81.25
294.141	90.25
294.372	84.25
294.603	74.25
294.833	80.25
295.064	91.25
295.295	83.25
295.525	107.25
295.756	108.25
295.987	145.25
296.217	178.25
296.448	176.25
296.679	101.25
296.909	97.25
297.14	102.25
297.37	90.25
297.601	86.25
297.831	81.25
298.062	96.25
298.292	82.25
298.523	97.25
298.753	93.25
298.984	91.25
299.214	91.25
299.445	97.25
299.675	99.25
299.905	110.25
300.136	103.25
300.366	80.25
300.597	98.25
300.827	103.25
301.057	110.25
301.288	107.25
301.518	102.25
301.748	100.25
301.979	114.25
302.209	110.25
302.439	105.25
302.669	104.25
302.9	83.25
303.13	90.25
303.36	104.25
303.59	120.25
303.82	158.25
304.051	111.25
304.281	94.25
304.511	94.25
304.741	101.25
304.971	94.25
305.201	100.25
305.431	89.25
305.661	90.25
305.891	98.25
306.121	104.25
306.352	122.25
306.582	130.25
306.812	94.25
307.042	109.25
307.272	142.25
307.502	180.25
307.731	152.25
307.961	118.25
308.191	101.25
308.421	111.25
308.651	84.25
308.881	90.25
309.111	112.25
309.341	105.25
309.571	101.25
309.8	102.25
310.03	104.25
310.26	96.25
310.49	114.25
310.72	125.25
310.949	129.25
311.179	129.25
311.409	100.25
311.639	116.25
311.868	104.25
312.098	108.25
312.328	96.25
312.557	132.25
312.787	129.25
313.017	125.25
313.246	105.25
313.476	109.25
313.706	97.25
313.935	97.25
314.165	117.25
314.394	118.25
314.624	117.25
314.853	105.25
315.083	102.25
315.312	84.25
315.542	94.25
315.771	93.25
316.001	89.25
316.23	94.25
316.46	107.25
316.689	100.25
316.919	98.25
317.148	105.25
317.377	94.25
317.607	111.25
317.836	99.25
318.065	88.25
318.295	91.25
318.524	104.25
318.753	96.25
318.983	116.25
319.212	108.25
319.441	134.25
319.67	112.25
319.9	100.25
320.129	99.25
320.358	101.25
320.587	100.25
320.816	115.25
321.046	113.25
321.275	104.25
321.504	98.25
321.733	96.25
321.962	112.25
322.191	113.25
322.42	101.25
322.649	123.25
322.878	114.25
323.108	135.25
323.337	158.25
323.566	178.25
323.795	195.25
324.024	268.25
324.253	538.25
324.482	1200.25
324.71	2494.25
324.939	3336.25
325.168	1197.25
325.397	342.25
325.626	208.25
325.855	172.25
326.084	134.25
326.313	164.25
326.542	199.25
326.77	312.25
326.999	623.25
327.228	1281.25
327.457	2349.25
327.686	1895.25
327.914	606.25
328.143	524.25
328.372	631.25
328.6	366.25
328.829	192.25
329.058	211.25
329.287	221.25
329.515	192.25
329.744	230.25
329.972	410.25
330.201	838.25
330.43	1280.25
330.658	597.25
330.887	299.25
331.115	209.25
331.344	128.25
331.572	116.25
331.801	153.25
332.03	136.25
332.258	134.25
332.486	124.25
332.715	114.25
332.943	124.25
333.172	131.25
333.4	138.25
333.629	168.25
333.857	211.25
334.085	384.25
334.314	772.25
334.542	1545.25
334.771	1458.25
334.999	412.25
335.227	174.25
335.455	126.25
335.684	123.25
335.912	109.25
336.14	110.25
336.369	107.25
336.597	132.25
336.825	117.25
337.053	93.25
337.281	110.25
337.51	97.25
337.738	124.25
337.966	113.25
338.194	115.25
338.422	108.25
338.65	95.25
338.878	91.25
339.106	84.25
339.334	102.25
339.562	98.25
339.79	93.25
340.018	108.25
340.246	111.25
340.474	112.25
340.702	107.25
340.93	91.25
341.158	108.25
341.386	104.25
341.614	109.25
341.842	100.25
342.07	89.25
342.298	101.25
342.526	96.25
342.754	92.25
342.981	91.25
343.209	78.25
343.437	109.25
343.665	92.25
343.893	91.25
344.12	98.25
344.348	94.25
344.576	94.25
344.804	93.25
345.031	110.25
345.259	104.25
345.487	109.25
345.714	93.25
345.942	98.25
346.17	101.25
346.397	86.25
346.625	104.25
346.853	79.25
347.08	93.25
347.308	107.25
347.535	116.25
347.763	111.25
347.99	110.25
348.218	115.25
348.445	124.25
348.673	117.25
348.9	102.25
349.128	98.25
349.355	83.25
349.583	88.25
349.81	98.25
350.037	94.25
350.265	103.25
350.492	112.25
350.72	94.25
350.947	106.25
351.174	128.25
351.402	124.25
351.629	124.25
351.856	120.25
352.083	126.25
352.311	123.25
352.538	126.25
352.765	136.25
352.992	137.25
353.22	122.25
353.447	116.25
353.674	104.25
353.901	86.25
354.128	97.25
354.355	98.25
354.583	115.25
354.81	77.25
355.037	90.25
355.264	96.25
355.491	92.25
355.718	92.25
355.945	89.25
356.172	104.25
356.399	95.25
356.626	95.25
356.853	82.25
357.08	97.25
357.307	93.25
357.534	87.25
357.761	76.25
357.988	91.25
358.215	91.25
358.441	96.25
358.668	78.25
358.895	102.25
359.122	90.25
359.349	92.25
359.576	96.25
359.802	124.25
360.029	163.25
360.256	151.25
360.483	125.25
360.709	100.25
360.936	98.25
361.163	97.25
361.39	113.25
361.616	108.25
361.843	97.25
362.07	97.25
362.296	113.25
362.523	109.25
362.749	97.25
362.976	97.25
363.203	92.25
363.429	95.25
363.656	93.25
363.882	93.25
364.109	97.25
364.335	85.25
364.562	90.25
364.788	103.25
365.015	103.25
365.241	108.25
365.468	118.25
365.694	118.25
365.92	109.25
366.147	104.25
366.373	97.25
366.599	112.25
366.826	102.25
367.052	104.25
367.278	96.25
367.505	90.25
367.731	90.25
367.957	101.25
368.184	114.25
368.41	121.25
368.636	125.25
368.862	140.25
369.089	124.25
369.315	109.25
369.541	97.25
369.767	86.25
369.993	102.25
370.219	101.25
370.445	112.25
370.672	97.25
370.898	82.25
371.124	97.25
371.35	91.25
371.576	96.25
371.802	88.25
372.028	89.25
372.254	86.25
372.48	88.25
372.706	77.25
372.932	91.25
373.158	89.25
373.384	92.25
373.61	84.25
373.835	84.25
374.061	92.25
374.287	94.25
374.513	98.25
374.739	88.25
374.965	89.25
375.191	87.25
375.416	95.25
375.642	93.25
375.868	74.25
376.094	87.25
376.319	97.25
376.545	96.25
376.771	96.25
376.997	86.25
377.222	111.25
377.448	109.25
377.674	94.25
377.899	92.25
378.125	92.25
378.35	88.25
378.576	88.25
378.802	94.25
379.027	88.25
379.253	104.25
379.478	102.25
379.704	100.25
379.929	93.25
380.155	98.25
380.38	92.25
380.606	92.25
380.831	109.25
381.057	93.25
381.282	101.25
381.507	94.25
381.733	100.25
381.958	92.25
382.184	94.25
382.409	102.25
382.634	96.25
382.86	98.25
383.085	83.25
383.31	94.25
383.535	113.25
383.761	102.25
383.986	99.25
384.211	98.25
384.436	90.25
384.662	113.25
384.887	90.25
385.112	109.25
385.337	93.25
385.562	95.25
385.787	112.25
386.013	101.25
386.238	134.25
386.463	104.25
386.688	112.25
386.913	108.25
387.138	110.25
387.363	100.25
387.588	104.25
387.813	88.25
388.038	100.25
388.263	105.25
388.488	114.25
388.713	90.25
388.938	103.25
389.163	92.25
389.387	99.25
389.612	89.25
389.837	88.25
390.062	93.25
390.287	85.25
390.512	90.25
390.736	88.25
390.961	94.25
391.186	102.25
391.411	92.25
391.636	87.25
391.86	90.25
392.085	81.25
392.31	84.25
392.534	91.25
392.759	104.25
392.984	110.25
393.208	93.25
393.433	86.25
393.658	89.25
393.882	87.25
394.107	82.25
394.331	84.25
394.556	83.25
394.78	77.25
395.005	73.25
395.229	78.25
395.454	91.25
395.678	99.25
395.903	88.25
396.127	100.25
396.352	92.25
396.576	91.25
396.801	92.25
397.025	97.25
397.249	88.25
397.474	98.25
397.698	96.25
397.922	102.25
398.147	91.25
398.371	92.25
398.595	83.25
398.82	88.25
399.044	84.25
399.268	93.25
399.492	88.25
399.717	98.25
399.941	99.25
400.165	103.25
400.389	96.25
400.613	96.25
400.837	82.25
401.062	94.25
401.286	88.25
401.51	105.25
401.734	99.25
401.958	124.25
402.182	150.25
402.406	230.25
402.63	174.25
402.854	117.25
403.078	104.25
403.302	87.25
403.526	89.25
403.75	77.25
403.974	90.25
404.198	99.25
404.422	95.25
404.645	96.25
404.869	102.25
405.093	121.25
405.317	126.25
405.541	136.25
405.765	121.25
405.988	128.25
406.212	250.25
406.436	375.25
406.66	249.25
406.883	132.25
407.107	114.25
407.331	106.25
407.555	124.25
407.778	104.25
408.002	98.25
408.226	93.25
408.449	96.25
408.673	82.25
408.896	93.25
409.12	104.25
409.344	98.25
409.567	90.25
409.791	99.25
410.014	94.25
410.238	81.25
410.461	99.25
410.685	95.25
410.908	114.25
411.132	98.25
411.355	96.25
411.578	89.25
411.802	82.25
412.025	94.25
412.249	97.25
412.472	113.25
412.695	134.25
412.919	111.25
413.142	85.25
413.365	96.25
413.589	82.25
413.812	86.25
414.035	86.25
414.258	84.25
414.482	91.25
414.705	86.25
414.928	95.25
415.151	92.25
415.374	98.25
415.597	98.25
415.821	93.25
416.044	84.25
416.267	90.25
416.49	93.25
416.713	108.25
416.936	106.25
417.159	89.25
417.382	91.25
417.605	99.25
417.828	114.25
418.051	106.25
418.274	101.25
418.497	89.25
418.72	85.25
418.943	100.25
419.166	80.25
419.389	80.25
419.611	91.25
419.834	84.25
420.057	104.25
420.28	102.25
420.503	93.25
420.726	91.25
420.948	98.25
421.171	106.25
421.394	99.25
421.617	93.25
421.839	93.25
422.062	77.25
422.285	89.25
422.507	103.25
422.73	114.25
422.953	91.25
423.175	95.25
423.398	97.25
423.621	85.25
423.843	99.25
424.066	86.25
424.288	91.25
424.511	100.25
424.733	112.25
424.956	127.25
425.178	115.25
425.401	109.25
425.623	108.25
425.846	108.25
426.068	101.25
426.291	87.25
426.513	104.25
426.735	86.25
426.958	87.25
427.18	124.25
427.402	168.25
427.625	282.25
427.847	246.25
428.069	210.25
428.292	113.25
428.514	102.25
428.736	95.25
428.958	86.25
429.181	80.25
429.403	88.25
429.625	85.25
429.847	111.25
430.069	100.25
430.292	103.25
430.514	100.25
430.736	87.25
430.958	82.25
431.18	86.25
431.402	84.25
431.624	95.25
431.846	88.25
432.068	86.25
432.29	79.25
432.512	84.25
432.734	78.25
432.956	98.25
433.178	108.25
433.4	115.25
433.622	88.25
433.844	101.25
434.066	89.25
434.287	87.25
434.509	93.25
434.731	92.25
434.953	93.25
435.175	102.25
435.397	97.25
435.618	79.25
435.84	97.25
436.062	154.25
436.284	133.25
436.505	112.25
436.727	104.25
436.949	96.25
437.17	72.25
437.392	94.25
437.614	96.25
437.835	125.25
438.057	165.25
438.278	134.25
438.5	125.25
438.721	136.25
438.943	100.25
439.165	89.25
439.386	83.25
439.608	104.25
439.829	96.25
440.05	172.25
440.272	195.25
440.493	129.25
440.715	85.25
440.936	87.25
441.158	101.25
441.379	110.25
441.6	106.25
441.822	107.25
442.043	116.25
442.264	108.25
442.486	116.25
442.707	106.25
442.928	137.25
443.149	202.25
443.371	189.25
443.592	140.25
443.813	137.25
444.034	108.25
444.255	95.25
444.476	87.25
444.698	82.25
444.919	88.25
445.14	140.25
445.361	129.25
445.582	136.25
445.803	200.25
446.024	170.25
446.245	160.25
446.466	118.25
446.687	102.25
446.908	103.25
447.129	90.25
447.35	91.25
447.571	106.25
447.792	99.25
448.013	107.25
448.234	148.25
448.455	120.25
448.675	149.25
448.896	146.25
449.117	112.25
449.338	111.25
449.559	153.25
449.779	159.25
450	99.25
450.221	96.25
450.442	91.25
450.662	103.25
450.883	128.25
451.104	162.25
451.324	119.25
451.545	109.25
451.766	84.25
451.986	85.25
452.207	99.25
452.428	115.25
452.648	104.25
452.869	131.25
453.089	138.25
453.31	170.25
453.53	110.25
453.751	104.25
453.971	120.25
454.192	148.25
454.412	84.25
454.633	89.25
454.853	87.25
455.073	89.25
455.294	92.25
455.514	113.25
455.734	92.25
455.955	91.25
456.175	89.25
456.395	89.25
456.616	90.25
456.836	80.25
457.056	91.25
457.276	83.25
457.497	92.25
457.717	94.25
457.937	99.25
458.157	101.25
458.377	102.25
458.598	134.25
458.818	238.25
459.038	250.25
459.258	153.25
459.478	92.25
459.698	101.25
459.918	93.25
460.138	77.25
460.358	83.25
460.578	103.25
460.798	101.25
461.018	88.25
461.238	86.25
461.458	86.25
461.678	72.25
461.898	99.25
462.118	94.25
462.338	101.25
462.558	98.25
462.777	90.25
462.997	89.25
463.217	102.25
463.437	96.25
463.657	96.25
463.876	98.25
464.096	109.25
464.316	103.25
464.536	115.25
464.755	108.25
464.975	125.25
465.195	278.25
465.414	294.25
465.634	116.25
465.854	90.25
466.073	92.25
466.293	91.25
466.512	81.25
466.732	96.25
466.951	78.25
467.171	101.25
467.391	108.25
467.61	141.25
467.829	203.25
468.049	477.25
468.268	752.25
468.488	201.25
468.707	88.25
468.927	84.25
469.146	89.25
469.365	77.25
469.585	88.25
469.804	109.25
470.023	106.25
470.243	107.25
470.462	135.25
470.681	134.25
470.901	106.25
471.12	97.25
471.339	92.25
471.558	115.25
471.777	146.25
471.997	258.25
472.216	919.25
472.435	2133.25
472.654	524.25
472.873	164.25
473.092	118.25
473.311	87.25
473.53	86.25
473.749	95.25
473.968	92.25
474.187	132.25
474.406	110.25
474.625	95.25
474.844	88.25
475.063	93.25
475.282	97.25
475.501	81.25
475.72	99.25
475.939	86.25
476.158	87.25
476.377	89.25
476.596	93.25
476.814	93.25
477.033	105.25
477.252	96.25
477.471	86.25
477.69	95.25
477.908	93.25
478.127	99.25
478.346	92.25
478.564	103.25
478.783	108.25
479.002	121.25
479.22	118.25
479.439	124.25
479.658	155.25
479.876	132.25
480.095	117.25
480.313	138.25
480.532	148.25
480.751	263.25
480.969	845.25
481.188	3621.25
481.406	2159.25
481.624	325.25
481.843	148.25
482.061	100.25
482.28	79.25
482.498	98.25
482.717	90.25
482.935	92.25
483.153	83.25
483.372	87.25
483.59	85.25
483.808	78.25
484.027	84.25
484.245	111.25
484.463	96.25
484.681	101.25
484.9	105.25
485.118	97.25
485.336	97.25
485.554	88.25
485.772	104.25
485.99	92.25
486.209	116.25
486.427	119.25
486.645	118.25
486.863	140.25
487.081	120.25
487.299	90.25
487.517	94.25
487.735	93.25
487.953	95.25
488.171	86.25
488.389	90.25
488.607	107.25
488.825	97.25
489.043	92.25
489.261	81.25
489.479	70.25
489.696	87.25
489.914	94.25
490.132	85.25
490.35	84.25
490.568	98.25
490.786	98.25
491.003	103.25
491.221	83.25
491.439	90.25
491.657	104.25
491.874	82.25
492.092	93.25
492.31	103.25
492.527	84.25
492.745	94.25
492.963	93.25
493.18	94.25
493.398	90.25
493.615	93.25
493.833	89.25
494.05	97.25
494.268	93.25
494.485	95.25
494.703	89.25
494.92	86.25
495.138	77.25
495.355	104.25
495.573	92.25
495.79	80.25
496.008	88.25
496.225	99.25
496.442	95.25
496.66	104.25
496.877	80.25
497.094	102.25
497.312	94.25
497.529	86.25
497.746	93.25
497.963	88.25
498.181	113.25
498.398	113.25
498.615	135.25
498.832	112.25
499.049	94.25
499.267	98.25
499.484	91.25
499.701	85.25
499.918	92.25
500.135	89.25
500.352	88.25
500.569	100.25
500.786	100.25
501.003	107.25
501.22	81.25
501.437	85.25
501.654	112.25
501.871	137.25
502.088	94.25
502.305	104.25
502.522	96.25
502.739	82.25
502.956	86.25
503.172	88.25
503.389	115.25
503.606	136.25
503.823	110.25
504.04	85.25
504.256	97.25
504.473	97.25
504.69	92.25
504.907	87.25
505.123	84.25
505.34	77.25
505.557	108.25
505.773	88.25
505.99	103.25
506.207	104.25
506.423	96.25
506.64	84.25
506.856	82.25
507.073	91.25
507.289	93.25
507.506	102.25
507.722	152.25
507.939	146.25
508.155	111.25
508.372	100.25
508.588	102.25
508.805	79.25
509.021	107.25
509.238	90.25
509.454	101.25
509.67	94.25
509.887	107.25
510.103	139.25
510.319	276.25
510.536	1073.25
510.752	3988.25
510.968	1065.25
511.184	215.25
511.401	154.25
511.617	111.25
511.833	106.25
512.049	99.25
512.265	104.25
