Data from Circ_2000_H10_HRD10591_00061.txt Node
Date: Wed Jan 03 10:49:46 EST 2024
User: Yrep
Spectrometer: HR+D1059
Trigger mode: 1
Integration Time (sec): 1.000000E-1
Scans to average: 1
Electric dark correction enabled: true
Nonlinearity correction enabled: false
Boxcar width: 0
XAxis mode: Wavelengths
Number of Pixels in Spectrum: 2048
>>>>>Begin Spectral Data<<<<<
223.165	-14.88
223.4	-14.88
223.635	-14.88
223.869	-16.88
224.104	-18.88
224.338	-13.88
224.573	-4.88
224.808	-13.88
225.042	-9.88
225.277	-20.88
225.511	0.12
225.746	5.12
225.98	16.12
226.215	14.12
226.449	11.12
226.683	33.12
226.918	9.12
227.152	25.12
227.387	33.12
227.621	37.12
227.856	39.12
228.09	46.12
228.324	44.12
228.559	47.12
228.793	61.12
229.027	64.12
229.262	74.12
229.496	70.12
229.73	98.12
229.964	86.12
230.199	80.12
230.433	70.12
230.667	88.12
230.901	78.12
231.136	80.12
231.37	74.12
231.604	90.12
231.838	71.12
232.072	93.12
232.306	78.12
232.541	95.12
232.775	87.12
233.009	80.12
233.243	79.12
233.477	79.12
233.711	96.12
233.945	77.12
234.179	79.12
234.413	91.12
234.647	76.12
234.881	76.12
235.115	87.12
235.349	83.12
235.583	81.12
235.817	86.12
236.051	75.12
236.285	72.12
236.519	82.12
236.753	76.12
236.987	88.12
237.221	91.12
237.455	93.12
237.689	85.12
237.922	91.12
238.156	70.12
238.39	76.12
238.624	81.12
238.858	82.12
239.091	79.12
239.325	84.12
239.559	86.12
239.793	79.12
240.027	79.12
240.26	94.12
240.494	84.12
240.728	69.12
240.961	77.12
241.195	76.12
241.429	79.12
241.662	79.12
241.896	88.12
242.13	80.12
242.363	71.12
242.597	73.12
242.83	85.12
243.064	74.12
243.298	70.12
243.531	79.12
243.765	85.12
243.998	73.12
244.232	90.12
244.465	85.12
244.699	92.12
244.932	76.12
245.166	99.12
245.399	89.12
245.633	77.12
245.866	87.12
246.099	75.12
246.333	85.12
246.566	88.12
246.8	82.12
247.033	83.12
247.266	95.12
247.5	76.12
247.733	92.12
247.966	73.12
248.2	93.12
248.433	76.12
248.666	79.12
248.899	87.12
249.133	86.12
249.366	98.12
249.599	110.12
249.832	77.12
250.066	74.12
250.299	86.12
250.532	87.12
250.765	91.12
250.998	63.12
251.231	91.12
251.465	86.12
251.698	87.12
251.931	77.12
252.164	74.12
252.397	76.12
252.63	86.12
252.863	77.12
253.096	87.12
253.329	66.12
253.562	82.12
253.795	100.12
254.028	91.12
254.261	89.12
254.494	86.12
254.727	87.12
254.96	87.12
255.193	83.12
255.426	88.12
255.659	93.12
255.892	87.12
256.124	83.12
256.357	86.12
256.59	87.12
256.823	79.12
257.056	78.12
257.289	87.12
257.521	77.12
257.754	93.12
257.987	79.12
258.22	89.12
258.452	93.12
258.685	81.12
258.918	87.12
259.151	78.12
259.383	71.12
259.616	93.12
259.849	86.12
260.081	85.12
260.314	78.12
260.547	84.12
260.779	85.12
261.012	76.12
261.244	85.12
261.477	94.12
261.71	94.12
261.942	124.12
262.175	130.12
262.407	101.12
262.64	93.12
262.872	82.12
263.105	94.12
263.337	82.12
263.57	83.12
263.802	90.12
264.035	85.12
264.267	79.12
264.499	91.12
264.732	90.12
264.964	81.12
265.197	101.12
265.429	84.12
265.661	76.12
265.894	90.12
266.126	79.12
266.358	76.12
266.591	80.12
266.823	77.12
267.055	82.12
267.287	86.12
267.52	82.12
267.752	71.12
267.984	83.12
268.216	86.12
268.448	90.12
268.681	86.12
268.913	97.12
269.145	73.12
269.377	85.12
269.609	79.12
269.841	93.12
270.073	72.12
270.306	79.12
270.538	86.12
270.77	86.12
271.002	83.12
271.234	80.12
271.466	93.12
271.698	78.12
271.93	88.12
272.162	103.12
272.394	87.12
272.626	92.12
272.858	83.12
273.09	92.12
273.322	89.12
273.553	90.12
273.785	85.12
274.017	80.12
274.249	90.12
274.481	83.12
274.713	96.12
274.945	91.12
275.176	83.12
275.408	83.12
275.64	106.12
275.872	96.12
276.104	88.12
276.335	92.12
276.567	105.12
276.799	110.12
277.031	148.12
277.262	132.12
277.494	108.12
277.726	109.12
277.957	84.12
278.189	96.12
278.421	104.12
278.652	94.12
278.884	86.12
279.115	99.12
279.347	80.12
279.579	96.12
279.81	102.12
280.042	131.12
280.273	166.12
280.505	131.12
280.736	108.12
280.968	90.12
281.199	83.12
281.431	96.12
281.662	94.12
281.894	93.12
282.125	112.12
282.356	111.12
282.588	154.12
282.819	128.12
283.051	90.12
283.282	74.12
283.513	95.12
283.745	85.12
283.976	96.12
284.207	82.12
284.439	92.12
284.67	100.12
284.901	90.12
285.132	97.12
285.364	84.12
285.595	87.12
285.826	81.12
286.057	84.12
286.288	96.12
286.52	89.12
286.751	68.12
286.982	84.12
287.213	85.12
287.444	92.12
287.675	90.12
287.906	82.12
288.138	101.12
288.369	101.12
288.6	92.12
288.831	85.12
289.062	109.12
289.293	92.12
289.524	87.12
289.755	87.12
289.986	86.12
290.217	91.12
290.448	88.12
290.679	89.12
290.91	84.12
291.141	80.12
291.371	89.12
291.602	92.12
291.833	83.12
292.064	89.12
292.295	97.12
292.526	86.12
292.757	86.12
292.987	86.12
293.218	110.12
293.449	92.12
293.68	96.12
293.91	95.12
294.141	88.12
294.372	92.12
294.603	85.12
294.833	100.12
295.064	95.12
295.295	82.12
295.525	95.12
295.756	105.12
295.987	115.12
296.217	150.12
296.448	136.12
296.679	85.12
296.909	87.12
297.14	93.12
297.37	91.12
297.601	84.12
297.831	90.12
298.062	92.12
298.292	95.12
298.523	102.12
298.753	92.12
298.984	86.12
299.214	85.12
299.445	84.12
299.675	93.12
299.905	87.12
300.136	94.12
300.366	104.12
300.597	87.12
300.827	98.12
301.057	112.12
301.288	99.12
301.518	84.12
301.748	111.12
301.979	106.12
302.209	99.12
302.439	95.12
302.669	99.12
302.9	94.12
303.13	106.12
303.36	91.12
303.59	114.12
303.82	117.12
304.051	111.12
304.281	85.12
304.511	88.12
304.741	96.12
304.971	99.12
305.201	92.12
305.431	98.12
305.661	100.12
305.891	93.12
306.121	88.12
306.352	108.12
306.582	92.12
306.812	103.12
307.042	112.12
307.272	117.12
307.502	112.12
307.731	122.12
307.961	111.12
308.191	89.12
308.421	99.12
308.651	104.12
308.881	99.12
309.111	102.12
309.341	87.12
309.571	100.12
309.8	95.12
310.03	102.12
310.26	108.12
310.49	98.12
310.72	107.12
310.949	111.12
311.179	106.12
311.409	85.12
311.639	100.12
311.868	99.12
312.098	91.12
312.328	119.12
312.557	106.12
312.787	104.12
313.017	103.12
313.246	96.12
313.476	90.12
313.706	101.12
313.935	95.12
314.165	109.12
314.394	103.12
314.624	103.12
314.853	103.12
315.083	113.12
315.312	83.12
315.542	95.12
315.771	91.12
316.001	103.12
316.23	93.12
316.46	83.12
316.689	80.12
316.919	105.12
317.148	93.12
317.377	95.12
317.607	85.12
317.836	82.12
318.065	91.12
318.295	90.12
318.524	91.12
318.753	87.12
318.983	92.12
319.212	100.12
319.441	101.12
319.67	119.12
319.9	92.12
320.129	93.12
320.358	109.12
320.587	92.12
320.816	92.12
321.046	108.12
321.275	95.12
321.504	102.12
321.733	100.12
321.962	94.12
322.191	102.12
322.42	110.12
322.649	115.12
322.878	126.12
323.108	121.12
323.337	136.12
323.566	132.12
323.795	171.12
324.024	232.12
324.253	450.12
324.482	974.12
324.71	2014.12
324.939	2670.12
325.168	981.12
325.397	268.12
325.626	164.12
325.855	142.12
326.084	130.12
326.313	149.12
326.542	185.12
326.77	255.12
326.999	510.12
327.228	1097.12
327.457	1974.12
327.686	1580.12
327.914	475.12
328.143	334.12
328.372	367.12
328.6	237.12
328.829	153.12
329.058	150.12
329.287	167.12
329.515	149.12
329.744	167.12
329.972	270.12
330.201	516.12
330.43	701.12
330.658	370.12
330.887	201.12
331.115	156.12
331.344	110.12
331.572	116.12
331.801	105.12
332.03	109.12
332.258	101.12
332.486	103.12
332.715	122.12
332.943	102.12
333.172	78.12
333.4	107.12
333.629	142.12
333.857	174.12
334.085	264.12
334.314	487.12
334.542	899.12
334.771	827.12
334.999	253.12
335.227	140.12
335.455	100.12
335.684	104.12
335.912	110.12
336.14	106.12
336.369	116.12
336.597	112.12
336.825	104.12
337.053	93.12
337.281	78.12
337.51	86.12
337.738	103.12
337.966	94.12
338.194	92.12
338.422	97.12
338.65	92.12
338.878	103.12
339.106	100.12
339.334	91.12
339.562	81.12
339.79	93.12
340.018	93.12
340.246	98.12
340.474	95.12
340.702	106.12
340.93	111.12
341.158	103.12
341.386	78.12
341.614	100.12
341.842	107.12
342.07	104.12
342.298	86.12
342.526	103.12
342.754	92.12
342.981	82.12
343.209	75.12
343.437	100.12
343.665	93.12
343.893	104.12
344.12	80.12
344.348	109.12
344.576	85.12
344.804	97.12
345.031	91.12
345.259	100.12
345.487	103.12
345.714	92.12
345.942	92.12
346.17	102.12
346.397	100.12
346.625	101.12
346.853	99.12
347.08	93.12
347.308	87.12
347.535	101.12
347.763	111.12
347.99	101.12
348.218	105.12
348.445	100.12
348.673	89.12
348.9	104.12
349.128	102.12
349.355	96.12
349.583	106.12
349.81	86.12
350.037	94.12
350.265	95.12
350.492	89.12
350.72	95.12
350.947	100.12
351.174	117.12
351.402	99.12
351.629	100.12
351.856	103.12
352.083	106.12
352.311	111.12
352.538	116.12
352.765	127.12
352.992	107.12
353.22	118.12
353.447	96.12
353.674	102.12
353.901	84.12
354.128	86.12
354.355	103.12
354.583	93.12
354.81	103.12
355.037	95.12
355.264	86.12
355.491	93.12
355.718	104.12
355.945	91.12
356.172	94.12
356.399	111.12
356.626	110.12
356.853	106.12
357.08	88.12
357.307	92.12
357.534	100.12
357.761	97.12
357.988	91.12
358.215	88.12
358.441	106.12
358.668	103.12
358.895	95.12
359.122	88.12
359.349	93.12
359.576	113.12
359.802	110.12
360.029	119.12
360.256	126.12
360.483	108.12
360.709	93.12
360.936	78.12
361.163	94.12
361.39	103.12
361.616	110.12
361.843	101.12
362.07	92.12
362.296	109.12
362.523	111.12
362.749	109.12
362.976	91.12
363.203	93.12
363.429	92.12
363.656	102.12
363.882	94.12
364.109	88.12
364.335	99.12
364.562	84.12
364.788	95.12
365.015	101.12
365.241	102.12
365.468	102.12
365.694	114.12
365.92	99.12
366.147	100.12
366.373	94.12
366.599	94.12
366.826	94.12
367.052	84.12
367.278	87.12
367.505	106.12
367.731	81.12
367.957	109.12
368.184	83.12
368.41	98.12
368.636	99.12
368.862	125.12
369.089	103.12
369.315	106.12
369.541	79.12
369.767	102.12
369.993	91.12
370.219	99.12
370.445	85.12
370.672	79.12
370.898	89.12
371.124	92.12
371.35	85.12
371.576	110.12
371.802	91.12
372.028	93.12
372.254	99.12
372.48	90.12
372.706	98.12
372.932	85.12
373.158	96.12
373.384	98.12
373.61	89.12
373.835	88.12
374.061	100.12
374.287	95.12
374.513	102.12
374.739	92.12
374.965	78.12
375.191	82.12
375.416	99.12
375.642	85.12
375.868	97.12
376.094	98.12
376.319	101.12
376.545	103.12
376.771	96.12
376.997	97.12
377.222	95.12
377.448	94.12
377.674	91.12
377.899	98.12
378.125	87.12
378.35	97.12
378.576	95.12
378.802	100.12
379.027	103.12
379.253	90.12
379.478	102.12
379.704	102.12
379.929	90.12
380.155	102.12
380.38	94.12
380.606	88.12
380.831	86.12
381.057	98.12
381.282	99.12
381.507	83.12
381.733	82.12
381.958	111.12
382.184	101.12
382.409	99.12
382.634	104.12
382.86	94.12
383.085	106.12
383.31	116.12
383.535	87.12
383.761	110.12
383.986	102.12
384.211	102.12
384.436	101.12
384.662	94.12
384.887	94.12
385.112	95.12
385.337	106.12
385.562	92.12
385.787	102.12
386.013	118.12
386.238	114.12
386.463	104.12
386.688	119.12
386.913	101.12
387.138	107.12
387.363	99.12
387.588	108.12
387.813	105.12
388.038	115.12
388.263	120.12
388.488	110.12
388.713	111.12
388.938	97.12
389.163	114.12
389.387	93.12
389.612	93.12
389.837	91.12
390.062	102.12
390.287	103.12
390.512	98.12
390.736	91.12
390.961	110.12
391.186	89.12
391.411	97.12
391.636	92.12
391.86	105.12
392.085	82.12
392.31	96.12
392.534	59.12
392.759	88.12
392.984	71.12
393.208	92.12
393.433	99.12
393.658	114.12
393.882	92.12
394.107	87.12
394.331	102.12
394.556	94.12
394.78	90.12
395.005	88.12
395.229	90.12
395.454	87.12
395.678	91.12
395.903	90.12
396.127	88.12
396.352	82.12
396.576	90.12
396.801	78.12
397.025	80.12
397.249	98.12
397.474	83.12
397.698	79.12
397.922	86.12
398.147	96.12
398.371	92.12
398.595	85.12
398.82	78.12
399.044	83.12
399.268	82.12
399.492	94.12
399.717	101.12
399.941	102.12
400.165	82.12
400.389	102.12
400.613	86.12
400.837	88.12
401.062	91.12
401.286	93.12
401.51	93.12
401.734	90.12
401.958	103.12
402.182	123.12
402.406	164.12
402.63	128.12
402.854	94.12
403.078	75.12
403.302	100.12
403.526	114.12
403.75	88.12
403.974	86.12
404.198	78.12
404.422	88.12
404.645	91.12
404.869	93.12
405.093	108.12
405.317	142.12
405.541	146.12
405.765	96.12
405.988	110.12
406.212	169.12
406.436	271.12
406.66	172.12
406.883	111.12
407.107	89.12
407.331	99.12
407.555	104.12
407.778	107.12
408.002	100.12
408.226	101.12
408.449	97.12
408.673	94.12
408.896	92.12
409.12	93.12
409.344	101.12
409.567	90.12
409.791	91.12
410.014	89.12
410.238	104.12
410.461	81.12
410.685	97.12
410.908	95.12
411.132	93.12
411.355	99.12
411.578	96.12
411.802	93.12
412.025	99.12
412.249	99.12
412.472	116.12
412.695	146.12
412.919	115.12
413.142	102.12
413.365	85.12
413.589	94.12
413.812	96.12
414.035	96.12
414.258	94.12
414.482	105.12
414.705	93.12
414.928	84.12
415.151	87.12
415.374	83.12
415.597	83.12
415.821	79.12
416.044	100.12
416.267	99.12
416.49	87.12
416.713	95.12
416.936	103.12
417.159	96.12
417.382	91.12
417.605	94.12
417.828	108.12
418.051	93.12
418.274	111.12
418.497	86.12
418.72	95.12
418.943	82.12
419.166	85.12
419.389	92.12
419.611	100.12
419.834	87.12
420.057	92.12
420.28	94.12
420.503	91.12
420.726	79.12
420.948	102.12
421.171	101.12
421.394	98.12
421.617	95.12
421.839	93.12
422.062	94.12
422.285	91.12
422.507	94.12
422.73	110.12
422.953	91.12
423.175	92.12
423.398	86.12
423.621	90.12
423.843	79.12
424.066	89.12
424.288	91.12
424.511	92.12
424.733	108.12
424.956	108.12
425.178	107.12
425.401	102.12
425.623	114.12
425.846	96.12
426.068	93.12
426.291	87.12
426.513	100.12
426.735	85.12
426.958	110.12
427.18	114.12
427.402	155.12
427.625	226.12
427.847	192.12
428.069	180.12
428.292	114.12
428.514	103.12
428.736	112.12
428.958	90.12
429.181	80.12
429.403	83.12
429.625	92.12
429.847	114.12
430.069	105.12
430.292	94.12
430.514	93.12
430.736	90.12
430.958	89.12
431.18	70.12
431.402	76.12
431.624	84.12
431.846	77.12
432.068	84.12
432.29	82.12
432.512	84.12
432.734	91.12
432.956	86.12
433.178	114.12
433.4	100.12
433.622	115.12
433.844	84.12
434.066	101.12
434.287	107.12
434.509	90.12
434.731	95.12
434.953	95.12
435.175	108.12
435.397	98.12
435.618	90.12
435.84	109.12
436.062	138.12
436.284	140.12
436.505	112.12
436.727	111.12
436.949	92.12
437.17	95.12
437.392	105.12
437.614	99.12
437.835	117.12
438.057	127.12
438.278	126.12
438.5	120.12
438.721	133.12
438.943	98.12
439.165	98.12
439.386	86.12
439.608	96.12
439.829	107.12
440.05	146.12
440.272	165.12
440.493	98.12
440.715	84.12
440.936	81.12
441.158	102.12
441.379	95.12
441.6	86.12
441.822	109.12
442.043	111.12
442.264	109.12
442.486	98.12
442.707	112.12
442.928	106.12
443.149	147.12
443.371	150.12
443.592	116.12
443.813	128.12
444.034	113.12
444.255	98.12
444.476	95.12
444.698	90.12
444.919	84.12
445.14	143.12
445.361	118.12
445.582	125.12
445.803	151.12
446.024	159.12
446.245	163.12
446.466	119.12
446.687	89.12
446.908	106.12
447.129	74.12
447.35	92.12
447.571	120.12
447.792	83.12
448.013	98.12
448.234	122.12
448.455	121.12
448.675	126.12
448.896	130.12
449.117	115.12
449.338	107.12
449.559	144.12
449.779	147.12
450	98.12
450.221	99.12
450.442	95.12
450.662	92.12
450.883	116.12
451.104	123.12
451.324	100.12
451.545	90.12
451.766	88.12
451.986	98.12
452.207	90.12
452.428	104.12
452.648	121.12
452.869	120.12
453.089	133.12
453.31	134.12
453.53	96.12
453.751	93.12
453.971	117.12
454.192	131.12
454.412	93.12
454.633	85.12
454.853	101.12
455.073	90.12
455.294	97.12
455.514	102.12
455.734	102.12
455.955	102.12
456.175	96.12
456.395	85.12
456.616	100.12
456.836	91.12
457.056	105.12
457.276	83.12
457.497	82.12
457.717	89.12
457.937	90.12
458.157	93.12
458.377	99.12
458.598	112.12
458.818	164.12
459.038	194.12
459.258	135.12
459.478	82.12
459.698	89.12
459.918	99.12
460.138	88.12
460.358	89.12
460.578	84.12
460.798	98.12
461.018	93.12
461.238	87.12
461.458	86.12
461.678	91.12
461.898	70.12
462.118	81.12
462.338	86.12
462.558	87.12
462.777	95.12
462.997	100.12
463.217	110.12
463.437	95.12
463.657	95.12
463.876	99.12
464.096	106.12
464.316	105.12
464.536	112.12
464.755	106.12
464.975	117.12
465.195	196.12
465.414	200.12
465.634	102.12
465.854	90.12
466.073	86.12
466.293	89.12
466.512	90.12
466.732	92.12
466.951	83.12
467.171	90.12
467.391	100.12
467.61	124.12
467.829	159.12
468.049	275.12
468.268	390.12
468.488	143.12
468.707	98.12
468.927	104.12
469.146	89.12
469.365	97.12
469.585	88.12
469.804	106.12
470.023	98.12
470.243	84.12
470.462	121.12
470.681	118.12
470.901	104.12
471.12	88.12
471.339	98.12
471.558	91.12
471.777	111.12
471.997	165.12
472.216	536.12
472.435	1164.12
472.654	306.12
472.873	116.12
473.092	106.12
473.311	97.12
473.53	81.12
473.749	91.12
473.968	101.12
474.187	117.12
474.406	108.12
474.625	86.12
474.844	91.12
475.063	98.12
475.282	76.12
475.501	88.12
475.72	102.12
475.939	98.12
476.158	87.12
476.377	95.12
476.596	96.12
476.814	107.12
477.033	95.12
477.252	89.12
477.471	91.12
477.69	92.12
477.908	90.12
478.127	94.12
478.346	91.12
478.564	92.12
478.783	118.12
479.002	107.12
479.22	102.12
479.439	99.12
479.658	118.12
479.876	104.12
480.095	112.12
480.313	119.12
480.532	116.12
480.751	179.12
480.969	538.12
481.188	1966.12
481.406	1194.12
481.624	228.12
481.843	104.12
482.061	103.12
482.28	92.12
482.498	103.12
482.717	95.12
482.935	85.12
483.153	85.12
483.372	93.12
483.59	88.12
483.808	88.12
484.027	84.12
484.245	99.12
484.463	86.12
484.681	91.12
484.9	95.12
485.118	95.12
485.336	94.12
485.554	94.12
485.772	119.12
485.99	112.12
486.209	108.12
486.427	101.12
486.645	115.12
486.863	118.12
487.081	118.12
487.299	88.12
487.517	94.12
487.735	95.12
487.953	103.12
488.171	93.12
488.389	102.12
488.607	96.12
488.825	97.12
489.043	95.12
489.261	111.12
489.479	93.12
489.696	92.12
489.914	78.12
490.132	88.12
490.35	83.12
490.568	92.12
490.786	93.12
491.003	98.12
491.221	94.12
491.439	100.12
491.657	90.12
491.874	119.12
492.092	90.12
492.31	90.12
492.527	91.12
492.745	85.12
492.963	92.12
493.18	93.12
493.398	88.12
493.615	100.12
493.833	106.12
494.05	105.12
494.268	86.12
494.485	92.12
494.703	94.12
494.92	93.12
495.138	86.12
495.355	102.12
495.573	92.12
495.79	91.12
496.008	94.12
496.225	95.12
496.442	93.12
496.66	102.12
496.877	100.12
497.094	96.12
497.312	95.12
497.529	101.12
497.746	96.12
497.963	90.12
498.181	95.12
498.398	93.12
498.615	118.12
498.832	118.12
499.049	98.12
499.267	76.12
499.484	99.12
499.701	89.12
499.918	100.12
500.135	87.12
500.352	99.12
500.569	98.12
500.786	100.12
501.003	88.12
501.22	95.12
501.437	78.12
501.654	91.12
501.871	131.12
502.088	90.12
502.305	105.12
502.522	113.12
502.739	101.12
502.956	93.12
503.172	93.12
503.389	102.12
503.606	114.12
503.823	97.12
504.04	122.12
504.256	98.12
504.473	99.12
504.69	95.12
504.907	90.12
505.123	93.12
505.34	90.12
505.557	91.12
505.773	93.12
505.99	76.12
506.207	93.12
506.423	95.12
506.64	85.12
506.856	91.12
507.073	108.12
507.289	104.12
507.506	102.12
507.722	123.12
507.939	135.12
508.155	103.12
508.372	88.12
508.588	91.12
508.805	92.12
509.021	88.12
509.238	113.12
509.454	94.12
509.67	96.12
509.887	108.12
510.103	138.12
510.319	225.12
510.536	781.12
510.752	2536.12
510.968	716.12
511.184	168.12
511.401	113.12
511.617	101.12
511.833	107.12
512.049	89.12
512.265	100.12
512.481	103.12
512.698	90.12
512.914	81.12
513.13	97.12
513.346	93.12
