Data from Circ_2000_H10_HRD10591_00095.txt Node
Date: Wed Jan 03 10:49:52 EST 2024
User: Yrep
Spectrometer: HR+D1059
Trigger mode: 1
Integration Time (sec): 1.000000E-1
Scans to average: 1
Electric dark correction enabled: true
Nonlinearity correction enabled: false
Boxcar width: 0
XAxis mode: Wavelengths
Number of Pixels in Spectrum: 2048
>>>>>Begin Spectral Data<<<<<
223.165	-31
223.4	-31
223.635	-31
223.869	-31
224.104	-19
224.338	-18
224.573	-13
224.808	-18
225.042	-2
225.277	2
225.511	1
225.746	11
225.98	17
226.215	11
226.449	13
226.683	23
226.918	24
227.152	30
227.387	22
227.621	47
227.856	46
228.09	43
228.324	46
228.559	54
228.793	62
229.027	62
229.262	66
229.496	67
229.73	90
229.964	96
230.199	79
230.433	79
230.667	79
230.901	75
231.136	79
231.37	85
231.604	84
231.838	83
232.072	72
232.306	73
232.541	70
232.775	75
233.009	86
233.243	89
233.477	88
233.711	75
233.945	69
234.179	84
234.413	68
234.647	92
234.881	89
235.115	71
235.349	86
235.583	67
235.817	81
236.051	74
236.285	87
236.519	80
236.753	88
236.987	90
237.221	103
237.455	95
237.689	87
237.922	76
238.156	76
238.39	75
238.624	64
238.858	85
239.091	71
239.325	85
239.559	90
239.793	80
240.027	80
240.26	63
240.494	83
240.728	76
240.961	63
241.195	86
241.429	62
241.662	63
241.896	75
242.13	77
242.363	74
242.597	77
242.83	82
243.064	74
243.298	93
243.531	77
243.765	70
243.998	81
244.232	93
244.465	90
244.699	92
244.932	82
245.166	88
245.399	85
245.633	81
245.866	68
246.099	79
246.333	79
246.566	75
246.8	84
247.033	81
247.266	88
247.5	94
247.733	97
247.966	79
248.2	86
248.433	83
248.666	80
248.899	80
249.133	91
249.366	103
249.599	118
249.832	82
250.066	90
250.299	83
250.532	88
250.765	84
250.998	76
251.231	90
251.465	85
251.698	89
251.931	90
252.164	85
252.397	95
252.63	89
252.863	85
253.096	84
253.329	76
253.562	91
253.795	78
254.028	76
254.261	65
254.494	81
254.727	93
254.96	76
255.193	83
255.426	86
255.659	88
255.892	86
256.124	101
256.357	86
256.59	87
256.823	74
257.056	78
257.289	83
257.521	108
257.754	94
257.987	78
258.22	80
258.452	82
258.685	96
258.918	89
259.151	89
259.383	78
259.616	74
259.849	88
260.081	91
260.314	87
260.547	94
260.779	83
261.012	78
261.244	104
261.477	98
261.71	106
261.942	139
262.175	150
262.407	110
262.64	88
262.872	88
263.105	89
263.337	101
263.57	77
263.802	101
264.035	99
264.267	89
264.499	84
264.732	85
264.964	72
265.197	75
265.429	87
265.661	68
265.894	77
266.126	79
266.358	87
266.591	86
266.823	76
267.055	82
267.287	90
267.52	97
267.752	94
267.984	87
268.216	75
268.448	87
268.681	102
268.913	78
269.145	78
269.377	84
269.609	90
269.841	94
270.073	87
270.306	93
270.538	94
270.77	82
271.002	88
271.234	95
271.466	103
271.698	90
271.93	88
272.162	82
272.394	88
272.626	80
272.858	86
273.09	86
273.322	79
273.553	76
273.785	87
274.017	93
274.249	81
274.481	91
274.713	102
274.945	93
275.176	93
275.408	93
275.64	106
275.872	116
276.104	101
276.335	100
276.567	110
276.799	135
277.031	153
277.262	166
277.494	137
277.726	99
277.957	93
278.189	98
278.421	82
278.652	81
278.884	89
279.115	82
279.347	89
279.579	95
279.81	133
280.042	168
280.273	199
280.505	145
280.736	98
280.968	103
281.199	93
281.431	93
281.662	81
281.894	89
282.125	98
282.356	130
282.588	165
282.819	134
283.051	97
283.282	92
283.513	95
283.745	90
283.976	95
284.207	92
284.439	88
284.67	79
284.901	95
285.132	85
285.364	81
285.595	92
285.826	90
286.057	100
286.288	94
286.52	92
286.751	96
286.982	97
287.213	86
287.444	82
287.675	93
287.906	93
288.138	93
288.369	109
288.6	100
288.831	81
289.062	89
289.293	88
289.524	87
289.755	72
289.986	87
290.217	87
290.448	74
290.679	83
290.91	86
291.141	75
291.371	102
291.602	94
291.833	93
292.064	89
292.295	103
292.526	94
292.757	94
292.987	94
293.218	96
293.449	82
293.68	93
293.91	85
294.141	102
294.372	98
294.603	87
294.833	100
295.064	93
295.295	85
295.525	90
295.756	100
295.987	117
296.217	165
296.448	149
296.679	104
296.909	81
297.14	111
297.37	93
297.601	68
297.831	86
298.062	87
298.292	99
298.523	84
298.753	89
298.984	78
299.214	82
299.445	95
299.675	100
299.905	101
300.136	99
300.366	73
300.597	107
300.827	101
301.057	106
301.288	123
301.518	98
301.748	97
301.979	125
302.209	105
302.439	105
302.669	89
302.9	101
303.13	83
303.36	104
303.59	123
303.82	129
304.051	99
304.281	92
304.511	90
304.741	90
304.971	95
305.201	92
305.431	100
305.661	105
305.891	89
306.121	105
306.352	101
306.582	113
306.812	108
307.042	107
307.272	133
307.502	143
307.731	151
307.961	123
308.191	102
308.421	93
308.651	98
308.881	94
309.111	102
309.341	95
309.571	111
309.8	99
310.03	107
310.26	108
310.49	99
310.72	120
310.949	124
311.179	125
311.409	114
311.639	111
311.868	103
312.098	95
312.328	112
312.557	113
312.787	143
313.017	113
313.246	87
313.476	111
313.706	105
313.935	108
314.165	110
314.394	109
314.624	106
314.853	94
315.083	109
315.312	91
315.542	94
315.771	90
316.001	100
316.23	93
316.46	94
316.689	109
316.919	93
317.148	101
317.377	105
317.607	102
317.836	88
318.065	102
318.295	91
318.524	84
318.753	105
318.983	96
319.212	104
319.441	126
319.67	113
319.9	105
320.129	99
320.358	109
320.587	102
320.816	106
321.046	129
321.275	91
321.504	98
321.733	100
321.962	103
322.191	109
322.42	109
322.649	120
322.878	143
323.108	139
323.337	139
323.566	157
323.795	181
324.024	252
324.253	507
324.482	1134
324.71	2389
324.939	3167
325.168	1120
325.397	332
325.626	189
325.855	139
326.084	148
326.313	165
326.542	194
326.77	278
326.999	609
327.228	1276
327.457	2371
327.686	1875
327.914	573
328.143	460
328.372	547
328.6	325
328.829	173
329.058	173
329.287	197
329.515	178
329.744	213
329.972	399
330.201	781
330.43	1106
330.658	504
330.887	274
331.115	172
331.344	122
331.572	131
331.801	143
332.03	110
332.258	103
332.486	108
332.715	116
332.943	108
333.172	131
333.4	132
333.629	153
333.857	214
334.085	371
334.314	769
334.542	1407
334.771	1321
334.999	349
335.227	150
335.455	121
335.684	128
335.912	115
336.14	108
336.369	129
336.597	134
336.825	99
337.053	113
337.281	100
337.51	88
337.738	86
337.966	106
338.194	109
338.422	111
338.65	109
338.878	108
339.106	89
339.334	101
339.562	90
339.79	98
340.018	100
340.246	98
340.474	103
340.702	99
340.93	93
341.158	81
341.386	99
341.614	100
341.842	94
342.07	99
342.298	105
342.526	103
342.754	98
342.981	85
343.209	94
343.437	86
343.665	98
343.893	107
344.12	104
344.348	97
344.576	84
344.804	111
345.031	99
345.259	100
345.487	104
345.714	104
345.942	97
346.17	85
346.397	85
346.625	102
346.853	97
347.08	94
347.308	108
347.535	128
347.763	105
347.99	90
348.218	93
348.445	108
348.673	119
348.9	116
349.128	94
349.355	87
349.583	94
349.81	95
350.037	92
350.265	101
350.492	87
350.72	109
350.947	110
351.174	117
351.402	132
351.629	116
351.856	110
352.083	105
352.311	115
352.538	120
352.765	127
352.992	120
353.22	119
353.447	107
353.674	102
353.901	104
354.128	98
354.355	100
354.583	106
354.81	90
355.037	89
355.264	106
355.491	81
355.718	89
355.945	98
356.172	94
356.399	89
356.626	102
356.853	91
357.08	104
357.307	96
357.534	91
357.761	92
357.988	80
358.215	86
358.441	88
358.668	85
358.895	98
359.122	90
359.349	96
359.576	110
359.802	122
360.029	133
360.256	117
360.483	119
360.709	106
360.936	103
361.163	94
361.39	117
361.616	117
361.843	101
362.07	104
362.296	107
362.523	96
362.749	98
362.976	98
363.203	93
363.429	88
363.656	83
363.882	89
364.109	82
364.335	91
364.562	97
364.788	94
365.015	98
365.241	99
365.468	122
365.694	107
365.92	103
366.147	102
366.373	91
366.599	102
366.826	91
367.052	79
367.278	98
367.505	101
367.731	103
367.957	104
368.184	111
368.41	104
368.636	130
368.862	111
369.089	125
369.315	108
369.541	98
369.767	106
369.993	109
370.219	103
370.445	100
370.672	100
370.898	89
371.124	76
371.35	92
371.576	99
371.802	91
372.028	108
372.254	86
372.48	96
372.706	87
372.932	81
373.158	98
373.384	94
373.61	99
373.835	90
374.061	86
374.287	99
374.513	95
374.739	92
374.965	94
375.191	103
375.416	100
375.642	105
375.868	104
376.094	114
376.319	100
376.545	98
376.771	85
376.997	83
377.222	102
377.448	113
377.674	89
377.899	107
378.125	86
378.35	107
378.576	88
378.802	76
379.027	95
379.253	94
379.478	94
379.704	100
379.929	95
380.155	100
380.38	87
380.606	95
380.831	84
381.057	94
381.282	84
381.507	94
381.733	97
381.958	98
382.184	90
382.409	92
382.634	100
382.86	100
383.085	104
383.31	91
383.535	91
383.761	105
383.986	99
384.211	108
384.436	93
384.662	89
384.887	96
385.112	100
385.337	93
385.562	97
385.787	99
386.013	108
386.238	119
386.463	101
386.688	105
386.913	89
387.138	102
387.363	110
387.588	102
387.813	94
388.038	105
388.263	114
388.488	86
388.713	102
388.938	108
389.163	92
389.387	103
389.612	90
389.837	97
390.062	104
390.287	84
390.512	99
390.736	97
390.961	75
391.186	83
391.411	97
391.636	103
391.86	85
392.085	84
392.31	96
392.534	101
392.759	93
392.984	94
393.208	98
393.433	90
393.658	93
393.882	76
394.107	95
394.331	99
394.556	91
394.78	95
395.005	104
395.229	70
395.454	78
395.678	94
395.903	78
396.127	75
396.352	91
396.576	88
396.801	98
397.025	100
397.249	94
397.474	81
397.698	87
397.922	88
398.147	90
398.371	92
398.595	86
398.82	94
399.044	93
399.268	73
399.492	87
399.717	92
399.941	91
400.165	98
400.389	91
400.613	88
400.837	92
401.062	103
401.286	93
401.51	102
401.734	90
401.958	86
402.182	137
402.406	199
402.63	139
402.854	98
403.078	100
403.302	97
403.526	100
403.75	82
403.974	103
404.198	110
404.422	78
404.645	91
404.869	103
405.093	136
405.317	145
405.541	136
405.765	117
405.988	135
406.212	217
406.436	269
406.66	197
406.883	111
407.107	106
407.331	93
407.555	105
407.778	107
408.002	86
408.226	98
408.449	82
408.673	106
408.896	97
409.12	99
409.344	84
409.567	90
409.791	95
410.014	84
410.238	95
410.461	89
410.685	88
410.908	113
411.132	98
411.355	93
411.578	106
411.802	98
412.025	101
412.249	103
412.472	118
412.695	145
412.919	132
413.142	105
413.365	99
413.589	91
413.812	93
414.035	93
414.258	101
414.482	89
414.705	94
414.928	78
415.151	87
415.374	94
415.597	84
415.821	92
416.044	99
416.267	94
416.49	95
416.713	91
416.936	102
417.159	97
417.382	97
417.605	114
417.828	111
418.051	102
418.274	101
418.497	87
418.72	86
418.943	105
419.166	85
419.389	83
419.611	94
419.834	86
420.057	89
420.28	86
420.503	106
420.726	86
420.948	95
421.171	115
421.394	104
421.617	90
421.839	90
422.062	91
422.285	94
422.507	94
422.73	103
422.953	94
423.175	91
423.398	70
423.621	99
423.843	85
424.066	98
424.288	98
424.511	102
424.733	99
424.956	117
425.178	103
425.401	103
425.623	102
425.846	99
426.068	100
426.291	75
426.513	95
426.735	104
426.958	106
427.18	116
427.402	186
427.625	285
427.847	232
428.069	229
428.292	132
428.514	102
428.736	84
428.958	88
429.181	95
429.403	97
429.625	115
429.847	113
430.069	118
430.292	102
430.514	89
430.736	91
430.958	86
431.18	100
431.402	87
431.624	89
431.846	93
432.068	89
432.29	85
432.512	98
432.734	90
432.956	109
433.178	103
433.4	107
433.622	99
433.844	104
434.066	108
434.287	84
434.509	101
434.731	102
434.953	92
435.175	97
435.397	96
435.618	92
435.84	118
436.062	152
436.284	157
436.505	108
436.727	101
436.949	86
437.17	77
437.392	114
437.614	103
437.835	134
438.057	149
438.278	131
438.5	118
438.721	155
438.943	129
439.165	93
439.386	92
439.608	100
439.829	117
440.05	170
440.272	185
440.493	123
440.715	89
440.936	92
441.158	94
441.379	93
441.6	97
441.822	110
442.043	115
442.264	115
442.486	112
442.707	101
442.928	121
443.149	173
443.371	165
443.592	128
443.813	139
444.034	124
444.255	99
444.476	99
444.698	92
444.919	94
445.14	128
445.361	146
445.582	156
445.803	181
446.024	179
446.245	163
446.466	111
446.687	104
446.908	99
447.129	84
447.35	82
447.571	91
447.792	88
448.013	120
448.234	124
448.455	118
448.675	148
448.896	149
449.117	104
449.338	127
449.559	142
449.779	165
450	110
450.221	102
450.442	97
450.662	116
450.883	108
451.104	133
451.324	103
451.545	113
451.766	90
451.986	80
452.207	105
452.428	99
452.648	111
452.869	121
453.089	131
453.31	127
453.53	103
453.751	99
453.971	100
454.192	143
454.412	110
454.633	91
454.853	89
455.073	89
455.294	99
455.514	124
455.734	109
455.955	95
456.175	79
456.395	95
456.616	100
456.836	83
457.056	98
457.276	80
457.497	100
457.717	91
457.937	99
458.157	82
458.377	101
458.598	131
458.818	198
459.038	224
459.258	153
459.478	105
459.698	79
459.918	95
460.138	95
460.358	95
460.578	95
460.798	102
461.018	85
461.238	98
461.458	100
461.678	100
461.898	94
462.118	91
462.338	88
462.558	79
462.777	89
462.997	90
463.217	90
463.437	91
463.657	102
463.876	89
464.096	92
464.316	96
464.536	84
464.755	99
464.975	107
465.195	218
465.414	217
465.634	107
465.854	89
466.073	84
466.293	95
466.512	92
466.732	93
466.951	86
467.171	90
467.391	109
467.61	124
467.829	176
468.049	425
468.268	619
468.488	183
468.707	113
468.927	99
469.146	92
469.365	103
469.585	96
469.804	105
470.023	116
470.243	108
470.462	121
470.681	136
470.901	96
471.12	115
471.339	92
471.558	113
471.777	143
471.997	244
472.216	842
472.435	1876
472.654	471
472.873	140
473.092	110
473.311	106
473.53	84
473.749	103
473.968	103
474.187	126
474.406	121
474.625	92
474.844	86
475.063	87
475.282	81
475.501	78
475.72	104
475.939	93
476.158	83
476.377	97
476.596	84
476.814	102
477.033	102
477.252	100
477.471	88
477.69	93
477.908	90
478.127	98
478.346	103
478.564	99
478.783	96
479.002	108
479.22	111
479.439	132
479.658	134
479.876	110
480.095	110
480.313	147
480.532	143
480.751	244
480.969	790
481.188	3370
481.406	1908
481.624	311
481.843	117
482.061	103
482.28	96
482.498	86
482.717	90
482.935	90
483.153	85
483.372	98
483.59	89
483.808	97
484.027	90
484.245	97
484.463	97
484.681	88
484.9	85
485.118	98
485.336	96
485.554	109
485.772	104
485.99	117
486.209	113
486.427	109
486.645	101
486.863	132
487.081	110
487.299	111
487.517	111
487.735	91
487.953	94
488.171	102
488.389	105
488.607	104
488.825	90
489.043	84
489.261	101
489.479	99
489.696	87
489.914	99
490.132	86
490.35	91
490.568	94
490.786	87
491.003	89
491.221	93
491.439	102
491.657	102
491.874	97
492.092	92
492.31	83
492.527	93
492.745	93
492.963	94
493.18	99
493.398	96
493.615	99
493.833	95
494.05	89
494.268	98
494.485	105
494.703	92
494.92	107
495.138	105
495.355	90
495.573	94
495.79	85
496.008	93
496.225	96
496.442	87
496.66	101
496.877	106
497.094	102
497.312	102
497.529	95
497.746	88
497.963	94
498.181	104
498.398	108
498.615	113
498.832	119
499.049	98
499.267	104
499.484	88
499.701	96
499.918	82
500.135	94
500.352	76
500.569	89
500.786	97
501.003	84
501.22	95
501.437	104
501.654	91
501.871	135
502.088	107
502.305	107
502.522	98
502.739	94
502.956	82
503.172	94
503.389	106
503.606	113
503.823	100
504.04	102
504.256	94
504.473	91
504.69	87
504.907	113
505.123	90
505.34	81
505.557	107
505.773	103
505.99	95
506.207	93
506.423	95
506.64	92
506.856	91
507.073	92
507.289	85
507.506	105
507.722	109
507.939	134
508.155	109
508.372	99
508.588	88
508.805	106
509.021	97
509.238	109
509.454	93
509.67	108
509.887	102
510.103	140
510.319	241
510.536	923
510.752	3084
510.968	851
511.184	173
511.401	113
511.617	113
511.833	105
512.049	98
512.265	102
512.481	105
512.698	97
512.914	97
513.13	92
513.346	109
513.562	94
513.778	100
513.994	98
514.21	121
514.426	132
514.642	170
514.858	144
515.074	206
515.29	661
515.506	2408
515.721	851
515.937	198
516.153	129
516.369	96
516.585	110
516.801	119
517.016	106
517.232	102
517.448	92
517.664	96
517.879	109
518.095	85
518.311	114
518.527	99
518.742	94
518.958	94
519.173	101
519.389	101
519.605	115
519.82	97
520.036	111
520.251	153
520.467	140
520.682	131
520.898	136
521.113	129
521.329	187
521.544	292
521.76	870
521.975	3989
522.19	2386
522.406	472
522.621	167
522.836	119
523.052	107
523.267	100
523.482	102
523.698	113
523.913	154
524.128	122
524.343	105
524.559	96
524.774	93
524.989	113
525.204	117
525.419	113
525.634	88
525.849	91
526.064	103
526.28	92
526.495	100
526.71	92
526.925	86
527.14	102
527.355	78
527.57	92
527.785	89
527.999	81
528.214	106
528.429	94
528.644	101
528.859	99
529.074	100
529.289	167
529.503	258
529.718	106
529.933	92
530.148	90
530.363	94
530.577	84
530.792	90
531.007	91
531.221	105
531.436	94
531.651	83
531.865	79
532.08	103
532.295	102
532.509	84
532.724	98
532.938	109
533.153	105
533.367	103
533.582	79
533.796	96
534.011	81
534.225	99
534.44	102
534.654	99
534.868	92
535.083	87
535.297	88
535.511	118
535.726	103
535.94	111
536.154	98
536.369	96
536.583	91
536.797	86
537.011	102
537.225	92
537.44	88
537.654	87
537.868	86
538.082	106
538.296	103
538.51	88
538.724	94
538.938	86
539.153	101
539.367	108
539.581	102
539.795	103
540.009	106
540.222	108
540.436	99
540.65	88
540.864	92
541.078	96
541.292	94
541.506	92
541.72	106
541.934	108
542.147	104
542.361	92
542.575	95
542.789	92
543.002	91
543.216	99
543.43	108
543.644	100
543.857	90
544.071	100
544.285	103
544.498	80
544.712	79
544.925	93
545.139	100
545.352	97
545.566	103
545.779	96
545.993	90
546.206	91
546.42	91
546.633	91
546.847	86
547.06	83
547.274	83
547.487	76
547.7	83
547.914	94
548.127	86
548.34	88
548.554	93
548.767	86
548.98	106
549.193	85
549.407	85
549.62	87
549.833	77
550.046	100
550.259	79
550.473	82
550.686	98
550.899	100
551.112	89
551.325	88
551.538	97
551.751	100
551.964	85
552.177	101
552.39	95
552.603	92
552.816	101
553.029	87
553.242	73
553.455	102
553.667	121
553.88	109
554.093	92
554.306	116
554.519	102
554.732	113
554.944	94
555.157	94
555.37	90
555.583	85
555.795	95
556.008	85
556.221	92
556.433	100
556.646	101
556.859	79
557.071	76
557.284	101
557.496	82
557.709	92
557.921	93
558.134	86
558.346	86
558.559	109
558.771	95
558.984	91
559.196	109
559.409	83
559.621	99
559.833	96
560.046	105
560.258	110
560.47	115
560.683	95
560.895	96
561.107	97
561.32	100
561.532	90
561.744	98
561.956	87
562.168	85
562.381	96
562.593	91
562.805	81
563.017	102
563.229	87
563.441	100
563.653	83
563.865	98
564.077	92
564.289	94
564.501	94
564.713	78
564.925	81
565.137	119
565.349	102
565.561	88
565.773	90
565.985	93
566.197	97
566.408	98
566.62	86
566.832	80
567.044	89
567.255	93
567.467	81
567.679	92
567.891	78
568.102	95
568.314	104
568.526	94
568.737	99
568.949	89
569.161	90
569.372	87
569.584	94
569.795	91
570.007	118
570.218	287
570.43	153
570.641	100
570.853	89
571.064	86
571.276	89
571.487	88
571.698	99
571.91	108
572.121	80
572.333	79
572.544	79
572.755	92
572.966	105
573.178	78
573.389	83
573.6	88
573.811	92
574.023	90
574.234	85
574.445	85
574.656	86
574.867	73
575.078	93
575.289	103
575.501	113
575.712	99
575.923	84
576.134	85
576.345	94
576.556	90
576.767	94
576.978	92
577.188	81
577.399	98
577.61	94
577.821	117
578.032	123
578.243	307
578.454	965
578.665	269
578.875	105
579.086	94
