Data from Circ_2000_H10_HRD10591_00090.txt Node
Date: Wed Jan 03 10:49:51 EST 2024
User: Yrep
Spectrometer: HR+D1059
Trigger mode: 1
Integration Time (sec): 1.000000E-1
Scans to average: 1
Electric dark correction enabled: true
Nonlinearity correction enabled: false
Boxcar width: 0
XAxis mode: Wavelengths
Number of Pixels in Spectrum: 2048
>>>>>Begin Spectral Data<<<<<
223.165	-5.44
223.4	-5.44
223.635	-5.44
223.869	-28.44
224.104	-25.44
224.338	-19.44
224.573	-25.44
224.808	-10.44
225.042	-10.44
225.277	-9.44
225.511	-9.44
225.746	10.56
225.98	11.56
226.215	7.56
226.449	13.56
226.683	23.56
226.918	39.56
227.152	37.56
227.387	29.56
227.621	49.56
227.856	45.56
228.09	42.56
228.324	47.56
228.559	57.56
228.793	62.56
229.027	63.56
229.262	70.56
229.496	78.56
229.73	97.56
229.964	107.56
230.199	82.56
230.433	62.56
230.667	86.56
230.901	79.56
231.136	90.56
231.37	89.56
231.604	97.56
231.838	95.56
232.072	75.56
232.306	88.56
232.541	81.56
232.775	87.56
233.009	88.56
233.243	72.56
233.477	84.56
233.711	80.56
233.945	90.56
234.179	85.56
234.413	84.56
234.647	81.56
234.881	98.56
235.115	77.56
235.349	83.56
235.583	92.56
235.817	88.56
236.051	88.56
236.285	81.56
236.519	61.56
236.753	91.56
236.987	82.56
237.221	87.56
237.455	78.56
237.689	87.56
237.922	76.56
238.156	86.56
238.39	86.56
238.624	78.56
238.858	62.56
239.091	89.56
239.325	64.56
239.559	85.56
239.793	78.56
240.027	93.56
240.26	79.56
240.494	77.56
240.728	78.56
240.961	75.56
241.195	81.56
241.429	93.56
241.662	71.56
241.896	90.56
242.13	76.56
242.363	67.56
242.597	86.56
242.83	76.56
243.064	80.56
243.298	62.56
243.531	71.56
243.765	86.56
243.998	65.56
244.232	83.56
244.465	75.56
244.699	85.56
244.932	83.56
245.166	80.56
245.399	91.56
245.633	83.56
245.866	83.56
246.099	76.56
246.333	87.56
246.566	86.56
246.8	82.56
247.033	85.56
247.266	88.56
247.5	70.56
247.733	68.56
247.966	88.56
248.2	88.56
248.433	94.56
248.666	93.56
248.899	71.56
249.133	82.56
249.366	111.56
249.599	103.56
249.832	89.56
250.066	89.56
250.299	89.56
250.532	92.56
250.765	97.56
250.998	87.56
251.231	78.56
251.465	83.56
251.698	87.56
251.931	94.56
252.164	75.56
252.397	85.56
252.63	73.56
252.863	90.56
253.096	81.56
253.329	84.56
253.562	86.56
253.795	93.56
254.028	75.56
254.261	90.56
254.494	79.56
254.727	83.56
254.96	90.56
255.193	96.56
255.426	93.56
255.659	96.56
255.892	93.56
256.124	98.56
256.357	85.56
256.59	83.56
256.823	98.56
257.056	92.56
257.289	91.56
257.521	80.56
257.754	69.56
257.987	94.56
258.22	95.56
258.452	99.56
258.685	88.56
258.918	82.56
259.151	85.56
259.383	77.56
259.616	80.56
259.849	85.56
260.081	87.56
260.314	103.56
260.547	86.56
260.779	88.56
261.012	114.56
261.244	115.56
261.477	102.56
261.71	94.56
261.942	147.56
262.175	133.56
262.407	105.56
262.64	87.56
262.872	92.56
263.105	73.56
263.337	92.56
263.57	63.56
263.802	76.56
264.035	77.56
264.267	77.56
264.499	88.56
264.732	89.56
264.964	89.56
265.197	83.56
265.429	84.56
265.661	81.56
265.894	81.56
266.126	86.56
266.358	90.56
266.591	87.56
266.823	67.56
267.055	86.56
267.287	83.56
267.52	95.56
267.752	89.56
267.984	90.56
268.216	79.56
268.448	83.56
268.681	92.56
268.913	94.56
269.145	88.56
269.377	87.56
269.609	73.56
269.841	80.56
270.073	90.56
270.306	83.56
270.538	93.56
270.77	90.56
271.002	88.56
271.234	89.56
271.466	86.56
271.698	91.56
271.93	102.56
272.162	91.56
272.394	103.56
272.626	97.56
272.858	85.56
273.09	67.56
273.322	77.56
273.553	84.56
273.785	93.56
274.017	89.56
274.249	98.56
274.481	79.56
274.713	98.56
274.945	87.56
275.176	95.56
275.408	94.56
275.64	122.56
275.872	104.56
276.104	104.56
276.335	103.56
276.567	118.56
276.799	164.56
277.031	179.56
277.262	194.56
277.494	131.56
277.726	85.56
277.957	101.56
278.189	88.56
278.421	103.56
278.652	96.56
278.884	90.56
279.115	93.56
279.347	98.56
279.579	90.56
279.81	141.56
280.042	188.56
280.273	233.56
280.505	169.56
280.736	111.56
280.968	100.56
281.199	78.56
281.431	95.56
281.662	89.56
281.894	82.56
282.125	99.56
282.356	143.56
282.588	195.56
282.819	135.56
283.051	111.56
283.282	89.56
283.513	86.56
283.745	82.56
283.976	89.56
284.207	78.56
284.439	76.56
284.67	97.56
284.901	95.56
285.132	88.56
285.364	87.56
285.595	79.56
285.826	86.56
286.057	88.56
286.288	94.56
286.52	92.56
286.751	101.56
286.982	103.56
287.213	86.56
287.444	90.56
287.675	93.56
287.906	81.56
288.138	84.56
288.369	91.56
288.6	86.56
288.831	103.56
289.062	97.56
289.293	109.56
289.524	79.56
289.755	90.56
289.986	87.56
290.217	86.56
290.448	92.56
290.679	86.56
290.91	98.56
291.141	98.56
291.371	90.56
291.602	76.56
291.833	80.56
292.064	103.56
292.295	80.56
292.526	77.56
292.757	77.56
292.987	78.56
293.218	96.56
293.449	91.56
293.68	81.56
293.91	85.56
294.141	79.56
294.372	82.56
294.603	94.56
294.833	96.56
295.064	93.56
295.295	103.56
295.525	93.56
295.756	105.56
295.987	137.56
296.217	174.56
296.448	167.56
296.679	96.56
296.909	97.56
297.14	83.56
297.37	99.56
297.601	91.56
297.831	90.56
298.062	103.56
298.292	97.56
298.523	83.56
298.753	92.56
298.984	89.56
299.214	85.56
299.445	92.56
299.675	98.56
299.905	84.56
300.136	92.56
300.366	75.56
300.597	93.56
300.827	97.56
301.057	114.56
301.288	103.56
301.518	94.56
301.748	94.56
301.979	112.56
302.209	104.56
302.439	98.56
302.669	95.56
302.9	85.56
303.13	87.56
303.36	114.56
303.59	129.56
303.82	132.56
304.051	108.56
304.281	93.56
304.511	110.56
304.741	88.56
304.971	93.56
305.201	102.56
305.431	88.56
305.661	93.56
305.891	88.56
306.121	108.56
306.352	122.56
306.582	115.56
306.812	123.56
307.042	132.56
307.272	154.56
307.502	164.56
307.731	159.56
307.961	119.56
308.191	87.56
308.421	86.56
308.651	95.56
308.881	103.56
309.111	97.56
309.341	110.56
309.571	103.56
309.8	93.56
310.03	94.56
310.26	118.56
310.49	104.56
310.72	119.56
310.949	131.56
311.179	124.56
311.409	105.56
311.639	101.56
311.868	109.56
312.098	109.56
312.328	102.56
312.557	108.56
312.787	134.56
313.017	125.56
313.246	100.56
313.476	90.56
313.706	94.56
313.935	100.56
314.165	121.56
314.394	128.56
314.624	96.56
314.853	97.56
315.083	102.56
315.312	91.56
315.542	97.56
315.771	111.56
316.001	96.56
316.23	98.56
316.46	77.56
316.689	93.56
316.919	99.56
317.148	108.56
317.377	92.56
317.607	100.56
317.836	102.56
318.065	81.56
318.295	99.56
318.524	87.56
318.753	98.56
318.983	91.56
319.212	88.56
319.441	122.56
319.67	126.56
319.9	113.56
320.129	83.56
320.358	93.56
320.587	99.56
320.816	115.56
321.046	114.56
321.275	115.56
321.504	107.56
321.733	101.56
321.962	112.56
322.191	108.56
322.42	107.56
322.649	134.56
322.878	126.56
323.108	142.56
323.337	163.56
323.566	166.56
323.795	191.56
324.024	268.56
324.253	551.56
324.482	1272.56
324.71	2635.56
324.939	3422.56
325.168	1233.56
325.397	326.56
325.626	195.56
325.855	150.56
326.084	150.56
326.313	172.56
326.542	201.56
326.77	308.56
326.999	605.56
327.228	1337.56
327.457	2440.56
327.686	1950.56
327.914	623.56
328.143	559.56
328.372	678.56
328.6	374.56
328.829	209.56
329.058	208.56
329.287	209.56
329.515	210.56
329.744	253.56
329.972	486.56
330.201	988.56
330.43	1405.56
330.658	628.56
330.887	317.56
331.115	218.56
331.344	133.56
331.572	115.56
331.801	132.56
332.03	124.56
332.258	112.56
332.486	102.56
332.715	118.56
332.943	113.56
333.172	135.56
333.4	148.56
333.629	165.56
333.857	230.56
334.085	434.56
334.314	924.56
334.542	1783.56
334.771	1625.56
334.999	423.56
335.227	182.56
335.455	114.56
335.684	108.56
335.912	94.56
336.14	105.56
336.369	110.56
336.597	119.56
336.825	97.56
337.053	92.56
337.281	105.56
337.51	92.56
337.738	95.56
337.966	102.56
338.194	107.56
338.422	123.56
338.65	104.56
338.878	122.56
339.106	93.56
339.334	98.56
339.562	91.56
339.79	94.56
340.018	92.56
340.246	106.56
340.474	117.56
340.702	100.56
340.93	99.56
341.158	87.56
341.386	92.56
341.614	94.56
341.842	92.56
342.07	99.56
342.298	94.56
342.526	100.56
342.754	93.56
342.981	81.56
343.209	73.56
343.437	106.56
343.665	81.56
343.893	83.56
344.12	90.56
344.348	95.56
344.576	90.56
344.804	99.56
345.031	107.56
345.259	112.56
345.487	93.56
345.714	101.56
345.942	99.56
346.17	88.56
346.397	113.56
346.625	103.56
346.853	101.56
347.08	91.56
347.308	95.56
347.535	98.56
347.763	116.56
347.99	108.56
348.218	113.56
348.445	124.56
348.673	102.56
348.9	111.56
349.128	97.56
349.355	102.56
349.583	109.56
349.81	96.56
350.037	102.56
350.265	93.56
350.492	94.56
350.72	109.56
350.947	107.56
351.174	132.56
351.402	118.56
351.629	102.56
351.856	109.56
352.083	111.56
352.311	126.56
352.538	130.56
352.765	129.56
352.992	131.56
353.22	127.56
353.447	113.56
353.674	110.56
353.901	97.56
354.128	89.56
354.355	89.56
354.583	91.56
354.81	101.56
355.037	97.56
355.264	99.56
355.491	96.56
355.718	86.56
355.945	92.56
356.172	102.56
356.399	82.56
356.626	90.56
356.853	84.56
357.08	84.56
357.307	97.56
357.534	94.56
357.761	85.56
357.988	96.56
358.215	98.56
358.441	93.56
358.668	94.56
358.895	87.56
359.122	93.56
359.349	92.56
359.576	101.56
359.802	125.56
360.029	151.56
360.256	153.56
360.483	123.56
360.709	101.56
360.936	100.56
361.163	108.56
361.39	109.56
361.616	107.56
361.843	94.56
362.07	99.56
362.296	117.56
362.523	95.56
362.749	85.56
362.976	95.56
363.203	95.56
363.429	98.56
363.656	97.56
363.882	89.56
364.109	75.56
364.335	105.56
364.562	105.56
364.788	102.56
365.015	106.56
365.241	114.56
365.468	121.56
365.694	121.56
365.92	101.56
366.147	93.56
366.373	92.56
366.599	98.56
366.826	92.56
367.052	89.56
367.278	94.56
367.505	100.56
367.731	92.56
367.957	89.56
368.184	93.56
368.41	109.56
368.636	136.56
368.862	129.56
369.089	103.56
369.315	106.56
369.541	81.56
369.767	86.56
369.993	88.56
370.219	91.56
370.445	92.56
370.672	89.56
370.898	94.56
371.124	88.56
371.35	80.56
371.576	104.56
371.802	87.56
372.028	91.56
372.254	78.56
372.48	88.56
372.706	87.56
372.932	83.56
373.158	82.56
373.384	90.56
373.61	100.56
373.835	92.56
374.061	94.56
374.287	96.56
374.513	89.56
374.739	85.56
374.965	77.56
375.191	85.56
375.416	85.56
375.642	101.56
375.868	85.56
376.094	89.56
376.319	85.56
376.545	88.56
376.771	83.56
376.997	85.56
377.222	101.56
377.448	98.56
377.674	77.56
377.899	83.56
378.125	103.56
378.35	86.56
378.576	87.56
378.802	94.56
379.027	92.56
379.253	95.56
379.478	99.56
379.704	87.56
379.929	96.56
380.155	98.56
380.38	94.56
380.606	98.56
380.831	94.56
381.057	110.56
381.282	76.56
381.507	88.56
381.733	85.56
381.958	94.56
382.184	88.56
382.409	109.56
382.634	103.56
382.86	99.56
383.085	112.56
383.31	106.56
383.535	98.56
383.761	99.56
383.986	117.56
384.211	96.56
384.436	94.56
384.662	101.56
384.887	93.56
385.112	92.56
385.337	87.56
385.562	104.56
385.787	97.56
386.013	110.56
386.238	115.56
386.463	110.56
386.688	116.56
386.913	93.56
387.138	95.56
387.363	106.56
387.588	101.56
387.813	87.56
388.038	99.56
388.263	117.56
388.488	87.56
388.713	87.56
388.938	78.56
389.163	83.56
389.387	94.56
389.612	99.56
389.837	93.56
390.062	101.56
390.287	89.56
390.512	82.56
390.736	107.56
390.961	104.56
391.186	89.56
391.411	87.56
391.636	107.56
391.86	103.56
392.085	81.56
392.31	85.56
392.534	83.56
392.759	100.56
392.984	77.56
393.208	86.56
393.433	90.56
393.658	85.56
393.882	83.56
394.107	85.56
394.331	82.56
394.556	88.56
394.78	87.56
395.005	95.56
395.229	94.56
395.454	86.56
395.678	86.56
395.903	85.56
396.127	83.56
396.352	95.56
396.576	93.56
396.801	99.56
397.025	83.56
397.249	89.56
397.474	84.56
397.698	90.56
397.922	100.56
398.147	105.56
398.371	85.56
398.595	83.56
398.82	78.56
399.044	75.56
399.268	88.56
399.492	91.56
399.717	82.56
399.941	86.56
400.165	105.56
400.389	100.56
400.613	99.56
400.837	109.56
401.062	87.56
401.286	92.56
401.51	98.56
401.734	91.56
401.958	130.56
402.182	164.56
402.406	214.56
402.63	167.56
402.854	107.56
403.078	98.56
403.302	109.56
403.526	110.56
403.75	99.56
403.974	95.56
404.198	101.56
404.422	82.56
404.645	97.56
404.869	107.56
405.093	124.56
405.317	160.56
405.541	166.56
405.765	129.56
405.988	143.56
406.212	232.56
406.436	358.56
406.66	222.56
406.883	149.56
407.107	121.56
407.331	110.56
407.555	121.56
407.778	117.56
408.002	93.56
408.226	95.56
408.449	103.56
408.673	79.56
408.896	110.56
409.12	110.56
409.344	83.56
409.567	84.56
409.791	104.56
410.014	97.56
410.238	93.56
410.461	88.56
410.685	90.56
410.908	103.56
411.132	103.56
411.355	106.56
411.578	86.56
411.802	91.56
412.025	83.56
412.249	111.56
412.472	123.56
412.695	162.56
412.919	107.56
413.142	89.56
413.365	90.56
413.589	98.56
413.812	87.56
414.035	91.56
414.258	101.56
414.482	107.56
414.705	83.56
414.928	89.56
415.151	84.56
415.374	85.56
415.597	81.56
415.821	90.56
416.044	81.56
416.267	90.56
416.49	82.56
416.713	103.56
416.936	110.56
417.159	91.56
417.382	94.56
417.605	108.56
417.828	115.56
418.051	83.56
418.274	89.56
418.497	86.56
418.72	78.56
418.943	74.56
419.166	91.56
419.389	79.56
419.611	95.56
419.834	93.56
420.057	96.56
420.28	73.56
420.503	94.56
420.726	85.56
420.948	94.56
421.171	102.56
421.394	110.56
421.617	87.56
421.839	94.56
422.062	94.56
422.285	91.56
422.507	91.56
422.73	118.56
422.953	108.56
423.175	83.56
423.398	95.56
423.621	83.56
423.843	100.56
424.066	99.56
424.288	110.56
424.511	105.56
424.733	101.56
424.956	131.56
425.178	113.56
425.401	110.56
425.623	115.56
425.846	94.56
426.068	110.56
426.291	91.56
426.513	104.56
426.735	103.56
426.958	111.56
427.18	119.56
427.402	185.56
427.625	300.56
427.847	266.56
428.069	260.56
428.292	148.56
428.514	99.56
428.736	89.56
428.958	91.56
429.181	93.56
429.403	84.56
429.625	93.56
429.847	92.56
430.069	121.56
430.292	107.56
430.514	92.56
430.736	89.56
430.958	81.56
431.18	92.56
431.402	100.56
431.624	92.56
431.846	81.56
432.068	94.56
432.29	72.56
432.512	89.56
432.734	93.56
432.956	107.56
433.178	106.56
433.4	112.56
433.622	89.56
433.844	88.56
434.066	86.56
434.287	91.56
434.509	87.56
434.731	84.56
434.953	92.56
435.175	86.56
435.397	85.56
435.618	82.56
435.84	110.56
436.062	160.56
436.284	137.56
436.505	102.56
436.727	114.56
436.949	98.56
437.17	80.56
437.392	96.56
437.614	106.56
437.835	125.56
438.057	166.56
438.278	127.56
438.5	120.56
438.721	140.56
438.943	131.56
439.165	107.56
439.386	95.56
439.608	89.56
439.829	106.56
440.05	147.56
440.272	205.56
440.493	129.56
440.715	82.56
440.936	85.56
441.158	95.56
441.379	89.56
441.6	105.56
441.822	108.56
442.043	111.56
442.264	139.56
442.486	117.56
442.707	103.56
442.928	142.56
443.149	183.56
443.371	173.56
443.592	136.56
443.813	121.56
444.034	147.56
444.255	95.56
444.476	87.56
444.698	82.56
444.919	113.56
445.14	145.56
445.361	153.56
445.582	146.56
445.803	208.56
446.024	216.56
446.245	183.56
446.466	139.56
446.687	102.56
446.908	97.56
447.129	114.56
447.35	73.56
447.571	92.56
447.792	107.56
448.013	99.56
448.234	132.56
448.455	133.56
448.675	140.56
448.896	161.56
449.117	111.56
449.338	121.56
449.559	175.56
449.779	175.56
450	106.56
450.221	86.56
450.442	99.56
450.662	124.56
450.883	132.56
451.104	159.56
451.324	108.56
451.545	100.56
451.766	89.56
451.986	108.56
452.207	103.56
452.428	92.56
452.648	114.56
452.869	114.56
453.089	152.56
453.31	149.56
453.53	115.56
453.751	94.56
453.971	121.56
454.192	133.56
454.412	105.56
454.633	95.56
454.853	87.56
455.073	92.56
455.294	92.56
455.514	111.56
455.734	95.56
455.955	93.56
456.175	103.56
456.395	95.56
456.616	101.56
456.836	78.56
457.056	93.56
457.276	88.56
457.497	90.56
457.717	83.56
457.937	105.56
458.157	82.56
458.377	105.56
458.598	134.56
458.818	235.56
459.038	252.56
459.258	174.56
459.478	98.56
459.698	84.56
459.918	88.56
460.138	86.56
460.358	83.56
460.578	91.56
460.798	63.56
461.018	93.56
461.238	80.56
461.458	95.56
461.678	101.56
461.898	101.56
462.118	87.56
462.338	83.56
462.558	80.56
462.777	83.56
462.997	101.56
463.217	108.56
463.437	94.56
463.657	81.56
463.876	90.56
464.096	98.56
464.316	95.56
464.536	105.56
464.755	109.56
464.975	130.56
465.195	269.56
465.414	250.56
465.634	113.56
465.854	84.56
466.073	92.56
466.293	82.56
466.512	94.56
466.732	85.56
466.951	98.56
467.171	99.56
467.391	119.56
467.61	161.56
467.829	214.56
468.049	494.56
468.268	750.56
468.488	227.56
468.707	101.56
468.927	94.56
469.146	95.56
469.365	95.56
469.585	101.56
469.804	104.56
470.023	112.56
470.243	98.56
470.462	132.56
470.681	145.56
470.901	120.56
471.12	95.56
471.339	96.56
471.558	108.56
471.777	142.56
471.997	276.56
472.216	1014.56
472.435	2262.56
472.654	531.56
472.873	156.56
473.092	110.56
473.311	81.56
473.53	99.56
473.749	94.56
473.968	105.56
474.187	119.56
474.406	115.56
474.625	92.56
474.844	92.56
475.063	87.56
475.282	103.56
475.501	90.56
475.72	91.56
475.939	95.56
476.158	91.56
476.377	93.56
476.596	95.56
476.814	103.56
477.033	95.56
477.252	105.56
477.471	87.56
477.69	97.56
477.908	94.56
478.127	92.56
478.346	108.56
478.564	95.56
478.783	118.56
479.002	91.56
479.22	109.56
479.439	119.56
479.658	129.56
479.876	122.56
480.095	125.56
480.313	148.56
480.532	173.56
480.751	275.56
480.969	958.56
481.188	4017.56
481.406	2320.56
481.624	348.56
481.843	133.56
482.061	120.56
482.28	104.56
482.498	107.56
482.717	107.56
482.935	101.56
483.153	98.56
483.372	85.56
483.59	91.56
483.808	94.56
484.027	96.56
484.245	104.56
484.463	87.56
484.681	97.56
484.9	99.56
485.118	98.56
485.336	103.56
485.554	92.56
485.772	93.56
485.99	119.56
486.209	115.56
486.427	111.56
486.645	121.56
486.863	125.56
487.081	110.56
487.299	92.56
487.517	93.56
487.735	90.56
487.953	85.56
488.171	92.56
488.389	97.56
488.607	103.56
488.825	83.56
489.043	83.56
489.261	81.56
489.479	87.56
489.696	94.56
489.914	84.56
490.132	81.56
490.35	83.56
490.568	93.56
490.786	92.56
491.003	93.56
491.221	97.56
491.439	101.56
491.657	92.56
491.874	112.56
492.092	87.56
492.31	97.56
492.527	100.56
492.745	99.56
492.963	92.56
493.18	88.56
493.398	100.56
493.615	82.56
493.833	105.56
494.05	86.56
494.268	84.56
494.485	84.56
494.703	83.56
494.92	94.56
495.138	95.56
495.355	95.56
495.573	110.56
495.79	92.56
496.008	102.56
496.225	93.56
496.442	89.56
496.66	94.56
496.877	92.56
497.094	106.56
497.312	92.56
497.529	87.56
497.746	90.56
497.963	92.56
498.181	101.56
498.398	102.56
498.615	131.56
498.832	109.56
499.049	101.56
499.267	84.56
499.484	83.56
499.701	94.56
499.918	89.56
500.135	83.56
500.352	87.56
500.569	90.56
500.786	92.56
501.003	90.56
501.22	94.56
501.437	99.56
501.654	103.56
501.871	147.56
502.088	103.56
502.305	85.56
502.522	99.56
502.739	85.56
502.956	90.56
503.172	89.56
503.389	110.56
503.606	116.56
503.823	101.56
504.04	99.56
504.256	91.56
504.473	88.56
504.69	94.56
504.907	95.56
505.123	76.56
505.34	93.56
505.557	95.56
505.773	100.56
505.99	95.56
506.207	102.56
506.423	87.56
506.64	93.56
506.856	89.56
507.073	79.56
507.289	81.56
507.506	100.56
507.722	139.56
507.939	145.56
508.155	107.56
508.372	97.56
508.588	103.56
508.805	92.56
509.021	102.56
509.238	98.56
509.454	105.56
509.67	104.56
509.887	123.56
510.103	144.56
510.319	265.56
510.536	1021.56
510.752	3588.56
510.968	955.56
511.184	195.56
511.401	134.56
511.617	106.56
511.833	103.56
512.049	109.56
512.265	99.56
512.481	92.56
512.698	98.56
