Data from Circ_2000_H10_HRD10591_00089.txt Node
Date: Wed Jan 03 10:49:51 EST 2024
User: Yrep
Spectrometer: HR+D1059
Trigger mode: 1
Integration Time (sec): 1.000000E-1
Scans to average: 1
Electric dark correction enabled: true
Nonlinearity correction enabled: false
Boxcar width: 0
XAxis mode: Wavelengths
Number of Pixels in Spectrum: 2048
>>>>>Begin Spectral Data<<<<<
223.165	-7.56
223.4	-7.56
223.635	-7.56
223.869	-25.56
224.104	-22.56
224.338	-10.56
224.573	-22.56
224.808	7.44
225.042	-9.56
225.277	-10.56
225.511	-7.56
225.746	-0.56
225.98	7.44
226.215	9.44
226.449	10.44
226.683	27.44
226.918	34.44
227.152	20.44
227.387	30.44
227.621	38.44
227.856	43.44
228.09	49.44
228.324	53.44
228.559	59.44
228.793	53.44
229.027	75.44
229.262	72.44
229.496	65.44
229.73	91.44
229.964	96.44
230.199	75.44
230.433	64.44
230.667	74.44
230.901	80.44
231.136	82.44
231.37	75.44
231.604	69.44
231.838	71.44
232.072	74.44
232.306	75.44
232.541	81.44
232.775	75.44
233.009	90.44
233.243	86.44
233.477	84.44
233.711	86.44
233.945	93.44
234.179	89.44
234.413	73.44
234.647	72.44
234.881	82.44
235.115	76.44
235.349	87.44
235.583	73.44
235.817	79.44
236.051	69.44
236.285	74.44
236.519	69.44
236.753	75.44
236.987	83.44
237.221	87.44
237.455	98.44
237.689	75.44
237.922	86.44
238.156	69.44
238.39	92.44
238.624	85.44
238.858	72.44
239.091	83.44
239.325	77.44
239.559	86.44
239.793	88.44
240.027	71.44
240.26	73.44
240.494	86.44
240.728	73.44
240.961	85.44
241.195	73.44
241.429	77.44
241.662	77.44
241.896	76.44
242.13	76.44
242.363	69.44
242.597	77.44
242.83	71.44
243.064	82.44
243.298	77.44
243.531	69.44
243.765	78.44
243.998	76.44
244.232	87.44
244.465	80.44
244.699	75.44
244.932	79.44
245.166	71.44
245.399	71.44
245.633	81.44
245.866	61.44
246.099	75.44
246.333	83.44
246.566	84.44
246.8	82.44
247.033	87.44
247.266	95.44
247.5	88.44
247.733	70.44
247.966	70.44
248.2	91.44
248.433	79.44
248.666	83.44
248.899	87.44
249.133	89.44
249.366	76.44
249.599	88.44
249.832	78.44
250.066	85.44
250.299	77.44
250.532	77.44
250.765	77.44
250.998	93.44
251.231	83.44
251.465	72.44
251.698	81.44
251.931	81.44
252.164	78.44
252.397	73.44
252.63	75.44
252.863	89.44
253.096	71.44
253.329	78.44
253.562	83.44
253.795	80.44
254.028	76.44
254.261	92.44
254.494	89.44
254.727	88.44
254.96	96.44
255.193	90.44
255.426	87.44
255.659	76.44
255.892	95.44
256.124	85.44
256.357	71.44
256.59	71.44
256.823	80.44
257.056	76.44
257.289	69.44
257.521	88.44
257.754	77.44
257.987	66.44
258.22	91.44
258.452	96.44
258.685	82.44
258.918	76.44
259.151	88.44
259.383	76.44
259.616	81.44
259.849	87.44
260.081	82.44
260.314	70.44
260.547	82.44
260.779	86.44
261.012	99.44
261.244	78.44
261.477	84.44
261.71	102.44
261.942	100.44
262.175	141.44
262.407	91.44
262.64	81.44
262.872	89.44
263.105	86.44
263.337	89.44
263.57	95.44
263.802	78.44
264.035	82.44
264.267	71.44
264.499	87.44
264.732	92.44
264.964	69.44
265.197	81.44
265.429	79.44
265.661	94.44
265.894	88.44
266.126	88.44
266.358	85.44
266.591	85.44
266.823	88.44
267.055	87.44
267.287	93.44
267.52	89.44
267.752	89.44
267.984	61.44
268.216	96.44
268.448	92.44
268.681	76.44
268.913	81.44
269.145	87.44
269.377	82.44
269.609	86.44
269.841	81.44
270.073	85.44
270.306	70.44
270.538	76.44
270.77	84.44
271.002	88.44
271.234	90.44
271.466	98.44
271.698	86.44
271.93	90.44
272.162	81.44
272.394	73.44
272.626	89.44
272.858	89.44
273.09	101.44
273.322	83.44
273.553	90.44
273.785	104.44
274.017	81.44
274.249	73.44
274.481	74.44
274.713	92.44
274.945	101.44
275.176	93.44
275.408	92.44
275.64	103.44
275.872	101.44
276.104	98.44
276.335	106.44
276.567	113.44
276.799	113.44
277.031	146.44
277.262	139.44
277.494	116.44
277.726	86.44
277.957	79.44
278.189	92.44
278.421	79.44
278.652	85.44
278.884	85.44
279.115	91.44
279.347	82.44
279.579	91.44
279.81	100.44
280.042	131.44
280.273	177.44
280.505	130.44
280.736	80.44
280.968	101.44
281.199	85.44
281.431	85.44
281.662	89.44
281.894	85.44
282.125	110.44
282.356	131.44
282.588	159.44
282.819	125.44
283.051	94.44
283.282	94.44
283.513	92.44
283.745	91.44
283.976	89.44
284.207	77.44
284.439	75.44
284.67	77.44
284.901	106.44
285.132	85.44
285.364	83.44
285.595	90.44
285.826	76.44
286.057	86.44
286.288	109.44
286.52	84.44
286.751	84.44
286.982	89.44
287.213	90.44
287.444	100.44
287.675	93.44
287.906	100.44
288.138	95.44
288.369	92.44
288.6	91.44
288.831	91.44
289.062	97.44
289.293	80.44
289.524	93.44
289.755	83.44
289.986	81.44
290.217	83.44
290.448	87.44
290.679	86.44
290.91	93.44
291.141	91.44
291.371	88.44
291.602	96.44
291.833	84.44
292.064	82.44
292.295	86.44
292.526	90.44
292.757	83.44
292.987	83.44
293.218	82.44
293.449	85.44
293.68	82.44
293.91	96.44
294.141	79.44
294.372	88.44
294.603	101.44
294.833	86.44
295.064	93.44
295.295	84.44
295.525	95.44
295.756	117.44
295.987	122.44
296.217	140.44
296.448	135.44
296.679	79.44
296.909	97.44
297.14	73.44
297.37	84.44
297.601	84.44
297.831	92.44
298.062	98.44
298.292	90.44
298.523	97.44
298.753	92.44
298.984	101.44
299.214	91.44
299.445	113.44
299.675	108.44
299.905	100.44
300.136	103.44
300.366	75.44
300.597	96.44
300.827	91.44
301.057	100.44
301.288	109.44
301.518	106.44
301.748	82.44
301.979	108.44
302.209	100.44
302.439	76.44
302.669	81.44
302.9	89.44
303.13	86.44
303.36	93.44
303.59	117.44
303.82	115.44
304.051	102.44
304.281	92.44
304.511	80.44
304.741	92.44
304.971	90.44
305.201	88.44
305.431	97.44
305.661	102.44
305.891	97.44
306.121	100.44
306.352	102.44
306.582	117.44
306.812	102.44
307.042	119.44
307.272	137.44
307.502	147.44
307.731	151.44
307.961	114.44
308.191	97.44
308.421	87.44
308.651	84.44
308.881	88.44
309.111	100.44
309.341	101.44
309.571	113.44
309.8	116.44
310.03	119.44
310.26	99.44
310.49	95.44
310.72	104.44
310.949	102.44
311.179	106.44
311.409	106.44
311.639	92.44
311.868	107.44
312.098	96.44
312.328	88.44
312.557	108.44
312.787	117.44
313.017	102.44
313.246	97.44
313.476	97.44
313.706	96.44
313.935	90.44
314.165	98.44
314.394	104.44
314.624	100.44
314.853	96.44
315.083	108.44
315.312	105.44
315.542	96.44
315.771	87.44
316.001	91.44
316.23	87.44
316.46	85.44
316.689	94.44
316.919	100.44
317.148	101.44
317.377	103.44
317.607	103.44
317.836	97.44
318.065	97.44
318.295	101.44
318.524	86.44
318.753	96.44
318.983	89.44
319.212	100.44
319.441	110.44
319.67	112.44
319.9	86.44
320.129	92.44
320.358	105.44
320.587	92.44
320.816	108.44
321.046	115.44
321.275	96.44
321.504	97.44
321.733	90.44
321.962	103.44
322.191	95.44
322.42	111.44
322.649	119.44
322.878	120.44
323.108	131.44
323.337	122.44
323.566	151.44
323.795	171.44
324.024	211.44
324.253	453.44
324.482	972.44
324.71	2016.44
324.939	2653.44
325.168	977.44
325.397	273.44
325.626	164.44
325.855	135.44
326.084	153.44
326.313	131.44
326.542	163.44
326.77	265.44
326.999	495.44
327.228	1063.44
327.457	1951.44
327.686	1563.44
327.914	515.44
328.143	383.44
328.372	454.44
328.6	287.44
328.829	161.44
329.058	156.44
329.287	166.44
329.515	147.44
329.744	202.44
329.972	319.44
330.201	673.44
330.43	933.44
330.658	432.44
330.887	241.44
331.115	167.44
331.344	114.44
331.572	116.44
331.801	116.44
332.03	120.44
332.258	91.44
332.486	105.44
332.715	108.44
332.943	105.44
333.172	124.44
333.4	123.44
333.629	146.44
333.857	185.44
334.085	308.44
334.314	618.44
334.542	1156.44
334.771	1095.44
334.999	327.44
335.227	145.44
335.455	112.44
335.684	118.44
335.912	107.44
336.14	99.44
336.369	105.44
336.597	104.44
336.825	108.44
337.053	112.44
337.281	98.44
337.51	95.44
337.738	95.44
337.966	87.44
338.194	104.44
338.422	96.44
338.65	90.44
338.878	78.44
339.106	89.44
339.334	95.44
339.562	87.44
339.79	107.44
340.018	89.44
340.246	103.44
340.474	112.44
340.702	100.44
340.93	111.44
341.158	85.44
341.386	95.44
341.614	101.44
341.842	89.44
342.07	93.44
342.298	80.44
342.526	90.44
342.754	89.44
342.981	108.44
343.209	92.44
343.437	93.44
343.665	89.44
343.893	66.44
344.12	87.44
344.348	97.44
344.576	97.44
344.804	91.44
345.031	104.44
345.259	109.44
345.487	105.44
345.714	90.44
345.942	84.44
346.17	85.44
346.397	93.44
346.625	86.44
346.853	97.44
347.08	90.44
347.308	100.44
347.535	113.44
347.763	114.44
347.99	98.44
348.218	119.44
348.445	110.44
348.673	95.44
348.9	115.44
349.128	115.44
349.355	83.44
349.583	88.44
349.81	88.44
350.037	102.44
350.265	98.44
350.492	101.44
350.72	108.44
350.947	111.44
351.174	115.44
351.402	119.44
351.629	129.44
351.856	115.44
352.083	99.44
352.311	120.44
352.538	124.44
352.765	103.44
352.992	126.44
353.22	124.44
353.447	104.44
353.674	93.44
353.901	91.44
354.128	106.44
354.355	103.44
354.583	98.44
354.81	108.44
355.037	100.44
355.264	96.44
355.491	92.44
355.718	92.44
355.945	93.44
356.172	111.44
356.399	74.44
356.626	83.44
356.853	93.44
357.08	104.44
357.307	90.44
357.534	82.44
357.761	88.44
357.988	95.44
358.215	91.44
358.441	88.44
358.668	88.44
358.895	83.44
359.122	82.44
359.349	90.44
359.576	90.44
359.802	104.44
360.029	116.44
360.256	112.44
360.483	109.44
360.709	98.44
360.936	94.44
361.163	102.44
361.39	96.44
361.616	107.44
361.843	99.44
362.07	104.44
362.296	95.44
362.523	95.44
362.749	93.44
362.976	74.44
363.203	91.44
363.429	91.44
363.656	99.44
363.882	88.44
364.109	96.44
364.335	90.44
364.562	84.44
364.788	96.44
365.015	92.44
365.241	100.44
365.468	99.44
365.694	109.44
365.92	99.44
366.147	99.44
366.373	91.44
366.599	89.44
366.826	101.44
367.052	86.44
367.278	96.44
367.505	76.44
367.731	97.44
367.957	81.44
368.184	98.44
368.41	101.44
368.636	129.44
368.862	142.44
369.089	114.44
369.315	93.44
369.541	99.44
369.767	89.44
369.993	101.44
370.219	95.44
370.445	93.44
370.672	91.44
370.898	90.44
371.124	99.44
371.35	88.44
371.576	88.44
371.802	75.44
372.028	85.44
372.254	79.44
372.48	85.44
372.706	87.44
372.932	93.44
373.158	101.44
373.384	93.44
373.61	89.44
373.835	91.44
374.061	84.44
374.287	97.44
374.513	111.44
374.739	97.44
374.965	100.44
375.191	93.44
375.416	81.44
375.642	100.44
375.868	92.44
376.094	102.44
376.319	100.44
376.545	75.44
376.771	94.44
376.997	96.44
377.222	90.44
377.448	83.44
377.674	86.44
377.899	83.44
378.125	97.44
378.35	82.44
378.576	85.44
378.802	105.44
379.027	90.44
379.253	86.44
379.478	70.44
379.704	91.44
379.929	93.44
380.155	98.44
380.38	103.44
380.606	88.44
380.831	109.44
381.057	93.44
381.282	96.44
381.507	98.44
381.733	85.44
381.958	91.44
382.184	105.44
382.409	87.44
382.634	91.44
382.86	107.44
383.085	95.44
383.31	94.44
383.535	91.44
383.761	109.44
383.986	93.44
384.211	96.44
384.436	92.44
384.662	96.44
384.887	102.44
385.112	93.44
385.337	97.44
385.562	97.44
385.787	106.44
386.013	127.44
386.238	114.44
386.463	105.44
386.688	106.44
386.913	105.44
387.138	101.44
387.363	99.44
387.588	98.44
387.813	95.44
388.038	111.44
388.263	109.44
388.488	96.44
388.713	91.44
388.938	94.44
389.163	88.44
389.387	93.44
389.612	98.44
389.837	84.44
390.062	91.44
390.287	90.44
390.512	87.44
390.736	91.44
390.961	95.44
391.186	100.44
391.411	98.44
391.636	74.44
391.86	81.44
392.085	75.44
392.31	84.44
392.534	81.44
392.759	91.44
392.984	80.44
393.208	92.44
393.433	96.44
393.658	93.44
393.882	75.44
394.107	88.44
394.331	90.44
394.556	79.44
394.78	91.44
395.005	74.44
395.229	81.44
395.454	88.44
395.678	93.44
395.903	97.44
396.127	95.44
396.352	81.44
396.576	84.44
396.801	85.44
397.025	72.44
397.249	94.44
397.474	88.44
397.698	96.44
397.922	82.44
398.147	97.44
398.371	78.44
398.595	97.44
398.82	95.44
399.044	88.44
399.268	83.44
399.492	80.44
399.717	94.44
399.941	90.44
400.165	83.44
400.389	74.44
400.613	87.44
400.837	87.44
401.062	85.44
401.286	85.44
401.51	83.44
401.734	99.44
401.958	107.44
402.182	151.44
402.406	179.44
402.63	135.44
402.854	96.44
403.078	90.44
403.302	92.44
403.526	90.44
403.75	99.44
403.974	96.44
404.198	94.44
404.422	93.44
404.645	88.44
404.869	101.44
405.093	105.44
405.317	136.44
405.541	123.44
405.765	105.44
405.988	121.44
406.212	197.44
406.436	306.44
406.66	199.44
406.883	109.44
407.107	86.44
407.331	108.44
407.555	96.44
407.778	96.44
408.002	87.44
408.226	101.44
408.449	95.44
408.673	95.44
408.896	98.44
409.12	103.44
409.344	92.44
409.567	89.44
409.791	84.44
410.014	99.44
410.238	93.44
410.461	95.44
410.685	99.44
410.908	98.44
411.132	93.44
411.355	101.44
411.578	90.44
411.802	88.44
412.025	94.44
412.249	108.44
412.472	120.44
412.695	135.44
412.919	105.44
413.142	82.44
413.365	87.44
413.589	87.44
413.812	96.44
414.035	90.44
414.258	91.44
414.482	100.44
414.705	102.44
414.928	95.44
415.151	105.44
415.374	86.44
415.597	87.44
415.821	83.44
416.044	91.44
416.267	76.44
416.49	88.44
416.713	94.44
416.936	88.44
417.159	69.44
417.382	88.44
417.605	111.44
417.828	108.44
418.051	104.44
418.274	85.44
418.497	97.44
418.72	79.44
418.943	83.44
419.166	79.44
419.389	88.44
419.611	96.44
419.834	78.44
420.057	92.44
420.28	95.44
420.503	83.44
420.726	75.44
420.948	86.44
421.171	93.44
421.394	108.44
421.617	81.44
421.839	91.44
422.062	89.44
422.285	101.44
422.507	113.44
422.73	99.44
422.953	92.44
423.175	80.44
423.398	80.44
423.621	83.44
423.843	81.44
424.066	85.44
424.288	94.44
424.511	96.44
424.733	101.44
424.956	104.44
425.178	84.44
425.401	108.44
425.623	92.44
425.846	102.44
426.068	92.44
426.291	87.44
426.513	86.44
426.735	88.44
426.958	103.44
427.18	100.44
427.402	162.44
427.625	219.44
427.847	195.44
428.069	182.44
428.292	111.44
428.514	95.44
428.736	102.44
428.958	77.44
429.181	82.44
429.403	92.44
429.625	88.44
429.847	102.44
430.069	96.44
430.292	80.44
430.514	81.44
430.736	89.44
430.958	103.44
431.18	82.44
431.402	74.44
431.624	77.44
431.846	90.44
432.068	82.44
432.29	88.44
432.512	77.44
432.734	92.44
432.956	96.44
433.178	105.44
433.4	105.44
433.622	87.44
433.844	91.44
434.066	100.44
434.287	82.44
434.509	81.44
434.731	91.44
434.953	100.44
435.175	99.44
435.397	91.44
435.618	76.44
435.84	106.44
436.062	129.44
436.284	133.44
436.505	109.44
436.727	99.44
436.949	92.44
437.17	89.44
437.392	84.44
437.614	94.44
437.835	110.44
438.057	120.44
438.278	116.44
438.5	123.44
438.721	140.44
438.943	101.44
439.165	90.44
439.386	99.44
439.608	101.44
439.829	108.44
440.05	132.44
440.272	155.44
440.493	113.44
440.715	80.44
440.936	92.44
441.158	81.44
441.379	103.44
441.6	101.44
441.822	100.44
442.043	92.44
442.264	111.44
442.486	113.44
442.707	99.44
442.928	123.44
443.149	151.44
443.371	164.44
443.592	138.44
443.813	142.44
444.034	114.44
444.255	93.44
444.476	89.44
444.698	100.44
444.919	84.44
445.14	155.44
445.361	120.44
445.582	118.44
445.803	154.44
446.024	156.44
446.245	144.44
446.466	117.44
446.687	106.44
446.908	95.44
447.129	83.44
447.35	77.44
447.571	92.44
447.792	76.44
448.013	86.44
448.234	124.44
448.455	115.44
448.675	118.44
448.896	120.44
449.117	97.44
449.338	101.44
449.559	145.44
449.779	139.44
450	95.44
450.221	82.44
450.442	89.44
450.662	92.44
450.883	128.44
451.104	121.44
451.324	116.44
451.545	82.44
451.766	94.44
451.986	75.44
452.207	87.44
452.428	94.44
452.648	108.44
452.869	112.44
453.089	132.44
453.31	141.44
453.53	101.44
453.751	100.44
453.971	124.44
454.192	130.44
454.412	113.44
454.633	97.44
454.853	71.44
455.073	87.44
455.294	99.44
455.514	105.44
455.734	86.44
455.955	92.44
456.175	96.44
456.395	93.44
456.616	86.44
456.836	83.44
457.056	74.44
457.276	87.44
457.497	81.44
457.717	80.44
457.937	88.44
458.157	86.44
458.377	100.44
458.598	121.44
458.818	185.44
459.038	211.44
459.258	138.44
459.478	89.44
459.698	103.44
459.918	83.44
460.138	80.44
460.358	82.44
460.578	106.44
460.798	103.44
461.018	91.44
461.238	85.44
461.458	94.44
461.678	75.44
461.898	67.44
462.118	78.44
462.338	95.44
462.558	81.44
462.777	80.44
462.997	90.44
463.217	110.44
463.437	91.44
463.657	95.44
463.876	81.44
464.096	85.44
464.316	90.44
464.536	100.44
464.755	105.44
464.975	123.44
465.195	211.44
465.414	208.44
465.634	100.44
465.854	85.44
466.073	88.44
466.293	88.44
466.512	79.44
466.732	75.44
466.951	100.44
467.171	101.44
467.391	109.44
467.61	140.44
467.829	168.44
468.049	372.44
468.268	539.44
468.488	165.44
468.707	113.44
468.927	110.44
469.146	79.44
469.365	84.44
469.585	84.44
469.804	102.44
470.023	124.44
470.243	101.44
470.462	123.44
470.681	124.44
470.901	92.44
471.12	96.44
471.339	95.44
471.558	108.44
471.777	119.44
471.997	209.44
472.216	731.44
472.435	1615.44
472.654	402.44
472.873	129.44
473.092	93.44
473.311	88.44
473.53	95.44
473.749	99.44
473.968	103.44
474.187	103.44
474.406	105.44
474.625	82.44
474.844	89.44
475.063	91.44
475.282	93.44
475.501	100.44
475.72	101.44
475.939	85.44
476.158	95.44
476.377	87.44
476.596	97.44
476.814	89.44
477.033	109.44
477.252	90.44
477.471	91.44
477.69	91.44
477.908	93.44
478.127	98.44
478.346	91.44
478.564	93.44
478.783	91.44
479.002	101.44
479.22	101.44
479.439	118.44
479.658	124.44
479.876	116.44
480.095	113.44
480.313	128.44
480.532	130.44
480.751	212.44
480.969	681.44
481.188	2804.44
481.406	1650.44
481.624	283.44
481.843	123.44
482.061	93.44
482.28	105.44
482.498	92.44
482.717	93.44
482.935	85.44
483.153	89.44
483.372	76.44
483.59	93.44
483.808	91.44
484.027	82.44
484.245	98.44
484.463	89.44
484.681	94.44
484.9	87.44
485.118	104.44
485.336	95.44
485.554	93.44
485.772	119.44
485.99	106.44
486.209	104.44
486.427	110.44
486.645	112.44
486.863	138.44
487.081	109.44
487.299	95.44
487.517	91.44
487.735	85.44
487.953	100.44
488.171	86.44
488.389	100.44
488.607	96.44
488.825	96.44
489.043	100.44
489.261	77.44
489.479	76.44
489.696	96.44
489.914	104.44
490.132	91.44
490.35	90.44
490.568	80.44
490.786	91.44
491.003	108.44
491.221	87.44
491.439	98.44
491.657	95.44
491.874	96.44
492.092	91.44
492.31	96.44
492.527	105.44
492.745	94.44
492.963	81.44
493.18	82.44
493.398	86.44
493.615	93.44
493.833	82.44
494.05	100.44
494.268	98.44
494.485	90.44
494.703	82.44
494.92	85.44
495.138	87.44
495.355	99.44
495.573	84.44
495.79	111.44
496.008	93.44
496.225	88.44
496.442	88.44
496.66	93.44
496.877	93.44
497.094	88.44
497.312	80.44
497.529	95.44
497.746	94.44
497.963	81.44
498.181	98.44
498.398	95.44
498.615	118.44
498.832	107.44
499.049	97.44
499.267	98.44
499.484	85.44
499.701	101.44
499.918	89.44
500.135	92.44
500.352	84.44
500.569	97.44
500.786	99.44
501.003	91.44
501.22	96.44
501.437	97.44
501.654	100.44
501.871	112.44
502.088	91.44
502.305	104.44
502.522	87.44
502.739	79.44
502.956	96.44
503.172	80.44
503.389	91.44
503.606	138.44
503.823	107.44
504.04	86.44
504.256	83.44
504.473	86.44
504.69	92.44
504.907	86.44
505.123	75.44
505.34	92.44
505.557	101.44
505.773	98.44
505.99	97.44
506.207	96.44
506.423	89.44
506.64	91.44
506.856	98.44
507.073	82.44
507.289	91.44
507.506	100.44
507.722	128.44
507.939	122.44
508.155	101.44
508.372	93.44
508.588	95.44
508.805	94.44
509.021	89.44
509.238	105.44
509.454	95.44
509.67	104.44
509.887	111.44
510.103	141.44
510.319	230.44
510.536	842.44
510.752	3058.44
510.968	831.44
511.184	184.44
511.401	123.44
511.617	108.44
511.833	114.44
512.049	91.44
512.265	88.44
512.481	90.44
512.698	101.44
512.914	81.44
513.13	87.44
513.346	87.44
513.562	97.44
513.778	114.44
513.994	96.44
