Data from Circ_2000_H10_HRD10591_00011.txt Node
Date: Wed Jan 03 10:49:36 EST 2024
User: Yrep
Spectrometer: HR+D1059
Trigger mode: 1
Integration Time (sec): 1.000000E-1
Scans to average: 1
Electric dark correction enabled: true
Nonlinearity correction enabled: false
Boxcar width: 0
XAxis mode: Wavelengths
Number of Pixels in Spectrum: 2048
>>>>>Begin Spectral Data<<<<<
223.165	-30.56
223.4	-30.56
223.635	-30.56
223.869	-11.56
224.104	-18.56
224.338	0.44
224.573	-19.56
224.808	5.44
225.042	-1.56
225.277	-11.56
225.511	0.44
225.746	-1.56
225.98	4.44
226.215	8.44
226.449	3.44
226.683	13.44
226.918	28.44
227.152	30.44
227.387	18.44
227.621	36.44
227.856	32.44
228.09	37.44
228.324	48.44
228.559	55.44
228.793	44.44
229.027	48.44
229.262	62.44
229.496	79.44
229.73	81.44
229.964	82.44
230.199	78.44
230.433	76.44
230.667	71.44
230.901	75.44
231.136	89.44
231.37	84.44
231.604	82.44
231.838	77.44
232.072	79.44
232.306	82.44
232.541	79.44
232.775	88.44
233.009	78.44
233.243	82.44
233.477	90.44
233.711	90.44
233.945	79.44
234.179	72.44
234.413	72.44
234.647	92.44
234.881	70.44
235.115	89.44
235.349	82.44
235.583	87.44
235.817	76.44
236.051	86.44
236.285	83.44
236.519	79.44
236.753	77.44
236.987	94.44
237.221	87.44
237.455	92.44
237.689	85.44
237.922	85.44
238.156	68.44
238.39	87.44
238.624	77.44
238.858	76.44
239.091	60.44
239.325	81.44
239.559	83.44
239.793	70.44
240.027	68.44
240.26	76.44
240.494	75.44
240.728	77.44
240.961	72.44
241.195	85.44
241.429	90.44
241.662	77.44
241.896	68.44
242.13	72.44
242.363	64.44
242.597	72.44
242.83	71.44
243.064	76.44
243.298	75.44
243.531	81.44
243.765	78.44
243.998	83.44
244.232	86.44
244.465	86.44
244.699	77.44
244.932	73.44
245.166	76.44
245.399	80.44
245.633	67.44
245.866	78.44
246.099	88.44
246.333	77.44
246.566	83.44
246.8	70.44
247.033	89.44
247.266	81.44
247.5	89.44
247.733	90.44
247.966	73.44
248.2	74.44
248.433	83.44
248.666	80.44
248.899	79.44
249.133	87.44
249.366	91.44
249.599	100.44
249.832	74.44
250.066	87.44
250.299	90.44
250.532	89.44
250.765	80.44
250.998	82.44
251.231	81.44
251.465	74.44
251.698	80.44
251.931	81.44
252.164	69.44
252.397	80.44
252.63	74.44
252.863	79.44
253.096	73.44
253.329	76.44
253.562	71.44
253.795	88.44
254.028	68.44
254.261	79.44
254.494	75.44
254.727	81.44
254.96	86.44
255.193	76.44
255.426	76.44
255.659	86.44
255.892	77.44
256.124	84.44
256.357	75.44
256.59	80.44
256.823	68.44
257.056	80.44
257.289	87.44
257.521	70.44
257.754	93.44
257.987	87.44
258.22	88.44
258.452	89.44
258.685	93.44
258.918	77.44
259.151	78.44
259.383	78.44
259.616	93.44
259.849	73.44
260.081	94.44
260.314	77.44
260.547	87.44
260.779	83.44
261.012	90.44
261.244	90.44
261.477	93.44
261.71	89.44
261.942	104.44
262.175	117.44
262.407	104.44
262.64	74.44
262.872	85.44
263.105	82.44
263.337	60.44
263.57	81.44
263.802	75.44
264.035	86.44
264.267	87.44
264.499	82.44
264.732	77.44
264.964	69.44
265.197	81.44
265.429	94.44
265.661	85.44
265.894	67.44
266.126	84.44
266.358	75.44
266.591	78.44
266.823	85.44
267.055	86.44
267.287	94.44
267.52	84.44
267.752	81.44
267.984	89.44
268.216	80.44
268.448	94.44
268.681	82.44
268.913	73.44
269.145	74.44
269.377	94.44
269.609	71.44
269.841	86.44
270.073	85.44
270.306	94.44
270.538	79.44
270.77	74.44
271.002	83.44
271.234	87.44
271.466	77.44
271.698	74.44
271.93	72.44
272.162	78.44
272.394	92.44
272.626	71.44
272.858	80.44
273.09	87.44
273.322	94.44
273.553	90.44
273.785	77.44
274.017	86.44
274.249	81.44
274.481	96.44
274.713	86.44
274.945	82.44
275.176	85.44
275.408	89.44
275.64	90.44
275.872	97.44
276.104	100.44
276.335	87.44
276.567	101.44
276.799	123.44
277.031	121.44
277.262	109.44
277.494	108.44
277.726	91.44
277.957	85.44
278.189	73.44
278.421	87.44
278.652	77.44
278.884	86.44
279.115	87.44
279.347	93.44
279.579	89.44
279.81	88.44
280.042	115.44
280.273	119.44
280.505	121.44
280.736	94.44
280.968	89.44
281.199	80.44
281.431	103.44
281.662	82.44
281.894	82.44
282.125	106.44
282.356	118.44
282.588	140.44
282.819	107.44
283.051	96.44
283.282	83.44
283.513	94.44
283.745	92.44
283.976	96.44
284.207	91.44
284.439	87.44
284.67	92.44
284.901	83.44
285.132	87.44
285.364	88.44
285.595	83.44
285.826	82.44
286.057	100.44
286.288	76.44
286.52	77.44
286.751	85.44
286.982	89.44
287.213	80.44
287.444	77.44
287.675	83.44
287.906	101.44
288.138	88.44
288.369	108.44
288.6	91.44
288.831	85.44
289.062	89.44
289.293	84.44
289.524	91.44
289.755	94.44
289.986	91.44
290.217	75.44
290.448	84.44
290.679	81.44
290.91	104.44
291.141	89.44
291.371	105.44
291.602	94.44
291.833	92.44
292.064	74.44
292.295	82.44
292.526	82.44
292.757	89.44
292.987	88.44
293.218	85.44
293.449	90.44
293.68	85.44
293.91	95.44
294.141	93.44
294.372	91.44
294.603	81.44
294.833	90.44
295.064	92.44
295.295	96.44
295.525	75.44
295.756	95.44
295.987	115.44
296.217	130.44
296.448	116.44
296.679	102.44
296.909	105.44
297.14	89.44
297.37	72.44
297.601	90.44
297.831	81.44
298.062	99.44
298.292	100.44
298.523	101.44
298.753	92.44
298.984	94.44
299.214	87.44
299.445	95.44
299.675	93.44
299.905	105.44
300.136	96.44
300.366	105.44
300.597	93.44
300.827	91.44
301.057	91.44
301.288	110.44
301.518	99.44
301.748	96.44
301.979	96.44
302.209	99.44
302.439	87.44
302.669	83.44
302.9	96.44
303.13	93.44
303.36	101.44
303.59	102.44
303.82	107.44
304.051	90.44
304.281	96.44
304.511	99.44
304.741	105.44
304.971	91.44
305.201	89.44
305.431	88.44
305.661	102.44
305.891	88.44
306.121	104.44
306.352	109.44
306.582	95.44
306.812	91.44
307.042	99.44
307.272	100.44
307.502	101.44
307.731	124.44
307.961	97.44
308.191	93.44
308.421	108.44
308.651	92.44
308.881	87.44
309.111	97.44
309.341	105.44
309.571	94.44
309.8	89.44
310.03	85.44
310.26	101.44
310.49	102.44
310.72	99.44
310.949	104.44
311.179	106.44
311.409	105.44
311.639	97.44
311.868	90.44
312.098	96.44
312.328	79.44
312.557	108.44
312.787	114.44
313.017	92.44
313.246	98.44
313.476	105.44
313.706	86.44
313.935	109.44
314.165	93.44
314.394	105.44
314.624	89.44
314.853	103.44
315.083	93.44
315.312	86.44
315.542	92.44
315.771	98.44
316.001	93.44
316.23	90.44
316.46	93.44
316.689	100.44
316.919	87.44
317.148	100.44
317.377	96.44
317.607	103.44
317.836	93.44
318.065	98.44
318.295	113.44
318.524	88.44
318.753	89.44
318.983	87.44
319.212	96.44
319.441	98.44
319.67	106.44
319.9	101.44
320.129	88.44
320.358	98.44
320.587	107.44
320.816	99.44
321.046	86.44
321.275	97.44
321.504	88.44
321.733	108.44
321.962	106.44
322.191	107.44
322.42	113.44
322.649	122.44
322.878	112.44
323.108	119.44
323.337	142.44
323.566	139.44
323.795	171.44
324.024	214.44
324.253	447.44
324.482	904.44
324.71	1984.44
324.939	2564.44
325.168	921.44
325.397	268.44
325.626	158.44
325.855	136.44
326.084	121.44
326.313	150.44
326.542	166.44
326.77	261.44
326.999	510.44
327.228	1076.44
327.457	1942.44
327.686	1552.44
327.914	441.44
328.143	294.44
328.372	282.44
328.6	193.44
328.829	143.44
329.058	144.44
329.287	138.44
329.515	137.44
329.744	159.44
329.972	228.44
330.201	380.44
330.43	495.44
330.658	270.44
330.887	181.44
331.115	142.44
331.344	115.44
331.572	101.44
331.801	109.44
332.03	117.44
332.258	113.44
332.486	99.44
332.715	108.44
332.943	80.44
333.172	103.44
333.4	98.44
333.629	119.44
333.857	156.44
334.085	211.44
334.314	346.44
334.542	622.44
334.771	541.44
334.999	187.44
335.227	117.44
335.455	114.44
335.684	106.44
335.912	108.44
336.14	120.44
336.369	113.44
336.597	102.44
336.825	110.44
337.053	112.44
337.281	81.44
337.51	106.44
337.738	92.44
337.966	89.44
338.194	90.44
338.422	91.44
338.65	90.44
338.878	86.44
339.106	91.44
339.334	100.44
339.562	68.44
339.79	90.44
340.018	85.44
340.246	84.44
340.474	96.44
340.702	90.44
340.93	87.44
341.158	93.44
341.386	101.44
341.614	99.44
341.842	111.44
342.07	101.44
342.298	80.44
342.526	90.44
342.754	97.44
342.981	93.44
343.209	93.44
343.437	96.44
343.665	90.44
343.893	108.44
344.12	90.44
344.348	96.44
344.576	88.44
344.804	87.44
345.031	113.44
345.259	93.44
345.487	90.44
345.714	95.44
345.942	92.44
346.17	103.44
346.397	91.44
346.625	90.44
346.853	94.44
347.08	85.44
347.308	107.44
347.535	87.44
347.763	99.44
347.99	101.44
348.218	97.44
348.445	109.44
348.673	96.44
348.9	97.44
349.128	101.44
349.355	88.44
349.583	97.44
349.81	91.44
350.037	100.44
350.265	107.44
350.492	108.44
350.72	100.44
350.947	114.44
351.174	105.44
351.402	114.44
351.629	122.44
351.856	105.44
352.083	107.44
352.311	105.44
352.538	108.44
352.765	110.44
352.992	118.44
353.22	116.44
353.447	102.44
353.674	96.44
353.901	96.44
354.128	84.44
354.355	94.44
354.583	94.44
354.81	93.44
355.037	93.44
355.264	105.44
355.491	82.44
355.718	94.44
355.945	98.44
356.172	104.44
356.399	86.44
356.626	93.44
356.853	91.44
357.08	92.44
357.307	92.44
357.534	84.44
357.761	109.44
357.988	98.44
358.215	93.44
358.441	98.44
358.668	90.44
358.895	78.44
359.122	94.44
359.349	93.44
359.576	97.44
359.802	101.44
360.029	115.44
360.256	115.44
360.483	100.44
360.709	99.44
360.936	102.44
361.163	94.44
361.39	96.44
361.616	95.44
361.843	99.44
362.07	94.44
362.296	101.44
362.523	82.44
362.749	98.44
362.976	91.44
363.203	100.44
363.429	89.44
363.656	79.44
363.882	81.44
364.109	96.44
364.335	106.44
364.562	85.44
364.788	91.44
365.015	84.44
365.241	88.44
365.468	99.44
365.694	113.44
365.92	100.44
366.147	93.44
366.373	89.44
366.599	92.44
366.826	79.44
367.052	99.44
367.278	109.44
367.505	92.44
367.731	91.44
367.957	86.44
368.184	74.44
368.41	106.44
368.636	105.44
368.862	120.44
369.089	114.44
369.315	95.44
369.541	85.44
369.767	111.44
369.993	96.44
370.219	95.44
370.445	90.44
370.672	98.44
370.898	91.44
371.124	85.44
371.35	77.44
371.576	77.44
371.802	102.44
372.028	85.44
372.254	100.44
372.48	82.44
372.706	84.44
372.932	82.44
373.158	88.44
373.384	98.44
373.61	85.44
373.835	92.44
374.061	93.44
374.287	93.44
374.513	93.44
374.739	91.44
374.965	83.44
375.191	86.44
375.416	97.44
375.642	93.44
375.868	97.44
376.094	76.44
376.319	91.44
376.545	105.44
376.771	96.44
376.997	93.44
377.222	101.44
377.448	98.44
377.674	90.44
377.899	96.44
378.125	102.44
378.35	94.44
378.576	102.44
378.802	88.44
379.027	93.44
379.253	100.44
379.478	106.44
379.704	100.44
379.929	91.44
380.155	96.44
380.38	89.44
380.606	100.44
380.831	97.44
381.057	111.44
381.282	112.44
381.507	99.44
381.733	99.44
381.958	97.44
382.184	124.44
382.409	83.44
382.634	112.44
382.86	102.44
383.085	105.44
383.31	103.44
383.535	98.44
383.761	97.44
383.986	117.44
384.211	115.44
384.436	103.44
384.662	119.44
384.887	123.44
385.112	130.44
385.337	114.44
385.562	123.44
385.787	118.44
386.013	133.44
386.238	125.44
386.463	129.44
386.688	134.44
386.913	144.44
387.138	124.44
387.363	113.44
387.588	104.44
387.813	116.44
388.038	121.44
388.263	147.44
388.488	117.44
388.713	95.44
388.938	85.44
389.163	100.44
389.387	91.44
389.612	100.44
389.837	95.44
390.062	92.44
390.287	84.44
390.512	84.44
390.736	90.44
390.961	97.44
391.186	101.44
391.411	87.44
391.636	94.44
391.86	86.44
392.085	92.44
392.31	76.44
392.534	67.44
392.759	91.44
392.984	94.44
393.208	116.44
393.433	108.44
393.658	99.44
393.882	90.44
394.107	91.44
394.331	86.44
394.556	90.44
394.78	91.44
395.005	92.44
395.229	89.44
395.454	77.44
395.678	89.44
395.903	78.44
396.127	67.44
396.352	80.44
396.576	83.44
396.801	88.44
397.025	82.44
397.249	99.44
397.474	88.44
397.698	102.44
397.922	79.44
398.147	85.44
398.371	92.44
398.595	90.44
398.82	86.44
399.044	89.44
399.268	93.44
399.492	94.44
399.717	100.44
399.941	89.44
400.165	91.44
400.389	81.44
400.613	72.44
400.837	80.44
401.062	99.44
401.286	98.44
401.51	93.44
401.734	89.44
401.958	100.44
402.182	124.44
402.406	170.44
402.63	124.44
402.854	108.44
403.078	87.44
403.302	91.44
403.526	100.44
403.75	93.44
403.974	90.44
404.198	89.44
404.422	97.44
404.645	99.44
404.869	94.44
405.093	98.44
405.317	148.44
405.541	115.44
405.765	108.44
405.988	130.44
406.212	160.44
406.436	244.44
406.66	176.44
406.883	108.44
407.107	97.44
407.331	105.44
407.555	108.44
407.778	95.44
408.002	106.44
408.226	95.44
408.449	90.44
408.673	94.44
408.896	87.44
409.12	99.44
409.344	97.44
409.567	86.44
409.791	91.44
410.014	94.44
410.238	102.44
410.461	92.44
410.685	94.44
410.908	101.44
411.132	100.44
411.355	103.44
411.578	91.44
411.802	81.44
412.025	87.44
412.249	87.44
412.472	121.44
412.695	122.44
412.919	95.44
413.142	102.44
413.365	94.44
413.589	93.44
413.812	97.44
414.035	97.44
414.258	84.44
414.482	99.44
414.705	82.44
414.928	90.44
415.151	93.44
415.374	92.44
415.597	78.44
415.821	77.44
416.044	79.44
416.267	98.44
416.49	83.44
416.713	98.44
416.936	94.44
417.159	83.44
417.382	84.44
417.605	94.44
417.828	87.44
418.051	100.44
418.274	99.44
418.497	77.44
418.72	88.44
418.943	90.44
419.166	80.44
419.389	71.44
419.611	86.44
419.834	86.44
420.057	92.44
420.28	96.44
420.503	100.44
420.726	105.44
420.948	88.44
421.171	99.44
421.394	97.44
421.617	101.44
421.839	92.44
422.062	94.44
422.285	101.44
422.507	101.44
422.73	103.44
422.953	88.44
423.175	96.44
423.398	89.44
423.621	96.44
423.843	93.44
424.066	87.44
424.288	90.44
424.511	96.44
424.733	101.44
424.956	103.44
425.178	102.44
425.401	101.44
425.623	93.44
425.846	93.44
426.068	100.44
426.291	92.44
426.513	93.44
426.735	90.44
426.958	80.44
427.18	118.44
427.402	142.44
427.625	211.44
427.847	173.44
428.069	184.44
428.292	105.44
428.514	91.44
428.736	85.44
428.958	86.44
429.181	84.44
429.403	87.44
429.625	84.44
429.847	93.44
430.069	113.44
430.292	97.44
430.514	101.44
430.736	92.44
430.958	88.44
431.18	95.44
431.402	86.44
431.624	73.44
431.846	82.44
432.068	96.44
432.29	86.44
432.512	101.44
432.734	85.44
432.956	97.44
433.178	98.44
433.4	95.44
433.622	81.44
433.844	99.44
434.066	90.44
434.287	88.44
434.509	82.44
434.731	90.44
434.953	91.44
435.175	93.44
435.397	94.44
435.618	97.44
435.84	102.44
436.062	121.44
436.284	133.44
436.505	109.44
436.727	96.44
436.949	82.44
437.17	89.44
437.392	84.44
437.614	91.44
437.835	108.44
438.057	121.44
438.278	127.44
438.5	121.44
438.721	136.44
438.943	109.44
439.165	95.44
439.386	102.44
439.608	93.44
439.829	94.44
440.05	125.44
440.272	148.44
440.493	106.44
440.715	89.44
440.936	93.44
441.158	82.44
441.379	82.44
441.6	96.44
441.822	102.44
442.043	116.44
442.264	121.44
442.486	97.44
442.707	100.44
442.928	118.44
443.149	137.44
443.371	146.44
443.592	122.44
443.813	117.44
444.034	106.44
444.255	103.44
444.476	97.44
444.698	85.44
444.919	88.44
445.14	120.44
445.361	137.44
445.582	133.44
445.803	146.44
446.024	144.44
446.245	146.44
446.466	109.44
446.687	88.44
446.908	97.44
447.129	87.44
447.35	90.44
447.571	97.44
447.792	104.44
448.013	93.44
448.234	111.44
448.455	106.44
448.675	120.44
448.896	128.44
449.117	105.44
449.338	130.44
449.559	134.44
449.779	144.44
450	96.44
450.221	91.44
450.442	91.44
450.662	93.44
450.883	97.44
451.104	109.44
451.324	101.44
451.545	80.44
451.766	77.44
451.986	86.44
452.207	80.44
452.428	92.44
452.648	104.44
452.869	116.44
453.089	123.44
453.31	107.44
453.53	96.44
453.751	88.44
453.971	102.44
454.192	117.44
454.412	90.44
454.633	72.44
454.853	92.44
455.073	87.44
455.294	96.44
455.514	94.44
455.734	96.44
455.955	87.44
456.175	70.44
456.395	79.44
456.616	102.44
456.836	90.44
457.056	78.44
457.276	94.44
457.497	90.44
457.717	88.44
457.937	84.44
458.157	88.44
458.377	97.44
458.598	104.44
458.818	164.44
459.038	186.44
459.258	124.44
459.478	98.44
459.698	95.44
459.918	87.44
460.138	79.44
460.358	88.44
460.578	90.44
460.798	85.44
461.018	109.44
461.238	82.44
461.458	89.44
461.678	81.44
461.898	71.44
462.118	78.44
462.338	91.44
462.558	83.44
462.777	82.44
462.997	100.44
463.217	84.44
463.437	91.44
463.657	91.44
463.876	92.44
464.096	99.44
464.316	99.44
464.536	105.44
464.755	98.44
464.975	103.44
465.195	170.44
465.414	158.44
465.634	98.44
465.854	95.44
466.073	88.44
466.293	90.44
466.512	87.44
466.732	84.44
466.951	83.44
467.171	86.44
467.391	92.44
467.61	114.44
467.829	130.44
468.049	206.44
468.268	286.44
468.488	129.44
468.707	93.44
468.927	84.44
469.146	78.44
469.365	87.44
469.585	86.44
469.804	101.44
470.023	98.44
470.243	87.44
470.462	98.44
470.681	112.44
470.901	98.44
471.12	100.44
471.339	94.44
471.558	79.44
471.777	112.44
471.997	146.44
472.216	386.44
472.435	757.44
472.654	228.44
472.873	90.44
473.092	86.44
473.311	68.44
473.53	84.44
473.749	82.44
473.968	102.44
474.187	121.44
474.406	115.44
474.625	102.44
474.844	97.44
475.063	83.44
475.282	86.44
475.501	80.44
475.72	90.44
475.939	79.44
476.158	83.44
476.377	99.44
476.596	78.44
476.814	105.44
477.033	104.44
477.252	92.44
477.471	85.44
477.69	71.44
477.908	87.44
478.127	86.44
478.346	93.44
478.564	99.44
478.783	101.44
479.002	96.44
479.22	104.44
479.439	109.44
479.658	109.44
479.876	79.44
480.095	97.44
480.313	108.44
480.532	109.44
480.751	152.44
480.969	371.44
481.188	1328.44
481.406	778.44
481.624	170.44
481.843	89.44
482.061	92.44
482.28	90.44
482.498	77.44
482.717	91.44
482.935	83.44
483.153	80.44
483.372	79.44
483.59	91.44
483.808	85.44
484.027	86.44
484.245	99.44
484.463	95.44
484.681	95.44
484.9	92.44
485.118	94.44
485.336	101.44
485.554	104.44
485.772	111.44
485.99	91.44
486.209	103.44
486.427	105.44
486.645	110.44
486.863	107.44
487.081	101.44
487.299	109.44
487.517	108.44
487.735	88.44
487.953	98.44
488.171	84.44
488.389	102.44
488.607	88.44
488.825	85.44
489.043	88.44
489.261	88.44
489.479	82.44
489.696	92.44
489.914	89.44
490.132	92.44
490.35	95.44
490.568	72.44
490.786	93.44
491.003	88.44
491.221	98.44
491.439	105.44
491.657	93.44
491.874	85.44
492.092	86.44
492.31	81.44
492.527	88.44
492.745	94.44
492.963	94.44
493.18	104.44
493.398	95.44
493.615	86.44
493.833	90.44
494.05	90.44
494.268	78.44
494.485	98.44
494.703	78.44
494.92	96.44
495.138	105.44
495.355	85.44
495.573	98.44
495.79	96.44
496.008	90.44
496.225	86.44
496.442	91.44
496.66	93.44
496.877	94.44
497.094	92.44
497.312	92.44
497.529	93.44
497.746	104.44
497.963	80.44
498.181	82.44
498.398	105.44
498.615	110.44
498.832	109.44
499.049	91.44
499.267	94.44
499.484	101.44
499.701	90.44
499.918	85.44
500.135	93.44
500.352	89.44
500.569	90.44
500.786	100.44
501.003	93.44
501.22	85.44
501.437	91.44
501.654	98.44
501.871	94.44
502.088	92.44
502.305	92.44
502.522	87.44
502.739	83.44
502.956	89.44
503.172	99.44
503.389	91.44
503.606	107.44
503.823	118.44
504.04	88.44
504.256	80.44
504.473	92.44
504.69	89.44
504.907	97.44
505.123	77.44
505.34	77.44
505.557	87.44
505.773	101.44
505.99	104.44
506.207	94.44
506.423	78.44
506.64	80.44
506.856	98.44
507.073	86.44
507.289	85.44
507.506	99.44
507.722	112.44
507.939	107.44
508.155	107.44
508.372	81.44
508.588	81.44
508.805	105.44
509.021	96.44
509.238	91.44
509.454	96.44
509.67	101.44
509.887	106.44
510.103	129.44
510.319	213.44
510.536	753.44
510.752	2475.44
510.968	684.44
511.184	162.44
511.401	124.44
511.617	87.44
511.833	95.44
512.049	92.44
512.265	99.44
512.481	105.44
512.698	93.44
512.914	83.44
513.13	86.44
513.346	94.44
513.562	111.44
513.778	108.44
513.994	96.44
514.21	108.44
514.426	121.44
