Data from Circ_2000_H10_HRD10591_00007.txt Node
Date: Wed Jan 03 10:49:35 EST 2024
User: Yrep
Spectrometer: HR+D1059
Trigger mode: 1
Integration Time (sec): 1.000000E-1
Scans to average: 1
Electric dark correction enabled: true
Nonlinearity correction enabled: false
Boxcar width: 0
XAxis mode: Wavelengths
Number of Pixels in Spectrum: 2048
>>>>>Begin Spectral Data<<<<<
223.165	-27
223.4	-27
223.635	-27
223.869	-23
224.104	-20
224.338	-8
224.573	-12
224.808	-38
225.042	3
225.277	-8
225.511	-9
225.746	11
225.98	22
226.215	15
226.449	17
226.683	27
226.918	21
227.152	29
227.387	43
227.621	30
227.856	48
228.09	52
228.324	36
228.559	49
228.793	61
229.027	53
229.262	64
229.496	80
229.73	77
229.964	75
230.199	70
230.433	75
230.667	81
230.901	97
231.136	64
231.37	83
231.604	80
231.838	85
232.072	82
232.306	75
232.541	76
232.775	82
233.009	81
233.243	83
233.477	78
233.711	76
233.945	69
234.179	79
234.413	73
234.647	83
234.881	70
235.115	79
235.349	87
235.583	83
235.817	76
236.051	79
236.285	74
236.519	91
236.753	74
236.987	85
237.221	92
237.455	80
237.689	86
237.922	81
238.156	63
238.39	77
238.624	67
238.858	77
239.091	77
239.325	85
239.559	80
239.793	89
240.027	79
240.26	85
240.494	77
240.728	81
240.961	75
241.195	77
241.429	76
241.662	83
241.896	76
242.13	81
242.363	75
242.597	76
242.83	92
243.064	87
243.298	75
243.531	64
243.765	94
243.998	75
244.232	91
244.465	91
244.699	86
244.932	81
245.166	72
245.399	75
245.633	80
245.866	68
246.099	88
246.333	76
246.566	68
246.8	67
247.033	72
247.266	69
247.5	93
247.733	81
247.966	79
248.2	82
248.433	70
248.666	90
248.899	82
249.133	81
249.366	92
249.599	90
249.832	91
250.066	81
250.299	79
250.532	84
250.765	82
250.998	83
251.231	82
251.465	78
251.698	82
251.931	64
252.164	77
252.397	78
252.63	79
252.863	88
253.096	74
253.329	88
253.562	87
253.795	74
254.028	85
254.261	83
254.494	82
254.727	88
254.96	87
255.193	75
255.426	66
255.659	82
255.892	83
256.124	88
256.357	91
256.59	78
256.823	88
257.056	83
257.289	82
257.521	73
257.754	81
257.987	90
258.22	83
258.452	90
258.685	86
258.918	72
259.151	96
259.383	80
259.616	88
259.849	82
260.081	83
260.314	79
260.547	80
260.779	81
261.012	84
261.244	84
261.477	82
261.71	93
261.942	100
262.175	115
262.407	95
262.64	85
262.872	72
263.105	74
263.337	86
263.57	84
263.802	81
264.035	78
264.267	90
264.499	76
264.732	66
264.964	91
265.197	88
265.429	68
265.661	88
265.894	99
266.126	81
266.358	88
266.591	81
266.823	86
267.055	83
267.287	88
267.52	86
267.752	89
267.984	85
268.216	88
268.448	79
268.681	75
268.913	80
269.145	90
269.377	91
269.609	80
269.841	89
270.073	80
270.306	97
270.538	101
270.77	98
271.002	92
271.234	94
271.466	85
271.698	89
271.93	88
272.162	85
272.394	74
272.626	86
272.858	90
273.09	80
273.322	79
273.553	84
273.785	86
274.017	99
274.249	85
274.481	86
274.713	84
274.945	74
275.176	66
275.408	88
275.64	85
275.872	82
276.104	88
276.335	86
276.567	105
276.799	93
277.031	103
277.262	89
277.494	92
277.726	92
277.957	85
278.189	90
278.421	101
278.652	94
278.884	76
279.115	93
279.347	87
279.579	84
279.81	102
280.042	91
280.273	106
280.505	102
280.736	88
280.968	91
281.199	93
281.431	79
281.662	77
281.894	80
282.125	88
282.356	107
282.588	129
282.819	101
283.051	89
283.282	88
283.513	82
283.745	80
283.976	77
284.207	78
284.439	70
284.67	83
284.901	97
285.132	74
285.364	91
285.595	86
285.826	78
286.057	87
286.288	75
286.52	92
286.751	92
286.982	84
287.213	83
287.444	73
287.675	92
287.906	100
288.138	75
288.369	90
288.6	97
288.831	84
289.062	94
289.293	74
289.524	86
289.755	96
289.986	80
290.217	76
290.448	100
290.679	84
290.91	68
291.141	72
291.371	84
291.602	102
291.833	81
292.064	84
292.295	88
292.526	74
292.757	89
292.987	89
293.218	78
293.449	75
293.68	92
293.91	78
294.141	81
294.372	93
294.603	85
294.833	91
295.064	83
295.295	99
295.525	78
295.756	104
295.987	112
296.217	126
296.448	97
296.679	83
296.909	77
297.14	102
297.37	93
297.601	84
297.831	89
298.062	84
298.292	100
298.523	98
298.753	90
298.984	82
299.214	82
299.445	83
299.675	87
299.905	104
300.136	99
300.366	93
300.597	86
300.827	82
301.057	83
301.288	94
301.518	94
301.748	86
301.979	97
302.209	78
302.439	100
302.669	89
302.9	89
303.13	89
303.36	99
303.59	92
303.82	104
304.051	86
304.281	81
304.511	89
304.741	97
304.971	81
305.201	85
305.431	80
305.661	92
305.891	90
306.121	85
306.352	90
306.582	96
306.812	91
307.042	102
307.272	83
307.502	102
307.731	88
307.961	100
308.191	84
308.421	103
308.651	90
308.881	91
309.111	98
309.341	94
309.571	101
309.8	102
310.03	89
310.26	107
310.49	93
310.72	102
310.949	96
311.179	97
311.409	90
311.639	100
311.868	102
312.098	96
312.328	97
312.557	93
312.787	116
313.017	87
313.246	85
313.476	80
313.706	92
313.935	93
314.165	104
314.394	86
314.624	92
314.853	84
315.083	92
315.312	82
315.542	90
315.771	87
316.001	84
316.23	82
316.46	88
316.689	97
316.919	102
317.148	88
317.377	93
317.607	90
317.836	84
318.065	92
318.295	92
318.524	83
318.753	89
318.983	96
319.212	107
319.441	90
319.67	102
319.9	90
320.129	82
320.358	93
320.587	85
320.816	99
321.046	104
321.275	86
321.504	92
321.733	83
321.962	107
322.191	92
322.42	96
322.649	97
322.878	107
323.108	97
323.337	101
323.566	120
323.795	135
324.024	184
324.253	324
324.482	716
324.71	1407
324.939	1938
325.168	698
325.397	210
325.626	143
325.855	130
326.084	116
326.313	125
326.542	136
326.77	213
326.999	420
327.228	860
327.457	1551
327.686	1190
327.914	343
328.143	208
328.372	192
328.6	144
328.829	102
329.058	120
329.287	129
329.515	103
329.744	116
329.972	146
330.201	224
330.43	282
330.658	172
330.887	146
331.115	140
331.344	102
331.572	93
331.801	89
332.03	96
332.258	98
332.486	93
332.715	81
332.943	86
333.172	110
333.4	97
333.629	108
333.857	118
334.085	144
334.314	221
334.542	366
334.771	333
334.999	132
335.227	115
335.455	86
335.684	99
335.912	100
336.14	85
336.369	104
336.597	97
336.825	92
337.053	94
337.281	93
337.51	111
337.738	92
337.966	83
338.194	90
338.422	101
338.65	104
338.878	81
339.106	98
339.334	97
339.562	79
339.79	84
340.018	83
340.246	99
340.474	85
340.702	97
340.93	88
341.158	79
341.386	88
341.614	74
341.842	91
342.07	86
342.298	91
342.526	82
342.754	90
342.981	76
343.209	78
343.437	101
343.665	88
343.893	88
344.12	85
344.348	100
344.576	85
344.804	101
345.031	96
345.259	85
345.487	82
345.714	89
345.942	82
346.17	95
346.397	102
346.625	92
346.853	92
347.08	93
347.308	81
347.535	92
347.763	88
347.99	94
348.218	93
348.445	113
348.673	93
348.9	89
349.128	91
349.355	84
349.583	89
349.81	102
350.037	91
350.265	101
350.492	89
350.72	97
350.947	87
351.174	115
351.402	108
351.629	95
351.856	87
352.083	89
352.311	100
352.538	115
352.765	119
352.992	107
353.22	101
353.447	115
353.674	100
353.901	98
354.128	89
354.355	93
354.583	86
354.81	93
355.037	70
355.264	85
355.491	85
355.718	97
355.945	91
356.172	99
356.399	90
356.626	96
356.853	91
357.08	100
357.307	100
357.534	104
357.761	100
357.988	105
358.215	105
358.441	106
358.668	115
358.895	90
359.122	103
359.349	99
359.576	94
359.802	89
360.029	93
360.256	103
360.483	93
360.709	86
360.936	102
361.163	91
361.39	101
361.616	91
361.843	91
362.07	84
362.296	103
362.523	87
362.749	88
362.976	80
363.203	100
363.429	102
363.656	91
363.882	84
364.109	94
364.335	80
364.562	97
364.788	99
365.015	91
365.241	88
365.468	94
365.694	91
365.92	86
366.147	88
366.373	84
366.599	89
366.826	82
367.052	90
367.278	84
367.505	109
367.731	97
367.957	77
368.184	89
368.41	82
368.636	93
368.862	107
369.089	103
369.315	88
369.541	94
369.767	97
369.993	104
370.219	90
370.445	90
370.672	73
370.898	75
371.124	85
371.35	72
371.576	85
371.802	91
372.028	99
372.254	89
372.48	102
372.706	96
372.932	75
373.158	93
373.384	100
373.61	94
373.835	78
374.061	81
374.287	90
374.513	84
374.739	101
374.965	83
375.191	98
375.416	97
375.642	90
375.868	97
376.094	86
376.319	88
376.545	91
376.771	91
376.997	91
377.222	82
377.448	94
377.674	94
377.899	112
378.125	97
378.35	92
378.576	85
378.802	88
379.027	104
379.253	104
379.478	95
379.704	94
379.929	90
380.155	94
380.38	98
380.606	101
380.831	104
381.057	115
381.282	100
381.507	106
381.733	95
381.958	91
382.184	94
382.409	112
382.634	92
382.86	110
383.085	115
383.31	110
383.535	115
383.761	114
383.986	104
384.211	108
384.436	107
384.662	121
384.887	121
385.112	136
385.337	117
385.562	122
385.787	130
386.013	132
386.238	145
386.463	131
386.688	130
386.913	132
387.138	141
387.363	128
387.588	119
387.813	119
388.038	120
388.263	127
388.488	140
388.713	93
388.938	87
389.163	90
389.387	101
389.612	100
389.837	85
390.062	93
390.287	90
390.512	93
390.736	97
390.961	87
391.186	93
391.411	98
391.636	97
391.86	84
392.085	77
392.31	78
392.534	83
392.759	81
392.984	97
393.208	104
393.433	111
393.658	84
393.882	83
394.107	79
394.331	76
394.556	85
394.78	94
395.005	76
395.229	78
395.454	94
395.678	86
395.903	80
396.127	102
396.352	97
396.576	85
396.801	94
397.025	102
397.249	99
397.474	97
397.698	70
397.922	83
398.147	86
398.371	76
398.595	85
398.82	85
399.044	97
399.268	75
399.492	92
399.717	90
399.941	94
400.165	93
400.389	90
400.613	90
400.837	89
401.062	94
401.286	76
401.51	102
401.734	87
401.958	85
402.182	121
402.406	129
402.63	94
402.854	80
403.078	86
403.302	76
403.526	79
403.75	90
403.974	84
404.198	81
404.422	75
404.645	92
404.869	91
405.093	98
405.317	116
405.541	109
405.765	92
405.988	108
406.212	157
406.436	193
406.66	117
406.883	90
407.107	99
407.331	90
407.555	94
407.778	94
408.002	101
408.226	98
408.449	96
408.673	96
408.896	87
409.12	103
409.344	94
409.567	90
409.791	102
410.014	101
410.238	89
410.461	92
410.685	105
410.908	100
411.132	114
411.355	91
411.578	68
411.802	85
412.025	96
412.249	104
412.472	87
412.695	109
412.919	102
413.142	91
413.365	95
413.589	87
413.812	89
414.035	98
414.258	73
414.482	101
414.705	90
414.928	102
415.151	107
415.374	90
415.597	90
415.821	82
416.044	91
416.267	98
416.49	101
416.713	84
416.936	104
417.159	78
417.382	91
417.605	89
417.828	95
418.051	87
418.274	92
418.497	83
418.72	97
418.943	107
419.166	94
419.389	90
419.611	97
419.834	102
420.057	84
420.28	88
420.503	97
420.726	89
420.948	90
421.171	92
421.394	95
421.617	87
421.839	84
422.062	94
422.285	104
422.507	94
422.73	108
422.953	99
423.175	98
423.398	89
423.621	74
423.843	92
424.066	79
424.288	89
424.511	92
424.733	90
424.956	103
425.178	98
425.401	105
425.623	99
425.846	91
426.068	84
426.291	87
426.513	83
426.735	82
426.958	103
427.18	101
427.402	136
427.625	165
427.847	136
428.069	141
428.292	103
428.514	87
428.736	96
428.958	88
429.181	84
429.403	80
429.625	90
429.847	73
430.069	105
430.292	102
430.514	89
430.736	89
430.958	85
431.18	88
431.402	85
431.624	99
431.846	66
432.068	90
432.29	87
432.512	91
432.734	89
432.956	93
433.178	97
433.4	106
433.622	83
433.844	102
434.066	102
434.287	94
434.509	91
434.731	92
434.953	97
435.175	96
435.397	104
435.618	85
435.84	94
436.062	118
436.284	122
436.505	106
436.727	102
436.949	92
437.17	81
437.392	78
437.614	83
437.835	109
438.057	130
438.278	109
438.5	106
438.721	133
438.943	100
439.165	95
439.386	83
439.608	98
439.829	97
440.05	121
440.272	116
440.493	91
440.715	89
440.936	86
441.158	89
441.379	86
441.6	93
441.822	89
442.043	97
442.264	98
442.486	94
442.707	87
442.928	99
443.149	115
443.371	131
443.592	117
443.813	107
444.034	98
444.255	93
444.476	101
444.698	81
444.919	90
445.14	129
445.361	119
445.582	136
445.803	134
446.024	143
446.245	148
446.466	114
446.687	92
446.908	84
447.129	86
447.35	97
447.571	86
447.792	82
448.013	100
448.234	96
448.455	96
448.675	119
448.896	123
449.117	117
449.338	96
449.559	133
449.779	130
450	100
450.221	95
450.442	109
450.662	100
450.883	102
451.104	101
451.324	91
451.545	91
451.766	88
451.986	102
452.207	84
452.428	83
452.648	91
452.869	118
453.089	105
453.31	103
453.53	91
453.751	98
453.971	91
454.192	96
454.412	88
454.633	74
454.853	78
455.073	79
455.294	88
455.514	102
455.734	101
455.955	103
456.175	64
456.395	69
456.616	96
456.836	84
457.056	85
457.276	88
457.497	83
457.717	93
457.937	87
458.157	87
458.377	99
458.598	98
458.818	139
459.038	144
459.258	120
459.478	86
459.698	76
459.918	91
460.138	89
460.358	76
460.578	76
460.798	89
461.018	76
461.238	78
461.458	93
461.678	72
461.898	76
462.118	79
462.338	90
462.558	94
462.777	94
462.997	94
463.217	89
463.437	77
463.657	81
463.876	84
464.096	85
464.316	88
464.536	100
464.755	98
464.975	113
465.195	160
465.414	157
465.634	93
465.854	89
466.073	89
466.293	88
466.512	90
466.732	89
466.951	85
467.171	92
467.391	90
467.61	85
467.829	105
468.049	147
468.268	174
468.488	94
468.707	75
468.927	91
469.146	97
469.365	94
469.585	81
469.804	90
470.023	96
470.243	97
470.462	113
470.681	122
470.901	86
471.12	79
471.339	86
471.558	93
471.777	91
471.997	112
472.216	235
472.435	416
472.654	162
472.873	98
473.092	81
473.311	93
473.53	84
473.749	94
473.968	97
474.187	106
474.406	92
474.625	89
474.844	80
475.063	77
475.282	96
475.501	89
475.72	89
475.939	91
476.158	83
476.377	84
476.596	100
476.814	113
477.033	92
477.252	61
477.471	81
477.69	93
477.908	93
478.127	91
478.346	81
478.564	100
478.783	91
479.002	97
479.22	92
479.439	112
479.658	119
479.876	93
480.095	94
480.313	90
480.532	105
480.751	130
480.969	216
481.188	648
481.406	444
481.624	125
481.843	109
482.061	87
482.28	101
482.498	84
482.717	85
482.935	77
483.153	88
483.372	90
483.59	72
483.808	73
484.027	100
484.245	90
484.463	92
484.681	103
484.9	85
485.118	92
485.336	101
485.554	104
485.772	113
485.99	106
486.209	104
486.427	111
486.645	117
486.863	104
487.081	113
487.299	117
487.517	98
487.735	101
487.953	102
488.171	77
488.389	79
488.607	94
488.825	100
489.043	91
489.261	85
489.479	93
489.696	98
489.914	84
490.132	89
490.35	96
490.568	102
490.786	81
491.003	86
491.221	108
491.439	91
491.657	89
491.874	89
492.092	90
492.31	81
492.527	98
492.745	93
492.963	90
493.18	97
493.398	86
493.615	84
493.833	91
494.05	91
494.268	89
494.485	89
494.703	92
494.92	84
495.138	80
495.355	103
495.573	85
495.79	91
496.008	86
496.225	75
496.442	83
496.66	95
496.877	92
497.094	100
497.312	82
497.529	89
497.746	93
497.963	94
498.181	85
498.398	105
498.615	98
498.832	109
499.049	90
499.267	94
499.484	94
499.701	101
499.918	94
500.135	97
500.352	84
500.569	98
500.786	92
501.003	95
501.22	88
501.437	84
501.654	100
501.871	97
502.088	96
502.305	94
502.522	102
502.739	96
502.956	94
503.172	107
503.389	106
503.606	98
503.823	92
504.04	103
504.256	92
504.473	104
504.69	84
504.907	95
505.123	94
505.34	87
505.557	73
505.773	107
505.99	85
506.207	103
506.423	83
506.64	90
506.856	96
507.073	93
507.289	101
507.506	93
507.722	97
507.939	104
508.155	111
508.372	91
508.588	97
508.805	89
509.021	99
509.238	91
509.454	91
509.67	92
509.887	99
510.103	124
510.319	190
510.536	610
510.752	1845
510.968	534
511.184	148
511.401	100
511.617	87
511.833	101
512.049	96
512.265	88
512.481	100
512.698	79
512.914	99
513.13	93
513.346	95
513.562	91
513.778	96
513.994	102
514.21	97
514.426	114
514.642	113
514.858	115
515.074	159
515.29	358
515.506	1140
515.721	434
515.937	145
516.153	97
516.369	100
516.585	94
516.801	96
517.016	90
517.232	98
517.448	86
517.664	99
517.879	97
518.095	97
518.311	92
518.527	96
518.742	91
518.958	100
519.173	91
519.389	100
519.605	115
519.82	120
520.036	97
520.251	103
520.467	99
520.682	113
520.898	108
521.113	106
521.329	119
521.544	186
521.76	442
521.975	1878
522.19	1188
522.406	271
522.621	129
522.836	100
523.052	89
523.267	90
523.482	99
523.698	104
523.913	107
524.128	101
524.343	96
524.559	85
524.774	91
524.989	100
525.204	104
525.419	92
525.634	101
525.849	103
526.064	90
526.28	97
526.495	76
526.71	102
526.925	91
527.14	82
527.355	105
527.57	100
527.785	91
527.999	85
528.214	92
528.429	113
528.644	95
528.859	86
529.074	110
529.289	112
529.503	162
529.718	106
529.933	90
530.148	83
530.363	84
530.577	89
530.792	79
531.007	88
531.221	76
531.436	94
531.651	94
531.865	90
532.08	100
532.295	96
532.509	87
532.724	103
532.938	105
533.153	100
533.367	103
533.582	105
533.796	92
534.011	99
534.225	89
534.44	101
534.654	104
534.868	95
535.083	86
535.297	89
535.511	91
535.726	97
535.94	100
536.154	95
536.369	91
536.583	92
536.797	82
537.011	85
537.225	107
537.44	70
537.654	86
537.868	76
538.082	79
538.296	83
538.51	97
538.724	99
538.938	76
539.153	104
539.367	117
539.581	91
539.795	94
540.009	101
540.222	85
540.436	88
540.65	87
540.864	87
541.078	102
541.292	94
541.506	88
541.72	81
541.934	85
542.147	85
542.361	98
542.575	91
542.789	102
543.002	91
543.216	78
543.43	88
543.644	98
543.857	93
544.071	89
544.285	100
544.498	88
544.712	99
544.925	84
545.139	91
545.352	80
545.566	86
545.779	93
545.993	86
546.206	94
546.42	99
546.633	94
546.847	93
547.06	96
547.274	100
547.487	83
547.7	91
547.914	81
548.127	74
548.34	84
548.554	90
548.767	89
548.98	86
549.193	85
549.407	93
549.62	84
549.833	92
550.046	88
550.259	95
550.473	100
550.686	96
550.899	73
551.112	86
551.325	90
551.538	79
551.751	82
551.964	91
552.177	89
552.39	83
552.603	86
552.816	81
553.029	91
553.242	84
553.455	98
553.667	104
553.88	86
554.093	92
554.306	88
554.519	96
554.732	94
554.944	79
555.157	84
555.37	98
555.583	92
555.795	96
556.008	103
556.221	85
556.433	94
556.646	91
556.859	93
557.071	98
557.284	96
557.496	109
557.709	87
557.921	84
558.134	102
558.346	87
558.559	81
558.771	86
558.984	94
559.196	89
559.409	80
559.621	68
559.833	87
560.046	98
560.258	97
560.47	105
560.683	93
560.895	95
561.107	93
561.32	94
561.532	90
561.744	72
561.956	93
562.168	89
562.381	92
562.593	99
562.805	102
563.017	98
563.229	98
563.441	94
563.653	82
563.865	82
564.077	80
564.289	74
564.501	83
564.713	91
564.925	94
565.137	90
565.349	93
565.561	84
565.773	91
565.985	94
566.197	88
566.408	98
566.62	81
566.832	90
567.044	75
567.255	84
567.467	92
567.679	84
567.891	81
568.102	95
568.314	86
568.526	99
568.737	94
568.949	82
569.161	82
569.372	93
569.584	84
569.795	88
570.007	107
570.218	201
570.43	117
570.641	94
570.853	84
571.064	101
571.276	84
571.487	81
571.698	77
571.91	84
572.121	89
572.333	97
572.544	102
572.755	90
572.966	77
573.178	86
573.389	101
573.6	87
573.811	86
574.023	88
574.234	84
574.445	92
574.656	88
574.867	85
575.078	88
575.289	82
575.501	90
575.712	85
575.923	91
576.134	88
576.345	82
576.556	84
576.767	103
576.978	99
577.188	104
577.399	99
577.61	98
577.821	99
578.032	94
578.243	236
578.454	593
578.665	194
578.875	104
579.086	96
579.297	92
579.508	90
579.718	101
579.929	93
580.14	85
580.35	89
580.561	87
580.772	86
580.982	101
581.193	92
581.403	89
581.614	85
581.825	85
582.035	90
582.246	93
582.456	76
582.667	92
582.877	90
583.087	97
583.298	77
583.508	92
583.719	78
