Data from Circ_2000_H10_HRD10591_00024.txt Node
Date: Wed Jan 03 10:49:38 EST 2024
User: Yrep
Spectrometer: HR+D1059
Trigger mode: 1
Integration Time (sec): 1.000000E-1
Scans to average: 1
Electric dark correction enabled: true
Nonlinearity correction enabled: false
Boxcar width: 0
XAxis mode: Wavelengths
Number of Pixels in Spectrum: 2048
>>>>>Begin Spectral Data<<<<<
223.165	-15.25
223.4	-15.25
223.635	-15.25
223.869	-10.25
224.104	-19.25
224.338	-16.25
224.573	-6.25
224.808	-14.25
225.042	-5.25
225.277	-5.25
225.511	-5.25
225.746	15.75
225.98	-5.25
226.215	3.75
226.449	11.75
226.683	19.75
226.918	21.75
227.152	29.75
227.387	32.75
227.621	38.75
227.856	42.75
228.09	30.75
228.324	43.75
228.559	59.75
228.793	59.75
229.027	58.75
229.262	61.75
229.496	77.75
229.73	94.75
229.964	87.75
230.199	70.75
230.433	83.75
230.667	82.75
230.901	77.75
231.136	85.75
231.37	75.75
231.604	63.75
231.838	63.75
232.072	80.75
232.306	80.75
232.541	85.75
232.775	67.75
233.009	84.75
233.243	76.75
233.477	77.75
233.711	76.75
233.945	75.75
234.179	88.75
234.413	75.75
234.647	77.75
234.881	81.75
235.115	91.75
235.349	81.75
235.583	83.75
235.817	82.75
236.051	82.75
236.285	81.75
236.519	82.75
236.753	74.75
236.987	88.75
237.221	87.75
237.455	88.75
237.689	75.75
237.922	76.75
238.156	64.75
238.39	79.75
238.624	64.75
238.858	66.75
239.091	69.75
239.325	79.75
239.559	72.75
239.793	67.75
240.027	85.75
240.26	82.75
240.494	72.75
240.728	81.75
240.961	75.75
241.195	83.75
241.429	81.75
241.662	71.75
241.896	60.75
242.13	75.75
242.363	59.75
242.597	78.75
242.83	67.75
243.064	79.75
243.298	90.75
243.531	84.75
243.765	85.75
243.998	73.75
244.232	73.75
244.465	88.75
244.699	86.75
244.932	68.75
245.166	90.75
245.399	89.75
245.633	84.75
245.866	83.75
246.099	74.75
246.333	86.75
246.566	96.75
246.8	85.75
247.033	74.75
247.266	68.75
247.5	90.75
247.733	82.75
247.966	80.75
248.2	76.75
248.433	91.75
248.666	84.75
248.899	92.75
249.133	99.75
249.366	119.75
249.599	88.75
249.832	80.75
250.066	87.75
250.299	69.75
250.532	76.75
250.765	84.75
250.998	82.75
251.231	69.75
251.465	71.75
251.698	82.75
251.931	76.75
252.164	76.75
252.397	76.75
252.63	64.75
252.863	97.75
253.096	79.75
253.329	83.75
253.562	81.75
253.795	76.75
254.028	98.75
254.261	91.75
254.494	80.75
254.727	84.75
254.96	94.75
255.193	88.75
255.426	72.75
255.659	81.75
255.892	91.75
256.124	80.75
256.357	74.75
256.59	95.75
256.823	75.75
257.056	90.75
257.289	77.75
257.521	72.75
257.754	89.75
257.987	84.75
258.22	89.75
258.452	86.75
258.685	75.75
258.918	84.75
259.151	84.75
259.383	93.75
259.616	72.75
259.849	86.75
260.081	88.75
260.314	77.75
260.547	93.75
260.779	91.75
261.012	93.75
261.244	91.75
261.477	97.75
261.71	92.75
261.942	130.75
262.175	133.75
262.407	95.75
262.64	89.75
262.872	89.75
263.105	80.75
263.337	85.75
263.57	92.75
263.802	83.75
264.035	83.75
264.267	73.75
264.499	82.75
264.732	79.75
264.964	84.75
265.197	93.75
265.429	86.75
265.661	82.75
265.894	87.75
266.126	87.75
266.358	82.75
266.591	79.75
266.823	86.75
267.055	76.75
267.287	83.75
267.52	69.75
267.752	93.75
267.984	96.75
268.216	92.75
268.448	87.75
268.681	81.75
268.913	78.75
269.145	80.75
269.377	102.75
269.609	86.75
269.841	71.75
270.073	89.75
270.306	79.75
270.538	83.75
270.77	77.75
271.002	88.75
271.234	91.75
271.466	100.75
271.698	96.75
271.93	80.75
272.162	81.75
272.394	76.75
272.626	90.75
272.858	76.75
273.09	84.75
273.322	81.75
273.553	83.75
273.785	69.75
274.017	91.75
274.249	86.75
274.481	98.75
274.713	85.75
274.945	91.75
275.176	87.75
275.408	107.75
275.64	95.75
275.872	105.75
276.104	83.75
276.335	96.75
276.567	103.75
276.799	110.75
277.031	139.75
277.262	121.75
277.494	105.75
277.726	105.75
277.957	88.75
278.189	81.75
278.421	75.75
278.652	92.75
278.884	98.75
279.115	85.75
279.347	79.75
279.579	108.75
279.81	103.75
280.042	117.75
280.273	171.75
280.505	140.75
280.736	100.75
280.968	92.75
281.199	96.75
281.431	83.75
281.662	93.75
281.894	102.75
282.125	94.75
282.356	129.75
282.588	176.75
282.819	132.75
283.051	87.75
283.282	88.75
283.513	91.75
283.745	80.75
283.976	80.75
284.207	84.75
284.439	84.75
284.67	97.75
284.901	84.75
285.132	82.75
285.364	93.75
285.595	90.75
285.826	77.75
286.057	79.75
286.288	89.75
286.52	82.75
286.751	97.75
286.982	86.75
287.213	87.75
287.444	73.75
287.675	83.75
287.906	87.75
288.138	86.75
288.369	91.75
288.6	79.75
288.831	100.75
289.062	100.75
289.293	97.75
289.524	88.75
289.755	101.75
289.986	79.75
290.217	71.75
290.448	71.75
290.679	89.75
290.91	90.75
291.141	95.75
291.371	77.75
291.602	79.75
291.833	80.75
292.064	67.75
292.295	95.75
292.526	92.75
292.757	83.75
292.987	75.75
293.218	88.75
293.449	84.75
293.68	83.75
293.91	104.75
294.141	95.75
294.372	101.75
294.603	93.75
294.833	81.75
295.064	88.75
295.295	94.75
295.525	103.75
295.756	105.75
295.987	122.75
296.217	141.75
296.448	139.75
296.679	110.75
296.909	93.75
297.14	86.75
297.37	83.75
297.601	105.75
297.831	96.75
298.062	99.75
298.292	86.75
298.523	83.75
298.753	88.75
298.984	92.75
299.214	86.75
299.445	92.75
299.675	96.75
299.905	95.75
300.136	100.75
300.366	96.75
300.597	80.75
300.827	90.75
301.057	101.75
301.288	114.75
301.518	102.75
301.748	97.75
301.979	101.75
302.209	94.75
302.439	77.75
302.669	79.75
302.9	107.75
303.13	99.75
303.36	104.75
303.59	104.75
303.82	125.75
304.051	102.75
304.281	92.75
304.511	89.75
304.741	81.75
304.971	73.75
305.201	89.75
305.431	85.75
305.661	81.75
305.891	84.75
306.121	106.75
306.352	106.75
306.582	113.75
306.812	94.75
307.042	103.75
307.272	135.75
307.502	131.75
307.731	130.75
307.961	102.75
308.191	84.75
308.421	83.75
308.651	103.75
308.881	85.75
309.111	91.75
309.341	101.75
309.571	99.75
309.8	92.75
310.03	115.75
310.26	104.75
310.49	96.75
310.72	104.75
310.949	125.75
311.179	116.75
311.409	110.75
311.639	113.75
311.868	110.75
312.098	110.75
312.328	106.75
312.557	109.75
312.787	114.75
313.017	99.75
313.246	100.75
313.476	99.75
313.706	97.75
313.935	105.75
314.165	115.75
314.394	132.75
314.624	91.75
314.853	92.75
315.083	96.75
315.312	89.75
315.542	104.75
315.771	95.75
316.001	95.75
316.23	85.75
316.46	103.75
316.689	86.75
316.919	104.75
317.148	97.75
317.377	89.75
317.607	98.75
317.836	84.75
318.065	95.75
318.295	97.75
318.524	96.75
318.753	94.75
318.983	94.75
319.212	106.75
319.441	112.75
319.67	123.75
319.9	103.75
320.129	79.75
320.358	82.75
320.587	102.75
320.816	100.75
321.046	101.75
321.275	119.75
321.504	103.75
321.733	94.75
321.962	90.75
322.191	117.75
322.42	111.75
322.649	116.75
322.878	130.75
323.108	147.75
323.337	146.75
323.566	166.75
323.795	193.75
324.024	274.75
324.253	575.75
324.482	1228.75
324.71	2577.75
324.939	3365.75
325.168	1145.75
325.397	311.75
325.626	181.75
325.855	149.75
326.084	144.75
326.313	175.75
326.542	183.75
326.77	299.75
326.999	634.75
327.228	1373.75
327.457	2585.75
327.686	2032.75
327.914	579.75
328.143	400.75
328.372	421.75
328.6	259.75
328.829	171.75
329.058	193.75
329.287	188.75
329.515	154.75
329.744	199.75
329.972	330.75
330.201	619.75
330.43	806.75
330.658	421.75
330.887	246.75
331.115	178.75
331.344	120.75
331.572	115.75
331.801	120.75
332.03	107.75
332.258	104.75
332.486	98.75
332.715	105.75
332.943	102.75
333.172	107.75
333.4	129.75
333.629	152.75
333.857	214.75
334.085	316.75
334.314	599.75
334.542	1088.75
334.771	967.75
334.999	288.75
335.227	141.75
335.455	98.75
335.684	100.75
335.912	105.75
336.14	98.75
336.369	114.75
336.597	111.75
336.825	105.75
337.053	93.75
337.281	99.75
337.51	102.75
337.738	92.75
337.966	103.75
338.194	104.75
338.422	101.75
338.65	94.75
338.878	97.75
339.106	98.75
339.334	89.75
339.562	89.75
339.79	83.75
340.018	111.75
340.246	105.75
340.474	114.75
340.702	111.75
340.93	89.75
341.158	98.75
341.386	109.75
341.614	111.75
341.842	105.75
342.07	92.75
342.298	93.75
342.526	79.75
342.754	84.75
342.981	93.75
343.209	99.75
343.437	96.75
343.665	101.75
343.893	75.75
344.12	73.75
344.348	100.75
344.576	83.75
344.804	102.75
345.031	97.75
345.259	110.75
345.487	99.75
345.714	99.75
345.942	96.75
346.17	89.75
346.397	83.75
346.625	86.75
346.853	99.75
347.08	100.75
347.308	107.75
347.535	100.75
347.763	111.75
347.99	94.75
348.218	113.75
348.445	109.75
348.673	116.75
348.9	95.75
349.128	96.75
349.355	98.75
349.583	90.75
349.81	100.75
350.037	101.75
350.265	88.75
350.492	100.75
350.72	111.75
350.947	88.75
351.174	129.75
351.402	128.75
351.629	104.75
351.856	99.75
352.083	109.75
352.311	103.75
352.538	112.75
352.765	115.75
352.992	123.75
353.22	124.75
353.447	107.75
353.674	104.75
353.901	106.75
354.128	89.75
354.355	101.75
354.583	95.75
354.81	116.75
355.037	108.75
355.264	87.75
355.491	111.75
355.718	87.75
355.945	97.75
356.172	98.75
356.399	84.75
356.626	87.75
356.853	100.75
357.08	85.75
357.307	104.75
357.534	88.75
357.761	111.75
357.988	87.75
358.215	96.75
358.441	95.75
358.668	89.75
358.895	97.75
359.122	102.75
359.349	91.75
359.576	87.75
359.802	127.75
360.029	139.75
360.256	148.75
360.483	114.75
360.709	96.75
360.936	105.75
361.163	114.75
361.39	106.75
361.616	96.75
361.843	91.75
362.07	91.75
362.296	102.75
362.523	109.75
362.749	93.75
362.976	93.75
363.203	91.75
363.429	98.75
363.656	103.75
363.882	87.75
364.109	97.75
364.335	93.75
364.562	97.75
364.788	93.75
365.015	105.75
365.241	103.75
365.468	108.75
365.694	124.75
365.92	103.75
366.147	84.75
366.373	75.75
366.599	97.75
366.826	90.75
367.052	82.75
367.278	98.75
367.505	94.75
367.731	104.75
367.957	92.75
368.184	97.75
368.41	106.75
368.636	123.75
368.862	120.75
369.089	102.75
369.315	89.75
369.541	99.75
369.767	92.75
369.993	89.75
370.219	87.75
370.445	91.75
370.672	78.75
370.898	94.75
371.124	97.75
371.35	94.75
371.576	88.75
371.802	90.75
372.028	90.75
372.254	88.75
372.48	88.75
372.706	78.75
372.932	90.75
373.158	85.75
373.384	85.75
373.61	106.75
373.835	92.75
374.061	108.75
374.287	106.75
374.513	95.75
374.739	104.75
374.965	104.75
375.191	98.75
375.416	97.75
375.642	97.75
375.868	103.75
376.094	85.75
376.319	85.75
376.545	91.75
376.771	92.75
376.997	91.75
377.222	90.75
377.448	94.75
377.674	89.75
377.899	105.75
378.125	93.75
378.35	90.75
378.576	87.75
378.802	98.75
379.027	91.75
379.253	94.75
379.478	79.75
379.704	95.75
379.929	98.75
380.155	92.75
380.38	72.75
380.606	92.75
380.831	102.75
381.057	101.75
381.282	98.75
381.507	106.75
381.733	90.75
381.958	102.75
382.184	104.75
382.409	95.75
382.634	117.75
382.86	101.75
383.085	101.75
383.31	89.75
383.535	116.75
383.761	96.75
383.986	97.75
384.211	92.75
384.436	94.75
384.662	120.75
384.887	119.75
385.112	114.75
385.337	121.75
385.562	108.75
385.787	106.75
386.013	121.75
386.238	107.75
386.463	109.75
386.688	113.75
386.913	116.75
387.138	105.75
387.363	112.75
387.588	91.75
387.813	101.75
388.038	111.75
388.263	124.75
388.488	110.75
388.713	102.75
388.938	106.75
389.163	108.75
389.387	113.75
389.612	76.75
389.837	87.75
390.062	88.75
390.287	85.75
390.512	86.75
390.736	90.75
390.961	96.75
391.186	91.75
391.411	97.75
391.636	96.75
391.86	88.75
392.085	90.75
392.31	84.75
392.534	95.75
392.759	84.75
392.984	95.75
393.208	78.75
393.433	94.75
393.658	88.75
393.882	82.75
394.107	61.75
394.331	92.75
394.556	80.75
394.78	92.75
395.005	92.75
395.229	87.75
395.454	89.75
395.678	76.75
395.903	86.75
396.127	100.75
396.352	92.75
396.576	88.75
396.801	88.75
397.025	92.75
397.249	92.75
397.474	91.75
397.698	93.75
397.922	93.75
398.147	103.75
398.371	70.75
398.595	88.75
398.82	85.75
399.044	90.75
399.268	81.75
399.492	100.75
399.717	83.75
399.941	94.75
400.165	104.75
400.389	90.75
400.613	97.75
400.837	81.75
401.062	87.75
401.286	86.75
401.51	90.75
401.734	89.75
401.958	109.75
402.182	136.75
402.406	193.75
402.63	143.75
402.854	113.75
403.078	91.75
403.302	85.75
403.526	83.75
403.75	84.75
403.974	76.75
404.198	91.75
404.422	100.75
404.645	81.75
404.869	91.75
405.093	114.75
405.317	149.75
405.541	148.75
405.765	114.75
405.988	120.75
406.212	213.75
406.436	279.75
406.66	202.75
406.883	118.75
407.107	106.75
407.331	114.75
407.555	124.75
407.778	115.75
408.002	101.75
408.226	92.75
408.449	100.75
408.673	88.75
408.896	103.75
409.12	102.75
409.344	79.75
409.567	84.75
409.791	92.75
410.014	103.75
410.238	98.75
410.461	92.75
410.685	85.75
410.908	105.75
411.132	111.75
411.355	115.75
411.578	96.75
411.802	107.75
412.025	84.75
412.249	94.75
412.472	121.75
412.695	145.75
412.919	110.75
413.142	100.75
413.365	89.75
413.589	85.75
413.812	98.75
414.035	104.75
414.258	91.75
414.482	90.75
414.705	98.75
414.928	89.75
415.151	79.75
415.374	99.75
415.597	82.75
415.821	86.75
416.044	98.75
416.267	88.75
416.49	85.75
416.713	84.75
416.936	103.75
417.159	92.75
417.382	87.75
417.605	108.75
417.828	108.75
418.051	106.75
418.274	82.75
418.497	91.75
418.72	91.75
418.943	90.75
419.166	77.75
419.389	92.75
419.611	98.75
419.834	90.75
420.057	96.75
420.28	99.75
420.503	93.75
420.726	76.75
420.948	91.75
421.171	108.75
421.394	105.75
421.617	90.75
421.839	85.75
422.062	92.75
422.285	86.75
422.507	109.75
422.73	116.75
422.953	104.75
423.175	97.75
423.398	88.75
423.621	100.75
423.843	95.75
424.066	88.75
424.288	101.75
424.511	112.75
424.733	113.75
424.956	121.75
425.178	108.75
425.401	114.75
425.623	130.75
425.846	102.75
426.068	104.75
426.291	107.75
426.513	79.75
426.735	102.75
426.958	103.75
427.18	127.75
427.402	183.75
427.625	260.75
427.847	201.75
428.069	209.75
428.292	111.75
428.514	100.75
428.736	88.75
428.958	81.75
429.181	83.75
429.403	101.75
429.625	95.75
429.847	101.75
430.069	105.75
430.292	94.75
430.514	97.75
430.736	100.75
430.958	88.75
431.18	89.75
431.402	95.75
431.624	75.75
431.846	87.75
432.068	88.75
432.29	93.75
432.512	78.75
432.734	84.75
432.956	92.75
433.178	97.75
433.4	104.75
433.622	92.75
433.844	102.75
434.066	92.75
434.287	95.75
434.509	79.75
434.731	79.75
434.953	98.75
435.175	88.75
435.397	87.75
435.618	85.75
435.84	127.75
436.062	157.75
436.284	141.75
436.505	104.75
436.727	109.75
436.949	102.75
437.17	101.75
437.392	89.75
437.614	109.75
437.835	136.75
438.057	156.75
438.278	132.75
438.5	122.75
438.721	140.75
438.943	116.75
439.165	85.75
439.386	91.75
439.608	92.75
439.829	118.75
440.05	148.75
440.272	205.75
440.493	115.75
440.715	94.75
440.936	90.75
441.158	95.75
441.379	79.75
441.6	105.75
441.822	114.75
442.043	89.75
442.264	123.75
442.486	124.75
442.707	95.75
442.928	119.75
443.149	178.75
443.371	164.75
443.592	127.75
443.813	149.75
444.034	108.75
444.255	84.75
444.476	86.75
444.698	80.75
444.919	109.75
445.14	128.75
445.361	149.75
445.582	156.75
445.803	202.75
446.024	194.75
446.245	193.75
446.466	140.75
446.687	108.75
446.908	83.75
447.129	111.75
447.35	92.75
447.571	93.75
447.792	86.75
448.013	106.75
448.234	128.75
448.455	121.75
448.675	155.75
448.896	151.75
449.117	116.75
449.338	110.75
449.559	138.75
449.779	148.75
450	104.75
450.221	104.75
450.442	89.75
450.662	104.75
450.883	122.75
451.104	149.75
451.324	118.75
451.545	90.75
451.766	87.75
451.986	103.75
452.207	98.75
452.428	98.75
452.648	99.75
452.869	124.75
453.089	137.75
453.31	139.75
453.53	90.75
453.751	92.75
453.971	118.75
454.192	133.75
454.412	102.75
454.633	92.75
454.853	89.75
455.073	103.75
455.294	88.75
455.514	118.75
455.734	83.75
455.955	80.75
456.175	81.75
456.395	90.75
456.616	80.75
456.836	78.75
457.056	75.75
457.276	92.75
457.497	81.75
457.717	85.75
457.937	84.75
458.157	75.75
458.377	107.75
458.598	133.75
458.818	209.75
459.038	216.75
459.258	134.75
459.478	90.75
459.698	88.75
459.918	89.75
460.138	88.75
460.358	87.75
460.578	98.75
460.798	97.75
461.018	104.75
461.238	89.75
461.458	82.75
461.678	82.75
461.898	81.75
462.118	82.75
462.338	84.75
462.558	86.75
462.777	85.75
462.997	79.75
463.217	94.75
463.437	103.75
463.657	96.75
463.876	91.75
464.096	84.75
464.316	81.75
464.536	85.75
464.755	93.75
464.975	138.75
465.195	242.75
465.414	231.75
465.634	105.75
465.854	94.75
466.073	97.75
466.293	91.75
466.512	82.75
466.732	99.75
466.951	97.75
467.171	98.75
467.391	113.75
467.61	117.75
467.829	142.75
468.049	334.75
468.268	411.75
468.488	156.75
468.707	99.75
468.927	91.75
469.146	79.75
469.365	95.75
469.585	84.75
469.804	101.75
470.023	115.75
470.243	107.75
470.462	113.75
470.681	148.75
470.901	102.75
471.12	93.75
471.339	94.75
471.558	104.75
471.777	123.75
471.997	185.75
472.216	573.75
472.435	1195.75
472.654	324.75
472.873	112.75
473.092	97.75
473.311	102.75
473.53	83.75
473.749	93.75
473.968	127.75
474.187	140.75
474.406	98.75
474.625	100.75
474.844	93.75
475.063	99.75
475.282	88.75
475.501	88.75
475.72	103.75
475.939	95.75
476.158	96.75
476.377	83.75
476.596	101.75
476.814	96.75
477.033	104.75
477.252	86.75
477.471	87.75
477.69	90.75
477.908	95.75
478.127	97.75
478.346	87.75
478.564	93.75
478.783	117.75
479.002	96.75
479.22	104.75
479.439	120.75
479.658	117.75
479.876	106.75
480.095	112.75
480.313	110.75
480.532	140.75
480.751	199.75
480.969	563.75
481.188	2195.75
481.406	1236.75
481.624	224.75
481.843	106.75
482.061	108.75
482.28	82.75
482.498	88.75
482.717	94.75
482.935	80.75
483.153	98.75
483.372	84.75
483.59	96.75
483.808	85.75
484.027	87.75
484.245	96.75
484.463	100.75
484.681	103.75
484.9	89.75
485.118	95.75
485.336	93.75
485.554	89.75
485.772	93.75
485.99	108.75
486.209	103.75
486.427	108.75
486.645	113.75
486.863	121.75
487.081	106.75
487.299	102.75
487.517	110.75
487.735	91.75
487.953	86.75
488.171	93.75
488.389	98.75
488.607	95.75
488.825	91.75
489.043	93.75
489.261	82.75
489.479	88.75
489.696	89.75
489.914	74.75
490.132	100.75
490.35	89.75
490.568	90.75
490.786	83.75
491.003	80.75
491.221	88.75
491.439	92.75
491.657	85.75
491.874	85.75
492.092	79.75
492.31	91.75
492.527	106.75
492.745	80.75
492.963	100.75
493.18	82.75
493.398	86.75
493.615	83.75
493.833	93.75
494.05	85.75
494.268	85.75
494.485	102.75
494.703	92.75
494.92	83.75
495.138	95.75
495.355	87.75
495.573	81.75
495.79	80.75
496.008	93.75
496.225	93.75
496.442	86.75
496.66	91.75
496.877	77.75
497.094	80.75
497.312	87.75
497.529	89.75
497.746	87.75
497.963	82.75
498.181	105.75
498.398	91.75
498.615	108.75
498.832	96.75
499.049	93.75
499.267	96.75
499.484	92.75
499.701	89.75
499.918	86.75
500.135	97.75
500.352	86.75
500.569	96.75
500.786	104.75
501.003	90.75
501.22	92.75
501.437	96.75
501.654	106.75
501.871	119.75
502.088	97.75
502.305	87.75
502.522	80.75
502.739	83.75
502.956	94.75
503.172	98.75
503.389	84.75
503.606	115.75
503.823	103.75
504.04	101.75
504.256	78.75
504.473	73.75
504.69	88.75
504.907	85.75
505.123	97.75
505.34	82.75
505.557	94.75
505.773	99.75
505.99	97.75
506.207	103.75
506.423	108.75
506.64	92.75
506.856	92.75
507.073	93.75
507.289	93.75
507.506	97.75
507.722	123.75
507.939	116.75
508.155	105.75
508.372	101.75
508.588	85.75
508.805	76.75
509.021	101.75
509.238	99.75
509.454	101.75
509.67	95.75
509.887	119.75
510.103	136.75
510.319	232.75
510.536	909.75
510.752	3092.75
510.968	831.75
511.184	170.75
511.401	128.75
511.617	114.75
511.833	106.75
512.049	80.75
512.265	73.75
512.481	82.75
512.698	76.75
512.914	98.75
513.13	94.75
