Data from Circ_2000_H10_HRD10591_00016.txt Node
Date: Wed Jan 03 10:49:37 EST 2024
User: Yrep
Spectrometer: HR+D1059
Trigger mode: 1
Integration Time (sec): 1.000000E-1
Scans to average: 1
Electric dark correction enabled: true
Nonlinearity correction enabled: false
Boxcar width: 0
XAxis mode: Wavelengths
Number of Pixels in Spectrum: 2048
>>>>>Begin Spectral Data<<<<<
223.165	-14.12
223.4	-14.12
223.635	-14.12
223.869	-18.12
224.104	-25.12
224.338	-8.12
224.573	-23.12
224.808	-18.12
225.042	-14.12
225.277	5.88
225.511	0.88
225.746	-7.12
225.98	2.88
226.215	8.88
226.449	24.88
226.683	36.88
226.918	21.88
227.152	25.88
227.387	32.88
227.621	11.88
227.856	29.88
228.09	43.88
228.324	53.88
228.559	45.88
228.793	61.88
229.027	67.88
229.262	58.88
229.496	71.88
229.73	77.88
229.964	79.88
230.199	75.88
230.433	82.88
230.667	77.88
230.901	81.88
231.136	71.88
231.37	70.88
231.604	91.88
231.838	78.88
232.072	83.88
232.306	91.88
232.541	86.88
232.775	76.88
233.009	76.88
233.243	75.88
233.477	87.88
233.711	80.88
233.945	81.88
234.179	77.88
234.413	75.88
234.647	78.88
234.881	90.88
235.115	68.88
235.349	85.88
235.583	75.88
235.817	80.88
236.051	87.88
236.285	66.88
236.519	84.88
236.753	77.88
236.987	67.88
237.221	84.88
237.455	104.88
237.689	74.88
237.922	84.88
238.156	75.88
238.39	74.88
238.624	73.88
238.858	83.88
239.091	75.88
239.325	72.88
239.559	95.88
239.793	90.88
240.027	81.88
240.26	76.88
240.494	72.88
240.728	72.88
240.961	81.88
241.195	84.88
241.429	76.88
241.662	72.88
241.896	85.88
242.13	79.88
242.363	76.88
242.597	60.88
242.83	73.88
243.064	68.88
243.298	60.88
243.531	87.88
243.765	68.88
243.998	78.88
244.232	65.88
244.465	98.88
244.699	65.88
244.932	63.88
245.166	72.88
245.399	84.88
245.633	63.88
245.866	79.88
246.099	79.88
246.333	84.88
246.566	74.88
246.8	79.88
247.033	78.88
247.266	88.88
247.5	83.88
247.733	66.88
247.966	91.88
248.2	90.88
248.433	79.88
248.666	74.88
248.899	87.88
249.133	68.88
249.366	91.88
249.599	97.88
249.832	84.88
250.066	87.88
250.299	79.88
250.532	73.88
250.765	71.88
250.998	80.88
251.231	65.88
251.465	92.88
251.698	71.88
251.931	65.88
252.164	71.88
252.397	63.88
252.63	83.88
252.863	81.88
253.096	78.88
253.329	75.88
253.562	81.88
253.795	88.88
254.028	71.88
254.261	80.88
254.494	96.88
254.727	95.88
254.96	80.88
255.193	74.88
255.426	84.88
255.659	74.88
255.892	87.88
256.124	78.88
256.357	69.88
256.59	80.88
256.823	89.88
257.056	92.88
257.289	82.88
257.521	84.88
257.754	80.88
257.987	77.88
258.22	75.88
258.452	74.88
258.685	83.88
258.918	89.88
259.151	80.88
259.383	98.88
259.616	76.88
259.849	77.88
260.081	83.88
260.314	86.88
260.547	83.88
260.779	79.88
261.012	99.88
261.244	64.88
261.477	88.88
261.71	92.88
261.942	105.88
262.175	107.88
262.407	91.88
262.64	70.88
262.872	81.88
263.105	91.88
263.337	85.88
263.57	83.88
263.802	93.88
264.035	82.88
264.267	79.88
264.499	88.88
264.732	82.88
264.964	85.88
265.197	71.88
265.429	67.88
265.661	83.88
265.894	79.88
266.126	99.88
266.358	93.88
266.591	85.88
266.823	75.88
267.055	83.88
267.287	72.88
267.52	79.88
267.752	87.88
267.984	91.88
268.216	80.88
268.448	107.88
268.681	83.88
268.913	88.88
269.145	96.88
269.377	92.88
269.609	75.88
269.841	93.88
270.073	82.88
270.306	84.88
270.538	87.88
270.77	83.88
271.002	83.88
271.234	87.88
271.466	74.88
271.698	81.88
271.93	88.88
272.162	93.88
272.394	74.88
272.626	79.88
272.858	88.88
273.09	88.88
273.322	96.88
273.553	69.88
273.785	92.88
274.017	79.88
274.249	87.88
274.481	68.88
274.713	90.88
274.945	91.88
275.176	91.88
275.408	83.88
275.64	96.88
275.872	100.88
276.104	93.88
276.335	80.88
276.567	94.88
276.799	110.88
277.031	96.88
277.262	116.88
277.494	92.88
277.726	90.88
277.957	89.88
278.189	97.88
278.421	89.88
278.652	85.88
278.884	77.88
279.115	95.88
279.347	87.88
279.579	76.88
279.81	75.88
280.042	111.88
280.273	116.88
280.505	115.88
280.736	84.88
280.968	74.88
281.199	81.88
281.431	88.88
281.662	85.88
281.894	90.88
282.125	89.88
282.356	113.88
282.588	139.88
282.819	107.88
283.051	78.88
283.282	92.88
283.513	96.88
283.745	90.88
283.976	69.88
284.207	76.88
284.439	70.88
284.67	78.88
284.901	86.88
285.132	71.88
285.364	88.88
285.595	94.88
285.826	84.88
286.057	85.88
286.288	87.88
286.52	82.88
286.751	92.88
286.982	86.88
287.213	80.88
287.444	81.88
287.675	75.88
287.906	90.88
288.138	77.88
288.369	102.88
288.6	86.88
288.831	91.88
289.062	86.88
289.293	89.88
289.524	75.88
289.755	80.88
289.986	89.88
290.217	92.88
290.448	81.88
290.679	79.88
290.91	81.88
291.141	93.88
291.371	96.88
291.602	86.88
291.833	84.88
292.064	81.88
292.295	89.88
292.526	94.88
292.757	97.88
292.987	87.88
293.218	66.88
293.449	94.88
293.68	89.88
293.91	82.88
294.141	106.88
294.372	97.88
294.603	85.88
294.833	105.88
295.064	93.88
295.295	88.88
295.525	94.88
295.756	100.88
295.987	106.88
296.217	133.88
296.448	124.88
296.679	87.88
296.909	87.88
297.14	96.88
297.37	93.88
297.601	91.88
297.831	85.88
298.062	91.88
298.292	82.88
298.523	74.88
298.753	76.88
298.984	95.88
299.214	84.88
299.445	98.88
299.675	98.88
299.905	88.88
300.136	97.88
300.366	98.88
300.597	93.88
300.827	97.88
301.057	107.88
301.288	109.88
301.518	98.88
301.748	98.88
301.979	98.88
302.209	87.88
302.439	93.88
302.669	90.88
302.9	93.88
303.13	93.88
303.36	102.88
303.59	102.88
303.82	117.88
304.051	98.88
304.281	89.88
304.511	82.88
304.741	79.88
304.971	93.88
305.201	92.88
305.431	89.88
305.661	84.88
305.891	88.88
306.121	102.88
306.352	99.88
306.582	97.88
306.812	96.88
307.042	100.88
307.272	103.88
307.502	109.88
307.731	103.88
307.961	86.88
308.191	91.88
308.421	91.88
308.651	88.88
308.881	94.88
309.111	88.88
309.341	75.88
309.571	95.88
309.8	81.88
310.03	85.88
310.26	101.88
310.49	97.88
310.72	91.88
310.949	117.88
311.179	102.88
311.409	102.88
311.639	92.88
311.868	103.88
312.098	94.88
312.328	101.88
312.557	104.88
312.787	103.88
313.017	99.88
313.246	105.88
313.476	95.88
313.706	82.88
313.935	84.88
314.165	92.88
314.394	92.88
314.624	92.88
314.853	97.88
315.083	97.88
315.312	97.88
315.542	85.88
315.771	89.88
316.001	89.88
316.23	83.88
316.46	79.88
316.689	93.88
316.919	91.88
317.148	113.88
317.377	88.88
317.607	103.88
317.836	90.88
318.065	91.88
318.295	98.88
318.524	91.88
318.753	88.88
318.983	101.88
319.212	99.88
319.441	112.88
319.67	116.88
319.9	92.88
320.129	85.88
320.358	93.88
320.587	101.88
320.816	103.88
321.046	97.88
321.275	87.88
321.504	85.88
321.733	85.88
321.962	92.88
322.191	98.88
322.42	106.88
322.649	116.88
322.878	125.88
323.108	106.88
323.337	116.88
323.566	137.88
323.795	165.88
324.024	219.88
324.253	433.88
324.482	911.88
324.71	1892.88
324.939	2503.88
325.168	917.88
325.397	266.88
325.626	164.88
325.855	135.88
326.084	125.88
326.313	149.88
326.542	159.88
326.77	237.88
326.999	492.88
327.228	1065.88
327.457	1957.88
327.686	1524.88
327.914	425.88
328.143	267.88
328.372	254.88
328.6	179.88
328.829	147.88
329.058	139.88
329.287	152.88
329.515	125.88
329.744	131.88
329.972	192.88
330.201	314.88
330.43	435.88
330.658	240.88
330.887	184.88
331.115	132.88
331.344	96.88
331.572	92.88
331.801	132.88
332.03	93.88
332.258	102.88
332.486	106.88
332.715	107.88
332.943	101.88
333.172	93.88
333.4	93.88
333.629	112.88
333.857	132.88
334.085	194.88
334.314	322.88
334.542	517.88
334.771	506.88
334.999	182.88
335.227	113.88
335.455	101.88
335.684	103.88
335.912	99.88
336.14	110.88
336.369	88.88
336.597	93.88
336.825	99.88
337.053	93.88
337.281	85.88
337.51	90.88
337.738	87.88
337.966	87.88
338.194	77.88
338.422	98.88
338.65	104.88
338.878	99.88
339.106	92.88
339.334	85.88
339.562	78.88
339.79	96.88
340.018	90.88
340.246	106.88
340.474	100.88
340.702	93.88
340.93	91.88
341.158	76.88
341.386	96.88
341.614	87.88
341.842	93.88
342.07	86.88
342.298	97.88
342.526	76.88
342.754	90.88
342.981	75.88
343.209	78.88
343.437	107.88
343.665	100.88
343.893	95.88
344.12	105.88
344.348	94.88
344.576	92.88
344.804	99.88
345.031	110.88
345.259	103.88
345.487	87.88
345.714	93.88
345.942	101.88
346.17	91.88
346.397	87.88
346.625	108.88
346.853	90.88
347.08	78.88
347.308	88.88
347.535	83.88
347.763	102.88
347.99	105.88
348.218	101.88
348.445	92.88
348.673	109.88
348.9	104.88
349.128	97.88
349.355	101.88
349.583	98.88
349.81	87.88
350.037	93.88
350.265	89.88
350.492	91.88
350.72	97.88
350.947	98.88
351.174	103.88
351.402	110.88
351.629	104.88
351.856	100.88
352.083	99.88
352.311	113.88
352.538	119.88
352.765	105.88
352.992	119.88
353.22	115.88
353.447	115.88
353.674	109.88
353.901	89.88
354.128	98.88
354.355	100.88
354.583	103.88
354.81	100.88
355.037	87.88
355.264	86.88
355.491	88.88
355.718	100.88
355.945	87.88
356.172	109.88
356.399	103.88
356.626	82.88
356.853	98.88
357.08	96.88
357.307	82.88
357.534	91.88
357.761	91.88
357.988	84.88
358.215	101.88
358.441	104.88
358.668	93.88
358.895	97.88
359.122	97.88
359.349	78.88
359.576	108.88
359.802	101.88
360.029	122.88
360.256	117.88
360.483	93.88
360.709	87.88
360.936	99.88
361.163	96.88
361.39	94.88
361.616	89.88
361.843	92.88
362.07	80.88
362.296	94.88
362.523	92.88
362.749	94.88
362.976	89.88
363.203	99.88
363.429	79.88
363.656	92.88
363.882	80.88
364.109	92.88
364.335	99.88
364.562	102.88
364.788	93.88
365.015	96.88
365.241	95.88
365.468	113.88
365.694	106.88
365.92	90.88
366.147	92.88
366.373	83.88
366.599	89.88
366.826	96.88
367.052	107.88
367.278	79.88
367.505	85.88
367.731	97.88
367.957	88.88
368.184	93.88
368.41	108.88
368.636	108.88
368.862	121.88
369.089	96.88
369.315	107.88
369.541	97.88
369.767	83.88
369.993	90.88
370.219	87.88
370.445	75.88
370.672	86.88
370.898	87.88
371.124	95.88
371.35	96.88
371.576	99.88
371.802	88.88
372.028	100.88
372.254	99.88
372.48	97.88
372.706	101.88
372.932	95.88
373.158	89.88
373.384	79.88
373.61	91.88
373.835	85.88
374.061	87.88
374.287	99.88
374.513	95.88
374.739	83.88
374.965	92.88
375.191	96.88
375.416	77.88
375.642	98.88
375.868	100.88
376.094	89.88
376.319	77.88
376.545	81.88
376.771	90.88
376.997	91.88
377.222	91.88
377.448	91.88
377.674	88.88
377.899	92.88
378.125	99.88
378.35	114.88
378.576	87.88
378.802	93.88
379.027	94.88
379.253	95.88
379.478	91.88
379.704	93.88
379.929	89.88
380.155	99.88
380.38	103.88
380.606	92.88
380.831	94.88
381.057	104.88
381.282	110.88
381.507	92.88
381.733	98.88
381.958	107.88
382.184	109.88
382.409	102.88
382.634	102.88
382.86	88.88
383.085	104.88
383.31	97.88
383.535	96.88
383.761	110.88
383.986	107.88
384.211	112.88
384.436	115.88
384.662	111.88
384.887	115.88
385.112	120.88
385.337	119.88
385.562	127.88
385.787	116.88
386.013	110.88
386.238	133.88
386.463	124.88
386.688	110.88
386.913	99.88
387.138	121.88
387.363	102.88
387.588	98.88
387.813	114.88
388.038	128.88
388.263	125.88
388.488	124.88
388.713	99.88
388.938	96.88
389.163	80.88
389.387	102.88
389.612	95.88
389.837	92.88
390.062	81.88
390.287	83.88
390.512	83.88
390.736	92.88
390.961	86.88
391.186	92.88
391.411	92.88
391.636	88.88
391.86	83.88
392.085	100.88
392.31	96.88
392.534	89.88
392.759	100.88
392.984	82.88
393.208	95.88
393.433	111.88
393.658	85.88
393.882	88.88
394.107	95.88
394.331	92.88
394.556	79.88
394.78	101.88
395.005	77.88
395.229	95.88
395.454	83.88
395.678	87.88
395.903	100.88
396.127	103.88
396.352	84.88
396.576	92.88
396.801	102.88
397.025	99.88
397.249	90.88
397.474	91.88
397.698	85.88
397.922	84.88
398.147	79.88
398.371	87.88
398.595	80.88
398.82	75.88
399.044	91.88
399.268	81.88
399.492	79.88
399.717	82.88
399.941	83.88
400.165	94.88
400.389	80.88
400.613	86.88
400.837	80.88
401.062	78.88
401.286	88.88
401.51	90.88
401.734	83.88
401.958	99.88
402.182	131.88
402.406	177.88
402.63	155.88
402.854	110.88
403.078	98.88
403.302	80.88
403.526	75.88
403.75	107.88
403.974	92.88
404.198	89.88
404.422	91.88
404.645	80.88
404.869	85.88
405.093	106.88
405.317	111.88
405.541	128.88
405.765	94.88
405.988	116.88
406.212	180.88
406.436	237.88
406.66	150.88
406.883	107.88
407.107	108.88
407.331	100.88
407.555	106.88
407.778	95.88
408.002	95.88
408.226	79.88
408.449	97.88
408.673	75.88
408.896	101.88
409.12	112.88
409.344	92.88
409.567	93.88
409.791	83.88
410.014	108.88
410.238	84.88
410.461	92.88
410.685	101.88
410.908	101.88
411.132	99.88
411.355	115.88
411.578	102.88
411.802	85.88
412.025	79.88
412.249	97.88
412.472	101.88
412.695	123.88
412.919	97.88
413.142	86.88
413.365	101.88
413.589	90.88
413.812	96.88
414.035	91.88
414.258	89.88
414.482	84.88
414.705	90.88
414.928	99.88
415.151	93.88
415.374	92.88
415.597	99.88
415.821	82.88
416.044	95.88
416.267	95.88
416.49	85.88
416.713	100.88
416.936	73.88
417.159	98.88
417.382	96.88
417.605	93.88
417.828	95.88
418.051	86.88
418.274	89.88
418.497	90.88
418.72	101.88
418.943	90.88
419.166	96.88
419.389	91.88
419.611	88.88
419.834	77.88
420.057	94.88
420.28	91.88
420.503	92.88
420.726	95.88
420.948	96.88
421.171	97.88
421.394	88.88
421.617	90.88
421.839	92.88
422.062	93.88
422.285	77.88
422.507	84.88
422.73	106.88
422.953	98.88
423.175	102.88
423.398	87.88
423.621	91.88
423.843	81.88
424.066	91.88
424.288	99.88
424.511	97.88
424.733	114.88
424.956	109.88
425.178	103.88
425.401	100.88
425.623	103.88
425.846	101.88
426.068	88.88
426.291	100.88
426.513	87.88
426.735	75.88
426.958	113.88
427.18	121.88
427.402	153.88
427.625	203.88
427.847	191.88
428.069	173.88
428.292	116.88
428.514	96.88
428.736	98.88
428.958	87.88
429.181	81.88
429.403	93.88
429.625	82.88
429.847	92.88
430.069	107.88
430.292	84.88
430.514	69.88
430.736	69.88
430.958	88.88
431.18	88.88
431.402	98.88
431.624	90.88
431.846	97.88
432.068	73.88
432.29	74.88
432.512	79.88
432.734	80.88
432.956	92.88
433.178	104.88
433.4	95.88
433.622	87.88
433.844	93.88
434.066	82.88
434.287	87.88
434.509	98.88
434.731	71.88
434.953	92.88
435.175	87.88
435.397	84.88
435.618	96.88
435.84	112.88
436.062	103.88
436.284	145.88
436.505	104.88
436.727	103.88
436.949	104.88
437.17	85.88
437.392	98.88
437.614	99.88
437.835	112.88
438.057	118.88
438.278	108.88
438.5	106.88
438.721	127.88
438.943	99.88
439.165	90.88
439.386	84.88
439.608	92.88
439.829	102.88
440.05	145.88
440.272	160.88
440.493	114.88
440.715	98.88
440.936	87.88
441.158	96.88
441.379	93.88
441.6	112.88
441.822	112.88
442.043	99.88
442.264	111.88
442.486	99.88
442.707	101.88
442.928	101.88
443.149	136.88
443.371	142.88
443.592	111.88
443.813	123.88
444.034	118.88
444.255	83.88
444.476	81.88
444.698	95.88
444.919	82.88
445.14	150.88
445.361	149.88
445.582	128.88
445.803	151.88
446.024	152.88
446.245	163.88
446.466	117.88
446.687	95.88
446.908	87.88
447.129	83.88
447.35	92.88
447.571	101.88
447.792	88.88
448.013	99.88
448.234	90.88
448.455	98.88
448.675	114.88
448.896	130.88
449.117	117.88
449.338	115.88
449.559	137.88
449.779	155.88
450	100.88
450.221	83.88
450.442	88.88
450.662	100.88
450.883	102.88
451.104	113.88
451.324	92.88
451.545	87.88
451.766	104.88
451.986	89.88
452.207	76.88
452.428	93.88
452.648	96.88
452.869	112.88
453.089	125.88
453.31	125.88
453.53	96.88
453.751	81.88
453.971	100.88
454.192	115.88
454.412	100.88
454.633	86.88
454.853	93.88
455.073	100.88
455.294	83.88
455.514	108.88
455.734	88.88
455.955	82.88
456.175	77.88
456.395	85.88
456.616	90.88
456.836	81.88
457.056	95.88
457.276	83.88
457.497	76.88
457.717	94.88
457.937	81.88
458.157	83.88
458.377	83.88
458.598	114.88
458.818	165.88
459.038	166.88
459.258	127.88
459.478	89.88
459.698	75.88
459.918	87.88
460.138	80.88
460.358	75.88
460.578	94.88
460.798	79.88
461.018	89.88
461.238	92.88
461.458	93.88
461.678	87.88
461.898	84.88
462.118	97.88
462.338	85.88
462.558	94.88
462.777	84.88
462.997	79.88
463.217	100.88
463.437	98.88
463.657	88.88
463.876	66.88
464.096	96.88
464.316	84.88
464.536	87.88
464.755	87.88
464.975	104.88
465.195	189.88
465.414	185.88
465.634	87.88
465.854	85.88
466.073	88.88
466.293	93.88
466.512	91.88
466.732	90.88
466.951	88.88
467.171	91.88
467.391	102.88
467.61	108.88
467.829	128.88
468.049	192.88
468.268	248.88
468.488	101.88
468.707	105.88
468.927	82.88
469.146	88.88
469.365	92.88
469.585	84.88
469.804	86.88
470.023	97.88
470.243	105.88
470.462	95.88
470.681	128.88
470.901	88.88
471.12	92.88
471.339	84.88
471.558	87.88
471.777	85.88
471.997	132.88
472.216	341.88
472.435	647.88
472.654	203.88
472.873	103.88
473.092	83.88
473.311	89.88
473.53	85.88
473.749	90.88
473.968	100.88
474.187	111.88
474.406	100.88
474.625	95.88
474.844	87.88
475.063	76.88
475.282	82.88
475.501	87.88
475.72	77.88
475.939	90.88
476.158	88.88
476.377	88.88
476.596	82.88
476.814	96.88
477.033	105.88
477.252	85.88
477.471	82.88
477.69	78.88
477.908	97.88
478.127	100.88
478.346	83.88
478.564	91.88
478.783	79.88
479.002	93.88
479.22	74.88
479.439	105.88
479.658	101.88
479.876	100.88
480.095	90.88
480.313	84.88
480.532	116.88
480.751	149.88
480.969	321.88
481.188	1115.88
481.406	689.88
481.624	151.88
481.843	87.88
482.061	92.88
482.28	88.88
482.498	89.88
482.717	91.88
482.935	88.88
483.153	82.88
483.372	72.88
483.59	89.88
483.808	85.88
484.027	95.88
484.245	92.88
484.463	94.88
484.681	92.88
484.9	111.88
485.118	89.88
485.336	101.88
485.554	102.88
485.772	106.88
485.99	111.88
486.209	115.88
486.427	112.88
486.645	121.88
486.863	119.88
487.081	100.88
487.299	109.88
487.517	101.88
487.735	85.88
487.953	95.88
488.171	95.88
488.389	102.88
488.607	99.88
488.825	101.88
489.043	96.88
489.261	90.88
489.479	80.88
489.696	84.88
489.914	87.88
490.132	92.88
490.35	86.88
490.568	88.88
490.786	77.88
491.003	82.88
491.221	89.88
491.439	87.88
491.657	66.88
491.874	101.88
492.092	86.88
492.31	84.88
492.527	80.88
492.745	85.88
492.963	84.88
493.18	90.88
493.398	92.88
493.615	91.88
493.833	85.88
494.05	102.88
494.268	82.88
494.485	92.88
494.703	89.88
494.92	94.88
495.138	70.88
495.355	98.88
495.573	90.88
495.79	95.88
496.008	87.88
496.225	99.88
496.442	86.88
496.66	103.88
496.877	87.88
497.094	75.88
497.312	93.88
497.529	92.88
497.746	76.88
497.963	95.88
498.181	100.88
498.398	76.88
498.615	117.88
498.832	109.88
499.049	79.88
499.267	93.88
499.484	85.88
499.701	87.88
499.918	82.88
500.135	81.88
500.352	85.88
500.569	88.88
500.786	86.88
501.003	97.88
501.22	87.88
501.437	85.88
501.654	84.88
501.871	110.88
502.088	90.88
502.305	77.88
502.522	102.88
502.739	93.88
502.956	115.88
503.172	79.88
503.389	99.88
503.606	97.88
503.823	109.88
504.04	103.88
504.256	102.88
504.473	94.88
504.69	99.88
504.907	104.88
505.123	88.88
505.34	90.88
505.557	93.88
505.773	89.88
505.99	87.88
506.207	98.88
506.423	89.88
506.64	94.88
506.856	95.88
507.073	88.88
507.289	87.88
507.506	108.88
507.722	111.88
507.939	111.88
508.155	98.88
508.372	101.88
508.588	96.88
508.805	93.88
509.021	92.88
509.238	97.88
509.454	78.88
509.67	97.88
509.887	108.88
510.103	120.88
510.319	206.88
510.536	757.88
510.752	2315.88
510.968	661.88
511.184	166.88
511.401	104.88
511.617	79.88
511.833	81.88
512.049	95.88
512.265	90.88
512.481	100.88
512.698	82.88
512.914	93.88
513.13	105.88
513.346	95.88
513.562	84.88
513.778	103.88
513.994	95.88
514.21	113.88
514.426	128.88
514.642	159.88
514.858	140.88
