Data from Circ_2000_H10_HRD10591_00085.txt Node
Date: Wed Jan 03 10:49:50 EST 2024
User: Yrep
Spectrometer: HR+D1059
Trigger mode: 1
Integration Time (sec): 1.000000E-1
Scans to average: 1
Electric dark correction enabled: true
Nonlinearity correction enabled: false
Boxcar width: 0
XAxis mode: Wavelengths
Number of Pixels in Spectrum: 2048
>>>>>Begin Spectral Data<<<<<
223.165	-26.06
223.4	-26.06
223.635	-26.06
223.869	-20.06
224.104	-15.06
224.338	-11.06
224.573	-22.06
224.808	-4.06
225.042	-10.06
225.277	-14.06
225.511	0.94
225.746	11.94
225.98	10.94
226.215	18.94
226.449	0.94
226.683	29.94
226.918	23.94
227.152	24.94
227.387	22.94
227.621	51.94
227.856	41.94
228.09	54.94
228.324	40.94
228.559	47.94
228.793	58.94
229.027	52.94
229.262	69.94
229.496	61.94
229.73	80.94
229.964	85.94
230.199	76.94
230.433	80.94
230.667	75.94
230.901	63.94
231.136	76.94
231.37	74.94
231.604	86.94
231.838	83.94
232.072	72.94
232.306	78.94
232.541	79.94
232.775	83.94
233.009	83.94
233.243	77.94
233.477	80.94
233.711	79.94
233.945	83.94
234.179	71.94
234.413	67.94
234.647	93.94
234.881	81.94
235.115	81.94
235.349	77.94
235.583	79.94
235.817	80.94
236.051	72.94
236.285	88.94
236.519	78.94
236.753	71.94
236.987	81.94
237.221	79.94
237.455	83.94
237.689	80.94
237.922	70.94
238.156	75.94
238.39	86.94
238.624	87.94
238.858	81.94
239.091	71.94
239.325	75.94
239.559	83.94
239.793	80.94
240.027	76.94
240.26	80.94
240.494	78.94
240.728	81.94
240.961	76.94
241.195	68.94
241.429	79.94
241.662	80.94
241.896	71.94
242.13	66.94
242.363	79.94
242.597	89.94
242.83	73.94
243.064	66.94
243.298	83.94
243.531	88.94
243.765	83.94
243.998	65.94
244.232	94.94
244.465	75.94
244.699	85.94
244.932	96.94
245.166	74.94
245.399	67.94
245.633	84.94
245.866	84.94
246.099	73.94
246.333	96.94
246.566	76.94
246.8	77.94
247.033	75.94
247.266	80.94
247.5	64.94
247.733	70.94
247.966	86.94
248.2	83.94
248.433	91.94
248.666	89.94
248.899	93.94
249.133	93.94
249.366	91.94
249.599	97.94
249.832	83.94
250.066	76.94
250.299	77.94
250.532	100.94
250.765	79.94
250.998	85.94
251.231	84.94
251.465	80.94
251.698	83.94
251.931	76.94
252.164	79.94
252.397	92.94
252.63	77.94
252.863	76.94
253.096	79.94
253.329	80.94
253.562	91.94
253.795	73.94
254.028	91.94
254.261	78.94
254.494	92.94
254.727	93.94
254.96	77.94
255.193	74.94
255.426	85.94
255.659	81.94
255.892	93.94
256.124	95.94
256.357	84.94
256.59	87.94
256.823	83.94
257.056	79.94
257.289	78.94
257.521	83.94
257.754	83.94
257.987	91.94
258.22	98.94
258.452	77.94
258.685	88.94
258.918	79.94
259.151	95.94
259.383	88.94
259.616	75.94
259.849	69.94
260.081	74.94
260.314	90.94
260.547	92.94
260.779	105.94
261.012	88.94
261.244	97.94
261.477	106.94
261.71	90.94
261.942	134.94
262.175	129.94
262.407	93.94
262.64	81.94
262.872	82.94
263.105	91.94
263.337	100.94
263.57	88.94
263.802	75.94
264.035	89.94
264.267	81.94
264.499	80.94
264.732	100.94
264.964	79.94
265.197	75.94
265.429	71.94
265.661	91.94
265.894	78.94
266.126	68.94
266.358	85.94
266.591	71.94
266.823	92.94
267.055	85.94
267.287	92.94
267.52	79.94
267.752	80.94
267.984	80.94
268.216	89.94
268.448	90.94
268.681	80.94
268.913	83.94
269.145	92.94
269.377	84.94
269.609	89.94
269.841	79.94
270.073	96.94
270.306	75.94
270.538	99.94
270.77	85.94
271.002	83.94
271.234	76.94
271.466	90.94
271.698	95.94
271.93	87.94
272.162	92.94
272.394	73.94
272.626	84.94
272.858	83.94
273.09	92.94
273.322	86.94
273.553	92.94
273.785	76.94
274.017	69.94
274.249	96.94
274.481	97.94
274.713	78.94
274.945	81.94
275.176	81.94
275.408	91.94
275.64	101.94
275.872	108.94
276.104	97.94
276.335	116.94
276.567	113.94
276.799	147.94
277.031	151.94
277.262	164.94
277.494	135.94
277.726	101.94
277.957	95.94
278.189	98.94
278.421	95.94
278.652	88.94
278.884	92.94
279.115	80.94
279.347	79.94
279.579	94.94
279.81	107.94
280.042	163.94
280.273	223.94
280.505	171.94
280.736	105.94
280.968	95.94
281.199	81.94
281.431	68.94
281.662	89.94
281.894	104.94
282.125	101.94
282.356	125.94
282.588	157.94
282.819	121.94
283.051	97.94
283.282	88.94
283.513	81.94
283.745	93.94
283.976	81.94
284.207	75.94
284.439	95.94
284.67	86.94
284.901	84.94
285.132	101.94
285.364	94.94
285.595	82.94
285.826	92.94
286.057	98.94
286.288	72.94
286.52	87.94
286.751	100.94
286.982	84.94
287.213	83.94
287.444	73.94
287.675	78.94
287.906	92.94
288.138	96.94
288.369	101.94
288.6	107.94
288.831	86.94
289.062	91.94
289.293	95.94
289.524	90.94
289.755	80.94
289.986	76.94
290.217	86.94
290.448	88.94
290.679	91.94
290.91	94.94
291.141	85.94
291.371	85.94
291.602	85.94
291.833	72.94
292.064	77.94
292.295	80.94
292.526	85.94
292.757	86.94
292.987	95.94
293.218	76.94
293.449	90.94
293.68	95.94
293.91	87.94
294.141	97.94
294.372	86.94
294.603	87.94
294.833	87.94
295.064	91.94
295.295	95.94
295.525	83.94
295.756	99.94
295.987	121.94
296.217	183.94
296.448	136.94
296.679	92.94
296.909	95.94
297.14	81.94
297.37	100.94
297.601	79.94
297.831	88.94
298.062	109.94
298.292	100.94
298.523	77.94
298.753	90.94
298.984	93.94
299.214	90.94
299.445	85.94
299.675	98.94
299.905	88.94
300.136	83.94
300.366	89.94
300.597	80.94
300.827	93.94
301.057	100.94
301.288	108.94
301.518	96.94
301.748	103.94
301.979	102.94
302.209	92.94
302.439	99.94
302.669	91.94
302.9	105.94
303.13	83.94
303.36	105.94
303.59	125.94
303.82	132.94
304.051	101.94
304.281	94.94
304.511	107.94
304.741	79.94
304.971	81.94
305.201	93.94
305.431	96.94
305.661	73.94
305.891	86.94
306.121	115.94
306.352	111.94
306.582	122.94
306.812	101.94
307.042	117.94
307.272	152.94
307.502	154.94
307.731	151.94
307.961	120.94
308.191	97.94
308.421	101.94
308.651	90.94
308.881	101.94
309.111	96.94
309.341	92.94
309.571	105.94
309.8	107.94
310.03	104.94
310.26	98.94
310.49	105.94
310.72	127.94
310.949	107.94
311.179	109.94
311.409	102.94
311.639	92.94
311.868	98.94
312.098	97.94
312.328	93.94
312.557	120.94
312.787	125.94
313.017	119.94
313.246	99.94
313.476	92.94
313.706	80.94
313.935	93.94
314.165	100.94
314.394	119.94
314.624	99.94
314.853	87.94
315.083	99.94
315.312	97.94
315.542	83.94
315.771	72.94
316.001	96.94
316.23	101.94
316.46	100.94
316.689	74.94
316.919	95.94
317.148	105.94
317.377	97.94
317.607	104.94
317.836	79.94
318.065	101.94
318.295	97.94
318.524	85.94
318.753	103.94
318.983	96.94
319.212	98.94
319.441	111.94
319.67	115.94
319.9	93.94
320.129	114.94
320.358	111.94
320.587	100.94
320.816	98.94
321.046	107.94
321.275	92.94
321.504	81.94
321.733	103.94
321.962	96.94
322.191	107.94
322.42	102.94
322.649	119.94
322.878	121.94
323.108	116.94
323.337	133.94
323.566	144.94
323.795	198.94
324.024	245.94
324.253	501.94
324.482	1052.94
324.71	2169.94
324.939	2841.94
325.168	1032.94
325.397	302.94
325.626	183.94
325.855	151.94
326.084	145.94
326.313	143.94
326.542	173.94
326.77	278.94
326.999	537.94
327.228	1132.94
327.457	2090.94
327.686	1657.94
327.914	547.94
328.143	453.94
328.372	557.94
328.6	341.94
328.829	180.94
329.058	176.94
329.287	207.94
329.515	176.94
329.744	216.94
329.972	407.94
330.201	785.94
330.43	1109.94
330.658	533.94
330.887	250.94
331.115	177.94
331.344	124.94
331.572	119.94
331.801	118.94
332.03	135.94
332.258	98.94
332.486	107.94
332.715	114.94
332.943	110.94
333.172	107.94
333.4	130.94
333.629	137.94
333.857	195.94
334.085	358.94
334.314	764.94
334.542	1408.94
334.771	1319.94
334.999	373.94
335.227	154.94
335.455	117.94
335.684	111.94
335.912	97.94
336.14	95.94
336.369	99.94
336.597	105.94
336.825	106.94
337.053	101.94
337.281	88.94
337.51	87.94
337.738	91.94
337.966	96.94
338.194	105.94
338.422	106.94
338.65	95.94
338.878	99.94
339.106	87.94
339.334	97.94
339.562	83.94
339.79	82.94
340.018	91.94
340.246	102.94
340.474	109.94
340.702	94.94
340.93	87.94
341.158	103.94
341.386	107.94
341.614	108.94
341.842	103.94
342.07	93.94
342.298	96.94
342.526	92.94
342.754	94.94
342.981	86.94
343.209	81.94
343.437	94.94
343.665	92.94
343.893	109.94
344.12	86.94
344.348	84.94
344.576	103.94
344.804	104.94
345.031	104.94
345.259	105.94
345.487	94.94
345.714	96.94
345.942	88.94
346.17	99.94
346.397	103.94
346.625	92.94
346.853	100.94
347.08	92.94
347.308	104.94
347.535	92.94
347.763	99.94
347.99	98.94
348.218	109.94
348.445	107.94
348.673	108.94
348.9	106.94
349.128	103.94
349.355	80.94
349.583	92.94
349.81	100.94
350.037	95.94
350.265	105.94
350.492	98.94
350.72	112.94
350.947	93.94
351.174	124.94
351.402	120.94
351.629	95.94
351.856	107.94
352.083	114.94
352.311	118.94
352.538	127.94
352.765	118.94
352.992	132.94
353.22	121.94
353.447	117.94
353.674	97.94
353.901	89.94
354.128	97.94
354.355	104.94
354.583	104.94
354.81	105.94
355.037	94.94
355.264	93.94
355.491	95.94
355.718	88.94
355.945	98.94
356.172	93.94
356.399	85.94
356.626	90.94
356.853	90.94
357.08	96.94
357.307	89.94
357.534	78.94
357.761	74.94
357.988	93.94
358.215	90.94
358.441	80.94
358.668	104.94
358.895	84.94
359.122	71.94
359.349	85.94
359.576	87.94
359.802	96.94
360.029	139.94
360.256	142.94
360.483	107.94
360.709	90.94
360.936	96.94
361.163	99.94
361.39	96.94
361.616	106.94
361.843	97.94
362.07	110.94
362.296	100.94
362.523	99.94
362.749	85.94
362.976	85.94
363.203	84.94
363.429	87.94
363.656	88.94
363.882	95.94
364.109	92.94
364.335	109.94
364.562	76.94
364.788	94.94
365.015	93.94
365.241	111.94
365.468	117.94
365.694	103.94
365.92	94.94
366.147	99.94
366.373	74.94
366.599	74.94
366.826	93.94
367.052	92.94
367.278	96.94
367.505	87.94
367.731	91.94
367.957	100.94
368.184	87.94
368.41	100.94
368.636	129.94
368.862	133.94
369.089	106.94
369.315	92.94
369.541	93.94
369.767	96.94
369.993	101.94
370.219	87.94
370.445	89.94
370.672	92.94
370.898	97.94
371.124	92.94
371.35	99.94
371.576	97.94
371.802	105.94
372.028	97.94
372.254	83.94
372.48	83.94
372.706	86.94
372.932	69.94
373.158	87.94
373.384	93.94
373.61	93.94
373.835	95.94
374.061	91.94
374.287	96.94
374.513	89.94
374.739	104.94
374.965	90.94
375.191	94.94
375.416	87.94
375.642	83.94
375.868	91.94
376.094	97.94
376.319	97.94
376.545	72.94
376.771	86.94
376.997	75.94
377.222	89.94
377.448	86.94
377.674	79.94
377.899	98.94
378.125	90.94
378.35	87.94
378.576	89.94
378.802	84.94
379.027	92.94
379.253	84.94
379.478	76.94
379.704	92.94
379.929	94.94
380.155	87.94
380.38	89.94
380.606	99.94
380.831	88.94
381.057	85.94
381.282	93.94
381.507	94.94
381.733	103.94
381.958	101.94
382.184	108.94
382.409	101.94
382.634	109.94
382.86	96.94
383.085	90.94
383.31	101.94
383.535	97.94
383.761	101.94
383.986	92.94
384.211	104.94
384.436	98.94
384.662	108.94
384.887	108.94
385.112	104.94
385.337	97.94
385.562	107.94
385.787	113.94
386.013	106.94
386.238	118.94
386.463	104.94
386.688	106.94
386.913	104.94
387.138	99.94
387.363	100.94
387.588	98.94
387.813	84.94
388.038	79.94
388.263	90.94
388.488	107.94
388.713	100.94
388.938	100.94
389.163	94.94
389.387	82.94
389.612	89.94
389.837	87.94
390.062	83.94
390.287	87.94
390.512	85.94
390.736	71.94
390.961	91.94
391.186	91.94
391.411	89.94
391.636	81.94
391.86	88.94
392.085	86.94
392.31	69.94
392.534	86.94
392.759	87.94
392.984	92.94
393.208	88.94
393.433	101.94
393.658	89.94
393.882	85.94
394.107	97.94
394.331	85.94
394.556	88.94
394.78	73.94
395.005	94.94
395.229	92.94
395.454	85.94
395.678	82.94
395.903	78.94
396.127	92.94
396.352	85.94
396.576	90.94
396.801	85.94
397.025	94.94
397.249	85.94
397.474	95.94
397.698	89.94
397.922	77.94
398.147	85.94
398.371	95.94
398.595	76.94
398.82	91.94
399.044	84.94
399.268	93.94
399.492	106.94
399.717	88.94
399.941	99.94
400.165	90.94
400.389	91.94
400.613	79.94
400.837	84.94
401.062	94.94
401.286	83.94
401.51	93.94
401.734	104.94
401.958	111.94
402.182	136.94
402.406	195.94
402.63	158.94
402.854	90.94
403.078	103.94
403.302	95.94
403.526	102.94
403.75	79.94
403.974	77.94
404.198	97.94
404.422	87.94
404.645	92.94
404.869	92.94
405.093	113.94
405.317	134.94
405.541	127.94
405.765	106.94
405.988	142.94
406.212	227.94
406.436	308.94
406.66	211.94
406.883	118.94
407.107	123.94
407.331	99.94
407.555	121.94
407.778	105.94
408.002	100.94
408.226	88.94
408.449	98.94
408.673	84.94
408.896	87.94
409.12	83.94
409.344	94.94
409.567	93.94
409.791	90.94
410.014	95.94
410.238	96.94
410.461	91.94
410.685	100.94
410.908	102.94
411.132	120.94
411.355	115.94
411.578	90.94
411.802	91.94
412.025	94.94
412.249	97.94
412.472	96.94
412.695	119.94
412.919	106.94
413.142	104.94
413.365	91.94
413.589	103.94
413.812	79.94
414.035	83.94
414.258	96.94
414.482	91.94
414.705	85.94
414.928	82.94
415.151	90.94
415.374	93.94
415.597	95.94
415.821	87.94
416.044	97.94
416.267	95.94
416.49	90.94
416.713	88.94
416.936	98.94
417.159	96.94
417.382	109.94
417.605	93.94
417.828	97.94
418.051	100.94
418.274	90.94
418.497	81.94
418.72	93.94
418.943	104.94
419.166	91.94
419.389	102.94
419.611	84.94
419.834	96.94
420.057	78.94
420.28	84.94
420.503	87.94
420.726	73.94
420.948	95.94
421.171	107.94
421.394	93.94
421.617	88.94
421.839	104.94
422.062	101.94
422.285	99.94
422.507	102.94
422.73	105.94
422.953	102.94
423.175	91.94
423.398	86.94
423.621	88.94
423.843	84.94
424.066	79.94
424.288	98.94
424.511	102.94
424.733	90.94
424.956	121.94
425.178	112.94
425.401	124.94
425.623	114.94
425.846	99.94
426.068	80.94
426.291	98.94
426.513	101.94
426.735	98.94
426.958	104.94
427.18	120.94
427.402	177.94
427.625	246.94
427.847	235.94
428.069	232.94
428.292	125.94
428.514	94.94
428.736	82.94
428.958	88.94
429.181	100.94
429.403	83.94
429.625	84.94
429.847	107.94
430.069	114.94
430.292	87.94
430.514	80.94
430.736	98.94
430.958	79.94
431.18	82.94
431.402	82.94
431.624	79.94
431.846	90.94
432.068	95.94
432.29	92.94
432.512	97.94
432.734	89.94
432.956	87.94
433.178	102.94
433.4	124.94
433.622	87.94
433.844	90.94
434.066	90.94
434.287	98.94
434.509	92.94
434.731	83.94
434.953	92.94
435.175	79.94
435.397	87.94
435.618	110.94
435.84	114.94
436.062	161.94
436.284	132.94
436.505	115.94
436.727	108.94
436.949	99.94
437.17	80.94
437.392	89.94
437.614	92.94
437.835	129.94
438.057	151.94
438.278	151.94
438.5	130.94
438.721	131.94
438.943	104.94
439.165	91.94
439.386	79.94
439.608	99.94
439.829	113.94
440.05	152.94
440.272	189.94
440.493	108.94
440.715	112.94
440.936	93.94
441.158	84.94
441.379	81.94
441.6	86.94
441.822	84.94
442.043	99.94
442.264	141.94
442.486	109.94
442.707	107.94
442.928	122.94
443.149	177.94
443.371	179.94
443.592	133.94
443.813	133.94
444.034	118.94
444.255	94.94
444.476	80.94
444.698	83.94
444.919	89.94
445.14	130.94
445.361	138.94
445.582	144.94
445.803	184.94
446.024	179.94
446.245	181.94
446.466	135.94
446.687	80.94
446.908	85.94
447.129	79.94
447.35	82.94
447.571	89.94
447.792	99.94
448.013	103.94
448.234	111.94
448.455	100.94
448.675	119.94
448.896	144.94
449.117	101.94
449.338	122.94
449.559	161.94
449.779	165.94
450	99.94
450.221	108.94
450.442	96.94
450.662	111.94
450.883	132.94
451.104	127.94
451.324	93.94
451.545	97.94
451.766	97.94
451.986	92.94
452.207	97.94
452.428	96.94
452.648	101.94
452.869	122.94
453.089	133.94
453.31	141.94
453.53	103.94
453.751	112.94
453.971	127.94
454.192	137.94
454.412	94.94
454.633	87.94
454.853	91.94
455.073	93.94
455.294	101.94
455.514	106.94
455.734	95.94
455.955	90.94
456.175	91.94
456.395	86.94
456.616	70.94
456.836	83.94
457.056	88.94
457.276	72.94
457.497	73.94
457.717	84.94
457.937	88.94
458.157	84.94
458.377	110.94
458.598	117.94
458.818	203.94
459.038	236.94
459.258	156.94
459.478	113.94
459.698	97.94
459.918	88.94
460.138	80.94
460.358	88.94
460.578	81.94
460.798	110.94
461.018	91.94
461.238	88.94
461.458	80.94
461.678	92.94
461.898	80.94
462.118	81.94
462.338	87.94
462.558	100.94
462.777	103.94
462.997	101.94
463.217	102.94
463.437	79.94
463.657	103.94
463.876	87.94
464.096	81.94
464.316	103.94
464.536	81.94
464.755	105.94
464.975	122.94
465.195	253.94
465.414	242.94
465.634	104.94
465.854	90.94
466.073	80.94
466.293	84.94
466.512	94.94
466.732	90.94
466.951	99.94
467.171	114.94
467.391	114.94
467.61	129.94
467.829	191.94
468.049	437.94
468.268	645.94
468.488	185.94
468.707	101.94
468.927	92.94
469.146	89.94
469.365	88.94
469.585	90.94
469.804	99.94
470.023	116.94
470.243	108.94
470.462	118.94
470.681	142.94
470.901	106.94
471.12	99.94
471.339	101.94
471.558	120.94
471.777	139.94
471.997	249.94
472.216	844.94
472.435	1861.94
472.654	448.94
472.873	145.94
473.092	105.94
473.311	92.94
473.53	103.94
473.749	100.94
473.968	98.94
474.187	124.94
474.406	123.94
474.625	93.94
474.844	94.94
475.063	90.94
475.282	88.94
475.501	85.94
475.72	96.94
475.939	88.94
476.158	89.94
476.377	75.94
476.596	88.94
476.814	83.94
477.033	90.94
477.252	95.94
477.471	87.94
477.69	90.94
477.908	73.94
478.127	98.94
478.346	90.94
478.564	109.94
478.783	112.94
479.002	87.94
479.22	100.94
479.439	143.94
479.658	136.94
479.876	116.94
480.095	101.94
480.313	125.94
480.532	147.94
480.751	243.94
480.969	809.94
481.188	3260.94
481.406	1875.94
481.624	292.94
481.843	120.94
482.061	102.94
482.28	105.94
482.498	104.94
482.717	93.94
482.935	93.94
483.153	87.94
483.372	74.94
483.59	89.94
483.808	98.94
484.027	87.94
484.245	99.94
484.463	97.94
484.681	96.94
484.9	95.94
485.118	107.94
485.336	83.94
485.554	96.94
485.772	99.94
485.99	104.94
486.209	118.94
486.427	113.94
486.645	128.94
486.863	133.94
487.081	115.94
487.299	98.94
487.517	102.94
487.735	110.94
487.953	89.94
488.171	82.94
488.389	92.94
488.607	109.94
488.825	100.94
489.043	91.94
489.261	97.94
489.479	90.94
489.696	102.94
489.914	91.94
490.132	89.94
490.35	83.94
490.568	93.94
490.786	85.94
491.003	80.94
491.221	101.94
491.439	103.94
491.657	93.94
491.874	88.94
492.092	107.94
492.31	90.94
492.527	98.94
492.745	84.94
492.963	89.94
493.18	96.94
493.398	104.94
493.615	89.94
493.833	88.94
494.05	87.94
494.268	98.94
494.485	95.94
494.703	103.94
494.92	87.94
495.138	91.94
495.355	81.94
495.573	91.94
495.79	87.94
496.008	99.94
496.225	84.94
496.442	91.94
496.66	88.94
496.877	82.94
497.094	103.94
497.312	76.94
497.529	91.94
497.746	92.94
497.963	93.94
498.181	90.94
498.398	99.94
498.615	107.94
498.832	107.94
499.049	93.94
499.267	97.94
499.484	89.94
499.701	93.94
499.918	92.94
500.135	89.94
500.352	88.94
500.569	85.94
500.786	95.94
501.003	89.94
501.22	102.94
501.437	85.94
501.654	103.94
501.871	138.94
502.088	93.94
502.305	89.94
502.522	98.94
502.739	83.94
502.956	81.94
503.172	90.94
503.389	101.94
503.606	135.94
503.823	110.94
504.04	90.94
504.256	85.94
504.473	85.94
504.69	106.94
504.907	101.94
505.123	93.94
505.34	86.94
505.557	81.94
505.773	92.94
505.99	82.94
506.207	94.94
506.423	82.94
506.64	91.94
506.856	86.94
507.073	91.94
507.289	87.94
507.506	107.94
507.722	136.94
507.939	132.94
508.155	93.94
508.372	91.94
508.588	89.94
508.805	101.94
509.021	102.94
509.238	91.94
509.454	103.94
509.67	100.94
509.887	125.94
510.103	146.94
510.319	237.94
510.536	943.94
510.752	3111.94
510.968	865.94
511.184	179.94
511.401	129.94
511.617	111.94
511.833	112.94
512.049	91.94
512.265	87.94
512.481	82.94
512.698	98.94
512.914	95.94
513.13	94.94
513.346	90.94
513.562	111.94
