Data from Circ_2000_H10_HRD10591_00050.txt Node
Date: Wed Jan 03 10:49:43 EST 2024
User: Yrep
Spectrometer: HR+D1059
Trigger mode: 1
Integration Time (sec): 1.000000E-1
Scans to average: 1
Electric dark correction enabled: true
Nonlinearity correction enabled: false
Boxcar width: 0
XAxis mode: Wavelengths
Number of Pixels in Spectrum: 2048
>>>>>Begin Spectral Data<<<<<
223.165	-16.56
223.4	-16.56
223.635	-16.56
223.869	-14.56
224.104	-14.56
224.338	-19.56
224.573	-16.56
224.808	-27.56
225.042	-15.56
225.277	-6.56
225.511	-9.56
225.746	8.44
225.98	5.44
226.215	12.44
226.449	27.44
226.683	18.44
226.918	37.44
227.152	31.44
227.387	31.44
227.621	57.44
227.856	36.44
228.09	47.44
228.324	54.44
228.559	60.44
228.793	176.44
229.027	435.44
229.262	516.44
229.496	612.44
229.73	841.44
229.964	846.44
230.199	570.44
230.433	491.44
230.667	492.44
230.901	484.44
231.136	451.44
231.37	450.44
231.604	453.44
231.838	464.44
232.072	458.44
232.306	489.44
232.541	465.44
232.775	480.44
233.009	487.44
233.243	486.44
233.477	488.44
233.711	508.44
233.945	519.44
234.179	512.44
234.413	515.44
234.647	535.44
234.881	543.44
235.115	532.44
235.349	555.44
235.583	589.44
235.817	613.44
236.051	633.44
236.285	604.44
236.519	650.44
236.753	693.44
236.987	928.44
237.221	1364.44
237.455	1495.44
237.689	878.44
237.922	758.44
238.156	742.44
238.39	684.44
238.624	655.44
238.858	669.44
239.091	674.44
239.325	670.44
239.559	734.44
239.793	729.44
240.027	805.44
240.26	939.44
240.494	952.44
240.728	969.44
240.961	919.44
241.195	838.44
241.429	783.44
241.662	815.44
241.896	810.44
242.13	811.44
242.363	817.44
242.597	819.44
242.83	880.44
243.064	863.44
243.298	871.44
243.531	882.44
243.765	881.44
243.998	914.44
244.232	907.44
244.465	940.44
244.699	955.44
244.932	954.44
245.166	937.44
245.399	929.44
245.633	918.44
245.866	959.44
246.099	947.44
246.333	1000.44
246.566	1000.44
246.8	1047.44
247.033	1073.44
247.266	1091.44
247.5	1155.44
247.733	1211.44
247.966	1198.44
248.2	1189.44
248.433	1212.44
248.666	1272.44
248.899	1397.44
249.133	1547.44
249.366	1528.44
249.599	1451.44
249.832	1417.44
250.066	1549.44
250.299	1906.44
250.532	2466.44
250.765	2425.44
250.998	2179.44
251.231	1883.44
251.465	1626.44
251.698	1541.44
251.931	1525.44
252.164	1475.44
252.397	1492.44
252.63	1509.44
252.863	1620.44
253.096	1790.44
253.329	1853.44
253.562	1691.44
253.795	1627.44
254.028	1669.44
254.261	1741.44
254.494	1946.44
254.727	2307.44
254.96	2368.44
255.193	2140.44
255.426	2088.44
255.659	2395.44
255.892	3286.44
256.124	4216.44
256.357	3483.44
256.59	2606.44
256.823	2145.44
257.056	1949.44
257.289	1882.44
257.521	1813.44
257.754	1764.44
257.987	1743.44
258.22	1733.44
258.452	1674.44
258.685	1708.44
258.918	1718.44
259.151	1737.44
259.383	1793.44
259.616	1795.44
259.849	1823.44
260.081	2014.44
260.314	2153.44
260.547	2065.44
260.779	1913.44
261.012	1851.44
261.244	1830.44
261.477	1808.44
261.71	1790.44
261.942	1874.44
262.175	1891.44
262.407	1824.44
262.64	1765.44
262.872	1741.44
263.105	1735.44
263.337	1743.44
263.57	1736.44
263.802	1762.44
264.035	1743.44
264.267	1745.44
264.499	1761.44
264.732	1791.44
264.964	1797.44
265.197	1790.44
265.429	1800.44
265.661	1807.44
265.894	1813.44
266.126	1797.44
266.358	1851.44
266.591	1882.44
266.823	1964.44
267.055	1977.44
267.287	1965.44
267.52	1904.44
267.752	1945.44
267.984	1956.44
268.216	1995.44
268.448	2014.44
268.681	2080.44
268.913	2220.44
269.145	2435.44
269.377	2445.44
269.609	2325.44
269.841	2316.44
270.073	2470.44
270.306	2705.44
270.538	2843.44
270.77	2647.44
271.002	2499.44
271.234	2537.44
271.466	2664.44
271.698	2815.44
271.93	2779.44
272.162	2775.44
272.394	2681.44
272.626	2586.44
272.858	2437.44
273.09	2417.44
273.322	2384.44
273.553	2339.44
273.785	2345.44
274.017	2349.44
274.249	2383.44
274.481	2374.44
274.713	2419.44
274.945	2418.44
275.176	2430.44
275.408	2463.44
275.64	2472.44
275.872	2503.44
276.104	2572.44
276.335	2572.44
276.567	2747.44
276.799	2913.44
277.031	3243.44
277.262	3345.44
277.494	3163.44
277.726	2889.44
277.957	2754.44
278.189	2690.44
278.421	2632.44
278.652	2597.44
278.884	2588.44
279.115	2584.44
279.347	2661.44
279.579	2681.44
279.81	2754.44
280.042	2863.44
280.273	2985.44
280.505	2972.44
280.736	2796.44
280.968	2762.44
281.199	2666.44
281.431	2682.44
281.662	2719.44
281.894	2672.44
282.125	2729.44
282.356	2920.44
282.588	3055.44
282.819	2884.44
283.051	2747.44
283.282	2688.44
283.513	2736.44
283.745	2787.44
283.976	2760.44
284.207	2824.44
284.439	2777.44
284.67	2763.44
284.901	2825.44
285.132	2791.44
285.364	2766.44
285.595	2783.44
285.826	2771.44
286.057	2841.44
286.288	2832.44
286.52	2835.44
286.751	2848.44
286.982	2890.44
287.213	2914.44
287.444	2867.44
287.675	2924.44
287.906	3029.44
288.138	3134.44
288.369	3024.44
288.6	3050.44
288.831	3006.44
289.062	2996.44
289.293	3001.44
289.524	3009.44
289.755	2950.44
289.986	3009.44
290.217	2958.44
290.448	2948.44
290.679	2983.44
290.91	2965.44
291.141	2990.44
291.371	2949.44
291.602	2967.44
291.833	2944.44
292.064	2955.44
292.295	3008.44
292.526	3022.44
292.757	2947.44
292.987	2918.44
293.218	2944.44
293.449	3005.44
293.68	2988.44
293.91	2958.44
294.141	2984.44
294.372	2920.44
294.603	2999.44
294.833	2990.44
295.064	2959.44
295.295	2981.44
295.525	3006.44
295.756	3053.44
295.987	3161.44
296.217	3388.44
296.448	3291.44
296.679	3126.44
296.909	3071.44
297.14	3105.44
297.37	3170.44
297.601	3164.44
297.831	3211.44
298.062	3177.44
298.292	3211.44
298.523	3249.44
298.753	3236.44
298.984	3259.44
299.214	3205.44
299.445	3263.44
299.675	3228.44
299.905	3299.44
300.136	3273.44
300.366	3314.44
300.597	3304.44
300.827	3448.44
301.057	3527.44
301.288	3560.44
301.518	3491.44
301.748	3524.44
301.979	3576.44
302.209	3557.44
302.439	3584.44
302.669	3505.44
302.9	3435.44
303.13	3455.44
303.36	3512.44
303.59	3603.44
303.82	3647.44
304.051	3581.44
304.281	3584.44
304.511	3444.44
304.741	3414.44
304.971	3366.44
305.201	3416.44
305.431	3439.44
305.661	3427.44
305.891	3435.44
306.121	3432.44
306.352	3542.44
306.582	3521.44
306.812	3457.44
307.042	3467.44
307.272	3627.44
307.502	3607.44
307.731	3653.44
307.961	3547.44
308.191	3538.44
308.421	3535.44
308.651	3467.44
308.881	3484.44
309.111	3588.44
309.341	3546.44
309.571	3675.44
309.8	3721.44
310.03	3752.44
310.26	3801.44
310.49	3808.44
310.72	3900.44
310.949	4044.44
311.179	3998.44
311.409	3898.44
311.639	3883.44
311.868	3915.44
312.098	3890.44
312.328	3996.44
312.557	4176.44
312.787	4187.44
313.017	4046.44
313.246	3981.44
313.476	3959.44
313.706	4014.44
313.935	4054.44
314.165	4160.44
314.394	4213.44
314.624	4134.44
314.853	4032.44
315.083	4001.44
315.312	3955.44
315.542	3901.44
315.771	3861.44
316.001	3871.44
316.23	3876.44
316.46	3907.44
316.689	3929.44
316.919	3966.44
317.148	4067.44
317.377	4060.44
317.607	3995.44
317.836	3981.44
318.065	3837.44
318.295	3900.44
318.524	3871.44
318.753	3843.44
318.983	3956.44
319.212	3944.44
319.441	4003.44
319.67	3943.44
319.9	3859.44
320.129	3912.44
320.358	3885.44
320.587	3976.44
320.816	4056.44
321.046	4164.44
321.275	4115.44
321.504	4105.44
321.733	4121.44
321.962	4187.44
322.191	4313.44
322.42	4447.44
322.649	4499.44
322.878	4625.44
323.108	4739.44
323.337	4968.44
323.566	5166.44
323.795	5560.44
324.024	6087.44
324.253	8200.44
324.482	12383.44
324.71	15617.44
324.939	15617.44
325.168	13972.44
325.397	7197.44
325.626	5740.44
325.855	5351.44
326.084	5189.44
326.313	5302.44
326.542	5538.44
326.77	6259.44
326.999	8137.44
327.228	11838.44
327.457	15491.44
327.686	14951.44
327.914	9128.44
328.143	8425.44
328.372	8717.44
328.6	7391.44
328.829	6583.44
329.058	6764.44
329.287	6899.44
329.515	6696.44
329.744	7268.44
329.972	8798.44
330.201	11248.44
330.43	12613.44
330.658	9595.44
330.887	8108.44
331.115	6929.44
331.344	6215.44
331.572	5901.44
331.801	6001.44
332.03	5938.44
332.258	5835.44
332.486	5942.44
332.715	6048.44
332.943	6267.44
333.172	6610.44
333.4	6973.44
333.629	7514.44
333.857	8435.44
334.085	9931.44
334.314	12653.44
334.542	14789.44
334.771	14129.44
334.999	9180.44
335.227	7337.44
335.455	6639.44
335.684	6163.44
335.912	5936.44
336.14	5701.44
336.369	5565.44
336.597	5628.44
336.825	5560.44
337.053	5373.44
337.281	5290.44
337.51	5219.44
337.738	5162.44
337.966	5132.44
338.194	5126.44
338.422	5057.44
338.65	4925.44
338.878	4865.44
339.106	4910.44
339.334	4833.44
339.562	4791.44
339.79	4715.44
340.018	4696.44
340.246	4726.44
340.474	4782.44
340.702	4663.44
340.93	4663.44
341.158	4679.44
341.386	4711.44
341.614	4694.44
341.842	4655.44
342.07	4607.44
342.298	4564.44
342.526	4517.44
342.754	4503.44
342.981	4584.44
343.209	4666.44
343.437	4842.44
343.665	5136.44
343.893	5371.44
344.12	5406.44
344.348	5179.44
344.576	4997.44
344.804	4972.44
345.031	4941.44
345.259	4855.44
345.487	4687.44
345.714	4565.44
345.942	4471.44
346.17	4444.44
346.397	4457.44
346.625	4389.44
346.853	4411.44
347.08	4388.44
347.308	4454.44
347.535	4501.44
347.763	4604.44
347.99	4500.44
348.218	4581.44
348.445	4637.44
348.673	4492.44
348.9	4335.44
349.128	4324.44
349.355	4255.44
349.583	4336.44
349.81	4283.44
350.037	4312.44
350.265	4278.44
350.492	4238.44
350.72	4283.44
350.947	4395.44
351.174	4467.44
351.402	4505.44
351.629	4393.44
351.856	4438.44
352.083	4538.44
352.311	4556.44
352.538	4524.44
352.765	4509.44
352.992	4456.44
353.22	4374.44
353.447	4304.44
353.674	4235.44
353.901	4176.44
354.128	4172.44
354.355	4124.44
354.583	4216.44
354.81	4212.44
355.037	4160.44
355.264	4122.44
355.491	4129.44
355.718	4104.44
355.945	4158.44
356.172	4158.44
356.399	4135.44
356.626	4153.44
356.853	4145.44
357.08	4112.44
357.307	4136.44
357.534	4128.44
357.761	4158.44
357.988	4215.44
358.215	4118.44
358.441	4237.44
358.668	4243.44
358.895	4220.44
359.122	4308.44
359.349	4384.44
359.576	4517.44
359.802	4752.44
360.029	4946.44
360.256	4996.44
360.483	4655.44
360.709	4411.44
360.936	4465.44
361.163	4426.44
361.39	4519.44
361.616	4463.44
361.843	4418.44
362.07	4430.44
362.296	4484.44
362.523	4355.44
362.749	4368.44
362.976	4371.44
363.203	4318.44
363.429	4318.44
363.656	4336.44
363.882	4296.44
364.109	4269.44
364.335	4231.44
364.562	4235.44
364.788	4303.44
365.015	4318.44
365.241	4261.44
365.468	4322.44
365.694	4416.44
365.92	4291.44
366.147	4263.44
366.373	4244.44
366.599	4258.44
366.826	4255.44
367.052	4231.44
367.278	4281.44
367.505	4224.44
367.731	4316.44
367.957	4313.44
368.184	4409.44
368.41	4423.44
368.636	4476.44
368.862	4533.44
369.089	4389.44
369.315	4395.44
369.541	4304.44
369.767	4375.44
369.993	4379.44
370.219	4388.44
370.445	4389.44
370.672	4461.44
370.898	4453.44
371.124	4411.44
371.35	4532.44
371.576	4440.44
371.802	4405.44
372.028	4439.44
372.254	4549.44
372.48	4540.44
372.706	4634.44
372.932	4592.44
373.158	4583.44
373.384	4561.44
373.61	4526.44
373.835	4542.44
374.061	4613.44
374.287	4633.44
374.513	4664.44
374.739	4800.44
374.965	4908.44
375.191	4868.44
375.416	4814.44
375.642	4612.44
375.868	4656.44
376.094	4583.44
376.319	4536.44
376.545	4483.44
376.771	4567.44
376.997	4466.44
377.222	4494.44
377.448	4458.44
377.674	4453.44
377.899	4412.44
378.125	4505.44
378.35	4356.44
378.576	4412.44
378.802	4461.44
379.027	4415.44
379.253	4368.44
379.478	4371.44
379.704	4425.44
379.929	4385.44
380.155	4498.44
380.38	4457.44
380.606	4541.44
380.831	4487.44
381.057	4557.44
381.282	4479.44
381.507	4476.44
381.733	4612.44
381.958	4647.44
382.184	4633.44
382.409	4676.44
382.634	4645.44
382.86	4645.44
383.085	4791.44
383.31	4862.44
383.535	4908.44
383.761	4985.44
383.986	5049.44
384.211	5113.44
384.436	5143.44
384.662	5292.44
384.887	5370.44
385.112	5337.44
385.337	5493.44
385.562	5387.44
385.787	5450.44
386.013	5496.44
386.238	5492.44
386.463	5418.44
386.688	5480.44
386.913	5331.44
387.138	5329.44
387.363	5376.44
387.588	5268.44
387.813	5343.44
388.038	5321.44
388.263	5398.44
388.488	5364.44
388.713	5335.44
388.938	5296.44
389.163	5326.44
389.387	5348.44
389.612	5251.44
389.837	5224.44
390.062	5217.44
390.287	5259.44
390.512	5278.44
390.736	5315.44
390.961	5467.44
391.186	5449.44
391.411	5632.44
391.636	5738.44
391.86	6058.44
392.085	5911.44
392.31	5918.44
392.534	5734.44
392.759	5683.44
392.984	5582.44
393.208	5480.44
393.433	5551.44
393.658	5502.44
393.882	5546.44
394.107	5507.44
394.331	5638.44
394.556	5576.44
394.78	5664.44
395.005	5731.44
395.229	5763.44
395.454	5934.44
395.678	6024.44
395.903	6087.44
396.127	6139.44
396.352	5976.44
396.576	5669.44
396.801	5657.44
397.025	5785.44
397.249	5960.44
397.474	6044.44
397.698	6033.44
397.922	6110.44
398.147	6348.44
398.371	6422.44
398.595	6491.44
398.82	6787.44
399.044	7417.44
399.268	8103.44
399.492	9219.44
399.717	9833.44
399.941	9463.44
400.165	8961.44
400.389	8441.44
400.613	7504.44
400.837	7033.44
401.062	6894.44
401.286	6834.44
401.51	6731.44
401.734	6696.44
401.958	6907.44
402.182	6989.44
402.406	7120.44
402.63	7160.44
402.854	7237.44
403.078	7296.44
403.302	7500.44
403.526	7631.44
403.75	7632.44
403.974	7749.44
404.198	7823.44
404.422	7965.44
404.645	8019.44
404.869	8120.44
405.093	8807.44
405.317	9326.44
405.541	9194.44
405.765	8345.44
405.988	7875.44
406.212	7963.44
406.436	8115.44
406.66	8186.44
406.883	8096.44
407.107	8728.44
407.331	9136.44
407.555	9687.44
407.778	9299.44
408.002	8623.44
408.226	8147.44
408.449	8121.44
408.673	7973.44
408.896	8093.44
409.12	8251.44
409.344	7751.44
409.567	7450.44
409.791	7373.44
410.014	7346.44
410.238	7282.44
410.461	7276.44
410.685	7370.44
410.908	7421.44
411.132	7691.44
411.355	7685.44
411.578	7368.44
411.802	7171.44
412.025	7438.44
412.249	7819.44
412.472	8515.44
412.695	8943.44
412.919	8323.44
413.142	7767.44
413.365	7516.44
413.589	7277.44
413.812	6942.44
414.035	6848.44
414.258	6853.44
414.482	6885.44
414.705	6887.44
414.928	6787.44
415.151	6772.44
415.374	6730.44
415.597	6681.44
415.821	6643.44
416.044	6606.44
416.267	6619.44
416.49	6540.44
416.713	6445.44
416.936	6590.44
417.159	6648.44
417.382	6820.44
417.605	6884.44
417.828	7053.44
418.051	7054.44
418.274	6763.44
418.497	6708.44
418.72	6809.44
418.943	6835.44
419.166	7185.44
419.389	7755.44
419.611	7606.44
419.834	7660.44
420.057	7776.44
420.28	7951.44
420.503	7654.44
420.726	7395.44
420.948	7305.44
421.171	7622.44
421.394	7528.44
421.617	6945.44
421.839	6885.44
422.062	6947.44
422.285	7071.44
422.507	7804.44
422.73	8253.44
422.953	7566.44
423.175	7150.44
423.398	7283.44
423.621	7285.44
423.843	7501.44
424.066	7374.44
424.288	7343.44
424.511	7559.44
424.733	8067.44
424.956	8502.44
425.178	8071.44
425.401	8188.44
425.623	8062.44
425.846	6913.44
426.068	6887.44
426.291	6789.44
426.513	6759.44
426.735	6980.44
426.958	7441.44
427.18	8211.44
427.402	9554.44
427.625	10059.44
427.847	9190.44
428.069	8777.44
428.292	7344.44
428.514	6667.44
428.736	6364.44
428.958	6341.44
429.181	6142.44
429.403	6028.44
429.625	6264.44
429.847	6599.44
430.069	7103.44
430.292	6584.44
430.514	6006.44
430.736	6011.44
430.958	5966.44
431.18	5883.44
431.402	5850.44
431.624	5870.44
431.846	5962.44
432.068	5890.44
432.29	6137.44
432.512	5883.44
432.734	5972.44
432.956	5962.44
433.178	6090.44
433.4	6002.44
433.622	5947.44
433.844	5980.44
434.066	5995.44
434.287	6138.44
434.509	6340.44
434.731	6532.44
434.953	6604.44
435.175	6833.44
435.397	6871.44
435.618	6815.44
435.84	7217.44
436.062	8085.44
436.284	8042.44
436.505	6784.44
436.727	6413.44
436.949	6159.44
437.17	6083.44
437.392	5931.44
437.614	6192.44
437.835	6582.44
438.057	7627.44
438.278	8241.44
438.5	8112.44
438.721	9044.44
438.943	7820.44
439.165	6613.44
439.386	6402.44
439.608	6427.44
439.829	6590.44
440.05	7041.44
440.272	7580.44
440.493	6782.44
440.715	6282.44
440.936	6306.44
441.158	6343.44
441.379	6501.44
441.6	6794.44
441.822	7041.44
442.043	7561.44
442.264	8329.44
442.486	8024.44
442.707	7118.44
442.928	6920.44
443.149	7282.44
443.371	7425.44
443.592	7947.44
443.813	8962.44
444.034	8836.44
444.255	7739.44
444.476	7523.44
444.698	7697.44
444.919	7864.44
445.14	7689.44
445.361	7573.44
445.582	7789.44
445.803	8557.44
446.024	9221.44
446.245	8803.44
446.466	7723.44
446.687	6621.44
446.908	6317.44
447.129	6025.44
447.35	5927.44
447.571	5861.44
447.792	5783.44
448.013	5864.44
448.234	6076.44
448.455	6812.44
448.675	8001.44
448.896	8470.44
449.117	6857.44
449.338	7197.44
449.559	8589.44
449.779	8780.44
450	6677.44
450.221	5993.44
450.442	5739.44
450.662	5653.44
450.883	5816.44
451.104	5999.44
451.324	5763.44
451.545	5603.44
451.766	5399.44
451.986	5283.44
452.207	5275.44
452.428	5235.44
452.648	5278.44
452.869	5324.44
453.089	5387.44
453.31	5506.44
453.53	5217.44
453.751	5228.44
453.971	5344.44
454.192	5536.44
454.412	5205.44
454.633	5151.44
454.853	5050.44
455.073	5163.44
455.294	5616.44
455.514	6167.44
455.734	5602.44
455.955	5025.44
456.175	4910.44
456.395	4815.44
456.616	4854.44
456.836	4806.44
457.056	4820.44
457.276	4768.44
457.497	4941.44
457.717	4926.44
457.937	5047.44
458.157	5066.44
458.377	5227.44
458.598	5592.44
458.818	6381.44
459.038	7192.44
459.258	7039.44
459.478	6230.44
459.698	6093.44
459.918	6195.44
460.138	6248.44
460.358	6529.44
460.578	6535.44
460.798	6558.44
461.018	6682.44
461.238	6419.44
461.458	6488.44
461.678	6455.44
461.898	6512.44
462.118	6656.44
462.338	6930.44
462.558	7069.44
462.777	7403.44
462.997	8034.44
463.217	8353.44
463.437	8222.44
463.657	7582.44
463.876	7384.44
464.096	7481.44
464.316	7383.44
464.536	7494.44
464.755	7254.44
464.975	7207.44
465.195	7528.44
465.414	7742.44
465.634	6644.44
465.854	6192.44
466.073	5934.44
466.293	5788.44
466.512	5585.44
466.732	5503.44
466.951	5571.44
467.171	5529.44
467.391	5707.44
467.61	5808.44
467.829	5898.44
468.049	6622.44
468.268	7451.44
468.488	6251.44
468.707	5696.44
468.927	5461.44
469.146	5403.44
469.365	5417.44
469.585	5475.44
469.804	5664.44
470.023	5857.44
470.243	5836.44
470.462	5897.44
470.681	6078.44
470.901	6024.44
471.12	5779.44
471.339	5771.44
471.558	5806.44
471.777	5833.44
471.997	6129.44
472.216	8190.44
472.435	11859.44
472.654	8825.44
472.873	6745.44
473.092	6246.44
473.311	5899.44
473.53	5760.44
473.749	5783.44
473.968	6368.44
474.187	7301.44
474.406	6782.44
474.625	5746.44
474.844	5504.44
475.063	5435.44
475.282	5425.44
475.501	5464.44
475.72	5502.44
475.939	5524.44
476.158	5608.44
476.377	5618.44
476.596	5551.44
476.814	5769.44
477.033	5756.44
477.252	5841.44
477.471	5919.44
477.69	6055.44
477.908	6184.44
478.127	6291.44
478.346	6363.44
478.564	6508.44
478.783	6654.44
479.002	6786.44
479.22	6824.44
479.439	6906.44
479.658	7076.44
479.876	7164.44
480.095	7456.44
480.313	7920.44
480.532	7886.44
480.751	8265.44
480.969	10363.44
481.188	15204.44
481.406	15140.44
481.624	10744.44
481.843	8797.44
482.061	7955.44
482.28	7504.44
482.498	7090.44
482.717	6915.44
482.935	6821.44
483.153	6635.44
483.372	6595.44
483.59	6567.44
483.808	6565.44
484.027	6455.44
484.245	6548.44
484.463	6563.44
484.681	6618.44
484.9	6685.44
485.118	6711.44
485.336	6720.44
485.554	6846.44
485.772	6888.44
485.99	6813.44
486.209	6787.44
486.427	6807.44
486.645	7017.44
486.863	7187.44
487.081	7069.44
487.299	7016.44
487.517	6942.44
487.735	6848.44
