Data from Circ_2000_H10_HRD10591_00063.txt Node
Date: Wed Jan 03 10:49:46 EST 2024
User: Yrep
Spectrometer: HR+D1059
Trigger mode: 1
Integration Time (sec): 1.000000E-1
Scans to average: 1
Electric dark correction enabled: true
Nonlinearity correction enabled: false
Boxcar width: 0
XAxis mode: Wavelengths
Number of Pixels in Spectrum: 2048
>>>>>Begin Spectral Data<<<<<
223.165	-20
223.4	-20
223.635	-20
223.869	-13
224.104	-17
224.338	-9
224.573	-22
224.808	-17
225.042	-15
225.277	-7
225.511	5
225.746	1
225.98	11
226.215	16
226.449	11
226.683	26
226.918	27
227.152	23
227.387	36
227.621	35
227.856	30
228.09	44
228.324	56
228.559	56
228.793	63
229.027	50
229.262	71
229.496	75
229.73	97
229.964	85
230.199	57
230.433	86
230.667	79
230.901	72
231.136	77
231.37	70
231.604	90
231.838	74
232.072	89
232.306	88
232.541	89
232.775	87
233.009	75
233.243	80
233.477	93
233.711	79
233.945	85
234.179	69
234.413	75
234.647	82
234.881	71
235.115	87
235.349	66
235.583	90
235.817	83
236.051	72
236.285	81
236.519	79
236.753	79
236.987	74
237.221	91
237.455	88
237.689	86
237.922	77
238.156	73
238.39	75
238.624	67
238.858	81
239.091	82
239.325	83
239.559	88
239.793	84
240.027	88
240.26	81
240.494	76
240.728	80
240.961	73
241.195	91
241.429	68
241.662	84
241.896	86
242.13	61
242.363	71
242.597	72
242.83	71
243.064	65
243.298	87
243.531	87
243.765	74
243.998	75
244.232	65
244.465	87
244.699	96
244.932	79
245.166	81
245.399	79
245.633	77
245.866	71
246.099	72
246.333	77
246.566	71
246.8	72
247.033	92
247.266	73
247.5	72
247.733	77
247.966	79
248.2	79
248.433	80
248.666	81
248.899	80
249.133	98
249.366	98
249.599	98
249.832	80
250.066	80
250.299	73
250.532	81
250.765	78
250.998	80
251.231	94
251.465	83
251.698	80
251.931	89
252.164	67
252.397	79
252.63	80
252.863	80
253.096	94
253.329	84
253.562	81
253.795	85
254.028	74
254.261	78
254.494	86
254.727	99
254.96	82
255.193	86
255.426	81
255.659	83
255.892	92
256.124	93
256.357	98
256.59	78
256.823	83
257.056	68
257.289	87
257.521	71
257.754	72
257.987	82
258.22	99
258.452	80
258.685	80
258.918	90
259.151	72
259.383	86
259.616	88
259.849	74
260.081	79
260.314	76
260.547	95
260.779	74
261.012	95
261.244	103
261.477	93
261.71	103
261.942	128
262.175	116
262.407	85
262.64	77
262.872	83
263.105	96
263.337	92
263.57	72
263.802	98
264.035	75
264.267	84
264.499	97
264.732	78
264.964	79
265.197	76
265.429	82
265.661	81
265.894	85
266.126	96
266.358	91
266.591	92
266.823	100
267.055	85
267.287	90
267.52	76
267.752	85
267.984	80
268.216	83
268.448	82
268.681	84
268.913	85
269.145	73
269.377	86
269.609	80
269.841	82
270.073	77
270.306	80
270.538	79
270.77	84
271.002	88
271.234	88
271.466	102
271.698	97
271.93	97
272.162	80
272.394	75
272.626	75
272.858	93
273.09	87
273.322	79
273.553	82
273.785	76
274.017	76
274.249	67
274.481	80
274.713	77
274.945	67
275.176	82
275.408	89
275.64	106
275.872	113
276.104	112
276.335	91
276.567	96
276.799	129
277.031	148
277.262	152
277.494	134
277.726	104
277.957	84
278.189	96
278.421	73
278.652	86
278.884	93
279.115	94
279.347	96
279.579	103
279.81	119
280.042	132
280.273	193
280.505	127
280.736	91
280.968	78
281.199	88
281.431	83
281.662	88
281.894	86
282.125	92
282.356	128
282.588	153
282.819	130
283.051	96
283.282	82
283.513	88
283.745	94
283.976	94
284.207	82
284.439	76
284.67	91
284.901	81
285.132	88
285.364	81
285.595	87
285.826	93
286.057	93
286.288	89
286.52	79
286.751	68
286.982	90
287.213	90
287.444	101
287.675	94
287.906	92
288.138	97
288.369	99
288.6	88
288.831	94
289.062	90
289.293	87
289.524	90
289.755	81
289.986	79
290.217	87
290.448	97
290.679	84
290.91	87
291.141	83
291.371	90
291.602	85
291.833	80
292.064	90
292.295	86
292.526	83
292.757	97
292.987	95
293.218	87
293.449	95
293.68	86
293.91	83
294.141	101
294.372	93
294.603	91
294.833	86
295.064	90
295.295	98
295.525	112
295.756	108
295.987	131
296.217	158
296.448	138
296.679	86
296.909	101
297.14	89
297.37	82
297.601	90
297.831	86
298.062	95
298.292	92
298.523	90
298.753	79
298.984	79
299.214	83
299.445	92
299.675	91
299.905	100
300.136	100
300.366	89
300.597	90
300.827	98
301.057	102
301.288	113
301.518	97
301.748	89
301.979	103
302.209	100
302.439	82
302.669	91
302.9	87
303.13	82
303.36	99
303.59	124
303.82	136
304.051	100
304.281	100
304.511	83
304.741	98
304.971	92
305.201	93
305.431	76
305.661	89
305.891	93
306.121	107
306.352	104
306.582	99
306.812	96
307.042	97
307.272	114
307.502	135
307.731	124
307.961	117
308.191	88
308.421	84
308.651	95
308.881	85
309.111	89
309.341	94
309.571	95
309.8	91
310.03	91
310.26	93
310.49	100
310.72	112
310.949	107
311.179	115
311.409	102
311.639	102
311.868	88
312.098	88
312.328	88
312.557	126
312.787	118
313.017	90
313.246	99
313.476	99
313.706	87
313.935	92
314.165	102
314.394	97
314.624	101
314.853	99
315.083	86
315.312	83
315.542	107
315.771	113
316.001	91
316.23	89
316.46	87
316.689	81
316.919	95
317.148	83
317.377	73
317.607	94
317.836	102
318.065	98
318.295	90
318.524	86
318.753	93
318.983	100
319.212	96
319.441	107
319.67	105
319.9	98
320.129	99
320.358	90
320.587	109
320.816	105
321.046	108
321.275	104
321.504	97
321.733	98
321.962	93
322.191	101
322.42	114
322.649	125
322.878	109
323.108	129
323.337	143
323.566	150
323.795	184
324.024	243
324.253	532
324.482	1117
324.71	2326
324.939	3090
325.168	1106
325.397	312
325.626	187
325.855	152
326.084	152
326.313	160
326.542	175
326.77	289
326.999	574
327.228	1247
327.457	2309
327.686	1836
327.914	551
328.143	411
328.372	449
328.6	274
328.829	173
329.058	165
329.287	185
329.515	153
329.744	192
329.972	323
330.201	612
330.43	908
330.658	440
330.887	235
331.115	181
331.344	112
331.572	118
331.801	122
332.03	128
332.258	106
332.486	114
332.715	87
332.943	108
333.172	109
333.4	113
333.629	140
333.857	180
334.085	319
334.314	610
334.542	1125
334.771	1058
334.999	298
335.227	148
335.455	97
335.684	114
335.912	108
336.14	102
336.369	111
336.597	95
336.825	96
337.053	85
337.281	104
337.51	98
337.738	91
337.966	111
338.194	111
338.422	90
338.65	93
338.878	89
339.106	86
339.334	82
339.562	88
339.79	107
340.018	92
340.246	91
340.474	101
340.702	102
340.93	91
341.158	86
341.386	96
341.614	104
341.842	100
342.07	99
342.298	89
342.526	93
342.754	82
342.981	92
343.209	84
343.437	100
343.665	93
343.893	80
344.12	92
344.348	100
344.576	79
344.804	89
345.031	100
345.259	98
345.487	101
345.714	93
345.942	106
346.17	90
346.397	88
346.625	93
346.853	80
347.08	101
347.308	100
347.535	106
347.763	111
347.99	108
348.218	105
348.445	113
348.673	90
348.9	97
349.128	89
349.355	90
349.583	104
349.81	97
350.037	81
350.265	98
350.492	105
350.72	86
350.947	111
351.174	103
351.402	143
351.629	114
351.856	110
352.083	115
352.311	111
352.538	97
352.765	108
352.992	122
353.22	131
353.447	112
353.674	101
353.901	92
354.128	91
354.355	91
354.583	99
354.81	99
355.037	87
355.264	91
355.491	99
355.718	82
355.945	106
356.172	92
356.399	92
356.626	103
356.853	85
357.08	97
357.307	82
357.534	94
357.761	98
357.988	100
358.215	104
358.441	90
358.668	99
358.895	92
359.122	91
359.349	105
359.576	94
359.802	110
360.029	136
360.256	135
360.483	114
360.709	91
360.936	96
361.163	108
361.39	101
361.616	104
361.843	90
362.07	107
362.296	113
362.523	107
362.749	95
362.976	92
363.203	101
363.429	95
363.656	99
363.882	93
364.109	96
364.335	101
364.562	92
364.788	104
365.015	98
365.241	124
365.468	105
365.694	118
365.92	114
366.147	101
366.373	92
366.599	94
366.826	94
367.052	85
367.278	97
367.505	100
367.731	97
367.957	91
368.184	98
368.41	108
368.636	111
368.862	133
369.089	106
369.315	97
369.541	84
369.767	97
369.993	83
370.219	84
370.445	80
370.672	100
370.898	98
371.124	110
371.35	81
371.576	84
371.802	84
372.028	90
372.254	89
372.48	101
372.706	87
372.932	76
373.158	101
373.384	94
373.61	85
373.835	84
374.061	88
374.287	97
374.513	96
374.739	79
374.965	91
375.191	88
375.416	92
375.642	82
375.868	92
376.094	99
376.319	85
376.545	72
376.771	89
376.997	103
377.222	86
377.448	95
377.674	88
377.899	100
378.125	90
378.35	89
378.576	79
378.802	89
379.027	95
379.253	89
379.478	100
379.704	93
379.929	94
380.155	87
380.38	90
380.606	118
380.831	100
381.057	97
381.282	93
381.507	102
381.733	92
381.958	97
382.184	99
382.409	99
382.634	116
382.86	88
383.085	91
383.31	98
383.535	112
383.761	83
383.986	86
384.211	108
384.436	99
384.662	99
384.887	100
385.112	94
385.337	95
385.562	110
385.787	107
386.013	118
386.238	106
386.463	112
386.688	112
386.913	103
387.138	100
387.363	112
387.588	101
387.813	102
388.038	110
388.263	111
388.488	111
388.713	101
388.938	89
389.163	90
389.387	75
389.612	105
389.837	97
390.062	101
390.287	83
390.512	102
390.736	86
390.961	90
391.186	92
391.411	88
391.636	84
391.86	85
392.085	85
392.31	81
392.534	87
392.759	94
392.984	91
393.208	92
393.433	101
393.658	90
393.882	80
394.107	87
394.331	90
394.556	88
394.78	89
395.005	67
395.229	79
395.454	95
395.678	73
395.903	76
396.127	75
396.352	81
396.576	94
396.801	95
397.025	87
397.249	98
397.474	88
397.698	85
397.922	77
398.147	93
398.371	101
398.595	87
398.82	80
399.044	81
399.268	99
399.492	101
399.717	88
399.941	106
400.165	101
400.389	97
400.613	67
400.837	86
401.062	85
401.286	83
401.51	95
401.734	77
401.958	122
402.182	140
402.406	188
402.63	148
402.854	110
403.078	88
403.302	97
403.526	96
403.75	95
403.974	97
404.198	85
404.422	88
404.645	92
404.869	98
405.093	133
405.317	141
405.541	139
405.765	116
405.988	144
406.212	203
406.436	291
406.66	210
406.883	127
407.107	97
407.331	101
407.555	112
407.778	105
408.002	84
408.226	91
408.449	89
408.673	91
408.896	105
409.12	108
409.344	94
409.567	86
409.791	82
410.014	104
410.238	113
410.461	93
410.685	98
410.908	86
411.132	107
411.355	106
411.578	99
411.802	99
412.025	99
412.249	97
412.472	108
412.695	149
412.919	113
413.142	97
413.365	108
413.589	87
413.812	93
414.035	91
414.258	72
414.482	107
414.705	108
414.928	93
415.151	83
415.374	74
415.597	98
415.821	84
416.044	90
416.267	90
416.49	94
416.713	97
416.936	88
417.159	77
417.382	97
417.605	106
417.828	115
418.051	99
418.274	99
418.497	80
418.72	86
418.943	83
419.166	84
419.389	82
419.611	81
419.834	97
420.057	108
420.28	85
420.503	89
420.726	92
420.948	84
421.171	111
421.394	98
421.617	88
421.839	95
422.062	99
422.285	91
422.507	97
422.73	122
422.953	97
423.175	89
423.398	76
423.621	88
423.843	95
424.066	91
424.288	90
424.511	89
424.733	87
424.956	109
425.178	93
425.401	111
425.623	101
425.846	104
426.068	104
426.291	113
426.513	95
426.735	90
426.958	103
427.18	104
427.402	180
427.625	254
427.847	213
428.069	191
428.292	137
428.514	91
428.736	92
428.958	82
429.181	85
429.403	106
429.625	80
429.847	106
430.069	123
430.292	102
430.514	80
430.736	98
430.958	91
431.18	84
431.402	88
431.624	74
431.846	80
432.068	92
432.29	81
432.512	104
432.734	91
432.956	97
433.178	105
433.4	108
433.622	85
433.844	97
434.066	89
434.287	88
434.509	86
434.731	88
434.953	83
435.175	89
435.397	99
435.618	105
435.84	118
436.062	132
436.284	127
436.505	116
436.727	105
436.949	88
437.17	99
437.392	98
437.614	107
437.835	120
438.057	153
438.278	128
438.5	106
438.721	147
438.943	116
439.165	89
439.386	99
439.608	90
439.829	107
440.05	133
440.272	181
440.493	108
440.715	80
440.936	92
441.158	86
441.379	88
441.6	102
441.822	98
442.043	120
442.264	123
442.486	107
442.707	99
442.928	122
443.149	158
443.371	153
443.592	131
443.813	144
444.034	131
444.255	86
444.476	87
444.698	82
444.919	88
445.14	139
445.361	125
445.582	146
445.803	191
446.024	189
446.245	165
446.466	143
446.687	101
446.908	92
447.129	84
447.35	91
447.571	106
447.792	93
448.013	93
448.234	113
448.455	112
448.675	140
448.896	135
449.117	95
449.338	108
449.559	166
449.779	178
450	100
450.221	85
450.442	94
450.662	103
450.883	116
451.104	147
451.324	114
451.545	85
451.766	85
451.986	78
452.207	99
452.428	100
452.648	109
452.869	135
453.089	119
453.31	143
453.53	87
453.751	101
453.971	118
454.192	136
454.412	109
454.633	95
454.853	84
455.073	81
455.294	96
455.514	96
455.734	90
455.955	75
456.175	90
456.395	87
456.616	92
456.836	103
457.056	88
457.276	79
457.497	88
457.717	98
457.937	92
458.157	101
458.377	98
458.598	124
458.818	209
459.038	228
459.258	137
459.478	97
459.698	105
459.918	89
460.138	75
460.358	84
460.578	94
460.798	85
461.018	107
461.238	82
461.458	89
461.678	104
461.898	86
462.118	94
462.338	95
462.558	80
462.777	85
462.997	97
463.217	103
463.437	91
463.657	93
463.876	96
464.096	88
464.316	91
464.536	102
464.755	97
464.975	133
465.195	223
465.414	219
465.634	101
465.854	99
466.073	97
466.293	92
466.512	83
466.732	90
466.951	87
467.171	104
467.391	103
467.61	125
467.829	162
468.049	349
468.268	486
468.488	159
468.707	105
468.927	89
469.146	96
469.365	78
469.585	100
469.804	92
470.023	104
470.243	85
470.462	101
470.681	104
470.901	119
471.12	107
471.339	87
471.558	106
471.777	134
471.997	208
472.216	679
472.435	1455
472.654	371
472.873	129
473.092	108
473.311	106
473.53	91
473.749	101
473.968	96
474.187	125
474.406	111
474.625	92
474.844	76
475.063	92
475.282	101
475.501	102
475.72	98
475.939	91
476.158	91
476.377	90
476.596	90
476.814	86
477.033	105
477.252	91
477.471	94
477.69	92
477.908	93
478.127	102
478.346	97
478.564	95
478.783	108
479.002	81
479.22	107
479.439	113
479.658	127
479.876	122
480.095	98
480.313	121
480.532	151
480.751	193
480.969	657
481.188	2549
481.406	1483
481.624	244
481.843	129
482.061	99
482.28	90
482.498	85
482.717	89
482.935	84
483.153	91
483.372	76
483.59	99
483.808	88
484.027	84
484.245	81
484.463	94
484.681	103
484.9	85
485.118	105
485.336	96
485.554	103
485.772	107
485.99	97
486.209	97
486.427	115
486.645	109
486.863	148
487.081	104
487.299	96
487.517	104
487.735	104
487.953	92
488.171	96
488.389	97
488.607	95
488.825	94
489.043	95
489.261	107
489.479	87
489.696	73
489.914	83
490.132	72
490.35	95
490.568	85
490.786	81
491.003	84
491.221	100
491.439	98
491.657	105
491.874	98
492.092	84
492.31	102
492.527	87
492.745	98
492.963	91
493.18	100
493.398	91
493.615	94
493.833	87
494.05	88
494.268	85
494.485	101
494.703	83
494.92	101
495.138	84
495.355	80
495.573	98
495.79	89
496.008	88
496.225	90
496.442	88
496.66	104
496.877	92
497.094	82
497.312	88
497.529	83
497.746	101
497.963	92
498.181	77
498.398	95
498.615	113
498.832	113
499.049	103
499.267	84
499.484	86
499.701	108
499.918	89
500.135	85
500.352	87
500.569	94
500.786	97
501.003	91
501.22	96
501.437	87
501.654	107
501.871	132
502.088	86
502.305	102
502.522	90
502.739	105
502.956	101
503.172	96
503.389	105
503.606	121
503.823	101
504.04	95
504.256	79
504.473	92
504.69	88
504.907	93
505.123	102
505.34	99
505.557	104
505.773	92
505.99	96
506.207	96
506.423	87
506.64	90
506.856	83
507.073	93
507.289	94
507.506	95
507.722	119
507.939	135
508.155	95
508.372	97
508.588	103
508.805	104
509.021	91
509.238	96
509.454	99
509.67	86
509.887	114
510.103	147
510.319	244
510.536	938
510.752	3169
510.968	849
511.184	183
511.401	118
511.617	111
511.833	106
512.049	94
512.265	90
512.481	89
512.698	102
512.914	100
513.13	99
513.346	88
513.562	108
513.778	116
513.994	88
514.21	110
514.426	140
514.642	160
514.858	152
515.074	215
515.29	695
515.506	2332
515.721	822
515.937	198
516.153	136
516.369	117
516.585	92
516.801	112
517.016	98
517.232	87
517.448	98
517.664	107
517.879	101
518.095	99
518.311	100
518.527	105
518.742	97
518.958	86
519.173	107
519.389	111
519.605	104
519.82	108
520.036	111
520.251	129
520.467	116
520.682	116
520.898	121
521.113	132
521.329	169
521.544	308
521.76	882
521.975	4001
522.19	2347
522.406	474
522.621	156
522.836	103
523.052	106
523.267	101
523.482	98
523.698	113
523.913	153
524.128	109
524.343	96
524.559	93
524.774	93
524.989	103
525.204	118
525.419	115
525.634	96
525.849	103
526.064	102
526.28	98
526.495	89
526.71	86
526.925	96
527.14	105
527.355	95
527.57	85
527.785	71
527.999	91
528.214	100
528.429	95
528.644	95
528.859	97
529.074	97
529.289	147
529.503	250
529.718	116
529.933	105
530.148	79
530.363	90
530.577	85
530.792	79
531.007	99
531.221	80
531.436	91
531.651	91
531.865	79
532.08	83
532.295	75
532.509	104
532.724	95
532.938	95
533.153	109
533.367	84
533.582	92
533.796	97
534.011	78
534.225	90
534.44	96
534.654	94
534.868	93
535.083	72
535.297	96
535.511	114
535.726	106
535.94	107
536.154	100
536.369	88
536.583	88
536.797	87
537.011	98
537.225	87
537.44	96
537.654	95
537.868	86
538.082	90
538.296	74
538.51	101
538.724	92
538.938	86
539.153	87
539.367	114
539.581	92
539.795	86
540.009	106
540.222	94
540.436	96
540.65	101
540.864	98
541.078	97
541.292	89
541.506	96
541.72	86
541.934	84
542.147	92
542.361	84
542.575	85
542.789	86
543.002	73
543.216	102
543.43	98
543.644	87
543.857	90
544.071	108
544.285	89
544.498	96
544.712	93
544.925	75
545.139	84
545.352	72
545.566	103
545.779	97
545.993	85
546.206	85
546.42	106
546.633	100
546.847	90
547.06	91
547.274	83
547.487	85
547.7	91
547.914	80
548.127	87
548.34	89
548.554	88
548.767	98
548.98	79
549.193	84
549.407	89
549.62	94
549.833	83
550.046	77
550.259	97
550.473	82
550.686	88
550.899	99
551.112	84
551.325	79
551.538	99
551.751	76
551.964	89
552.177	99
552.39	88
552.603	92
552.816	97
553.029	96
553.242	87
553.455	111
553.667	109
553.88	114
554.093	83
554.306	87
554.519	91
554.732	102
554.944	98
555.157	89
555.37	79
555.583	80
555.795	103
556.008	87
556.221	83
556.433	81
556.646	99
556.859	96
557.071	89
557.284	90
557.496	91
557.709	82
557.921	102
558.134	91
558.346	87
558.559	77
558.771	89
558.984	85
559.196	96
559.409	84
559.621	80
559.833	79
560.046	105
560.258	96
560.47	115
560.683	94
560.895	98
561.107	86
561.32	97
561.532	98
561.744	87
561.956	84
562.168	94
562.381	84
562.593	89
562.805	107
563.017	76
563.229	95
563.441	97
563.653	94
563.865	92
564.077	72
564.289	72
564.501	92
564.713	97
564.925	90
565.137	109
565.349	106
565.561	88
565.773	87
565.985	94
566.197	81
566.408	96
566.62	93
566.832	74
567.044	93
567.255	82
567.467	83
567.679	100
567.891	89
568.102	81
568.314	92
568.526	87
568.737	90
568.949	80
569.161	75
569.372	83
569.584	79
569.795	88
570.007	114
570.218	302
570.43	154
570.641	87
570.853	73
571.064	87
571.276	77
571.487	86
571.698	77
571.91	93
572.121	82
572.333	84
572.544	90
572.755	84
572.966	92
573.178	92
573.389	83
573.6	90
573.811	82
574.023	81
574.234	85
574.445	98
574.656	89
574.867	96
575.078	80
575.289	84
575.501	81
575.712	93
575.923	84
576.134	71
576.345	85
576.556	91
576.767	85
576.978	99
577.188	92
577.399	93
577.61	106
577.821	102
578.032	123
578.243	307
578.454	969
578.665	260
578.875	94
579.086	101
579.297	90
579.508	84
579.718	88
579.929	83
580.14	70
580.35	79
580.561	79
580.772	91
580.982	93
581.193	87
581.403	88
