Data from Circ_2000_H10_HRD10591_00019.txt Node
Date: Wed Jan 03 10:49:37 EST 2024
User: Yrep
Spectrometer: HR+D1059
Trigger mode: 1
Integration Time (sec): 1.000000E-1
Scans to average: 1
Electric dark correction enabled: true
Nonlinearity correction enabled: false
Boxcar width: 0
XAxis mode: Wavelengths
Number of Pixels in Spectrum: 2048
>>>>>Begin Spectral Data<<<<<
223.165	-11.06
223.4	-11.06
223.635	-11.06
223.869	-25.06
224.104	-12.06
224.338	-11.06
224.573	-5.06
224.808	-23.06
225.042	-20.06
225.277	-2.06
225.511	-4.06
225.746	14.94
225.98	-4.06
226.215	13.94
226.449	7.94
226.683	18.94
226.918	29.94
227.152	31.94
227.387	30.94
227.621	41.94
227.856	49.94
228.09	38.94
228.324	45.94
228.559	69.94
228.793	76.94
229.027	57.94
229.262	74.94
229.496	57.94
229.73	86.94
229.964	84.94
230.199	75.94
230.433	77.94
230.667	77.94
230.901	60.94
231.136	70.94
231.37	83.94
231.604	84.94
231.838	80.94
232.072	79.94
232.306	79.94
232.541	91.94
232.775	84.94
233.009	87.94
233.243	79.94
233.477	98.94
233.711	73.94
233.945	77.94
234.179	68.94
234.413	101.94
234.647	74.94
234.881	73.94
235.115	84.94
235.349	80.94
235.583	70.94
235.817	75.94
236.051	76.94
236.285	89.94
236.519	74.94
236.753	91.94
236.987	71.94
237.221	74.94
237.455	81.94
237.689	75.94
237.922	78.94
238.156	73.94
238.39	79.94
238.624	67.94
238.858	76.94
239.091	79.94
239.325	89.94
239.559	76.94
239.793	70.94
240.027	76.94
240.26	79.94
240.494	71.94
240.728	80.94
240.961	75.94
241.195	83.94
241.429	77.94
241.662	70.94
241.896	69.94
242.13	73.94
242.363	74.94
242.597	74.94
242.83	60.94
243.064	83.94
243.298	74.94
243.531	101.94
243.765	92.94
243.998	73.94
244.232	83.94
244.465	96.94
244.699	67.94
244.932	68.94
245.166	81.94
245.399	84.94
245.633	88.94
245.866	87.94
246.099	85.94
246.333	82.94
246.566	93.94
246.8	86.94
247.033	78.94
247.266	69.94
247.5	83.94
247.733	77.94
247.966	90.94
248.2	81.94
248.433	73.94
248.666	82.94
248.899	74.94
249.133	105.94
249.366	93.94
249.599	87.94
249.832	74.94
250.066	76.94
250.299	80.94
250.532	78.94
250.765	79.94
250.998	82.94
251.231	73.94
251.465	76.94
251.698	78.94
251.931	74.94
252.164	80.94
252.397	81.94
252.63	81.94
252.863	85.94
253.096	80.94
253.329	68.94
253.562	93.94
253.795	85.94
254.028	66.94
254.261	90.94
254.494	94.94
254.727	86.94
254.96	92.94
255.193	88.94
255.426	68.94
255.659	85.94
255.892	98.94
256.124	95.94
256.357	75.94
256.59	77.94
256.823	94.94
257.056	78.94
257.289	94.94
257.521	88.94
257.754	84.94
257.987	93.94
258.22	79.94
258.452	89.94
258.685	75.94
258.918	87.94
259.151	90.94
259.383	94.94
259.616	89.94
259.849	73.94
260.081	70.94
260.314	80.94
260.547	85.94
260.779	83.94
261.012	96.94
261.244	105.94
261.477	101.94
261.71	109.94
261.942	114.94
262.175	113.94
262.407	97.94
262.64	79.94
262.872	77.94
263.105	79.94
263.337	88.94
263.57	86.94
263.802	80.94
264.035	83.94
264.267	70.94
264.499	85.94
264.732	85.94
264.964	68.94
265.197	98.94
265.429	83.94
265.661	93.94
265.894	85.94
266.126	75.94
266.358	87.94
266.591	82.94
266.823	76.94
267.055	92.94
267.287	82.94
267.52	72.94
267.752	95.94
267.984	89.94
268.216	87.94
268.448	78.94
268.681	91.94
268.913	87.94
269.145	85.94
269.377	89.94
269.609	77.94
269.841	102.94
270.073	94.94
270.306	97.94
270.538	88.94
270.77	66.94
271.002	81.94
271.234	102.94
271.466	86.94
271.698	84.94
271.93	73.94
272.162	91.94
272.394	69.94
272.626	76.94
272.858	79.94
273.09	81.94
273.322	71.94
273.553	99.94
273.785	81.94
274.017	90.94
274.249	87.94
274.481	77.94
274.713	82.94
274.945	104.94
275.176	83.94
275.408	94.94
275.64	100.94
275.872	94.94
276.104	81.94
276.335	93.94
276.567	93.94
276.799	118.94
277.031	106.94
277.262	117.94
277.494	107.94
277.726	94.94
277.957	85.94
278.189	91.94
278.421	91.94
278.652	96.94
278.884	75.94
279.115	86.94
279.347	107.94
279.579	84.94
279.81	93.94
280.042	95.94
280.273	119.94
280.505	102.94
280.736	83.94
280.968	82.94
281.199	93.94
281.431	91.94
281.662	82.94
281.894	86.94
282.125	91.94
282.356	102.94
282.588	130.94
282.819	114.94
283.051	99.94
283.282	87.94
283.513	83.94
283.745	71.94
283.976	82.94
284.207	107.94
284.439	78.94
284.67	93.94
284.901	75.94
285.132	92.94
285.364	91.94
285.595	86.94
285.826	83.94
286.057	83.94
286.288	92.94
286.52	75.94
286.751	91.94
286.982	94.94
287.213	88.94
287.444	89.94
287.675	86.94
287.906	91.94
288.138	87.94
288.369	92.94
288.6	96.94
288.831	83.94
289.062	101.94
289.293	89.94
289.524	76.94
289.755	90.94
289.986	92.94
290.217	84.94
290.448	82.94
290.679	78.94
290.91	91.94
291.141	83.94
291.371	95.94
291.602	80.94
291.833	91.94
292.064	85.94
292.295	91.94
292.526	91.94
292.757	76.94
292.987	90.94
293.218	88.94
293.449	85.94
293.68	86.94
293.91	95.94
294.141	89.94
294.372	97.94
294.603	82.94
294.833	81.94
295.064	89.94
295.295	93.94
295.525	92.94
295.756	99.94
295.987	102.94
296.217	134.94
296.448	129.94
296.679	99.94
296.909	76.94
297.14	92.94
297.37	92.94
297.601	86.94
297.831	98.94
298.062	78.94
298.292	88.94
298.523	106.94
298.753	88.94
298.984	94.94
299.214	73.94
299.445	89.94
299.675	89.94
299.905	94.94
300.136	87.94
300.366	109.94
300.597	90.94
300.827	99.94
301.057	92.94
301.288	110.94
301.518	105.94
301.748	93.94
301.979	99.94
302.209	90.94
302.439	81.94
302.669	99.94
302.9	85.94
303.13	86.94
303.36	102.94
303.59	97.94
303.82	105.94
304.051	111.94
304.281	87.94
304.511	89.94
304.741	99.94
304.971	89.94
305.201	99.94
305.431	85.94
305.661	98.94
305.891	81.94
306.121	113.94
306.352	94.94
306.582	104.94
306.812	91.94
307.042	90.94
307.272	97.94
307.502	114.94
307.731	106.94
307.961	103.94
308.191	101.94
308.421	98.94
308.651	95.94
308.881	89.94
309.111	91.94
309.341	95.94
309.571	113.94
309.8	95.94
310.03	99.94
310.26	94.94
310.49	107.94
310.72	93.94
310.949	125.94
311.179	109.94
311.409	91.94
311.639	106.94
311.868	87.94
312.098	97.94
312.328	101.94
312.557	110.94
312.787	113.94
313.017	109.94
313.246	87.94
313.476	105.94
313.706	94.94
313.935	100.94
314.165	103.94
314.394	109.94
314.624	102.94
314.853	101.94
315.083	96.94
315.312	80.94
315.542	100.94
315.771	93.94
316.001	86.94
316.23	83.94
316.46	87.94
316.689	88.94
316.919	100.94
317.148	87.94
317.377	95.94
317.607	91.94
317.836	93.94
318.065	93.94
318.295	82.94
318.524	90.94
318.753	90.94
318.983	104.94
319.212	94.94
319.441	109.94
319.67	106.94
319.9	93.94
320.129	105.94
320.358	84.94
320.587	104.94
320.816	91.94
321.046	99.94
321.275	93.94
321.504	93.94
321.733	84.94
321.962	99.94
322.191	104.94
322.42	109.94
322.649	110.94
322.878	115.94
323.108	139.94
323.337	139.94
323.566	139.94
323.795	156.94
324.024	214.94
324.253	397.94
324.482	851.94
324.71	1704.94
324.939	2296.94
325.168	849.94
325.397	257.94
325.626	167.94
325.855	123.94
326.084	125.94
326.313	136.94
326.542	174.94
326.77	232.94
326.999	472.94
327.228	955.94
327.457	1722.94
327.686	1379.94
327.914	407.94
328.143	265.94
328.372	261.94
328.6	182.94
328.829	124.94
329.058	149.94
329.287	133.94
329.515	118.94
329.744	131.94
329.972	183.94
330.201	294.94
330.43	429.94
330.658	238.94
330.887	170.94
331.115	140.94
331.344	116.94
331.572	104.94
331.801	92.94
332.03	104.94
332.258	103.94
332.486	108.94
332.715	108.94
332.943	91.94
333.172	99.94
333.4	105.94
333.629	112.94
333.857	134.94
334.085	190.94
334.314	302.94
334.542	512.94
334.771	518.94
334.999	187.94
335.227	115.94
335.455	104.94
335.684	112.94
335.912	98.94
336.14	108.94
336.369	113.94
336.597	93.94
336.825	100.94
337.053	96.94
337.281	93.94
337.51	95.94
337.738	84.94
337.966	90.94
338.194	98.94
338.422	106.94
338.65	90.94
338.878	94.94
339.106	77.94
339.334	89.94
339.562	86.94
339.79	96.94
340.018	77.94
340.246	106.94
340.474	110.94
340.702	106.94
340.93	115.94
341.158	105.94
341.386	89.94
341.614	108.94
341.842	100.94
342.07	84.94
342.298	85.94
342.526	84.94
342.754	98.94
342.981	83.94
343.209	90.94
343.437	89.94
343.665	90.94
343.893	91.94
344.12	85.94
344.348	98.94
344.576	95.94
344.804	98.94
345.031	102.94
345.259	98.94
345.487	83.94
345.714	99.94
345.942	87.94
346.17	85.94
346.397	93.94
346.625	94.94
346.853	98.94
347.08	100.94
347.308	97.94
347.535	101.94
347.763	107.94
347.99	89.94
348.218	105.94
348.445	106.94
348.673	98.94
348.9	91.94
349.128	97.94
349.355	101.94
349.583	94.94
349.81	94.94
350.037	95.94
350.265	98.94
350.492	98.94
350.72	103.94
350.947	108.94
351.174	113.94
351.402	106.94
351.629	98.94
351.856	108.94
352.083	100.94
352.311	114.94
352.538	111.94
352.765	98.94
352.992	111.94
353.22	125.94
353.447	112.94
353.674	96.94
353.901	101.94
354.128	100.94
354.355	102.94
354.583	107.94
354.81	95.94
355.037	95.94
355.264	95.94
355.491	102.94
355.718	86.94
355.945	112.94
356.172	103.94
356.399	90.94
356.626	89.94
356.853	95.94
357.08	99.94
357.307	92.94
357.534	94.94
357.761	90.94
357.988	95.94
358.215	102.94
358.441	104.94
358.668	104.94
358.895	106.94
359.122	110.94
359.349	90.94
359.576	84.94
359.802	91.94
360.029	109.94
360.256	116.94
360.483	100.94
360.709	94.94
360.936	105.94
361.163	99.94
361.39	111.94
361.616	100.94
361.843	90.94
362.07	93.94
362.296	102.94
362.523	93.94
362.749	95.94
362.976	84.94
363.203	84.94
363.429	95.94
363.656	106.94
363.882	89.94
364.109	86.94
364.335	99.94
364.562	103.94
364.788	94.94
365.015	98.94
365.241	101.94
365.468	93.94
365.694	113.94
365.92	99.94
366.147	93.94
366.373	86.94
366.599	81.94
366.826	90.94
367.052	95.94
367.278	95.94
367.505	98.94
367.731	91.94
367.957	94.94
368.184	105.94
368.41	93.94
368.636	116.94
368.862	121.94
369.089	109.94
369.315	93.94
369.541	105.94
369.767	90.94
369.993	88.94
370.219	94.94
370.445	88.94
370.672	88.94
370.898	81.94
371.124	86.94
371.35	81.94
371.576	81.94
371.802	88.94
372.028	80.94
372.254	76.94
372.48	83.94
372.706	97.94
372.932	88.94
373.158	97.94
373.384	95.94
373.61	81.94
373.835	97.94
374.061	67.94
374.287	86.94
374.513	76.94
374.739	109.94
374.965	71.94
375.191	78.94
375.416	105.94
375.642	94.94
375.868	86.94
376.094	96.94
376.319	101.94
376.545	73.94
376.771	78.94
376.997	94.94
377.222	89.94
377.448	88.94
377.674	85.94
377.899	106.94
378.125	83.94
378.35	110.94
378.576	105.94
378.802	90.94
379.027	90.94
379.253	77.94
379.478	100.94
379.704	94.94
379.929	95.94
380.155	110.94
380.38	97.94
380.606	95.94
380.831	113.94
381.057	106.94
381.282	107.94
381.507	84.94
381.733	105.94
381.958	111.94
382.184	88.94
382.409	106.94
382.634	114.94
382.86	113.94
383.085	98.94
383.31	98.94
383.535	107.94
383.761	102.94
383.986	99.94
384.211	105.94
384.436	104.94
384.662	108.94
384.887	89.94
385.112	118.94
385.337	124.94
385.562	115.94
385.787	102.94
386.013	107.94
386.238	119.94
386.463	122.94
386.688	115.94
386.913	111.94
387.138	116.94
387.363	110.94
387.588	98.94
387.813	116.94
388.038	107.94
388.263	122.94
388.488	132.94
388.713	98.94
388.938	81.94
389.163	98.94
389.387	101.94
389.612	93.94
389.837	82.94
390.062	87.94
390.287	95.94
390.512	106.94
390.736	101.94
390.961	101.94
391.186	83.94
391.411	92.94
391.636	100.94
391.86	105.94
392.085	78.94
392.31	77.94
392.534	103.94
392.759	97.94
392.984	86.94
393.208	88.94
393.433	92.94
393.658	89.94
393.882	95.94
394.107	86.94
394.331	84.94
394.556	89.94
394.78	90.94
395.005	82.94
395.229	77.94
395.454	86.94
395.678	88.94
395.903	85.94
396.127	79.94
396.352	99.94
396.576	82.94
396.801	84.94
397.025	90.94
397.249	84.94
397.474	85.94
397.698	81.94
397.922	105.94
398.147	95.94
398.371	80.94
398.595	92.94
398.82	87.94
399.044	90.94
399.268	78.94
399.492	81.94
399.717	95.94
399.941	80.94
400.165	93.94
400.389	100.94
400.613	86.94
400.837	96.94
401.062	87.94
401.286	94.94
401.51	73.94
401.734	86.94
401.958	110.94
402.182	134.94
402.406	163.94
402.63	114.94
402.854	92.94
403.078	83.94
403.302	92.94
403.526	96.94
403.75	91.94
403.974	75.94
404.198	71.94
404.422	89.94
404.645	89.94
404.869	77.94
405.093	102.94
405.317	129.94
405.541	122.94
405.765	122.94
405.988	121.94
406.212	169.94
406.436	249.94
406.66	166.94
406.883	105.94
407.107	104.94
407.331	97.94
407.555	107.94
407.778	107.94
408.002	101.94
408.226	91.94
408.449	98.94
408.673	92.94
408.896	86.94
409.12	95.94
409.344	97.94
409.567	99.94
409.791	87.94
410.014	92.94
410.238	92.94
410.461	92.94
410.685	100.94
410.908	85.94
411.132	99.94
411.355	102.94
411.578	92.94
411.802	85.94
412.025	101.94
412.249	91.94
412.472	104.94
412.695	115.94
412.919	93.94
413.142	106.94
413.365	90.94
413.589	87.94
413.812	90.94
414.035	109.94
414.258	94.94
414.482	94.94
414.705	96.94
414.928	85.94
415.151	95.94
415.374	95.94
415.597	96.94
415.821	104.94
416.044	71.94
416.267	88.94
416.49	85.94
416.713	86.94
416.936	83.94
417.159	91.94
417.382	91.94
417.605	102.94
417.828	89.94
418.051	82.94
418.274	94.94
418.497	94.94
418.72	79.94
418.943	89.94
419.166	89.94
419.389	70.94
419.611	97.94
419.834	101.94
420.057	90.94
420.28	90.94
420.503	77.94
420.726	95.94
420.948	85.94
421.171	93.94
421.394	89.94
421.617	106.94
421.839	85.94
422.062	96.94
422.285	109.94
422.507	102.94
422.73	115.94
422.953	106.94
423.175	89.94
423.398	95.94
423.621	92.94
423.843	85.94
424.066	83.94
424.288	86.94
424.511	83.94
424.733	110.94
424.956	108.94
425.178	93.94
425.401	102.94
425.623	102.94
425.846	93.94
426.068	88.94
426.291	101.94
426.513	87.94
426.735	81.94
426.958	103.94
427.18	100.94
427.402	154.94
427.625	197.94
427.847	170.94
428.069	151.94
428.292	85.94
428.514	76.94
428.736	88.94
428.958	102.94
429.181	100.94
429.403	87.94
429.625	90.94
429.847	103.94
430.069	104.94
430.292	87.94
430.514	103.94
430.736	86.94
430.958	81.94
431.18	73.94
431.402	88.94
431.624	80.94
431.846	78.94
432.068	86.94
432.29	91.94
432.512	94.94
432.734	93.94
432.956	92.94
433.178	101.94
433.4	94.94
433.622	100.94
433.844	90.94
434.066	88.94
434.287	95.94
434.509	89.94
434.731	92.94
434.953	86.94
435.175	94.94
435.397	97.94
435.618	100.94
435.84	102.94
436.062	129.94
436.284	108.94
436.505	106.94
436.727	115.94
436.949	102.94
437.17	86.94
437.392	98.94
437.614	85.94
437.835	120.94
438.057	126.94
438.278	128.94
438.5	108.94
438.721	130.94
438.943	102.94
439.165	105.94
439.386	101.94
439.608	109.94
439.829	106.94
440.05	136.94
440.272	142.94
440.493	94.94
440.715	91.94
440.936	100.94
441.158	102.94
441.379	98.94
441.6	104.94
441.822	102.94
442.043	89.94
442.264	111.94
442.486	95.94
442.707	103.94
442.928	112.94
443.149	154.94
443.371	146.94
443.592	105.94
443.813	113.94
444.034	99.94
444.255	95.94
444.476	81.94
444.698	99.94
444.919	103.94
445.14	130.94
445.361	143.94
445.582	116.94
445.803	151.94
446.024	156.94
446.245	139.94
446.466	130.94
446.687	103.94
446.908	97.94
447.129	91.94
447.35	81.94
447.571	87.94
447.792	91.94
448.013	106.94
448.234	108.94
448.455	89.94
448.675	118.94
448.896	118.94
449.117	101.94
449.338	106.94
449.559	127.94
449.779	139.94
450	101.94
450.221	95.94
450.442	81.94
450.662	98.94
450.883	101.94
451.104	112.94
451.324	94.94
451.545	89.94
451.766	93.94
451.986	89.94
452.207	90.94
452.428	109.94
452.648	100.94
452.869	108.94
453.089	114.94
453.31	131.94
453.53	99.94
453.751	77.94
453.971	101.94
454.192	125.94
454.412	93.94
454.633	95.94
454.853	83.94
455.073	101.94
455.294	89.94
455.514	101.94
455.734	89.94
455.955	108.94
456.175	73.94
456.395	94.94
456.616	84.94
456.836	87.94
457.056	87.94
457.276	89.94
457.497	94.94
457.717	92.94
457.937	93.94
458.157	98.94
458.377	89.94
458.598	109.94
458.818	154.94
459.038	171.94
459.258	124.94
459.478	89.94
459.698	83.94
459.918	86.94
460.138	93.94
460.358	85.94
460.578	83.94
460.798	90.94
461.018	92.94
461.238	91.94
461.458	74.94
461.678	77.94
461.898	86.94
462.118	86.94
462.338	76.94
462.558	63.94
462.777	77.94
462.997	84.94
463.217	82.94
463.437	88.94
463.657	87.94
463.876	87.94
464.096	105.94
464.316	86.94
464.536	94.94
464.755	98.94
464.975	105.94
465.195	172.94
465.414	175.94
465.634	94.94
465.854	93.94
466.073	83.94
466.293	59.94
466.512	86.94
466.732	82.94
466.951	97.94
467.171	97.94
467.391	95.94
467.61	109.94
467.829	111.94
468.049	190.94
468.268	253.94
468.488	109.94
468.707	87.94
468.927	78.94
469.146	92.94
469.365	96.94
469.585	99.94
469.804	94.94
470.023	96.94
470.243	93.94
470.462	72.94
470.681	105.94
470.901	99.94
471.12	91.94
471.339	98.94
471.558	106.94
471.777	97.94
471.997	142.94
472.216	349.94
472.435	697.94
472.654	219.94
472.873	121.94
473.092	94.94
473.311	107.94
473.53	89.94
473.749	100.94
473.968	107.94
474.187	114.94
474.406	97.94
474.625	91.94
474.844	84.94
475.063	87.94
475.282	97.94
475.501	92.94
475.72	83.94
475.939	95.94
476.158	94.94
476.377	97.94
476.596	99.94
476.814	85.94
477.033	100.94
477.252	111.94
477.471	85.94
477.69	97.94
477.908	89.94
478.127	86.94
478.346	90.94
478.564	95.94
478.783	107.94
479.002	106.94
479.22	94.94
479.439	100.94
479.658	108.94
479.876	112.94
480.095	97.94
480.313	113.94
480.532	113.94
480.751	145.94
480.969	309.94
481.188	1125.94
481.406	735.94
481.624	159.94
481.843	105.94
482.061	81.94
482.28	94.94
482.498	92.94
482.717	94.94
482.935	89.94
483.153	91.94
483.372	82.94
483.59	86.94
483.808	92.94
484.027	94.94
484.245	71.94
484.463	93.94
484.681	99.94
484.9	85.94
485.118	87.94
485.336	95.94
485.554	107.94
485.772	94.94
485.99	107.94
486.209	108.94
486.427	106.94
486.645	108.94
486.863	116.94
487.081	91.94
487.299	87.94
487.517	81.94
487.735	90.94
487.953	110.94
488.171	106.94
488.389	106.94
488.607	94.94
488.825	103.94
489.043	76.94
489.261	87.94
489.479	93.94
489.696	99.94
489.914	90.94
490.132	95.94
490.35	94.94
490.568	89.94
490.786	93.94
491.003	92.94
491.221	92.94
491.439	96.94
491.657	104.94
491.874	84.94
492.092	91.94
492.31	93.94
492.527	98.94
492.745	99.94
492.963	94.94
493.18	86.94
493.398	88.94
493.615	85.94
493.833	97.94
494.05	98.94
494.268	79.94
494.485	87.94
494.703	101.94
494.92	91.94
495.138	90.94
495.355	100.94
495.573	95.94
495.79	95.94
496.008	95.94
496.225	93.94
496.442	97.94
496.66	86.94
496.877	93.94
497.094	104.94
497.312	86.94
497.529	91.94
497.746	89.94
497.963	80.94
498.181	103.94
498.398	82.94
498.615	102.94
498.832	102.94
499.049	82.94
499.267	91.94
499.484	95.94
499.701	97.94
499.918	100.94
500.135	94.94
500.352	85.94
500.569	77.94
500.786	89.94
501.003	89.94
501.22	84.94
501.437	87.94
501.654	97.94
501.871	112.94
502.088	108.94
502.305	93.94
502.522	98.94
502.739	99.94
502.956	90.94
503.172	83.94
503.389	104.94
503.606	104.94
503.823	89.94
504.04	90.94
504.256	93.94
504.473	88.94
504.69	101.94
504.907	107.94
505.123	91.94
505.34	89.94
505.557	81.94
505.773	97.94
505.99	91.94
506.207	92.94
506.423	91.94
506.64	103.94
506.856	96.94
507.073	75.94
507.289	91.94
507.506	91.94
507.722	98.94
507.939	119.94
508.155	92.94
508.372	89.94
508.588	88.94
508.805	91.94
509.021	102.94
509.238	102.94
509.454	81.94
509.67	95.94
509.887	125.94
510.103	145.94
510.319	225.94
510.536	765.94
510.752	2509.94
510.968	697.94
511.184	159.94
511.401	112.94
511.617	99.94
511.833	107.94
512.049	105.94
512.265	91.94
512.481	100.94
512.698	100.94
512.914	90.94
513.13	80.94
513.346	90.94
513.562	102.94
513.778	108.94
513.994	111.94
514.21	110.94
