Data from Circ_2000_H10_HRD10591_00057.txt Node
Date: Wed Jan 03 10:49:45 EST 2024
User: Yrep
Spectrometer: HR+D1059
Trigger mode: 1
Integration Time (sec): 1.000000E-1
Scans to average: 1
Electric dark correction enabled: true
Nonlinearity correction enabled: false
Boxcar width: 0
XAxis mode: Wavelengths
Number of Pixels in Spectrum: 2048
>>>>>Begin Spectral Data<<<<<
223.165	-14
223.4	-14
223.635	-14
223.869	-27
224.104	-22
224.338	-9
224.573	-15
224.808	-11
225.042	-3
225.277	-4
225.511	-11
225.746	8
225.98	1
226.215	11
226.449	9
226.683	27
226.918	28
227.152	32
227.387	40
227.621	52
227.856	47
228.09	50
228.324	55
228.559	64
228.793	60
229.027	61
229.262	81
229.496	87
229.73	79
229.964	82
230.199	82
230.433	77
230.667	78
230.901	89
231.136	77
231.37	84
231.604	87
231.838	102
232.072	62
232.306	96
232.541	90
232.775	74
233.009	91
233.243	89
233.477	87
233.711	81
233.945	89
234.179	80
234.413	82
234.647	83
234.881	78
235.115	82
235.349	78
235.583	95
235.817	93
236.051	92
236.285	83
236.519	85
236.753	85
236.987	79
237.221	81
237.455	90
237.689	95
237.922	85
238.156	80
238.39	85
238.624	85
238.858	85
239.091	82
239.325	78
239.559	87
239.793	88
240.027	75
240.26	95
240.494	78
240.728	65
240.961	83
241.195	85
241.429	72
241.662	73
241.896	64
242.13	73
242.363	82
242.597	83
242.83	83
243.064	75
243.298	77
243.531	82
243.765	83
243.998	94
244.232	83
244.465	91
244.699	90
244.932	89
245.166	87
245.399	97
245.633	93
245.866	79
246.099	74
246.333	87
246.566	88
246.8	87
247.033	80
247.266	91
247.5	91
247.733	78
247.966	75
248.2	95
248.433	94
248.666	76
248.899	91
249.133	99
249.366	97
249.599	100
249.832	85
250.066	73
250.299	81
250.532	92
250.765	73
250.998	79
251.231	91
251.465	78
251.698	86
251.931	83
252.164	84
252.397	81
252.63	89
252.863	82
253.096	97
253.329	99
253.562	89
253.795	90
254.028	83
254.261	86
254.494	96
254.727	85
254.96	96
255.193	83
255.426	78
255.659	87
255.892	93
256.124	94
256.357	74
256.59	92
256.823	104
257.056	81
257.289	90
257.521	86
257.754	81
257.987	91
258.22	91
258.452	91
258.685	81
258.918	75
259.151	94
259.383	89
259.616	91
259.849	92
260.081	97
260.314	79
260.547	97
260.779	79
261.012	97
261.244	98
261.477	98
261.71	95
261.942	127
262.175	121
262.407	115
262.64	89
262.872	84
263.105	86
263.337	78
263.57	82
263.802	80
264.035	96
264.267	94
264.499	91
264.732	89
264.964	87
265.197	81
265.429	90
265.661	97
265.894	97
266.126	80
266.358	89
266.591	83
266.823	91
267.055	83
267.287	85
267.52	94
267.752	99
267.984	81
268.216	79
268.448	102
268.681	95
268.913	90
269.145	74
269.377	98
269.609	91
269.841	74
270.073	94
270.306	96
270.538	91
270.77	99
271.002	85
271.234	92
271.466	101
271.698	106
271.93	78
272.162	97
272.394	99
272.626	96
272.858	84
273.09	95
273.322	95
273.553	95
273.785	97
274.017	106
274.249	85
274.481	84
274.713	96
274.945	86
275.176	101
275.408	95
275.64	122
275.872	109
276.104	91
276.335	104
276.567	107
276.799	134
277.031	124
277.262	133
277.494	122
277.726	96
277.957	94
278.189	94
278.421	86
278.652	83
278.884	93
279.115	81
279.347	94
279.579	86
279.81	112
280.042	139
280.273	165
280.505	113
280.736	97
280.968	93
281.199	98
281.431	92
281.662	106
281.894	94
282.125	110
282.356	146
282.588	154
282.819	110
283.051	74
283.282	90
283.513	87
283.745	90
283.976	94
284.207	95
284.439	104
284.67	90
284.901	97
285.132	89
285.364	92
285.595	94
285.826	90
286.057	93
286.288	81
286.52	100
286.751	87
286.982	98
287.213	87
287.444	92
287.675	73
287.906	96
288.138	98
288.369	94
288.6	111
288.831	86
289.062	94
289.293	92
289.524	86
289.755	105
289.986	100
290.217	91
290.448	99
290.679	102
290.91	96
291.141	97
291.371	106
291.602	85
291.833	104
292.064	90
292.295	98
292.526	114
292.757	95
292.987	101
293.218	99
293.449	87
293.68	97
293.91	95
294.141	95
294.372	93
294.603	97
294.833	97
295.064	102
295.295	103
295.525	87
295.756	97
295.987	126
296.217	161
296.448	129
296.679	91
296.909	105
297.14	91
297.37	81
297.601	80
297.831	83
298.062	92
298.292	99
298.523	99
298.753	88
298.984	87
299.214	95
299.445	104
299.675	105
299.905	105
300.136	102
300.366	102
300.597	119
300.827	96
301.057	110
301.288	121
301.518	107
301.748	111
301.979	107
302.209	105
302.439	95
302.669	88
302.9	105
303.13	90
303.36	104
303.59	128
303.82	119
304.051	116
304.281	100
304.511	91
304.741	95
304.971	98
305.201	81
305.431	100
305.661	85
305.891	101
306.121	109
306.352	103
306.582	102
306.812	107
307.042	117
307.272	128
307.502	129
307.731	136
307.961	119
308.191	121
308.421	88
308.651	88
308.881	91
309.111	94
309.341	91
309.571	98
309.8	117
310.03	111
310.26	102
310.49	110
310.72	109
310.949	108
311.179	114
311.409	96
311.639	106
311.868	113
312.098	95
312.328	108
312.557	131
312.787	118
313.017	118
313.246	118
313.476	108
313.706	92
313.935	98
314.165	113
314.394	103
314.624	108
314.853	94
315.083	98
315.312	99
315.542	92
315.771	93
316.001	89
316.23	96
316.46	110
316.689	79
316.919	87
317.148	106
317.377	108
317.607	100
317.836	105
318.065	104
318.295	96
318.524	95
318.753	101
318.983	105
319.212	106
319.441	137
319.67	124
319.9	87
320.129	109
320.358	92
320.587	110
320.816	113
321.046	99
321.275	92
321.504	115
321.733	98
321.962	112
322.191	114
322.42	134
322.649	117
322.878	117
323.108	120
323.337	123
323.566	154
323.795	182
324.024	245
324.253	431
324.482	958
324.71	1953
324.939	2593
325.168	942
325.397	271
325.626	159
325.855	138
326.084	152
326.313	151
326.542	190
326.77	260
326.999	523
327.228	1073
327.457	2010
327.686	1585
327.914	487
328.143	349
328.372	378
328.6	239
328.829	160
329.058	178
329.287	163
329.515	143
329.744	192
329.972	285
330.201	501
330.43	709
330.658	333
330.887	192
331.115	145
331.344	107
331.572	103
331.801	118
332.03	120
332.258	109
332.486	96
332.715	110
332.943	111
333.172	104
333.4	124
333.629	133
333.857	188
334.085	268
334.314	490
334.542	891
334.771	865
334.999	263
335.227	114
335.455	113
335.684	112
335.912	112
336.14	112
336.369	97
336.597	110
336.825	112
337.053	114
337.281	103
337.51	95
337.738	96
337.966	95
338.194	106
338.422	109
338.65	123
338.878	105
339.106	104
339.334	107
339.562	102
339.79	106
340.018	106
340.246	107
340.474	89
340.702	92
340.93	104
341.158	89
341.386	97
341.614	111
341.842	115
342.07	110
342.298	104
342.526	86
342.754	92
342.981	95
343.209	82
343.437	97
343.665	103
343.893	91
344.12	102
344.348	91
344.576	105
344.804	88
345.031	104
345.259	85
345.487	107
345.714	97
345.942	103
346.17	94
346.397	92
346.625	87
346.853	100
347.08	111
347.308	102
347.535	107
347.763	92
347.99	109
348.218	110
348.445	117
348.673	119
348.9	99
349.128	87
349.355	102
349.583	103
349.81	107
350.037	108
350.265	99
350.492	103
350.72	120
350.947	111
351.174	103
351.402	129
351.629	106
351.856	107
352.083	110
352.311	124
352.538	130
352.765	123
352.992	118
353.22	116
353.447	106
353.674	104
353.901	98
354.128	111
354.355	109
354.583	102
354.81	91
355.037	107
355.264	95
355.491	104
355.718	98
355.945	85
356.172	85
356.399	111
356.626	108
356.853	91
357.08	97
357.307	96
357.534	79
357.761	102
357.988	95
358.215	96
358.441	99
358.668	100
358.895	102
359.122	101
359.349	87
359.576	90
359.802	99
360.029	135
360.256	139
360.483	119
360.709	90
360.936	101
361.163	98
361.39	107
361.616	108
361.843	99
362.07	89
362.296	108
362.523	114
362.749	113
362.976	89
363.203	88
363.429	81
363.656	97
363.882	98
364.109	95
364.335	90
364.562	95
364.788	88
365.015	98
365.241	93
365.468	110
365.694	121
365.92	113
366.147	104
366.373	98
366.599	99
366.826	89
367.052	94
367.278	92
367.505	92
367.731	101
367.957	94
368.184	97
368.41	114
368.636	118
368.862	114
369.089	113
369.315	99
369.541	102
369.767	96
369.993	106
370.219	106
370.445	103
370.672	102
370.898	93
371.124	98
371.35	91
371.576	106
371.802	99
372.028	112
372.254	92
372.48	90
372.706	88
372.932	99
373.158	98
373.384	90
373.61	104
373.835	88
374.061	110
374.287	99
374.513	88
374.739	98
374.965	98
375.191	103
375.416	93
375.642	98
375.868	99
376.094	95
376.319	94
376.545	97
376.771	88
376.997	104
377.222	99
377.448	91
377.674	86
377.899	104
378.125	99
378.35	109
378.576	94
378.802	93
379.027	100
379.253	101
379.478	93
379.704	83
379.929	101
380.155	109
380.38	94
380.606	100
380.831	102
381.057	101
381.282	115
381.507	113
381.733	103
381.958	104
382.184	107
382.409	109
382.634	104
382.86	98
383.085	106
383.31	115
383.535	105
383.761	109
383.986	107
384.211	106
384.436	104
384.662	97
384.887	112
385.112	112
385.337	120
385.562	123
385.787	109
386.013	131
386.238	116
386.463	109
386.688	112
386.913	105
387.138	107
387.363	111
387.588	107
387.813	101
388.038	105
388.263	129
388.488	111
388.713	108
388.938	102
389.163	88
389.387	90
389.612	93
389.837	99
390.062	113
390.287	97
390.512	86
390.736	106
390.961	91
391.186	107
391.411	90
391.636	104
391.86	85
392.085	97
392.31	81
392.534	94
392.759	95
392.984	94
393.208	95
393.433	94
393.658	98
393.882	92
394.107	95
394.331	95
394.556	89
394.78	97
395.005	97
395.229	83
395.454	95
395.678	80
395.903	97
396.127	94
396.352	97
396.576	86
396.801	96
397.025	80
397.249	88
397.474	96
397.698	90
397.922	94
398.147	88
398.371	105
398.595	97
398.82	95
399.044	98
399.268	88
399.492	97
399.717	101
399.941	101
400.165	81
400.389	103
400.613	94
400.837	93
401.062	102
401.286	100
401.51	93
401.734	113
401.958	106
402.182	122
402.406	181
402.63	135
402.854	102
403.078	102
403.302	99
403.526	102
403.75	82
403.974	99
404.198	102
404.422	99
404.645	101
404.869	99
405.093	118
405.317	130
405.541	124
405.765	115
405.988	128
406.212	189
406.436	258
406.66	175
406.883	118
407.107	89
407.331	114
407.555	117
407.778	113
408.002	88
408.226	94
408.449	91
408.673	112
408.896	126
409.12	98
409.344	105
409.567	106
409.791	90
410.014	100
410.238	115
410.461	102
410.685	100
410.908	109
411.132	106
411.355	118
411.578	95
411.802	78
412.025	101
412.249	115
412.472	114
412.695	133
412.919	106
413.142	97
413.365	83
413.589	85
413.812	85
414.035	96
414.258	95
414.482	97
414.705	86
414.928	90
415.151	96
415.374	111
415.597	100
415.821	100
416.044	107
416.267	98
416.49	93
416.713	94
416.936	97
417.159	77
417.382	91
417.605	107
417.828	108
418.051	84
418.274	90
418.497	86
418.72	99
418.943	101
419.166	96
419.389	101
419.611	111
419.834	105
420.057	97
420.28	100
420.503	94
420.726	96
420.948	89
421.171	94
421.394	113
421.617	90
421.839	79
422.062	93
422.285	94
422.507	99
422.73	109
422.953	113
423.175	102
423.398	97
423.621	97
423.843	96
424.066	100
424.288	93
424.511	92
424.733	111
424.956	126
425.178	96
425.401	110
425.623	103
425.846	100
426.068	91
426.291	93
426.513	99
426.735	109
426.958	105
427.18	124
427.402	153
427.625	215
427.847	193
428.069	183
428.292	120
428.514	104
428.736	106
428.958	95
429.181	98
429.403	85
429.625	102
429.847	99
430.069	114
430.292	96
430.514	96
430.736	87
430.958	94
431.18	102
431.402	93
431.624	92
431.846	99
432.068	94
432.29	102
432.512	97
432.734	93
432.956	90
433.178	102
433.4	104
433.622	92
433.844	97
434.066	89
434.287	90
434.509	96
434.731	98
434.953	93
435.175	91
435.397	101
435.618	101
435.84	133
436.062	144
436.284	139
436.505	121
436.727	110
436.949	101
437.17	88
437.392	91
437.614	98
437.835	122
438.057	122
438.278	115
438.5	116
438.721	127
438.943	100
439.165	92
439.386	110
439.608	103
439.829	107
440.05	149
440.272	173
440.493	107
440.715	89
440.936	88
441.158	94
441.379	94
441.6	94
441.822	100
442.043	97
442.264	119
442.486	102
442.707	96
442.928	102
443.149	149
443.371	151
443.592	136
443.813	125
444.034	124
444.255	99
444.476	93
444.698	83
444.919	81
445.14	138
445.361	121
445.582	127
445.803	169
446.024	161
446.245	171
446.466	121
446.687	99
446.908	95
447.129	94
447.35	88
447.571	85
447.792	107
448.013	110
448.234	118
448.455	125
448.675	127
448.896	150
449.117	107
449.338	121
449.559	154
449.779	156
450	100
450.221	97
450.442	95
450.662	99
450.883	106
451.104	135
451.324	111
451.545	105
451.766	91
451.986	81
452.207	87
452.428	95
452.648	86
452.869	119
453.089	138
453.31	135
453.53	108
453.751	94
453.971	112
454.192	128
454.412	95
454.633	99
454.853	105
455.073	89
455.294	79
455.514	111
455.734	89
455.955	101
456.175	94
456.395	98
456.616	89
456.836	87
457.056	81
457.276	96
457.497	82
457.717	94
457.937	81
458.157	99
458.377	97
458.598	119
458.818	166
459.038	178
459.258	127
459.478	96
459.698	86
459.918	84
460.138	95
460.358	87
460.578	82
460.798	101
461.018	85
461.238	91
461.458	95
461.678	87
461.898	77
462.118	89
462.338	86
462.558	80
462.777	93
462.997	97
463.217	101
463.437	89
463.657	102
463.876	96
464.096	81
464.316	98
464.536	97
464.755	104
464.975	122
465.195	191
465.414	199
465.634	105
465.854	98
466.073	107
466.293	89
466.512	95
466.732	85
466.951	90
467.171	87
467.391	118
467.61	118
467.829	144
468.049	299
468.268	414
468.488	145
468.707	95
468.927	90
469.146	81
469.365	94
469.585	90
469.804	87
470.023	99
470.243	114
470.462	106
470.681	138
470.901	87
471.12	99
471.339	106
471.558	112
471.777	116
471.997	192
472.216	545
472.435	1193
472.654	320
472.873	139
473.092	93
473.311	101
473.53	83
473.749	99
473.968	104
474.187	132
474.406	108
474.625	101
474.844	83
475.063	79
475.282	84
475.501	98
475.72	98
475.939	96
476.158	90
476.377	91
476.596	79
476.814	115
477.033	101
477.252	89
477.471	98
477.69	82
477.908	88
478.127	100
478.346	98
478.564	105
478.783	104
479.002	102
479.22	115
479.439	121
479.658	118
479.876	113
480.095	110
480.313	111
480.532	129
480.751	184
480.969	536
481.188	2021
481.406	1207
481.624	231
481.843	117
482.061	89
482.28	92
482.498	81
482.717	101
482.935	91
483.153	100
483.372	86
483.59	102
483.808	97
484.027	108
484.245	103
484.463	97
484.681	101
484.9	103
485.118	105
485.336	98
485.554	92
485.772	109
485.99	116
486.209	110
486.427	93
486.645	121
486.863	124
487.081	111
487.299	106
487.517	99
487.735	88
487.953	102
488.171	104
488.389	103
488.607	110
488.825	91
489.043	98
489.261	86
489.479	87
489.696	96
489.914	96
490.132	89
490.35	83
490.568	78
490.786	85
491.003	92
491.221	94
491.439	102
491.657	91
491.874	100
492.092	91
492.31	82
492.527	76
492.745	90
492.963	97
493.18	105
493.398	104
493.615	93
493.833	98
494.05	95
494.268	94
494.485	103
494.703	95
494.92	90
495.138	104
495.355	82
495.573	91
495.79	98
496.008	99
496.225	103
496.442	89
496.66	95
496.877	99
497.094	96
497.312	93
497.529	92
497.746	94
497.963	109
498.181	88
498.398	107
498.615	119
498.832	92
499.049	99
499.267	92
499.484	110
499.701	97
499.918	92
500.135	85
500.352	90
500.569	93
500.786	105
501.003	109
501.22	84
501.437	101
501.654	103
501.871	113
502.088	100
502.305	90
502.522	85
502.739	89
502.956	98
503.172	101
503.389	101
503.606	112
503.823	88
504.04	96
504.256	92
504.473	89
504.69	91
504.907	104
505.123	89
505.34	87
505.557	94
505.773	96
505.99	99
506.207	96
506.423	77
506.64	86
506.856	99
507.073	96
507.289	91
507.506	104
507.722	137
507.939	110
508.155	106
508.372	98
508.588	95
508.805	110
509.021	101
509.238	99
509.454	105
509.67	103
509.887	116
510.103	133
510.319	225
510.536	842
510.752	2654
510.968	765
511.184	180
511.401	106
511.617	105
511.833	99
512.049	93
512.265	90
512.481	92
512.698	88
512.914	109
513.13	90
513.346	98
513.562	105
513.778	116
513.994	103
514.21	118
514.426	141
514.642	157
514.858	134
515.074	199
515.29	541
515.506	1877
515.721	697
515.937	187
516.153	118
516.369	105
516.585	115
516.801	113
517.016	110
517.232	100
517.448	101
517.664	99
517.879	98
518.095	99
518.311	104
518.527	105
518.742	102
518.958	103
519.173	99
519.389	92
519.605	100
519.82	98
520.036	121
520.251	140
520.467	135
520.682	111
520.898	119
521.113	127
521.329	164
521.544	263
521.76	702
521.975	3153
522.19	1852
522.406	384
522.621	144
522.836	105
523.052	105
523.267	98
523.482	101
523.698	109
523.913	123
524.128	117
524.343	103
524.559	98
524.774	86
524.989	97
525.204	122
525.419	113
525.634	98
525.849	104
526.064	96
526.28	93
526.495	83
526.71	80
526.925	79
527.14	79
527.355	108
527.57	81
527.785	95
527.999	100
528.214	98
528.429	101
528.644	100
528.859	82
529.074	109
529.289	131
529.503	236
529.718	111
529.933	87
530.148	80
530.363	98
530.577	85
530.792	99
531.007	88
531.221	100
531.436	90
531.651	89
531.865	100
532.08	93
532.295	104
532.509	100
532.724	99
532.938	107
533.153	98
533.367	109
533.582	98
533.796	97
534.011	102
534.225	97
534.44	106
534.654	103
534.868	102
535.083	87
535.297	93
535.511	106
535.726	115
535.94	93
536.154	105
536.369	103
536.583	98
536.797	99
537.011	107
537.225	97
537.44	96
537.654	95
537.868	90
538.082	106
538.296	104
538.51	102
538.724	94
538.938	95
539.153	89
539.367	99
539.581	96
539.795	104
540.009	114
540.222	91
540.436	99
540.65	100
540.864	95
541.078	107
541.292	93
541.506	92
541.72	104
541.934	99
542.147	96
542.361	94
542.575	109
542.789	82
543.002	101
543.216	95
543.43	104
543.644	99
543.857	98
544.071	110
544.285	102
544.498	81
544.712	81
544.925	107
545.139	97
545.352	102
545.566	106
545.779	89
545.993	97
546.206	87
546.42	99
546.633	113
546.847	90
547.06	89
547.274	115
547.487	89
547.7	88
547.914	88
548.127	111
548.34	105
548.554	93
548.767	100
548.98	89
549.193	81
549.407	90
549.62	99
549.833	105
550.046	106
550.259	96
550.473	86
550.686	97
550.899	103
551.112	83
551.325	94
551.538	96
551.751	101
551.964	103
552.177	92
552.39	76
552.603	95
552.816	104
553.029	97
553.242	85
553.455	102
553.667	105
553.88	106
554.093	92
554.306	103
554.519	106
554.732	88
554.944	87
555.157	98
555.37	92
555.583	105
555.795	99
556.008	95
556.221	90
556.433	94
556.646	100
556.859	108
557.071	98
557.284	103
557.496	99
557.709	90
557.921	96
558.134	92
558.346	95
558.559	100
558.771	82
558.984	93
559.196	81
559.409	85
559.621	102
559.833	79
560.046	98
560.258	106
560.47	109
560.683	110
560.895	99
561.107	104
561.32	103
561.532	102
561.744	90
561.956	85
562.168	81
562.381	101
562.593	108
562.805	102
563.017	104
563.229	97
563.441	99
563.653	95
563.865	90
564.077	90
564.289	104
564.501	103
564.713	85
564.925	101
565.137	103
565.349	74
565.561	90
565.773	108
565.985	92
566.197	87
566.408	94
566.62	89
566.832	106
567.044	91
567.255	93
567.467	99
567.679	96
567.891	111
568.102	100
568.314	99
568.526	82
568.737	94
568.949	88
569.161	89
569.372	87
569.584	97
569.795	99
570.007	126
570.218	277
570.43	146
570.641	94
570.853	83
571.064	78
571.276	94
571.487	95
571.698	105
571.91	107
572.121	99
572.333	96
572.544	81
572.755	104
572.966	89
573.178	101
573.389	106
573.6	91
573.811	85
574.023	96
574.234	89
574.445	88
574.656	94
574.867	94
575.078	79
575.289	90
575.501	87
575.712	104
575.923	92
576.134	94
576.345	84
576.556	98
576.767	101
576.978	86
577.188	106
577.399	92
577.61	95
577.821	85
578.032	119
578.243	281
578.454	866
