Data from Circ_2000_H10_HRD10591_00096.txt Node
Date: Wed Jan 03 10:49:53 EST 2024
User: Yrep
Spectrometer: HR+D1059
Trigger mode: 1
Integration Time (sec): 1.000000E-1
Scans to average: 1
Electric dark correction enabled: true
Nonlinearity correction enabled: false
Boxcar width: 0
XAxis mode: Wavelengths
Number of Pixels in Spectrum: 2048
>>>>>Begin Spectral Data<<<<<
223.165	-15.69
223.4	-15.69
223.635	-15.69
223.869	-20.69
224.104	-16.69
224.338	-16.69
224.573	-5.69
224.808	-19.69
225.042	-12.69
225.277	-3.69
225.511	-9.69
225.746	7.31
225.98	-0.69
226.215	21.31
226.449	12.31
226.683	13.31
226.918	34.31
227.152	33.31
227.387	28.31
227.621	37.31
227.856	47.31
228.09	58.31
228.324	49.31
228.559	52.31
228.793	58.31
229.027	58.31
229.262	80.31
229.496	90.31
229.73	104.31
229.964	76.31
230.199	69.31
230.433	79.31
230.667	67.31
230.901	95.31
231.136	55.31
231.37	65.31
231.604	76.31
231.838	77.31
232.072	75.31
232.306	81.31
232.541	84.31
232.775	67.31
233.009	74.31
233.243	81.31
233.477	69.31
233.711	77.31
233.945	89.31
234.179	89.31
234.413	94.31
234.647	80.31
234.881	63.31
235.115	73.31
235.349	88.31
235.583	72.31
235.817	79.31
236.051	75.31
236.285	74.31
236.519	81.31
236.753	87.31
236.987	84.31
237.221	111.31
237.455	100.31
237.689	83.31
237.922	81.31
238.156	75.31
238.39	52.31
238.624	77.31
238.858	75.31
239.091	81.31
239.325	81.31
239.559	79.31
239.793	78.31
240.027	72.31
240.26	77.31
240.494	99.31
240.728	69.31
240.961	85.31
241.195	88.31
241.429	77.31
241.662	83.31
241.896	79.31
242.13	67.31
242.363	78.31
242.597	74.31
242.83	85.31
243.064	90.31
243.298	64.31
243.531	65.31
243.765	76.31
243.998	78.31
244.232	87.31
244.465	98.31
244.699	83.31
244.932	84.31
245.166	79.31
245.399	60.31
245.633	83.31
245.866	74.31
246.099	86.31
246.333	90.31
246.566	79.31
246.8	73.31
247.033	92.31
247.266	83.31
247.5	74.31
247.733	87.31
247.966	82.31
248.2	90.31
248.433	88.31
248.666	97.31
248.899	87.31
249.133	86.31
249.366	105.31
249.599	104.31
249.832	87.31
250.066	85.31
250.299	88.31
250.532	95.31
250.765	105.31
250.998	80.31
251.231	87.31
251.465	80.31
251.698	77.31
251.931	80.31
252.164	79.31
252.397	86.31
252.63	71.31
252.863	84.31
253.096	89.31
253.329	84.31
253.562	73.31
253.795	81.31
254.028	81.31
254.261	86.31
254.494	87.31
254.727	80.31
254.96	91.31
255.193	68.31
255.426	73.31
255.659	95.31
255.892	100.31
256.124	97.31
256.357	90.31
256.59	85.31
256.823	92.31
257.056	82.31
257.289	97.31
257.521	76.31
257.754	84.31
257.987	96.31
258.22	81.31
258.452	81.31
258.685	92.31
258.918	92.31
259.151	82.31
259.383	90.31
259.616	75.31
259.849	80.31
260.081	83.31
260.314	85.31
260.547	92.31
260.779	98.31
261.012	114.31
261.244	105.31
261.477	103.31
261.71	107.31
261.942	130.31
262.175	163.31
262.407	90.31
262.64	89.31
262.872	83.31
263.105	91.31
263.337	89.31
263.57	84.31
263.802	81.31
264.035	82.31
264.267	77.31
264.499	89.31
264.732	97.31
264.964	89.31
265.197	71.31
265.429	64.31
265.661	81.31
265.894	82.31
266.126	82.31
266.358	76.31
266.591	81.31
266.823	80.31
267.055	84.31
267.287	95.31
267.52	89.31
267.752	79.31
267.984	73.31
268.216	93.31
268.448	87.31
268.681	95.31
268.913	97.31
269.145	80.31
269.377	81.31
269.609	73.31
269.841	90.31
270.073	82.31
270.306	88.31
270.538	91.31
270.77	85.31
271.002	97.31
271.234	99.31
271.466	84.31
271.698	90.31
271.93	95.31
272.162	80.31
272.394	84.31
272.626	93.31
272.858	84.31
273.09	83.31
273.322	82.31
273.553	79.31
273.785	91.31
274.017	91.31
274.249	98.31
274.481	85.31
274.713	77.31
274.945	92.31
275.176	83.31
275.408	102.31
275.64	106.31
275.872	122.31
276.104	99.31
276.335	95.31
276.567	112.31
276.799	135.31
277.031	161.31
277.262	188.31
277.494	141.31
277.726	100.31
277.957	89.31
278.189	84.31
278.421	89.31
278.652	92.31
278.884	84.31
279.115	92.31
279.347	82.31
279.579	101.31
279.81	135.31
280.042	192.31
280.273	247.31
280.505	177.31
280.736	116.31
280.968	96.31
281.199	102.31
281.431	92.31
281.662	86.31
281.894	102.31
282.125	108.31
282.356	132.31
282.588	179.31
282.819	133.31
283.051	101.31
283.282	87.31
283.513	103.31
283.745	81.31
283.976	90.31
284.207	93.31
284.439	91.31
284.67	87.31
284.901	79.31
285.132	91.31
285.364	86.31
285.595	91.31
285.826	93.31
286.057	92.31
286.288	79.31
286.52	89.31
286.751	83.31
286.982	96.31
287.213	97.31
287.444	79.31
287.675	85.31
287.906	97.31
288.138	88.31
288.369	82.31
288.6	101.31
288.831	94.31
289.062	105.31
289.293	93.31
289.524	80.31
289.755	93.31
289.986	80.31
290.217	90.31
290.448	79.31
290.679	85.31
290.91	91.31
291.141	86.31
291.371	96.31
291.602	84.31
291.833	92.31
292.064	91.31
292.295	91.31
292.526	80.31
292.757	81.31
292.987	88.31
293.218	90.31
293.449	75.31
293.68	89.31
293.91	96.31
294.141	84.31
294.372	97.31
294.603	97.31
294.833	76.31
295.064	93.31
295.295	96.31
295.525	89.31
295.756	100.31
295.987	140.31
296.217	167.31
296.448	165.31
296.679	108.31
296.909	92.31
297.14	91.31
297.37	95.31
297.601	92.31
297.831	89.31
298.062	91.31
298.292	97.31
298.523	96.31
298.753	101.31
298.984	89.31
299.214	87.31
299.445	99.31
299.675	97.31
299.905	88.31
300.136	99.31
300.366	99.31
300.597	87.31
300.827	98.31
301.057	108.31
301.288	117.31
301.518	97.31
301.748	107.31
301.979	99.31
302.209	101.31
302.439	111.31
302.669	100.31
302.9	91.31
303.13	89.31
303.36	114.31
303.59	127.31
303.82	137.31
304.051	114.31
304.281	95.31
304.511	85.31
304.741	85.31
304.971	90.31
305.201	87.31
305.431	82.31
305.661	90.31
305.891	84.31
306.121	78.31
306.352	112.31
306.582	120.31
306.812	99.31
307.042	107.31
307.272	161.31
307.502	180.31
307.731	148.31
307.961	119.31
308.191	100.31
308.421	85.31
308.651	93.31
308.881	114.31
309.111	90.31
309.341	103.31
309.571	90.31
309.8	93.31
310.03	111.31
310.26	111.31
310.49	106.31
310.72	123.31
310.949	128.31
311.179	115.31
311.409	91.31
311.639	102.31
311.868	106.31
312.098	91.31
312.328	103.31
312.557	101.31
312.787	129.31
313.017	122.31
313.246	107.31
313.476	104.31
313.706	99.31
313.935	109.31
314.165	106.31
314.394	117.31
314.624	124.31
314.853	86.31
315.083	97.31
315.312	96.31
315.542	92.31
315.771	81.31
316.001	95.31
316.23	90.31
316.46	94.31
316.689	90.31
316.919	101.31
317.148	113.31
317.377	111.31
317.607	98.31
317.836	92.31
318.065	96.31
318.295	92.31
318.524	88.31
318.753	97.31
318.983	99.31
319.212	121.31
319.441	122.31
319.67	125.31
319.9	88.31
320.129	90.31
320.358	91.31
320.587	84.31
320.816	96.31
321.046	109.31
321.275	107.31
321.504	104.31
321.733	114.31
321.962	106.31
322.191	106.31
322.42	104.31
322.649	133.31
322.878	127.31
323.108	137.31
323.337	153.31
323.566	156.31
323.795	177.31
324.024	259.31
324.253	527.31
324.482	1188.31
324.71	2418.31
324.939	3200.31
325.168	1174.31
325.397	326.31
325.626	179.31
325.855	151.31
326.084	141.31
326.313	158.31
326.542	179.31
326.77	295.31
326.999	609.31
327.228	1250.31
327.457	2394.31
327.686	1889.31
327.914	615.31
328.143	555.31
328.372	677.31
328.6	383.31
328.829	199.31
329.058	200.31
329.287	193.31
329.515	187.31
329.744	263.31
329.972	470.31
330.201	1019.31
330.43	1485.31
330.658	667.31
330.887	298.31
331.115	214.31
331.344	124.31
331.572	115.31
331.801	129.31
332.03	134.31
332.258	106.31
332.486	105.31
332.715	112.31
332.943	109.31
333.172	127.31
333.4	145.31
333.629	154.31
333.857	239.31
334.085	463.31
334.314	961.31
334.542	1874.31
334.771	1757.31
334.999	435.31
335.227	187.31
335.455	127.31
335.684	118.31
335.912	109.31
336.14	111.31
336.369	115.31
336.597	108.31
336.825	114.31
337.053	92.31
337.281	101.31
337.51	98.31
337.738	98.31
337.966	102.31
338.194	114.31
338.422	97.31
338.65	100.31
338.878	91.31
339.106	86.31
339.334	91.31
339.562	79.31
339.79	108.31
340.018	101.31
340.246	111.31
340.474	105.31
340.702	112.31
340.93	89.31
341.158	103.31
341.386	94.31
341.614	115.31
341.842	106.31
342.07	98.31
342.298	86.31
342.526	85.31
342.754	102.31
342.981	99.31
343.209	90.31
343.437	107.31
343.665	80.31
343.893	89.31
344.12	85.31
344.348	101.31
344.576	105.31
344.804	104.31
345.031	107.31
345.259	118.31
345.487	116.31
345.714	101.31
345.942	90.31
346.17	98.31
346.397	97.31
346.625	88.31
346.853	84.31
347.08	107.31
347.308	100.31
347.535	119.31
347.763	114.31
347.99	101.31
348.218	98.31
348.445	125.31
348.673	111.31
348.9	92.31
349.128	103.31
349.355	93.31
349.583	84.31
349.81	99.31
350.037	108.31
350.265	91.31
350.492	108.31
350.72	87.31
350.947	106.31
351.174	118.31
351.402	130.31
351.629	112.31
351.856	111.31
352.083	108.31
352.311	121.31
352.538	112.31
352.765	135.31
352.992	110.31
353.22	124.31
353.447	104.31
353.674	111.31
353.901	89.31
354.128	98.31
354.355	98.31
354.583	89.31
354.81	90.31
355.037	98.31
355.264	89.31
355.491	95.31
355.718	78.31
355.945	107.31
356.172	92.31
356.399	103.31
356.626	89.31
356.853	98.31
357.08	85.31
357.307	104.31
357.534	90.31
357.761	102.31
357.988	107.31
358.215	92.31
358.441	95.31
358.668	89.31
358.895	83.31
359.122	83.31
359.349	93.31
359.576	99.31
359.802	107.31
360.029	140.31
360.256	140.31
360.483	122.31
360.709	98.31
360.936	93.31
361.163	97.31
361.39	103.31
361.616	89.31
361.843	111.31
362.07	98.31
362.296	120.31
362.523	109.31
362.749	105.31
362.976	97.31
363.203	94.31
363.429	76.31
363.656	92.31
363.882	98.31
364.109	94.31
364.335	94.31
364.562	100.31
364.788	94.31
365.015	98.31
365.241	121.31
365.468	120.31
365.694	126.31
365.92	124.31
366.147	99.31
366.373	103.31
366.599	98.31
366.826	87.31
367.052	100.31
367.278	95.31
367.505	87.31
367.731	94.31
367.957	97.31
368.184	102.31
368.41	122.31
368.636	121.31
368.862	126.31
369.089	131.31
369.315	100.31
369.541	99.31
369.767	93.31
369.993	95.31
370.219	106.31
370.445	96.31
370.672	99.31
370.898	89.31
371.124	88.31
371.35	90.31
371.576	93.31
371.802	86.31
372.028	88.31
372.254	86.31
372.48	90.31
372.706	81.31
372.932	89.31
373.158	95.31
373.384	83.31
373.61	102.31
373.835	98.31
374.061	105.31
374.287	100.31
374.513	89.31
374.739	103.31
374.965	87.31
375.191	85.31
375.416	91.31
375.642	94.31
375.868	90.31
376.094	85.31
376.319	93.31
376.545	81.31
376.771	101.31
376.997	103.31
377.222	104.31
377.448	94.31
377.674	89.31
377.899	93.31
378.125	93.31
378.35	104.31
378.576	77.31
378.802	94.31
379.027	85.31
379.253	99.31
379.478	80.31
379.704	75.31
379.929	108.31
380.155	96.31
380.38	103.31
380.606	98.31
380.831	99.31
381.057	92.31
381.282	83.31
381.507	102.31
381.733	106.31
381.958	96.31
382.184	101.31
382.409	101.31
382.634	102.31
382.86	90.31
383.085	87.31
383.31	98.31
383.535	95.31
383.761	102.31
383.986	96.31
384.211	93.31
384.436	104.31
384.662	101.31
384.887	96.31
385.112	108.31
385.337	105.31
385.562	98.31
385.787	106.31
386.013	107.31
386.238	125.31
386.463	122.31
386.688	103.31
386.913	96.31
387.138	100.31
387.363	93.31
387.588	103.31
387.813	97.31
388.038	96.31
388.263	108.31
388.488	90.31
388.713	92.31
388.938	81.31
389.163	89.31
389.387	100.31
389.612	95.31
389.837	93.31
390.062	99.31
390.287	105.31
390.512	87.31
390.736	80.31
390.961	84.31
391.186	74.31
391.411	95.31
391.636	100.31
391.86	85.31
392.085	91.31
392.31	73.31
392.534	82.31
392.759	89.31
392.984	89.31
393.208	83.31
393.433	89.31
393.658	92.31
393.882	83.31
394.107	81.31
394.331	91.31
394.556	79.31
394.78	85.31
395.005	95.31
395.229	89.31
395.454	91.31
395.678	91.31
395.903	104.31
396.127	102.31
396.352	87.31
396.576	81.31
396.801	84.31
397.025	90.31
397.249	72.31
397.474	88.31
397.698	85.31
397.922	87.31
398.147	92.31
398.371	92.31
398.595	103.31
398.82	77.31
399.044	91.31
399.268	88.31
399.492	97.31
399.717	90.31
399.941	95.31
400.165	86.31
400.389	87.31
400.613	93.31
400.837	95.31
401.062	80.31
401.286	109.31
401.51	89.31
401.734	96.31
401.958	109.31
402.182	152.31
402.406	207.31
402.63	161.31
402.854	103.31
403.078	101.31
403.302	88.31
403.526	90.31
403.75	89.31
403.974	93.31
404.198	90.31
404.422	83.31
404.645	85.31
404.869	105.31
405.093	117.31
405.317	160.31
405.541	147.31
405.765	119.31
405.988	129.31
406.212	222.31
406.436	308.31
406.66	213.31
406.883	119.31
407.107	107.31
407.331	100.31
407.555	110.31
407.778	106.31
408.002	92.31
408.226	96.31
408.449	103.31
408.673	89.31
408.896	102.31
409.12	100.31
409.344	92.31
409.567	86.31
409.791	88.31
410.014	92.31
410.238	85.31
410.461	105.31
410.685	94.31
410.908	95.31
411.132	108.31
411.355	98.31
411.578	87.31
411.802	92.31
412.025	87.31
412.249	100.31
412.472	131.31
412.695	152.31
412.919	109.31
413.142	97.31
413.365	93.31
413.589	87.31
413.812	92.31
414.035	99.31
414.258	81.31
414.482	71.31
414.705	88.31
414.928	89.31
415.151	99.31
415.374	89.31
415.597	89.31
415.821	72.31
416.044	89.31
416.267	91.31
416.49	110.31
416.713	87.31
416.936	79.31
417.159	73.31
417.382	98.31
417.605	99.31
417.828	111.31
418.051	91.31
418.274	86.31
418.497	91.31
418.72	88.31
418.943	85.31
419.166	95.31
419.389	92.31
419.611	86.31
419.834	87.31
420.057	98.31
420.28	98.31
420.503	90.31
420.726	76.31
420.948	90.31
421.171	103.31
421.394	102.31
421.617	101.31
421.839	78.31
422.062	84.31
422.285	100.31
422.507	110.31
422.73	109.31
422.953	96.31
423.175	85.31
423.398	87.31
423.621	93.31
423.843	83.31
424.066	108.31
424.288	92.31
424.511	81.31
424.733	102.31
424.956	130.31
425.178	103.31
425.401	121.31
425.623	116.31
425.846	92.31
426.068	112.31
426.291	107.31
426.513	95.31
426.735	91.31
426.958	92.31
427.18	130.31
427.402	179.31
427.625	300.31
427.847	250.31
428.069	219.31
428.292	126.31
428.514	100.31
428.736	92.31
428.958	93.31
429.181	80.31
429.403	71.31
429.625	104.31
429.847	90.31
430.069	113.31
430.292	95.31
430.514	79.31
430.736	81.31
430.958	91.31
431.18	89.31
431.402	92.31
431.624	81.31
431.846	92.31
432.068	95.31
432.29	90.31
432.512	82.31
432.734	88.31
432.956	93.31
433.178	100.31
433.4	115.31
433.622	103.31
433.844	79.31
434.066	85.31
434.287	86.31
434.509	92.31
434.731	83.31
434.953	87.31
435.175	89.31
435.397	89.31
435.618	105.31
435.84	118.31
436.062	138.31
436.284	133.31
436.505	121.31
436.727	118.31
436.949	93.31
437.17	108.31
437.392	81.31
437.614	108.31
437.835	128.31
438.057	154.31
438.278	142.31
438.5	124.31
438.721	146.31
438.943	104.31
439.165	105.31
439.386	91.31
439.608	98.31
439.829	120.31
440.05	151.31
440.272	196.31
440.493	116.31
440.715	101.31
440.936	89.31
441.158	81.31
441.379	96.31
441.6	103.31
441.822	115.31
442.043	95.31
442.264	122.31
442.486	115.31
442.707	104.31
442.928	129.31
443.149	181.31
443.371	193.31
443.592	126.31
443.813	140.31
444.034	127.31
444.255	96.31
444.476	82.31
444.698	83.31
444.919	93.31
445.14	126.31
445.361	138.31
445.582	137.31
445.803	198.31
446.024	199.31
446.245	177.31
446.466	147.31
446.687	101.31
446.908	91.31
447.129	96.31
447.35	88.31
447.571	109.31
447.792	111.31
448.013	109.31
448.234	124.31
448.455	111.31
448.675	154.31
448.896	137.31
449.117	108.31
449.338	105.31
449.559	154.31
449.779	171.31
450	103.31
450.221	103.31
450.442	95.31
450.662	90.31
450.883	123.31
451.104	139.31
451.324	106.31
451.545	89.31
451.766	93.31
451.986	78.31
452.207	81.31
452.428	104.31
452.648	100.31
452.869	115.31
453.089	155.31
453.31	141.31
453.53	92.31
453.751	90.31
453.971	112.31
454.192	165.31
454.412	111.31
454.633	85.31
454.853	74.31
455.073	90.31
455.294	98.31
455.514	126.31
455.734	89.31
455.955	92.31
456.175	88.31
456.395	62.31
456.616	87.31
456.836	84.31
457.056	89.31
457.276	97.31
457.497	93.31
457.717	76.31
457.937	91.31
458.157	93.31
458.377	107.31
458.598	124.31
458.818	223.31
459.038	232.31
459.258	157.31
459.478	105.31
459.698	92.31
459.918	101.31
460.138	82.31
460.358	60.31
460.578	87.31
460.798	91.31
461.018	97.31
461.238	80.31
461.458	90.31
461.678	83.31
461.898	80.31
462.118	88.31
462.338	85.31
462.558	79.31
462.777	92.31
462.997	101.31
463.217	106.31
463.437	98.31
463.657	88.31
463.876	89.31
464.096	90.31
464.316	94.31
464.536	101.31
464.755	111.31
464.975	143.31
465.195	252.31
465.414	255.31
465.634	108.31
465.854	89.31
466.073	87.31
466.293	83.31
466.512	84.31
466.732	81.31
466.951	98.31
467.171	90.31
467.391	97.31
467.61	138.31
467.829	220.31
468.049	524.31
468.268	785.31
468.488	214.31
468.707	113.31
468.927	100.31
469.146	108.31
469.365	106.31
469.585	97.31
469.804	101.31
470.023	120.31
470.243	104.31
470.462	119.31
470.681	145.31
470.901	102.31
471.12	101.31
471.339	108.31
471.558	121.31
471.777	172.31
471.997	280.31
472.216	1027.31
472.435	2418.31
472.654	588.31
472.873	159.31
473.092	108.31
473.311	104.31
473.53	84.31
473.749	91.31
473.968	102.31
474.187	129.31
474.406	117.31
474.625	92.31
474.844	87.31
475.063	90.31
475.282	80.31
475.501	84.31
475.72	84.31
475.939	93.31
476.158	89.31
476.377	97.31
476.596	90.31
476.814	113.31
477.033	109.31
477.252	92.31
477.471	97.31
477.69	88.31
477.908	102.31
478.127	101.31
478.346	89.31
478.564	92.31
478.783	114.31
479.002	96.31
479.22	109.31
479.439	136.31
479.658	140.31
479.876	143.31
480.095	129.31
480.313	146.31
480.532	161.31
480.751	270.31
480.969	951.31
481.188	4172.31
481.406	2403.31
481.624	346.31
481.843	131.31
482.061	99.31
482.28	86.31
482.498	87.31
482.717	78.31
482.935	101.31
483.153	87.31
483.372	83.31
483.59	105.31
483.808	100.31
484.027	95.31
484.245	88.31
484.463	88.31
484.681	103.31
484.9	90.31
485.118	92.31
485.336	99.31
485.554	101.31
485.772	106.31
485.99	90.31
486.209	108.31
486.427	118.31
486.645	114.31
486.863	127.31
487.081	94.31
487.299	113.31
487.517	87.31
487.735	82.31
487.953	71.31
488.171	99.31
488.389	100.31
488.607	114.31
488.825	92.31
489.043	81.31
489.261	89.31
489.479	91.31
489.696	83.31
489.914	99.31
490.132	91.31
490.35	93.31
490.568	85.31
490.786	88.31
491.003	95.31
491.221	97.31
491.439	105.31
491.657	90.31
491.874	89.31
492.092	86.31
492.31	92.31
492.527	103.31
492.745	98.31
492.963	90.31
493.18	97.31
493.398	92.31
493.615	101.31
493.833	98.31
494.05	93.31
494.268	85.31
494.485	92.31
494.703	77.31
494.92	92.31
495.138	89.31
495.355	91.31
495.573	96.31
495.79	89.31
496.008	85.31
496.225	79.31
496.442	87.31
496.66	92.31
496.877	103.31
497.094	77.31
497.312	81.31
497.529	92.31
497.746	93.31
497.963	99.31
498.181	95.31
498.398	105.31
498.615	131.31
498.832	117.31
499.049	86.31
499.267	84.31
499.484	89.31
499.701	81.31
499.918	80.31
500.135	96.31
500.352	91.31
500.569	100.31
500.786	99.31
501.003	83.31
501.22	80.31
501.437	106.31
501.654	93.31
501.871	126.31
502.088	115.31
502.305	90.31
502.522	83.31
502.739	85.31
502.956	75.31
503.172	93.31
503.389	99.31
503.606	131.31
503.823	112.31
504.04	87.31
504.256	99.31
504.473	97.31
504.69	95.31
504.907	91.31
505.123	94.31
505.34	92.31
505.557	84.31
505.773	92.31
505.99	87.31
506.207	80.31
506.423	98.31
506.64	95.31
506.856	83.31
507.073	104.31
507.289	92.31
507.506	103.31
507.722	132.31
507.939	143.31
508.155	112.31
508.372	75.31
508.588	97.31
508.805	94.31
509.021	94.31
509.238	100.31
509.454	100.31
509.67	107.31
509.887	117.31
510.103	144.31
510.319	239.31
510.536	946.31
510.752	3384.31
510.968	897.31
511.184	180.31
511.401	142.31
511.617	108.31
511.833	111.31
512.049	101.31
512.265	98.31
512.481	109.31
512.698	92.31
512.914	90.31
