Data from Circ_2000_H10_HRD10591_00098.txt Node
Date: Wed Jan 03 10:49:53 EST 2024
User: Yrep
Spectrometer: HR+D1059
Trigger mode: 1
Integration Time (sec): 1.000000E-1
Scans to average: 1
Electric dark correction enabled: true
Nonlinearity correction enabled: false
Boxcar width: 0
XAxis mode: Wavelengths
Number of Pixels in Spectrum: 2048
>>>>>Begin Spectral Data<<<<<
223.165	-21.5
223.4	-21.5
223.635	-21.5
223.869	-12.5
224.104	-20.5
224.338	-4.5
224.573	-29.5
224.808	-1.5
225.042	-6.5
225.277	-4.5
225.511	9.5
225.746	6.5
225.98	11.5
226.215	4.5
226.449	15.5
226.683	5.5
226.918	19.5
227.152	28.5
227.387	41.5
227.621	31.5
227.856	36.5
228.09	43.5
228.324	45.5
228.559	67.5
228.793	49.5
229.027	52.5
229.262	79.5
229.496	71.5
229.73	99.5
229.964	88.5
230.199	59.5
230.433	67.5
230.667	73.5
230.901	64.5
231.136	73.5
231.37	83.5
231.604	76.5
231.838	82.5
232.072	71.5
232.306	60.5
232.541	88.5
232.775	83.5
233.009	68.5
233.243	72.5
233.477	86.5
233.711	74.5
233.945	84.5
234.179	96.5
234.413	86.5
234.647	73.5
234.881	77.5
235.115	77.5
235.349	81.5
235.583	74.5
235.817	67.5
236.051	76.5
236.285	85.5
236.519	88.5
236.753	97.5
236.987	73.5
237.221	95.5
237.455	68.5
237.689	84.5
237.922	74.5
238.156	82.5
238.39	72.5
238.624	82.5
238.858	73.5
239.091	82.5
239.325	76.5
239.559	81.5
239.793	92.5
240.027	97.5
240.26	86.5
240.494	75.5
240.728	71.5
240.961	77.5
241.195	65.5
241.429	75.5
241.662	77.5
241.896	65.5
242.13	68.5
242.363	69.5
242.597	73.5
242.83	70.5
243.064	71.5
243.298	64.5
243.531	82.5
243.765	73.5
243.998	100.5
244.232	88.5
244.465	80.5
244.699	81.5
244.932	86.5
245.166	69.5
245.399	74.5
245.633	79.5
245.866	70.5
246.099	78.5
246.333	69.5
246.566	73.5
246.8	76.5
247.033	63.5
247.266	63.5
247.5	80.5
247.733	76.5
247.966	80.5
248.2	87.5
248.433	79.5
248.666	81.5
248.899	90.5
249.133	85.5
249.366	112.5
249.599	118.5
249.832	88.5
250.066	91.5
250.299	86.5
250.532	83.5
250.765	83.5
250.998	76.5
251.231	86.5
251.465	81.5
251.698	93.5
251.931	79.5
252.164	82.5
252.397	75.5
252.63	84.5
252.863	79.5
253.096	64.5
253.329	83.5
253.562	83.5
253.795	88.5
254.028	87.5
254.261	84.5
254.494	73.5
254.727	86.5
254.96	87.5
255.193	71.5
255.426	81.5
255.659	87.5
255.892	88.5
256.124	91.5
256.357	80.5
256.59	91.5
256.823	81.5
257.056	72.5
257.289	84.5
257.521	75.5
257.754	83.5
257.987	86.5
258.22	95.5
258.452	88.5
258.685	83.5
258.918	81.5
259.151	83.5
259.383	88.5
259.616	75.5
259.849	95.5
260.081	76.5
260.314	85.5
260.547	89.5
260.779	85.5
261.012	114.5
261.244	93.5
261.477	99.5
261.71	100.5
261.942	138.5
262.175	132.5
262.407	92.5
262.64	91.5
262.872	91.5
263.105	96.5
263.337	91.5
263.57	84.5
263.802	99.5
264.035	104.5
264.267	104.5
264.499	72.5
264.732	95.5
264.964	74.5
265.197	83.5
265.429	92.5
265.661	99.5
265.894	71.5
266.126	84.5
266.358	96.5
266.591	77.5
266.823	83.5
267.055	84.5
267.287	72.5
267.52	83.5
267.752	84.5
267.984	101.5
268.216	75.5
268.448	73.5
268.681	89.5
268.913	83.5
269.145	80.5
269.377	76.5
269.609	86.5
269.841	75.5
270.073	74.5
270.306	85.5
270.538	82.5
270.77	89.5
271.002	85.5
271.234	79.5
271.466	91.5
271.698	93.5
271.93	74.5
272.162	87.5
272.394	87.5
272.626	90.5
272.858	85.5
273.09	80.5
273.322	78.5
273.553	94.5
273.785	93.5
274.017	75.5
274.249	91.5
274.481	90.5
274.713	71.5
274.945	84.5
275.176	89.5
275.408	98.5
275.64	117.5
275.872	117.5
276.104	121.5
276.335	93.5
276.567	123.5
276.799	156.5
277.031	157.5
277.262	164.5
277.494	140.5
277.726	103.5
277.957	100.5
278.189	98.5
278.421	111.5
278.652	94.5
278.884	82.5
279.115	70.5
279.347	91.5
279.579	104.5
279.81	123.5
280.042	159.5
280.273	219.5
280.505	159.5
280.736	104.5
280.968	82.5
281.199	91.5
281.431	93.5
281.662	95.5
281.894	79.5
282.125	112.5
282.356	153.5
282.588	183.5
282.819	124.5
283.051	95.5
283.282	96.5
283.513	99.5
283.745	73.5
283.976	88.5
284.207	102.5
284.439	83.5
284.67	74.5
284.901	78.5
285.132	84.5
285.364	86.5
285.595	87.5
285.826	81.5
286.057	79.5
286.288	79.5
286.52	79.5
286.751	79.5
286.982	77.5
287.213	87.5
287.444	89.5
287.675	81.5
287.906	82.5
288.138	90.5
288.369	95.5
288.6	89.5
288.831	75.5
289.062	91.5
289.293	80.5
289.524	95.5
289.755	84.5
289.986	86.5
290.217	83.5
290.448	81.5
290.679	94.5
290.91	86.5
291.141	75.5
291.371	101.5
291.602	95.5
291.833	92.5
292.064	83.5
292.295	90.5
292.526	84.5
292.757	78.5
292.987	94.5
293.218	71.5
293.449	91.5
293.68	93.5
293.91	81.5
294.141	85.5
294.372	94.5
294.603	84.5
294.833	77.5
295.064	80.5
295.295	88.5
295.525	90.5
295.756	111.5
295.987	135.5
296.217	162.5
296.448	139.5
296.679	98.5
296.909	86.5
297.14	86.5
297.37	90.5
297.601	84.5
297.831	85.5
298.062	96.5
298.292	87.5
298.523	103.5
298.753	94.5
298.984	76.5
299.214	99.5
299.445	95.5
299.675	95.5
299.905	83.5
300.136	99.5
300.366	89.5
300.597	90.5
300.827	88.5
301.057	113.5
301.288	115.5
301.518	88.5
301.748	101.5
301.979	114.5
302.209	104.5
302.439	113.5
302.669	100.5
302.9	92.5
303.13	89.5
303.36	98.5
303.59	120.5
303.82	155.5
304.051	113.5
304.281	101.5
304.511	92.5
304.741	93.5
304.971	94.5
305.201	83.5
305.431	88.5
305.661	93.5
305.891	87.5
306.121	99.5
306.352	104.5
306.582	121.5
306.812	106.5
307.042	114.5
307.272	165.5
307.502	161.5
307.731	160.5
307.961	113.5
308.191	89.5
308.421	99.5
308.651	87.5
308.881	103.5
309.111	99.5
309.341	102.5
309.571	96.5
309.8	101.5
310.03	103.5
310.26	104.5
310.49	90.5
310.72	108.5
310.949	124.5
311.179	120.5
311.409	103.5
311.639	96.5
311.868	91.5
312.098	95.5
312.328	100.5
312.557	107.5
312.787	120.5
313.017	111.5
313.246	100.5
313.476	93.5
313.706	94.5
313.935	98.5
314.165	111.5
314.394	116.5
314.624	98.5
314.853	97.5
315.083	102.5
315.312	96.5
315.542	92.5
315.771	93.5
316.001	88.5
316.23	95.5
316.46	103.5
316.689	106.5
316.919	98.5
317.148	107.5
317.377	97.5
317.607	96.5
317.836	100.5
318.065	89.5
318.295	81.5
318.524	93.5
318.753	110.5
318.983	90.5
319.212	112.5
319.441	128.5
319.67	122.5
319.9	91.5
320.129	89.5
320.358	92.5
320.587	96.5
320.816	111.5
321.046	107.5
321.275	85.5
321.504	99.5
321.733	97.5
321.962	113.5
322.191	114.5
322.42	108.5
322.649	119.5
322.878	114.5
323.108	128.5
323.337	133.5
323.566	148.5
323.795	175.5
324.024	235.5
324.253	477.5
324.482	1059.5
324.71	2134.5
324.939	2857.5
325.168	1043.5
325.397	305.5
325.626	161.5
325.855	145.5
326.084	148.5
326.313	165.5
326.542	172.5
326.77	263.5
326.999	553.5
327.228	1127.5
327.457	2012.5
327.686	1650.5
327.914	577.5
328.143	501.5
328.372	571.5
328.6	339.5
328.829	181.5
329.058	195.5
329.287	205.5
329.515	169.5
329.744	233.5
329.972	405.5
330.201	831.5
330.43	1199.5
330.658	560.5
330.887	279.5
331.115	180.5
331.344	124.5
331.572	122.5
331.801	128.5
332.03	139.5
332.258	107.5
332.486	98.5
332.715	106.5
332.943	106.5
333.172	116.5
333.4	125.5
333.629	151.5
333.857	212.5
334.085	376.5
334.314	752.5
334.542	1485.5
334.771	1366.5
334.999	371.5
335.227	159.5
335.455	127.5
335.684	120.5
335.912	101.5
336.14	114.5
336.369	108.5
336.597	114.5
336.825	97.5
337.053	108.5
337.281	98.5
337.51	84.5
337.738	112.5
337.966	104.5
338.194	112.5
338.422	112.5
338.65	102.5
338.878	102.5
339.106	92.5
339.334	70.5
339.562	105.5
339.79	92.5
340.018	101.5
340.246	95.5
340.474	102.5
340.702	100.5
340.93	100.5
341.158	96.5
341.386	89.5
341.614	95.5
341.842	108.5
342.07	91.5
342.298	99.5
342.526	91.5
342.754	87.5
342.981	96.5
343.209	101.5
343.437	97.5
343.665	93.5
343.893	77.5
344.12	103.5
344.348	92.5
344.576	87.5
344.804	99.5
345.031	96.5
345.259	97.5
345.487	98.5
345.714	98.5
345.942	104.5
346.17	83.5
346.397	90.5
346.625	93.5
346.853	93.5
347.08	101.5
347.308	97.5
347.535	100.5
347.763	111.5
347.99	100.5
348.218	116.5
348.445	114.5
348.673	118.5
348.9	108.5
349.128	100.5
349.355	84.5
349.583	87.5
349.81	96.5
350.037	103.5
350.265	89.5
350.492	96.5
350.72	107.5
350.947	101.5
351.174	124.5
351.402	123.5
351.629	101.5
351.856	109.5
352.083	115.5
352.311	124.5
352.538	109.5
352.765	133.5
352.992	138.5
353.22	127.5
353.447	104.5
353.674	98.5
353.901	89.5
354.128	91.5
354.355	108.5
354.583	94.5
354.81	99.5
355.037	89.5
355.264	94.5
355.491	93.5
355.718	88.5
355.945	89.5
356.172	107.5
356.399	96.5
356.626	86.5
356.853	92.5
357.08	93.5
357.307	85.5
357.534	110.5
357.761	107.5
357.988	93.5
358.215	103.5
358.441	99.5
358.668	90.5
358.895	99.5
359.122	87.5
359.349	92.5
359.576	97.5
359.802	108.5
360.029	122.5
360.256	125.5
360.483	106.5
360.709	91.5
360.936	88.5
361.163	102.5
361.39	99.5
361.616	101.5
361.843	91.5
362.07	83.5
362.296	101.5
362.523	99.5
362.749	105.5
362.976	93.5
363.203	100.5
363.429	82.5
363.656	80.5
363.882	89.5
364.109	92.5
364.335	83.5
364.562	87.5
364.788	87.5
365.015	98.5
365.241	113.5
365.468	120.5
365.694	112.5
365.92	113.5
366.147	87.5
366.373	83.5
366.599	100.5
366.826	102.5
367.052	83.5
367.278	92.5
367.505	96.5
367.731	104.5
367.957	93.5
368.184	93.5
368.41	101.5
368.636	135.5
368.862	120.5
369.089	125.5
369.315	108.5
369.541	100.5
369.767	96.5
369.993	93.5
370.219	101.5
370.445	91.5
370.672	79.5
370.898	85.5
371.124	89.5
371.35	90.5
371.576	89.5
371.802	91.5
372.028	89.5
372.254	89.5
372.48	101.5
372.706	91.5
372.932	97.5
373.158	88.5
373.384	102.5
373.61	101.5
373.835	95.5
374.061	83.5
374.287	96.5
374.513	90.5
374.739	86.5
374.965	104.5
375.191	93.5
375.416	84.5
375.642	85.5
375.868	101.5
376.094	101.5
376.319	88.5
376.545	103.5
376.771	76.5
376.997	97.5
377.222	84.5
377.448	84.5
377.674	101.5
377.899	93.5
378.125	91.5
378.35	87.5
378.576	98.5
378.802	91.5
379.027	87.5
379.253	93.5
379.478	90.5
379.704	81.5
379.929	87.5
380.155	101.5
380.38	89.5
380.606	82.5
380.831	92.5
381.057	100.5
381.282	93.5
381.507	100.5
381.733	90.5
381.958	103.5
382.184	96.5
382.409	93.5
382.634	99.5
382.86	99.5
383.085	94.5
383.31	112.5
383.535	98.5
383.761	91.5
383.986	89.5
384.211	100.5
384.436	96.5
384.662	96.5
384.887	89.5
385.112	113.5
385.337	119.5
385.562	101.5
385.787	111.5
386.013	114.5
386.238	124.5
386.463	98.5
386.688	103.5
386.913	73.5
387.138	95.5
387.363	103.5
387.588	101.5
387.813	89.5
388.038	109.5
388.263	110.5
388.488	105.5
388.713	99.5
388.938	91.5
389.163	99.5
389.387	99.5
389.612	96.5
389.837	89.5
390.062	92.5
390.287	90.5
390.512	97.5
390.736	93.5
390.961	99.5
391.186	92.5
391.411	95.5
391.636	89.5
391.86	80.5
392.085	92.5
392.31	77.5
392.534	83.5
392.759	93.5
392.984	84.5
393.208	86.5
393.433	99.5
393.658	97.5
393.882	93.5
394.107	78.5
394.331	82.5
394.556	77.5
394.78	86.5
395.005	81.5
395.229	91.5
395.454	91.5
395.678	77.5
395.903	69.5
396.127	99.5
396.352	86.5
396.576	83.5
396.801	89.5
397.025	99.5
397.249	85.5
397.474	77.5
397.698	86.5
397.922	70.5
398.147	97.5
398.371	83.5
398.595	91.5
398.82	84.5
399.044	91.5
399.268	78.5
399.492	91.5
399.717	89.5
399.941	93.5
400.165	96.5
400.389	81.5
400.613	100.5
400.837	86.5
401.062	79.5
401.286	99.5
401.51	103.5
401.734	110.5
401.958	108.5
402.182	153.5
402.406	201.5
402.63	170.5
402.854	89.5
403.078	103.5
403.302	100.5
403.526	84.5
403.75	97.5
403.974	93.5
404.198	91.5
404.422	83.5
404.645	91.5
404.869	114.5
405.093	132.5
405.317	134.5
405.541	117.5
405.765	118.5
405.988	128.5
406.212	223.5
406.436	345.5
406.66	228.5
406.883	131.5
407.107	122.5
407.331	108.5
407.555	108.5
407.778	112.5
408.002	81.5
408.226	88.5
408.449	84.5
408.673	99.5
408.896	88.5
409.12	101.5
409.344	91.5
409.567	103.5
409.791	81.5
410.014	87.5
410.238	87.5
410.461	108.5
410.685	101.5
410.908	86.5
411.132	106.5
411.355	98.5
411.578	103.5
411.802	74.5
412.025	92.5
412.249	104.5
412.472	120.5
412.695	124.5
412.919	108.5
413.142	86.5
413.365	109.5
413.589	94.5
413.812	75.5
414.035	82.5
414.258	89.5
414.482	90.5
414.705	91.5
414.928	98.5
415.151	92.5
415.374	92.5
415.597	95.5
415.821	101.5
416.044	98.5
416.267	86.5
416.49	80.5
416.713	90.5
416.936	90.5
417.159	88.5
417.382	93.5
417.605	100.5
417.828	101.5
418.051	101.5
418.274	104.5
418.497	97.5
418.72	103.5
418.943	84.5
419.166	83.5
419.389	99.5
419.611	88.5
419.834	85.5
420.057	83.5
420.28	85.5
420.503	86.5
420.726	82.5
420.948	87.5
421.171	93.5
421.394	92.5
421.617	97.5
421.839	84.5
422.062	97.5
422.285	96.5
422.507	92.5
422.73	111.5
422.953	95.5
423.175	86.5
423.398	79.5
423.621	93.5
423.843	93.5
424.066	97.5
424.288	101.5
424.511	90.5
424.733	111.5
424.956	118.5
425.178	113.5
425.401	104.5
425.623	112.5
425.846	100.5
426.068	100.5
426.291	97.5
426.513	82.5
426.735	92.5
426.958	118.5
427.18	127.5
427.402	169.5
427.625	252.5
427.847	224.5
428.069	201.5
428.292	120.5
428.514	105.5
428.736	98.5
428.958	88.5
429.181	97.5
429.403	86.5
429.625	95.5
429.847	116.5
430.069	97.5
430.292	100.5
430.514	106.5
430.736	75.5
430.958	104.5
431.18	83.5
431.402	82.5
431.624	90.5
431.846	77.5
432.068	77.5
432.29	91.5
432.512	87.5
432.734	87.5
432.956	95.5
433.178	101.5
433.4	97.5
433.622	84.5
433.844	93.5
434.066	104.5
434.287	99.5
434.509	84.5
434.731	103.5
434.953	90.5
435.175	76.5
435.397	97.5
435.618	83.5
435.84	109.5
436.062	137.5
436.284	129.5
436.505	104.5
436.727	95.5
436.949	82.5
437.17	87.5
437.392	97.5
437.614	107.5
437.835	124.5
438.057	162.5
438.278	114.5
438.5	113.5
438.721	128.5
438.943	95.5
439.165	92.5
439.386	92.5
439.608	108.5
439.829	114.5
440.05	151.5
440.272	171.5
440.493	104.5
440.715	93.5
440.936	92.5
441.158	97.5
441.379	91.5
441.6	99.5
441.822	97.5
442.043	101.5
442.264	104.5
442.486	115.5
442.707	97.5
442.928	107.5
443.149	170.5
443.371	172.5
443.592	132.5
443.813	125.5
444.034	108.5
444.255	108.5
444.476	87.5
444.698	95.5
444.919	95.5
445.14	137.5
445.361	143.5
445.582	135.5
445.803	170.5
446.024	176.5
446.245	164.5
446.466	132.5
446.687	90.5
446.908	87.5
447.129	95.5
447.35	96.5
447.571	99.5
447.792	96.5
448.013	121.5
448.234	131.5
448.455	99.5
448.675	131.5
448.896	129.5
449.117	106.5
449.338	103.5
449.559	125.5
449.779	151.5
450	108.5
450.221	103.5
450.442	78.5
450.662	118.5
450.883	130.5
451.104	151.5
451.324	114.5
451.545	96.5
451.766	93.5
451.986	83.5
452.207	97.5
452.428	104.5
452.648	117.5
452.869	120.5
453.089	132.5
453.31	156.5
453.53	91.5
453.751	90.5
453.971	129.5
454.192	155.5
454.412	79.5
454.633	85.5
454.853	92.5
455.073	93.5
455.294	86.5
455.514	118.5
455.734	82.5
455.955	76.5
456.175	83.5
456.395	79.5
456.616	94.5
456.836	84.5
457.056	92.5
457.276	79.5
457.497	88.5
457.717	90.5
457.937	91.5
458.157	90.5
458.377	97.5
458.598	119.5
458.818	196.5
459.038	229.5
459.258	143.5
459.478	91.5
459.698	74.5
459.918	80.5
460.138	94.5
460.358	95.5
460.578	77.5
460.798	94.5
461.018	97.5
461.238	93.5
461.458	92.5
461.678	89.5
461.898	97.5
462.118	83.5
462.338	81.5
462.558	66.5
462.777	103.5
462.997	98.5
463.217	102.5
463.437	111.5
463.657	95.5
463.876	89.5
464.096	88.5
464.316	91.5
464.536	104.5
464.755	100.5
464.975	136.5
465.195	255.5
465.414	258.5
465.634	106.5
465.854	100.5
466.073	96.5
466.293	89.5
466.512	75.5
466.732	84.5
466.951	101.5
467.171	116.5
467.391	102.5
467.61	142.5
467.829	196.5
468.049	492.5
468.268	720.5
468.488	191.5
468.707	101.5
468.927	91.5
469.146	85.5
469.365	83.5
469.585	103.5
469.804	121.5
470.023	117.5
470.243	117.5
470.462	130.5
470.681	133.5
470.901	109.5
471.12	97.5
471.339	108.5
471.558	105.5
471.777	145.5
471.997	285.5
472.216	971.5
472.435	2138.5
472.654	509.5
472.873	157.5
473.092	107.5
473.311	102.5
473.53	97.5
473.749	101.5
473.968	98.5
474.187	143.5
474.406	98.5
474.625	91.5
474.844	96.5
475.063	72.5
475.282	81.5
475.501	104.5
475.72	87.5
475.939	81.5
476.158	92.5
476.377	84.5
476.596	83.5
476.814	96.5
477.033	114.5
477.252	94.5
477.471	86.5
477.69	103.5
477.908	78.5
478.127	87.5
478.346	84.5
478.564	94.5
478.783	105.5
479.002	95.5
479.22	108.5
479.439	137.5
479.658	120.5
479.876	126.5
480.095	116.5
480.313	129.5
480.532	165.5
480.751	248.5
480.969	879.5
481.188	3647.5
481.406	2112.5
481.624	316.5
481.843	132.5
482.061	117.5
482.28	101.5
482.498	89.5
482.717	100.5
482.935	90.5
483.153	85.5
483.372	81.5
483.59	102.5
483.808	84.5
484.027	84.5
484.245	99.5
484.463	90.5
484.681	97.5
484.9	77.5
485.118	83.5
485.336	82.5
485.554	90.5
485.772	96.5
485.99	124.5
486.209	120.5
486.427	112.5
486.645	119.5
486.863	131.5
487.081	104.5
487.299	87.5
487.517	96.5
487.735	98.5
487.953	94.5
488.171	94.5
488.389	96.5
488.607	112.5
488.825	110.5
489.043	90.5
489.261	90.5
489.479	89.5
489.696	101.5
489.914	96.5
490.132	85.5
490.35	100.5
490.568	68.5
490.786	82.5
491.003	108.5
491.221	97.5
491.439	82.5
491.657	89.5
491.874	89.5
492.092	90.5
492.31	80.5
492.527	97.5
492.745	103.5
492.963	98.5
493.18	83.5
493.398	96.5
493.615	109.5
493.833	83.5
494.05	87.5
494.268	87.5
494.485	75.5
494.703	87.5
494.92	88.5
495.138	90.5
495.355	97.5
495.573	91.5
495.79	96.5
496.008	103.5
496.225	91.5
496.442	86.5
496.66	85.5
496.877	70.5
497.094	77.5
497.312	99.5
497.529	84.5
497.746	88.5
497.963	95.5
498.181	97.5
498.398	100.5
498.615	109.5
498.832	121.5
499.049	89.5
499.267	100.5
499.484	91.5
499.701	103.5
499.918	81.5
500.135	90.5
500.352	86.5
500.569	98.5
500.786	104.5
501.003	105.5
501.22	89.5
501.437	85.5
501.654	107.5
501.871	136.5
502.088	95.5
502.305	97.5
502.522	88.5
502.739	76.5
502.956	93.5
503.172	92.5
503.389	108.5
503.606	115.5
503.823	98.5
504.04	89.5
504.256	91.5
504.473	97.5
504.69	101.5
504.907	99.5
505.123	97.5
505.34	91.5
505.557	88.5
505.773	80.5
505.99	83.5
506.207	103.5
506.423	98.5
506.64	90.5
506.856	85.5
507.073	98.5
507.289	109.5
507.506	99.5
507.722	144.5
507.939	121.5
508.155	104.5
508.372	102.5
508.588	87.5
508.805	88.5
509.021	99.5
509.238	88.5
509.454	94.5
509.67	99.5
509.887	115.5
510.103	160.5
510.319	263.5
510.536	1031.5
510.752	3712.5
510.968	960.5
511.184	185.5
511.401	132.5
511.617	111.5
511.833	120.5
512.049	91.5
512.265	116.5
512.481	116.5
512.698	100.5
512.914	98.5
513.13	92.5
513.346	88.5
513.562	89.5
513.778	120.5
513.994	104.5
514.21	108.5
514.426	152.5
514.642	196.5
514.858	165.5
515.074	230.5
515.29	785.5
515.506	2832.5
515.721	1011.5
515.937	226.5
516.153	136.5
516.369	99.5
516.585	103.5
516.801	85.5
517.016	83.5
517.232	96.5
517.448	98.5
517.664	103.5
517.879	93.5
518.095	91.5
518.311	97.5
518.527	106.5
518.742	101.5
518.958	93.5
519.173	96.5
519.389	93.5
519.605	100.5
519.82	103.5
520.036	111.5
520.251	151.5
520.467	129.5
520.682	117.5
520.898	127.5
521.113	152.5
521.329	195.5
521.544	316.5
521.76	1023.5
521.975	4796.5
522.19	2835.5
522.406	543.5
522.621	162.5
522.836	120.5
523.052	109.5
523.267	97.5
523.482	105.5
523.698	113.5
523.913	161.5
524.128	126.5
524.343	100.5
524.559	104.5
524.774	96.5
524.989	105.5
525.204	126.5
525.419	115.5
525.634	95.5
525.849	96.5
526.064	100.5
526.28	82.5
526.495	89.5
526.71	82.5
526.925	97.5
527.14	109.5
527.355	82.5
527.57	101.5
527.785	92.5
527.999	99.5
528.214	85.5
528.429	89.5
528.644	96.5
528.859	100.5
529.074	106.5
529.289	180.5
529.503	280.5
529.718	126.5
529.933	108.5
530.148	85.5
530.363	88.5
530.577	84.5
530.792	84.5
531.007	89.5
531.221	98.5
531.436	90.5
531.651	93.5
531.865	79.5
532.08	90.5
532.295	84.5
