Data from Circ_2000_H10_HRD10591_00051.txt Node
Date: Wed Jan 03 10:49:44 EST 2024
User: Yrep
Spectrometer: HR+D1059
Trigger mode: 1
Integration Time (sec): 1.000000E-1
Scans to average: 1
Electric dark correction enabled: true
Nonlinearity correction enabled: false
Boxcar width: 0
XAxis mode: Wavelengths
Number of Pixels in Spectrum: 2048
>>>>>Begin Spectral Data<<<<<
223.165	-18.75
223.4	-18.75
223.635	-18.75
223.869	-15.75
224.104	-34.75
224.338	-9.75
224.573	-21.75
224.808	-7.75
225.042	-5.75
225.277	-12.75
225.511	6.25
225.746	8.25
225.98	6.25
226.215	19.25
226.449	10.25
226.683	31.25
226.918	10.25
227.152	35.25
227.387	35.25
227.621	25.25
227.856	49.25
228.09	50.25
228.324	51.25
228.559	67.25
228.793	62.25
229.027	66.25
229.262	70.25
229.496	73.25
229.73	98.25
229.964	102.25
230.199	76.25
230.433	75.25
230.667	79.25
230.901	82.25
231.136	88.25
231.37	82.25
231.604	85.25
231.838	87.25
232.072	88.25
232.306	84.25
232.541	82.25
232.775	72.25
233.009	97.25
233.243	86.25
233.477	84.25
233.711	93.25
233.945	83.25
234.179	78.25
234.413	70.25
234.647	78.25
234.881	88.25
235.115	67.25
235.349	73.25
235.583	77.25
235.817	81.25
236.051	71.25
236.285	82.25
236.519	79.25
236.753	88.25
236.987	92.25
237.221	99.25
237.455	101.25
237.689	90.25
237.922	76.25
238.156	94.25
238.39	70.25
238.624	68.25
238.858	82.25
239.091	76.25
239.325	86.25
239.559	95.25
239.793	87.25
240.027	85.25
240.26	78.25
240.494	77.25
240.728	86.25
240.961	70.25
241.195	88.25
241.429	80.25
241.662	87.25
241.896	82.25
242.13	72.25
242.363	91.25
242.597	72.25
242.83	78.25
243.064	72.25
243.298	61.25
243.531	82.25
243.765	74.25
243.998	85.25
244.232	78.25
244.465	100.25
244.699	89.25
244.932	83.25
245.166	83.25
245.399	79.25
245.633	73.25
245.866	77.25
246.099	82.25
246.333	96.25
246.566	86.25
246.8	79.25
247.033	86.25
247.266	83.25
247.5	86.25
247.733	93.25
247.966	69.25
248.2	79.25
248.433	93.25
248.666	94.25
248.899	64.25
249.133	90.25
249.366	102.25
249.599	114.25
249.832	103.25
250.066	93.25
250.299	85.25
250.532	82.25
250.765	89.25
250.998	90.25
251.231	95.25
251.465	87.25
251.698	69.25
251.931	87.25
252.164	83.25
252.397	73.25
252.63	88.25
252.863	74.25
253.096	79.25
253.329	90.25
253.562	80.25
253.795	92.25
254.028	91.25
254.261	88.25
254.494	80.25
254.727	91.25
254.96	70.25
255.193	94.25
255.426	83.25
255.659	86.25
255.892	94.25
256.124	95.25
256.357	77.25
256.59	86.25
256.823	66.25
257.056	77.25
257.289	80.25
257.521	96.25
257.754	94.25
257.987	96.25
258.22	82.25
258.452	94.25
258.685	87.25
258.918	68.25
259.151	88.25
259.383	93.25
259.616	75.25
259.849	97.25
260.081	80.25
260.314	78.25
260.547	87.25
260.779	78.25
261.012	95.25
261.244	95.25
261.477	101.25
261.71	108.25
261.942	132.25
262.175	137.25
262.407	96.25
262.64	86.25
262.872	99.25
263.105	79.25
263.337	102.25
263.57	71.25
263.802	77.25
264.035	88.25
264.267	94.25
264.499	87.25
264.732	78.25
264.964	82.25
265.197	80.25
265.429	91.25
265.661	92.25
265.894	92.25
266.126	95.25
266.358	87.25
266.591	97.25
266.823	79.25
267.055	87.25
267.287	92.25
267.52	77.25
267.752	98.25
267.984	93.25
268.216	85.25
268.448	90.25
268.681	93.25
268.913	86.25
269.145	88.25
269.377	83.25
269.609	89.25
269.841	78.25
270.073	90.25
270.306	84.25
270.538	98.25
270.77	89.25
271.002	96.25
271.234	95.25
271.466	86.25
271.698	97.25
271.93	85.25
272.162	90.25
272.394	92.25
272.626	91.25
272.858	84.25
273.09	68.25
273.322	83.25
273.553	90.25
273.785	94.25
274.017	78.25
274.249	97.25
274.481	83.25
274.713	96.25
274.945	93.25
275.176	80.25
275.408	89.25
275.64	107.25
275.872	110.25
276.104	109.25
276.335	101.25
276.567	119.25
276.799	149.25
277.031	146.25
277.262	154.25
277.494	116.25
277.726	101.25
277.957	81.25
278.189	94.25
278.421	84.25
278.652	76.25
278.884	88.25
279.115	86.25
279.347	90.25
279.579	96.25
279.81	104.25
280.042	150.25
280.273	183.25
280.505	127.25
280.736	96.25
280.968	90.25
281.199	99.25
281.431	92.25
281.662	93.25
281.894	88.25
282.125	104.25
282.356	122.25
282.588	187.25
282.819	141.25
283.051	99.25
283.282	90.25
283.513	86.25
283.745	92.25
283.976	99.25
284.207	97.25
284.439	83.25
284.67	104.25
284.901	98.25
285.132	93.25
285.364	94.25
285.595	102.25
285.826	85.25
286.057	86.25
286.288	88.25
286.52	85.25
286.751	77.25
286.982	81.25
287.213	83.25
287.444	98.25
287.675	95.25
287.906	94.25
288.138	94.25
288.369	107.25
288.6	91.25
288.831	91.25
289.062	95.25
289.293	97.25
289.524	83.25
289.755	102.25
289.986	88.25
290.217	86.25
290.448	77.25
290.679	78.25
290.91	93.25
291.141	84.25
291.371	85.25
291.602	95.25
291.833	103.25
292.064	94.25
292.295	94.25
292.526	99.25
292.757	93.25
292.987	79.25
293.218	82.25
293.449	96.25
293.68	79.25
293.91	103.25
294.141	101.25
294.372	79.25
294.603	86.25
294.833	100.25
295.064	86.25
295.295	90.25
295.525	100.25
295.756	92.25
295.987	134.25
296.217	180.25
296.448	154.25
296.679	98.25
296.909	82.25
297.14	91.25
297.37	81.25
297.601	78.25
297.831	95.25
298.062	113.25
298.292	91.25
298.523	91.25
298.753	95.25
298.984	103.25
299.214	84.25
299.445	92.25
299.675	90.25
299.905	91.25
300.136	95.25
300.366	102.25
300.597	89.25
300.827	94.25
301.057	113.25
301.288	101.25
301.518	115.25
301.748	96.25
301.979	103.25
302.209	110.25
302.439	110.25
302.669	106.25
302.9	112.25
303.13	108.25
303.36	95.25
303.59	123.25
303.82	135.25
304.051	100.25
304.281	103.25
304.511	97.25
304.741	88.25
304.971	81.25
305.201	99.25
305.431	82.25
305.661	85.25
305.891	90.25
306.121	94.25
306.352	101.25
306.582	106.25
306.812	110.25
307.042	108.25
307.272	123.25
307.502	146.25
307.731	133.25
307.961	127.25
308.191	107.25
308.421	92.25
308.651	101.25
308.881	100.25
309.111	105.25
309.341	103.25
309.571	100.25
309.8	104.25
310.03	124.25
310.26	114.25
310.49	102.25
310.72	100.25
310.949	119.25
311.179	123.25
311.409	96.25
311.639	90.25
311.868	107.25
312.098	91.25
312.328	97.25
312.557	121.25
312.787	126.25
313.017	119.25
313.246	87.25
313.476	96.25
313.706	103.25
313.935	99.25
314.165	111.25
314.394	138.25
314.624	116.25
314.853	106.25
315.083	107.25
315.312	91.25
315.542	88.25
315.771	96.25
316.001	94.25
316.23	102.25
316.46	105.25
316.689	103.25
316.919	98.25
317.148	115.25
317.377	104.25
317.607	118.25
317.836	105.25
318.065	86.25
318.295	98.25
318.524	101.25
318.753	91.25
318.983	107.25
319.212	113.25
319.441	114.25
319.67	130.25
319.9	97.25
320.129	101.25
320.358	109.25
320.587	101.25
320.816	111.25
321.046	112.25
321.275	113.25
321.504	108.25
321.733	109.25
321.962	111.25
322.191	104.25
322.42	135.25
322.649	119.25
322.878	131.25
323.108	143.25
323.337	159.25
323.566	160.25
323.795	176.25
324.024	274.25
324.253	514.25
324.482	1141.25
324.71	2340.25
324.939	3019.25
325.168	1108.25
325.397	309.25
325.626	174.25
325.855	152.25
326.084	136.25
326.313	154.25
326.542	189.25
326.77	279.25
326.999	596.25
327.228	1217.25
327.457	2219.25
327.686	1765.25
327.914	544.25
328.143	405.25
328.372	477.25
328.6	276.25
328.829	173.25
329.058	181.25
329.287	201.25
329.515	153.25
329.744	202.25
329.972	342.25
330.201	664.25
330.43	907.25
330.658	458.25
330.887	250.25
331.115	190.25
331.344	113.25
331.572	130.25
331.801	127.25
332.03	130.25
332.258	106.25
332.486	104.25
332.715	110.25
332.943	109.25
333.172	113.25
333.4	121.25
333.629	146.25
333.857	196.25
334.085	310.25
334.314	628.25
334.542	1136.25
334.771	1065.25
334.999	309.25
335.227	155.25
335.455	125.25
335.684	109.25
335.912	105.25
336.14	100.25
336.369	111.25
336.597	106.25
336.825	116.25
337.053	106.25
337.281	116.25
337.51	102.25
337.738	92.25
337.966	96.25
338.194	107.25
338.422	104.25
338.65	110.25
338.878	108.25
339.106	101.25
339.334	101.25
339.562	76.25
339.79	99.25
340.018	94.25
340.246	99.25
340.474	108.25
340.702	101.25
340.93	90.25
341.158	112.25
341.386	110.25
341.614	110.25
341.842	93.25
342.07	97.25
342.298	90.25
342.526	88.25
342.754	92.25
342.981	103.25
343.209	86.25
343.437	94.25
343.665	95.25
343.893	104.25
344.12	85.25
344.348	84.25
344.576	93.25
344.804	87.25
345.031	108.25
345.259	103.25
345.487	111.25
345.714	116.25
345.942	102.25
346.17	99.25
346.397	104.25
346.625	82.25
346.853	101.25
347.08	88.25
347.308	110.25
347.535	119.25
347.763	111.25
347.99	118.25
348.218	117.25
348.445	108.25
348.673	108.25
348.9	109.25
349.128	102.25
349.355	93.25
349.583	86.25
349.81	109.25
350.037	100.25
350.265	91.25
350.492	109.25
350.72	100.25
350.947	110.25
351.174	125.25
351.402	139.25
351.629	118.25
351.856	104.25
352.083	116.25
352.311	113.25
352.538	117.25
352.765	113.25
352.992	121.25
353.22	129.25
353.447	109.25
353.674	108.25
353.901	90.25
354.128	92.25
354.355	87.25
354.583	97.25
354.81	87.25
355.037	96.25
355.264	90.25
355.491	91.25
355.718	95.25
355.945	95.25
356.172	102.25
356.399	92.25
356.626	95.25
356.853	92.25
357.08	88.25
357.307	95.25
357.534	89.25
357.761	89.25
357.988	88.25
358.215	91.25
358.441	88.25
358.668	100.25
358.895	94.25
359.122	99.25
359.349	94.25
359.576	94.25
359.802	101.25
360.029	144.25
360.256	132.25
360.483	126.25
360.709	108.25
360.936	95.25
361.163	113.25
361.39	107.25
361.616	109.25
361.843	106.25
362.07	120.25
362.296	108.25
362.523	114.25
362.749	102.25
362.976	103.25
363.203	99.25
363.429	84.25
363.656	97.25
363.882	102.25
364.109	90.25
364.335	99.25
364.562	105.25
364.788	102.25
365.015	94.25
365.241	111.25
365.468	115.25
365.694	122.25
365.92	107.25
366.147	88.25
366.373	90.25
366.599	101.25
366.826	86.25
367.052	97.25
367.278	90.25
367.505	101.25
367.731	103.25
367.957	90.25
368.184	95.25
368.41	107.25
368.636	137.25
368.862	130.25
369.089	130.25
369.315	112.25
369.541	94.25
369.767	97.25
369.993	114.25
370.219	98.25
370.445	93.25
370.672	83.25
370.898	90.25
371.124	89.25
371.35	88.25
371.576	91.25
371.802	93.25
372.028	100.25
372.254	106.25
372.48	84.25
372.706	93.25
372.932	88.25
373.158	91.25
373.384	83.25
373.61	104.25
373.835	80.25
374.061	111.25
374.287	107.25
374.513	97.25
374.739	96.25
374.965	92.25
375.191	76.25
375.416	88.25
375.642	101.25
375.868	95.25
376.094	100.25
376.319	87.25
376.545	85.25
376.771	92.25
376.997	93.25
377.222	108.25
377.448	96.25
377.674	94.25
377.899	92.25
378.125	98.25
378.35	93.25
378.576	97.25
378.802	104.25
379.027	90.25
379.253	87.25
379.478	112.25
379.704	92.25
379.929	93.25
380.155	110.25
380.38	107.25
380.606	95.25
380.831	111.25
381.057	100.25
381.282	109.25
381.507	98.25
381.733	105.25
381.958	103.25
382.184	105.25
382.409	96.25
382.634	89.25
382.86	108.25
383.085	96.25
383.31	82.25
383.535	96.25
383.761	92.25
383.986	100.25
384.211	86.25
384.436	104.25
384.662	100.25
384.887	116.25
385.112	103.25
385.337	98.25
385.562	112.25
385.787	116.25
386.013	121.25
386.238	114.25
386.463	122.25
386.688	126.25
386.913	114.25
387.138	106.25
387.363	94.25
387.588	99.25
387.813	117.25
388.038	108.25
388.263	116.25
388.488	117.25
388.713	100.25
388.938	102.25
389.163	106.25
389.387	106.25
389.612	111.25
389.837	103.25
390.062	98.25
390.287	69.25
390.512	95.25
390.736	106.25
390.961	98.25
391.186	101.25
391.411	96.25
391.636	102.25
391.86	91.25
392.085	82.25
392.31	85.25
392.534	74.25
392.759	92.25
392.984	85.25
393.208	96.25
393.433	103.25
393.658	74.25
393.882	103.25
394.107	77.25
394.331	85.25
394.556	97.25
394.78	107.25
395.005	119.25
395.229	91.25
395.454	94.25
395.678	88.25
395.903	89.25
396.127	99.25
396.352	86.25
396.576	94.25
396.801	96.25
397.025	92.25
397.249	86.25
397.474	93.25
397.698	92.25
397.922	92.25
398.147	104.25
398.371	101.25
398.595	76.25
398.82	106.25
399.044	79.25
399.268	93.25
399.492	104.25
399.717	88.25
399.941	86.25
400.165	93.25
400.389	109.25
400.613	92.25
400.837	93.25
401.062	92.25
401.286	82.25
401.51	117.25
401.734	91.25
401.958	106.25
402.182	154.25
402.406	221.25
402.63	136.25
402.854	99.25
403.078	94.25
403.302	92.25
403.526	95.25
403.75	103.25
403.974	85.25
404.198	74.25
404.422	101.25
404.645	96.25
404.869	97.25
405.093	103.25
405.317	131.25
405.541	134.25
405.765	116.25
405.988	124.25
406.212	256.25
406.436	340.25
406.66	224.25
406.883	115.25
407.107	101.25
407.331	126.25
407.555	111.25
407.778	115.25
408.002	109.25
408.226	89.25
408.449	97.25
408.673	95.25
408.896	104.25
409.12	110.25
409.344	84.25
409.567	91.25
409.791	80.25
410.014	87.25
410.238	95.25
410.461	99.25
410.685	100.25
410.908	108.25
411.132	120.25
411.355	97.25
411.578	92.25
411.802	100.25
412.025	104.25
412.249	101.25
412.472	104.25
412.695	136.25
412.919	103.25
413.142	94.25
413.365	98.25
413.589	95.25
413.812	82.25
414.035	88.25
414.258	103.25
414.482	89.25
414.705	73.25
414.928	108.25
415.151	96.25
415.374	95.25
415.597	98.25
415.821	95.25
416.044	95.25
416.267	89.25
416.49	102.25
416.713	90.25
416.936	107.25
417.159	95.25
417.382	87.25
417.605	113.25
417.828	126.25
418.051	102.25
418.274	97.25
418.497	100.25
418.72	92.25
418.943	91.25
419.166	92.25
419.389	89.25
419.611	93.25
419.834	85.25
420.057	103.25
420.28	92.25
420.503	88.25
420.726	94.25
420.948	106.25
421.171	115.25
421.394	106.25
421.617	88.25
421.839	94.25
422.062	87.25
422.285	96.25
422.507	108.25
422.73	125.25
422.953	100.25
423.175	100.25
423.398	93.25
423.621	102.25
423.843	85.25
424.066	91.25
424.288	96.25
424.511	89.25
424.733	107.25
424.956	118.25
425.178	112.25
425.401	119.25
425.623	116.25
425.846	96.25
426.068	102.25
426.291	100.25
426.513	94.25
426.735	83.25
426.958	103.25
427.18	123.25
427.402	185.25
427.625	265.25
427.847	215.25
428.069	185.25
428.292	114.25
428.514	96.25
428.736	96.25
428.958	96.25
429.181	83.25
429.403	88.25
429.625	96.25
429.847	94.25
430.069	112.25
430.292	112.25
430.514	83.25
430.736	102.25
430.958	93.25
431.18	83.25
431.402	93.25
431.624	88.25
431.846	99.25
432.068	91.25
432.29	99.25
432.512	96.25
432.734	89.25
432.956	92.25
433.178	106.25
433.4	108.25
433.622	109.25
433.844	88.25
434.066	88.25
434.287	92.25
434.509	94.25
434.731	93.25
434.953	92.25
435.175	82.25
435.397	76.25
435.618	92.25
435.84	124.25
436.062	147.25
436.284	121.25
436.505	111.25
436.727	110.25
436.949	108.25
437.17	80.25
437.392	97.25
437.614	106.25
437.835	132.25
438.057	161.25
438.278	142.25
438.5	130.25
438.721	132.25
438.943	123.25
439.165	97.25
439.386	96.25
439.608	121.25
439.829	103.25
440.05	159.25
440.272	191.25
440.493	118.25
440.715	82.25
440.936	106.25
441.158	94.25
441.379	98.25
441.6	101.25
441.822	90.25
442.043	106.25
442.264	119.25
442.486	114.25
442.707	108.25
442.928	113.25
443.149	174.25
443.371	168.25
443.592	131.25
443.813	143.25
444.034	122.25
444.255	104.25
444.476	112.25
444.698	88.25
444.919	97.25
445.14	139.25
445.361	126.25
445.582	144.25
445.803	176.25
446.024	161.25
446.245	165.25
446.466	130.25
446.687	86.25
446.908	96.25
447.129	94.25
447.35	106.25
447.571	95.25
447.792	102.25
448.013	124.25
448.234	128.25
448.455	116.25
448.675	135.25
448.896	123.25
449.117	119.25
449.338	110.25
449.559	159.25
449.779	148.25
450	104.25
450.221	97.25
450.442	101.25
450.662	108.25
450.883	131.25
451.104	139.25
451.324	111.25
451.545	98.25
451.766	104.25
451.986	109.25
452.207	102.25
452.428	102.25
452.648	111.25
452.869	125.25
453.089	160.25
453.31	170.25
453.53	102.25
453.751	104.25
453.971	116.25
454.192	144.25
454.412	108.25
454.633	91.25
454.853	96.25
455.073	94.25
455.294	94.25
455.514	114.25
455.734	101.25
455.955	93.25
456.175	98.25
456.395	90.25
456.616	88.25
456.836	89.25
457.056	91.25
457.276	84.25
457.497	86.25
457.717	103.25
457.937	98.25
458.157	88.25
458.377	109.25
458.598	132.25
458.818	229.25
459.038	242.25
459.258	152.25
459.478	95.25
459.698	100.25
459.918	95.25
460.138	87.25
460.358	94.25
460.578	100.25
460.798	103.25
461.018	90.25
461.238	98.25
461.458	97.25
461.678	79.25
461.898	99.25
462.118	83.25
462.338	86.25
462.558	88.25
462.777	95.25
462.997	105.25
463.217	96.25
463.437	91.25
463.657	94.25
463.876	92.25
464.096	108.25
464.316	107.25
464.536	108.25
464.755	93.25
464.975	134.25
465.195	250.25
465.414	265.25
465.634	110.25
465.854	107.25
466.073	89.25
466.293	93.25
466.512	88.25
466.732	84.25
466.951	95.25
467.171	114.25
467.391	102.25
467.61	132.25
467.829	169.25
468.049	371.25
468.268	505.25
468.488	185.25
468.707	99.25
468.927	85.25
469.146	87.25
469.365	90.25
469.585	94.25
469.804	105.25
470.023	119.25
470.243	116.25
470.462	121.25
470.681	143.25
470.901	101.25
471.12	94.25
471.339	103.25
471.558	108.25
471.777	143.25
471.997	221.25
472.216	710.25
472.435	1538.25
472.654	406.25
472.873	138.25
473.092	120.25
473.311	97.25
473.53	100.25
473.749	93.25
473.968	99.25
474.187	127.25
474.406	99.25
474.625	96.25
474.844	94.25
475.063	91.25
475.282	79.25
475.501	82.25
475.72	94.25
475.939	100.25
476.158	102.25
476.377	96.25
476.596	109.25
476.814	105.25
477.033	98.25
477.252	96.25
477.471	90.25
477.69	92.25
477.908	98.25
478.127	90.25
478.346	91.25
478.564	107.25
478.783	100.25
479.002	111.25
479.22	109.25
479.439	118.25
479.658	144.25
479.876	107.25
480.095	110.25
480.313	137.25
480.532	133.25
480.751	218.25
480.969	653.25
481.188	2710.25
481.406	1567.25
481.624	265.25
481.843	131.25
482.061	110.25
482.28	96.25
482.498	97.25
482.717	94.25
482.935	83.25
483.153	94.25
483.372	102.25
483.59	90.25
483.808	91.25
484.027	87.25
484.245	97.25
484.463	109.25
484.681	100.25
484.9	96.25
485.118	95.25
485.336	90.25
485.554	111.25
485.772	109.25
485.99	95.25
486.209	106.25
486.427	105.25
486.645	122.25
486.863	127.25
487.081	99.25
487.299	103.25
487.517	102.25
487.735	102.25
487.953	105.25
488.171	92.25
488.389	112.25
488.607	109.25
488.825	104.25
489.043	92.25
489.261	92.25
489.479	95.25
489.696	102.25
489.914	103.25
490.132	89.25
490.35	92.25
490.568	97.25
490.786	91.25
491.003	87.25
491.221	103.25
491.439	101.25
491.657	105.25
491.874	82.25
492.092	86.25
492.31	88.25
492.527	112.25
492.745	99.25
492.963	87.25
493.18	82.25
493.398	82.25
493.615	101.25
493.833	85.25
494.05	102.25
494.268	97.25
494.485	64.25
494.703	95.25
494.92	94.25
495.138	82.25
495.355	89.25
495.573	90.25
495.79	108.25
496.008	89.25
496.225	87.25
496.442	88.25
496.66	97.25
496.877	89.25
497.094	88.25
497.312	87.25
497.529	102.25
497.746	92.25
497.963	91.25
498.181	88.25
498.398	99.25
498.615	107.25
498.832	125.25
499.049	108.25
499.267	98.25
499.484	82.25
499.701	84.25
499.918	96.25
500.135	78.25
500.352	100.25
500.569	107.25
500.786	104.25
501.003	85.25
501.22	87.25
501.437	92.25
501.654	101.25
501.871	130.25
502.088	102.25
502.305	102.25
502.522	99.25
502.739	85.25
502.956	106.25
503.172	98.25
503.389	118.25
503.606	143.25
503.823	111.25
504.04	94.25
504.256	102.25
504.473	95.25
504.69	86.25
504.907	87.25
505.123	111.25
505.34	101.25
505.557	90.25
505.773	76.25
505.99	91.25
506.207	87.25
506.423	89.25
506.64	90.25
506.856	104.25
507.073	91.25
507.289	102.25
507.506	98.25
507.722	133.25
507.939	134.25
508.155	94.25
508.372	97.25
508.588	110.25
508.805	115.25
509.021	102.25
509.238	110.25
509.454	109.25
509.67	95.25
509.887	119.25
510.103	158.25
510.319	254.25
510.536	1021.25
510.752	3599.25
510.968	962.25
511.184	204.25
511.401	135.25
511.617	114.25
511.833	115.25
