Data from Circ_2000_H10_HRD10591_00002.txt Node
Date: Wed Jan 03 10:49:34 EST 2024
User: Yrep
Spectrometer: HR+D1059
Trigger mode: 1
Integration Time (sec): 1.000000E-1
Scans to average: 1
Electric dark correction enabled: true
Nonlinearity correction enabled: false
Boxcar width: 0
XAxis mode: Wavelengths
Number of Pixels in Spectrum: 2048
>>>>>Begin Spectral Data<<<<<
223.165	-15.38
223.4	-15.38
223.635	-15.38
223.869	-22.38
224.104	-32.38
224.338	-27.38
224.573	-17.38
224.808	-19.38
225.042	0.62
225.277	-10.38
225.511	-1.38
225.746	13.62
225.98	-0.38
226.215	9.62
226.449	20.62
226.683	26.62
226.918	41.62
227.152	33.62
227.387	36.62
227.621	33.62
227.856	29.62
228.09	43.62
228.324	39.62
228.559	51.62
228.793	66.62
229.027	62.62
229.262	78.62
229.496	57.62
229.73	74.62
229.964	81.62
230.199	82.62
230.433	81.62
230.667	79.62
230.901	81.62
231.136	69.62
231.37	81.62
231.604	67.62
231.838	85.62
232.072	87.62
232.306	71.62
232.541	89.62
232.775	72.62
233.009	80.62
233.243	92.62
233.477	91.62
233.711	77.62
233.945	88.62
234.179	73.62
234.413	76.62
234.647	86.62
234.881	94.62
235.115	74.62
235.349	70.62
235.583	89.62
235.817	75.62
236.051	78.62
236.285	79.62
236.519	72.62
236.753	86.62
236.987	79.62
237.221	86.62
237.455	82.62
237.689	71.62
237.922	84.62
238.156	76.62
238.39	78.62
238.624	63.62
238.858	68.62
239.091	76.62
239.325	75.62
239.559	79.62
239.793	74.62
240.027	74.62
240.26	79.62
240.494	84.62
240.728	79.62
240.961	78.62
241.195	86.62
241.429	89.62
241.662	87.62
241.896	70.62
242.13	68.62
242.363	73.62
242.597	54.62
242.83	65.62
243.064	82.62
243.298	68.62
243.531	55.62
243.765	81.62
243.998	86.62
244.232	77.62
244.465	75.62
244.699	80.62
244.932	80.62
245.166	80.62
245.399	72.62
245.633	73.62
245.866	75.62
246.099	70.62
246.333	82.62
246.566	75.62
246.8	73.62
247.033	75.62
247.266	89.62
247.5	91.62
247.733	79.62
247.966	74.62
248.2	82.62
248.433	85.62
248.666	85.62
248.899	64.62
249.133	93.62
249.366	101.62
249.599	89.62
249.832	89.62
250.066	76.62
250.299	77.62
250.532	83.62
250.765	77.62
250.998	84.62
251.231	88.62
251.465	77.62
251.698	99.62
251.931	86.62
252.164	77.62
252.397	74.62
252.63	76.62
252.863	89.62
253.096	81.62
253.329	72.62
253.562	82.62
253.795	74.62
254.028	93.62
254.261	80.62
254.494	98.62
254.727	94.62
254.96	84.62
255.193	77.62
255.426	67.62
255.659	93.62
255.892	88.62
256.124	86.62
256.357	88.62
256.59	68.62
256.823	80.62
257.056	82.62
257.289	93.62
257.521	71.62
257.754	79.62
257.987	90.62
258.22	73.62
258.452	79.62
258.685	81.62
258.918	75.62
259.151	86.62
259.383	81.62
259.616	82.62
259.849	84.62
260.081	80.62
260.314	69.62
260.547	89.62
260.779	88.62
261.012	89.62
261.244	74.62
261.477	82.62
261.71	92.62
261.942	107.62
262.175	119.62
262.407	88.62
262.64	68.62
262.872	83.62
263.105	79.62
263.337	83.62
263.57	92.62
263.802	78.62
264.035	77.62
264.267	72.62
264.499	73.62
264.732	68.62
264.964	80.62
265.197	82.62
265.429	87.62
265.661	91.62
265.894	67.62
266.126	79.62
266.358	67.62
266.591	77.62
266.823	76.62
267.055	85.62
267.287	73.62
267.52	82.62
267.752	71.62
267.984	86.62
268.216	79.62
268.448	89.62
268.681	86.62
268.913	76.62
269.145	79.62
269.377	84.62
269.609	67.62
269.841	82.62
270.073	76.62
270.306	78.62
270.538	85.62
270.77	67.62
271.002	84.62
271.234	76.62
271.466	78.62
271.698	88.62
271.93	86.62
272.162	94.62
272.394	85.62
272.626	71.62
272.858	83.62
273.09	87.62
273.322	76.62
273.553	83.62
273.785	94.62
274.017	89.62
274.249	79.62
274.481	88.62
274.713	86.62
274.945	81.62
275.176	71.62
275.408	97.62
275.64	93.62
275.872	91.62
276.104	93.62
276.335	98.62
276.567	96.62
276.799	118.62
277.031	117.62
277.262	112.62
277.494	106.62
277.726	93.62
277.957	82.62
278.189	86.62
278.421	68.62
278.652	88.62
278.884	79.62
279.115	85.62
279.347	88.62
279.579	89.62
279.81	102.62
280.042	106.62
280.273	127.62
280.505	104.62
280.736	90.62
280.968	83.62
281.199	78.62
281.431	77.62
281.662	73.62
281.894	95.62
282.125	90.62
282.356	115.62
282.588	155.62
282.819	124.62
283.051	74.62
283.282	82.62
283.513	88.62
283.745	88.62
283.976	89.62
284.207	98.62
284.439	95.62
284.67	88.62
284.901	79.62
285.132	79.62
285.364	75.62
285.595	74.62
285.826	80.62
286.057	81.62
286.288	83.62
286.52	75.62
286.751	84.62
286.982	88.62
287.213	76.62
287.444	84.62
287.675	93.62
287.906	84.62
288.138	92.62
288.369	87.62
288.6	98.62
288.831	92.62
289.062	87.62
289.293	86.62
289.524	81.62
289.755	87.62
289.986	81.62
290.217	70.62
290.448	77.62
290.679	76.62
290.91	92.62
291.141	84.62
291.371	81.62
291.602	81.62
291.833	95.62
292.064	84.62
292.295	83.62
292.526	87.62
292.757	96.62
292.987	80.62
293.218	92.62
293.449	86.62
293.68	74.62
293.91	95.62
294.141	94.62
294.372	86.62
294.603	77.62
294.833	90.62
295.064	91.62
295.295	90.62
295.525	92.62
295.756	82.62
295.987	93.62
296.217	134.62
296.448	123.62
296.679	92.62
296.909	98.62
297.14	84.62
297.37	89.62
297.601	77.62
297.831	97.62
298.062	79.62
298.292	96.62
298.523	96.62
298.753	98.62
298.984	94.62
299.214	83.62
299.445	82.62
299.675	103.62
299.905	91.62
300.136	84.62
300.366	93.62
300.597	85.62
300.827	97.62
301.057	84.62
301.288	105.62
301.518	89.62
301.748	100.62
301.979	111.62
302.209	82.62
302.439	101.62
302.669	97.62
302.9	85.62
303.13	105.62
303.36	87.62
303.59	100.62
303.82	105.62
304.051	103.62
304.281	85.62
304.511	91.62
304.741	73.62
304.971	83.62
305.201	103.62
305.431	89.62
305.661	96.62
305.891	92.62
306.121	98.62
306.352	90.62
306.582	104.62
306.812	95.62
307.042	104.62
307.272	97.62
307.502	94.62
307.731	118.62
307.961	92.62
308.191	92.62
308.421	87.62
308.651	85.62
308.881	69.62
309.111	100.62
309.341	88.62
309.571	87.62
309.8	99.62
310.03	98.62
310.26	90.62
310.49	105.62
310.72	97.62
310.949	106.62
311.179	106.62
311.409	87.62
311.639	76.62
311.868	91.62
312.098	106.62
312.328	97.62
312.557	107.62
312.787	117.62
313.017	111.62
313.246	93.62
313.476	93.62
313.706	76.62
313.935	106.62
314.165	88.62
314.394	85.62
314.624	108.62
314.853	94.62
315.083	92.62
315.312	80.62
315.542	89.62
315.771	92.62
316.001	73.62
316.23	95.62
316.46	84.62
316.689	83.62
316.919	98.62
317.148	87.62
317.377	99.62
317.607	94.62
317.836	91.62
318.065	80.62
318.295	93.62
318.524	86.62
318.753	85.62
318.983	91.62
319.212	84.62
319.441	101.62
319.67	97.62
319.9	100.62
320.129	90.62
320.358	88.62
320.587	108.62
320.816	93.62
321.046	98.62
321.275	96.62
321.504	97.62
321.733	105.62
321.962	95.62
322.191	99.62
322.42	111.62
322.649	95.62
322.878	94.62
323.108	121.62
323.337	119.62
323.566	138.62
323.795	144.62
324.024	233.62
324.253	406.62
324.482	875.62
324.71	1785.62
324.939	2368.62
325.168	878.62
325.397	269.62
325.626	162.62
325.855	127.62
326.084	130.62
326.313	133.62
326.542	140.62
326.77	247.62
326.999	491.62
327.228	1002.62
327.457	1805.62
327.686	1433.62
327.914	428.62
328.143	291.62
328.372	290.62
328.6	188.62
328.829	141.62
329.058	146.62
329.287	143.62
329.515	135.62
329.744	147.62
329.972	225.62
330.201	373.62
330.43	484.62
330.658	285.62
330.887	196.62
331.115	131.62
331.344	109.62
331.572	117.62
331.801	107.62
332.03	113.62
332.258	107.62
332.486	94.62
332.715	82.62
332.943	92.62
333.172	89.62
333.4	120.62
333.629	119.62
333.857	124.62
334.085	206.62
334.314	352.62
334.542	645.62
334.771	571.62
334.999	198.62
335.227	117.62
335.455	114.62
335.684	114.62
335.912	104.62
336.14	92.62
336.369	82.62
336.597	97.62
336.825	99.62
337.053	97.62
337.281	102.62
337.51	98.62
337.738	93.62
337.966	96.62
338.194	111.62
338.422	101.62
338.65	100.62
338.878	90.62
339.106	89.62
339.334	97.62
339.562	91.62
339.79	95.62
340.018	90.62
340.246	91.62
340.474	88.62
340.702	91.62
340.93	88.62
341.158	90.62
341.386	91.62
341.614	104.62
341.842	89.62
342.07	105.62
342.298	82.62
342.526	91.62
342.754	98.62
342.981	73.62
343.209	101.62
343.437	88.62
343.665	75.62
343.893	89.62
344.12	89.62
344.348	98.62
344.576	95.62
344.804	88.62
345.031	91.62
345.259	91.62
345.487	97.62
345.714	108.62
345.942	101.62
346.17	99.62
346.397	96.62
346.625	83.62
346.853	85.62
347.08	93.62
347.308	93.62
347.535	101.62
347.763	105.62
347.99	85.62
348.218	101.62
348.445	117.62
348.673	96.62
348.9	105.62
349.128	90.62
349.355	92.62
349.583	103.62
349.81	93.62
350.037	93.62
350.265	101.62
350.492	99.62
350.72	85.62
350.947	97.62
351.174	102.62
351.402	115.62
351.629	103.62
351.856	97.62
352.083	99.62
352.311	113.62
352.538	116.62
352.765	111.62
352.992	109.62
353.22	115.62
353.447	106.62
353.674	111.62
353.901	90.62
354.128	87.62
354.355	93.62
354.583	94.62
354.81	94.62
355.037	93.62
355.264	96.62
355.491	87.62
355.718	93.62
355.945	104.62
356.172	87.62
356.399	101.62
356.626	97.62
356.853	98.62
357.08	93.62
357.307	89.62
357.534	94.62
357.761	87.62
357.988	93.62
358.215	94.62
358.441	110.62
358.668	104.62
358.895	107.62
359.122	92.62
359.349	104.62
359.576	104.62
359.802	104.62
360.029	124.62
360.256	113.62
360.483	101.62
360.709	92.62
360.936	90.62
361.163	108.62
361.39	93.62
361.616	91.62
361.843	96.62
362.07	95.62
362.296	105.62
362.523	99.62
362.749	83.62
362.976	103.62
363.203	96.62
363.429	87.62
363.656	83.62
363.882	96.62
364.109	85.62
364.335	91.62
364.562	91.62
364.788	100.62
365.015	83.62
365.241	99.62
365.468	104.62
365.694	91.62
365.92	97.62
366.147	90.62
366.373	91.62
366.599	91.62
366.826	83.62
367.052	90.62
367.278	83.62
367.505	95.62
367.731	98.62
367.957	92.62
368.184	83.62
368.41	104.62
368.636	110.62
368.862	123.62
369.089	108.62
369.315	97.62
369.541	91.62
369.767	90.62
369.993	80.62
370.219	80.62
370.445	91.62
370.672	84.62
370.898	81.62
371.124	80.62
371.35	95.62
371.576	89.62
371.802	79.62
372.028	90.62
372.254	81.62
372.48	75.62
372.706	91.62
372.932	79.62
373.158	84.62
373.384	87.62
373.61	89.62
373.835	86.62
374.061	90.62
374.287	76.62
374.513	71.62
374.739	95.62
374.965	101.62
375.191	93.62
375.416	98.62
375.642	84.62
375.868	108.62
376.094	92.62
376.319	75.62
376.545	90.62
376.771	92.62
376.997	91.62
377.222	81.62
377.448	86.62
377.674	98.62
377.899	95.62
378.125	80.62
378.35	97.62
378.576	93.62
378.802	93.62
379.027	99.62
379.253	88.62
379.478	127.62
379.704	93.62
379.929	103.62
380.155	99.62
380.38	104.62
380.606	105.62
380.831	112.62
381.057	112.62
381.282	100.62
381.507	102.62
381.733	109.62
381.958	103.62
382.184	104.62
382.409	127.62
382.634	115.62
382.86	117.62
383.085	121.62
383.31	119.62
383.535	99.62
383.761	108.62
383.986	116.62
384.211	111.62
384.436	109.62
384.662	128.62
384.887	130.62
385.112	134.62
385.337	114.62
385.562	132.62
385.787	139.62
386.013	157.62
386.238	137.62
386.463	118.62
386.688	133.62
386.913	154.62
387.138	147.62
387.363	123.62
387.588	129.62
387.813	125.62
388.038	119.62
388.263	139.62
388.488	148.62
388.713	113.62
388.938	93.62
389.163	97.62
389.387	84.62
389.612	98.62
389.837	93.62
390.062	87.62
390.287	93.62
390.512	88.62
390.736	79.62
390.961	92.62
391.186	91.62
391.411	91.62
391.636	108.62
391.86	84.62
392.085	86.62
392.31	83.62
392.534	88.62
392.759	83.62
392.984	77.62
393.208	89.62
393.433	109.62
393.658	108.62
393.882	106.62
394.107	85.62
394.331	88.62
394.556	86.62
394.78	99.62
395.005	87.62
395.229	84.62
395.454	75.62
395.678	78.62
395.903	90.62
396.127	89.62
396.352	90.62
396.576	92.62
396.801	101.62
397.025	86.62
397.249	77.62
397.474	93.62
397.698	78.62
397.922	97.62
398.147	90.62
398.371	91.62
398.595	81.62
398.82	80.62
399.044	79.62
399.268	94.62
399.492	86.62
399.717	83.62
399.941	97.62
400.165	87.62
400.389	90.62
400.613	94.62
400.837	81.62
401.062	93.62
401.286	96.62
401.51	82.62
401.734	92.62
401.958	102.62
402.182	134.62
402.406	168.62
402.63	131.62
402.854	97.62
403.078	76.62
403.302	84.62
403.526	93.62
403.75	88.62
403.974	77.62
404.198	92.62
404.422	94.62
404.645	87.62
404.869	96.62
405.093	90.62
405.317	117.62
405.541	127.62
405.765	100.62
405.988	127.62
406.212	168.62
406.436	244.62
406.66	171.62
406.883	99.62
407.107	88.62
407.331	91.62
407.555	98.62
407.778	105.62
408.002	89.62
408.226	80.62
408.449	84.62
408.673	83.62
408.896	100.62
409.12	99.62
409.344	90.62
409.567	76.62
409.791	101.62
410.014	84.62
410.238	87.62
410.461	92.62
410.685	111.62
410.908	112.62
411.132	112.62
411.355	95.62
411.578	88.62
411.802	89.62
412.025	90.62
412.249	102.62
412.472	103.62
412.695	119.62
412.919	102.62
413.142	89.62
413.365	74.62
413.589	97.62
413.812	92.62
414.035	107.62
414.258	87.62
414.482	101.62
414.705	95.62
414.928	85.62
415.151	95.62
415.374	84.62
415.597	75.62
415.821	93.62
416.044	90.62
416.267	88.62
416.49	105.62
416.713	94.62
416.936	99.62
417.159	97.62
417.382	102.62
417.605	105.62
417.828	104.62
418.051	103.62
418.274	111.62
418.497	92.62
418.72	93.62
418.943	80.62
419.166	94.62
419.389	106.62
419.611	94.62
419.834	97.62
420.057	92.62
420.28	97.62
420.503	96.62
420.726	97.62
420.948	89.62
421.171	104.62
421.394	102.62
421.617	92.62
421.839	94.62
422.062	94.62
422.285	91.62
422.507	106.62
422.73	112.62
422.953	110.62
423.175	92.62
423.398	86.62
423.621	91.62
423.843	89.62
424.066	83.62
424.288	91.62
424.511	90.62
424.733	91.62
424.956	109.62
425.178	98.62
425.401	91.62
425.623	103.62
425.846	91.62
426.068	86.62
426.291	93.62
426.513	82.62
426.735	93.62
426.958	95.62
427.18	99.62
427.402	153.62
427.625	202.62
427.847	164.62
428.069	187.62
428.292	108.62
428.514	73.62
428.736	85.62
428.958	86.62
429.181	81.62
429.403	91.62
429.625	89.62
429.847	92.62
430.069	93.62
430.292	90.62
430.514	84.62
430.736	81.62
430.958	83.62
431.18	93.62
431.402	87.62
431.624	92.62
431.846	98.62
432.068	93.62
432.29	81.62
432.512	84.62
432.734	86.62
432.956	99.62
433.178	101.62
433.4	92.62
433.622	91.62
433.844	95.62
434.066	94.62
434.287	101.62
434.509	99.62
434.731	92.62
434.953	79.62
435.175	82.62
435.397	99.62
435.618	91.62
435.84	107.62
436.062	130.62
436.284	130.62
436.505	107.62
436.727	107.62
436.949	100.62
437.17	89.62
437.392	93.62
437.614	101.62
437.835	116.62
438.057	121.62
438.278	123.62
438.5	115.62
438.721	108.62
438.943	90.62
439.165	83.62
439.386	86.62
439.608	94.62
439.829	103.62
440.05	136.62
440.272	164.62
440.493	93.62
440.715	88.62
440.936	76.62
441.158	78.62
441.379	93.62
441.6	91.62
441.822	106.62
442.043	101.62
442.264	112.62
442.486	88.62
442.707	105.62
442.928	91.62
443.149	149.62
443.371	152.62
443.592	103.62
443.813	107.62
444.034	111.62
444.255	88.62
444.476	76.62
444.698	97.62
444.919	84.62
445.14	134.62
445.361	147.62
445.582	123.62
445.803	168.62
446.024	163.62
446.245	159.62
446.466	114.62
446.687	91.62
446.908	98.62
447.129	85.62
447.35	93.62
447.571	97.62
447.792	82.62
448.013	105.62
448.234	112.62
448.455	113.62
448.675	120.62
448.896	129.62
449.117	98.62
449.338	114.62
449.559	128.62
449.779	137.62
450	103.62
450.221	86.62
450.442	82.62
450.662	93.62
450.883	105.62
451.104	100.62
451.324	88.62
451.545	86.62
451.766	91.62
451.986	90.62
452.207	82.62
452.428	98.62
452.648	92.62
452.869	103.62
453.089	112.62
453.31	120.62
453.53	85.62
453.751	94.62
453.971	106.62
454.192	101.62
454.412	97.62
454.633	94.62
454.853	75.62
455.073	86.62
455.294	98.62
455.514	97.62
455.734	102.62
455.955	93.62
456.175	67.62
456.395	85.62
456.616	97.62
456.836	96.62
457.056	79.62
457.276	73.62
457.497	89.62
457.717	83.62
457.937	80.62
458.157	80.62
458.377	97.62
458.598	111.62
458.818	171.62
459.038	180.62
459.258	122.62
459.478	100.62
459.698	96.62
459.918	75.62
460.138	69.62
460.358	90.62
460.578	99.62
460.798	104.62
461.018	99.62
461.238	89.62
461.458	91.62
461.678	83.62
461.898	79.62
462.118	92.62
462.338	86.62
462.558	78.62
462.777	67.62
462.997	88.62
463.217	89.62
463.437	90.62
463.657	85.62
463.876	83.62
464.096	94.62
464.316	87.62
464.536	100.62
464.755	83.62
464.975	120.62
465.195	182.62
465.414	157.62
465.634	83.62
465.854	77.62
466.073	79.62
466.293	93.62
466.512	90.62
466.732	82.62
466.951	89.62
467.171	95.62
467.391	84.62
467.61	122.62
467.829	119.62
468.049	209.62
468.268	261.62
468.488	125.62
468.707	91.62
468.927	85.62
469.146	85.62
469.365	92.62
469.585	84.62
469.804	102.62
470.023	88.62
470.243	88.62
470.462	104.62
470.681	105.62
470.901	87.62
471.12	85.62
471.339	75.62
471.558	93.62
471.777	94.62
471.997	135.62
472.216	364.62
472.435	732.62
472.654	229.62
472.873	110.62
473.092	87.62
473.311	116.62
473.53	96.62
473.749	90.62
473.968	95.62
474.187	97.62
474.406	111.62
474.625	81.62
474.844	89.62
475.063	73.62
475.282	83.62
475.501	76.62
475.72	89.62
475.939	79.62
476.158	90.62
476.377	81.62
476.596	86.62
476.814	80.62
477.033	93.62
477.252	92.62
477.471	89.62
477.69	90.62
477.908	88.62
478.127	87.62
478.346	84.62
478.564	95.62
478.783	88.62
479.002	89.62
479.22	85.62
479.439	105.62
479.658	107.62
479.876	111.62
480.095	109.62
480.313	99.62
480.532	113.62
480.751	142.62
480.969	358.62
481.188	1237.62
481.406	779.62
481.624	169.62
481.843	108.62
482.061	93.62
482.28	105.62
482.498	97.62
482.717	80.62
482.935	84.62
483.153	89.62
483.372	71.62
483.59	99.62
483.808	85.62
484.027	92.62
484.245	81.62
484.463	96.62
484.681	94.62
484.9	97.62
485.118	100.62
485.336	83.62
485.554	91.62
485.772	96.62
485.99	104.62
486.209	108.62
486.427	108.62
486.645	108.62
486.863	113.62
487.081	91.62
487.299	100.62
487.517	108.62
487.735	102.62
487.953	95.62
488.171	94.62
488.389	94.62
488.607	95.62
488.825	99.62
489.043	88.62
489.261	100.62
489.479	89.62
489.696	87.62
489.914	87.62
490.132	85.62
490.35	89.62
490.568	93.62
490.786	91.62
491.003	80.62
491.221	93.62
491.439	98.62
491.657	106.62
491.874	98.62
492.092	77.62
492.31	79.62
492.527	101.62
492.745	103.62
492.963	105.62
493.18	99.62
493.398	91.62
493.615	91.62
493.833	97.62
494.05	87.62
494.268	92.62
494.485	87.62
494.703	85.62
494.92	104.62
495.138	84.62
495.355	88.62
495.573	100.62
495.79	103.62
496.008	75.62
496.225	90.62
496.442	95.62
496.66	91.62
496.877	93.62
497.094	91.62
497.312	90.62
497.529	83.62
497.746	96.62
497.963	88.62
498.181	98.62
498.398	95.62
498.615	105.62
498.832	100.62
499.049	110.62
499.267	95.62
499.484	99.62
499.701	95.62
499.918	91.62
500.135	96.62
500.352	97.62
500.569	98.62
500.786	106.62
501.003	89.62
501.22	86.62
501.437	86.62
501.654	81.62
501.871	95.62
502.088	101.62
502.305	97.62
502.522	89.62
502.739	91.62
502.956	108.62
503.172	89.62
503.389	99.62
503.606	102.62
503.823	106.62
504.04	103.62
504.256	87.62
504.473	89.62
504.69	88.62
504.907	82.62
505.123	88.62
505.34	73.62
505.557	85.62
505.773	101.62
505.99	89.62
506.207	94.62
506.423	87.62
506.64	81.62
506.856	94.62
507.073	88.62
507.289	84.62
507.506	99.62
507.722	114.62
507.939	103.62
508.155	72.62
508.372	89.62
508.588	88.62
508.805	93.62
509.021	92.62
509.238	99.62
509.454	93.62
509.67	95.62
509.887	104.62
510.103	125.62
510.319	207.62
510.536	736.62
510.752	2406.62
510.968	675.62
511.184	157.62
511.401	118.62
511.617	91.62
511.833	93.62
512.049	88.62
512.265	85.62
512.481	88.62
512.698	89.62
512.914	112.62
513.13	95.62
513.346	97.62
513.562	105.62
513.778	93.62
513.994	93.62
514.21	109.62
514.426	122.62
514.642	141.62
514.858	131.62
