Data from Circ_2000_H10_HRD10591_00070.txt Node
Date: Wed Jan 03 10:49:47 EST 2024
User: Yrep
Spectrometer: HR+D1059
Trigger mode: 1
Integration Time (sec): 1.000000E-1
Scans to average: 1
Electric dark correction enabled: true
Nonlinearity correction enabled: false
Boxcar width: 0
XAxis mode: Wavelengths
Number of Pixels in Spectrum: 2048
>>>>>Begin Spectral Data<<<<<
223.165	-12.81
223.4	-12.81
223.635	-12.81
223.869	-4.81
224.104	-26.81
224.338	-24.81
224.573	-2.81
224.808	-23.81
225.042	-4.81
225.277	1.19
225.511	-5.81
225.746	-8.81
225.98	7.19
226.215	24.19
226.449	25.19
226.683	27.19
226.918	19.19
227.152	11.19
227.387	42.19
227.621	39.19
227.856	38.19
228.09	50.19
228.324	46.19
228.559	52.19
228.793	61.19
229.027	61.19
229.262	62.19
229.496	85.19
229.73	100.19
229.964	96.19
230.199	84.19
230.433	75.19
230.667	78.19
230.901	80.19
231.136	70.19
231.37	70.19
231.604	86.19
231.838	81.19
232.072	67.19
232.306	77.19
232.541	84.19
232.775	70.19
233.009	84.19
233.243	93.19
233.477	68.19
233.711	87.19
233.945	87.19
234.179	89.19
234.413	84.19
234.647	85.19
234.881	67.19
235.115	91.19
235.349	94.19
235.583	89.19
235.817	82.19
236.051	78.19
236.285	83.19
236.519	77.19
236.753	71.19
236.987	88.19
237.221	86.19
237.455	101.19
237.689	83.19
237.922	63.19
238.156	80.19
238.39	67.19
238.624	62.19
238.858	72.19
239.091	83.19
239.325	90.19
239.559	81.19
239.793	90.19
240.027	78.19
240.26	72.19
240.494	84.19
240.728	81.19
240.961	77.19
241.195	82.19
241.429	67.19
241.662	73.19
241.896	83.19
242.13	81.19
242.363	85.19
242.597	81.19
242.83	83.19
243.064	69.19
243.298	81.19
243.531	66.19
243.765	73.19
243.998	88.19
244.232	71.19
244.465	90.19
244.699	93.19
244.932	74.19
245.166	81.19
245.399	74.19
245.633	85.19
245.866	81.19
246.099	78.19
246.333	81.19
246.566	84.19
246.8	70.19
247.033	79.19
247.266	78.19
247.5	73.19
247.733	85.19
247.966	82.19
248.2	88.19
248.433	74.19
248.666	78.19
248.899	81.19
249.133	76.19
249.366	97.19
249.599	105.19
249.832	94.19
250.066	90.19
250.299	70.19
250.532	86.19
250.765	87.19
250.998	87.19
251.231	82.19
251.465	95.19
251.698	83.19
251.931	82.19
252.164	81.19
252.397	80.19
252.63	84.19
252.863	66.19
253.096	81.19
253.329	78.19
253.562	77.19
253.795	77.19
254.028	85.19
254.261	98.19
254.494	74.19
254.727	75.19
254.96	88.19
255.193	91.19
255.426	93.19
255.659	86.19
255.892	90.19
256.124	95.19
256.357	97.19
256.59	92.19
256.823	75.19
257.056	91.19
257.289	77.19
257.521	78.19
257.754	76.19
257.987	76.19
258.22	86.19
258.452	80.19
258.685	96.19
258.918	77.19
259.151	74.19
259.383	76.19
259.616	71.19
259.849	83.19
260.081	76.19
260.314	88.19
260.547	69.19
260.779	75.19
261.012	90.19
261.244	100.19
261.477	103.19
261.71	109.19
261.942	109.19
262.175	123.19
262.407	89.19
262.64	90.19
262.872	77.19
263.105	89.19
263.337	76.19
263.57	82.19
263.802	88.19
264.035	89.19
264.267	78.19
264.499	81.19
264.732	81.19
264.964	77.19
265.197	92.19
265.429	86.19
265.661	92.19
265.894	83.19
266.126	76.19
266.358	86.19
266.591	85.19
266.823	80.19
267.055	90.19
267.287	67.19
267.52	67.19
267.752	81.19
267.984	77.19
268.216	82.19
268.448	90.19
268.681	91.19
268.913	90.19
269.145	79.19
269.377	84.19
269.609	97.19
269.841	73.19
270.073	77.19
270.306	90.19
270.538	87.19
270.77	84.19
271.002	93.19
271.234	83.19
271.466	90.19
271.698	90.19
271.93	100.19
272.162	81.19
272.394	93.19
272.626	94.19
272.858	81.19
273.09	85.19
273.322	98.19
273.553	87.19
273.785	95.19
274.017	79.19
274.249	70.19
274.481	78.19
274.713	91.19
274.945	97.19
275.176	82.19
275.408	98.19
275.64	100.19
275.872	102.19
276.104	101.19
276.335	97.19
276.567	103.19
276.799	130.19
277.031	149.19
277.262	130.19
277.494	123.19
277.726	101.19
277.957	77.19
278.189	95.19
278.421	94.19
278.652	76.19
278.884	95.19
279.115	83.19
279.347	79.19
279.579	102.19
279.81	91.19
280.042	140.19
280.273	185.19
280.505	141.19
280.736	96.19
280.968	91.19
281.199	91.19
281.431	95.19
281.662	73.19
281.894	91.19
282.125	89.19
282.356	123.19
282.588	150.19
282.819	132.19
283.051	87.19
283.282	81.19
283.513	88.19
283.745	77.19
283.976	83.19
284.207	86.19
284.439	78.19
284.67	92.19
284.901	89.19
285.132	90.19
285.364	84.19
285.595	85.19
285.826	90.19
286.057	92.19
286.288	98.19
286.52	82.19
286.751	79.19
286.982	101.19
287.213	86.19
287.444	79.19
287.675	82.19
287.906	87.19
288.138	95.19
288.369	111.19
288.6	99.19
288.831	80.19
289.062	87.19
289.293	91.19
289.524	83.19
289.755	89.19
289.986	78.19
290.217	92.19
290.448	89.19
290.679	94.19
290.91	90.19
291.141	97.19
291.371	93.19
291.602	69.19
291.833	85.19
292.064	73.19
292.295	93.19
292.526	96.19
292.757	83.19
292.987	75.19
293.218	87.19
293.449	82.19
293.68	79.19
293.91	75.19
294.141	74.19
294.372	83.19
294.603	93.19
294.833	76.19
295.064	96.19
295.295	95.19
295.525	94.19
295.756	110.19
295.987	125.19
296.217	141.19
296.448	115.19
296.679	103.19
296.909	103.19
297.14	102.19
297.37	91.19
297.601	105.19
297.831	102.19
298.062	100.19
298.292	79.19
298.523	92.19
298.753	73.19
298.984	94.19
299.214	86.19
299.445	94.19
299.675	91.19
299.905	98.19
300.136	83.19
300.366	104.19
300.597	83.19
300.827	98.19
301.057	99.19
301.288	104.19
301.518	82.19
301.748	89.19
301.979	100.19
302.209	106.19
302.439	86.19
302.669	101.19
302.9	89.19
303.13	93.19
303.36	94.19
303.59	113.19
303.82	136.19
304.051	90.19
304.281	83.19
304.511	106.19
304.741	80.19
304.971	92.19
305.201	100.19
305.431	90.19
305.661	94.19
305.891	94.19
306.121	84.19
306.352	105.19
306.582	123.19
306.812	100.19
307.042	110.19
307.272	121.19
307.502	141.19
307.731	125.19
307.961	107.19
308.191	99.19
308.421	102.19
308.651	93.19
308.881	97.19
309.111	97.19
309.341	95.19
309.571	99.19
309.8	87.19
310.03	95.19
310.26	106.19
310.49	90.19
310.72	102.19
310.949	87.19
311.179	110.19
311.409	91.19
311.639	90.19
311.868	90.19
312.098	98.19
312.328	93.19
312.557	101.19
312.787	113.19
313.017	110.19
313.246	108.19
313.476	80.19
313.706	85.19
313.935	99.19
314.165	101.19
314.394	100.19
314.624	102.19
314.853	105.19
315.083	86.19
315.312	85.19
315.542	78.19
315.771	90.19
316.001	86.19
316.23	92.19
316.46	102.19
316.689	99.19
316.919	91.19
317.148	102.19
317.377	117.19
317.607	93.19
317.836	89.19
318.065	99.19
318.295	94.19
318.524	82.19
318.753	95.19
318.983	94.19
319.212	109.19
319.441	119.19
319.67	92.19
319.9	102.19
320.129	94.19
320.358	95.19
320.587	92.19
320.816	87.19
321.046	100.19
321.275	105.19
321.504	99.19
321.733	90.19
321.962	102.19
322.191	102.19
322.42	105.19
322.649	129.19
322.878	121.19
323.108	139.19
323.337	136.19
323.566	153.19
323.795	156.19
324.024	230.19
324.253	454.19
324.482	1017.19
324.71	2089.19
324.939	2727.19
325.168	1008.19
325.397	290.19
325.626	163.19
325.855	138.19
326.084	139.19
326.313	139.19
326.542	161.19
326.77	262.19
326.999	539.19
327.228	1157.19
327.457	2021.19
327.686	1637.19
327.914	498.19
328.143	363.19
328.372	425.19
328.6	256.19
328.829	157.19
329.058	166.19
329.287	178.19
329.515	142.19
329.744	212.19
329.972	310.19
330.201	601.19
330.43	881.19
330.658	411.19
330.887	232.19
331.115	155.19
331.344	110.19
331.572	108.19
331.801	116.19
332.03	115.19
332.258	117.19
332.486	110.19
332.715	105.19
332.943	113.19
333.172	115.19
333.4	111.19
333.629	119.19
333.857	185.19
334.085	306.19
334.314	559.19
334.542	1062.19
334.771	995.19
334.999	290.19
335.227	146.19
335.455	106.19
335.684	114.19
335.912	109.19
336.14	114.19
336.369	111.19
336.597	109.19
336.825	120.19
337.053	96.19
337.281	97.19
337.51	102.19
337.738	114.19
337.966	91.19
338.194	106.19
338.422	107.19
338.65	93.19
338.878	93.19
339.106	82.19
339.334	82.19
339.562	103.19
339.79	91.19
340.018	92.19
340.246	99.19
340.474	99.19
340.702	85.19
340.93	80.19
341.158	95.19
341.386	85.19
341.614	91.19
341.842	98.19
342.07	107.19
342.298	101.19
342.526	100.19
342.754	91.19
342.981	97.19
343.209	90.19
343.437	100.19
343.665	86.19
343.893	95.19
344.12	109.19
344.348	104.19
344.576	83.19
344.804	88.19
345.031	89.19
345.259	107.19
345.487	89.19
345.714	106.19
345.942	91.19
346.17	87.19
346.397	104.19
346.625	112.19
346.853	89.19
347.08	95.19
347.308	93.19
347.535	107.19
347.763	120.19
347.99	110.19
348.218	95.19
348.445	101.19
348.673	127.19
348.9	106.19
349.128	108.19
349.355	89.19
349.583	86.19
349.81	88.19
350.037	101.19
350.265	98.19
350.492	76.19
350.72	103.19
350.947	105.19
351.174	113.19
351.402	119.19
351.629	105.19
351.856	110.19
352.083	127.19
352.311	122.19
352.538	130.19
352.765	126.19
352.992	119.19
353.22	110.19
353.447	106.19
353.674	109.19
353.901	101.19
354.128	104.19
354.355	97.19
354.583	98.19
354.81	108.19
355.037	98.19
355.264	91.19
355.491	103.19
355.718	94.19
355.945	95.19
356.172	84.19
356.399	104.19
356.626	92.19
356.853	85.19
357.08	91.19
357.307	93.19
357.534	93.19
357.761	79.19
357.988	83.19
358.215	81.19
358.441	98.19
358.668	84.19
358.895	81.19
359.122	93.19
359.349	78.19
359.576	99.19
359.802	116.19
360.029	139.19
360.256	113.19
360.483	92.19
360.709	93.19
360.936	99.19
361.163	98.19
361.39	96.19
361.616	107.19
361.843	83.19
362.07	85.19
362.296	95.19
362.523	115.19
362.749	93.19
362.976	98.19
363.203	88.19
363.429	95.19
363.656	95.19
363.882	100.19
364.109	102.19
364.335	117.19
364.562	99.19
364.788	94.19
365.015	103.19
365.241	114.19
365.468	113.19
365.694	110.19
365.92	113.19
366.147	97.19
366.373	97.19
366.599	90.19
366.826	93.19
367.052	96.19
367.278	85.19
367.505	91.19
367.731	92.19
367.957	100.19
368.184	93.19
368.41	101.19
368.636	121.19
368.862	139.19
369.089	124.19
369.315	97.19
369.541	94.19
369.767	82.19
369.993	92.19
370.219	88.19
370.445	83.19
370.672	103.19
370.898	85.19
371.124	78.19
371.35	104.19
371.576	95.19
371.802	89.19
372.028	96.19
372.254	104.19
372.48	91.19
372.706	93.19
372.932	102.19
373.158	101.19
373.384	94.19
373.61	113.19
373.835	87.19
374.061	90.19
374.287	101.19
374.513	78.19
374.739	77.19
374.965	102.19
375.191	96.19
375.416	88.19
375.642	105.19
375.868	79.19
376.094	95.19
376.319	93.19
376.545	94.19
376.771	85.19
376.997	91.19
377.222	101.19
377.448	105.19
377.674	85.19
377.899	82.19
378.125	91.19
378.35	88.19
378.576	91.19
378.802	108.19
379.027	93.19
379.253	92.19
379.478	89.19
379.704	100.19
379.929	105.19
380.155	107.19
380.38	105.19
380.606	115.19
380.831	102.19
381.057	84.19
381.282	95.19
381.507	91.19
381.733	96.19
381.958	100.19
382.184	90.19
382.409	110.19
382.634	95.19
382.86	94.19
383.085	113.19
383.31	105.19
383.535	97.19
383.761	94.19
383.986	104.19
384.211	81.19
384.436	116.19
384.662	103.19
384.887	95.19
385.112	105.19
385.337	109.19
385.562	112.19
385.787	119.19
386.013	107.19
386.238	119.19
386.463	111.19
386.688	120.19
386.913	96.19
387.138	106.19
387.363	117.19
387.588	94.19
387.813	96.19
388.038	120.19
388.263	108.19
388.488	110.19
388.713	98.19
388.938	98.19
389.163	106.19
389.387	93.19
389.612	99.19
389.837	99.19
390.062	96.19
390.287	95.19
390.512	75.19
390.736	82.19
390.961	89.19
391.186	94.19
391.411	92.19
391.636	79.19
391.86	85.19
392.085	96.19
392.31	80.19
392.534	106.19
392.759	90.19
392.984	97.19
393.208	90.19
393.433	95.19
393.658	78.19
393.882	100.19
394.107	97.19
394.331	90.19
394.556	88.19
394.78	95.19
395.005	83.19
395.229	97.19
395.454	96.19
395.678	96.19
395.903	95.19
396.127	81.19
396.352	92.19
396.576	88.19
396.801	109.19
397.025	79.19
397.249	101.19
397.474	95.19
397.698	83.19
397.922	94.19
398.147	91.19
398.371	85.19
398.595	77.19
398.82	89.19
399.044	100.19
399.268	106.19
399.492	76.19
399.717	83.19
399.941	87.19
400.165	105.19
400.389	98.19
400.613	93.19
400.837	98.19
401.062	89.19
401.286	105.19
401.51	95.19
401.734	97.19
401.958	108.19
402.182	137.19
402.406	193.19
402.63	131.19
402.854	91.19
403.078	93.19
403.302	83.19
403.526	95.19
403.75	83.19
403.974	84.19
404.198	83.19
404.422	85.19
404.645	98.19
404.869	102.19
405.093	115.19
405.317	141.19
405.541	116.19
405.765	115.19
405.988	140.19
406.212	190.19
406.436	285.19
406.66	180.19
406.883	121.19
407.107	116.19
407.331	97.19
407.555	103.19
407.778	99.19
408.002	89.19
408.226	98.19
408.449	81.19
408.673	113.19
408.896	98.19
409.12	110.19
409.344	101.19
409.567	86.19
409.791	96.19
410.014	94.19
410.238	103.19
410.461	103.19
410.685	101.19
410.908	106.19
411.132	108.19
411.355	120.19
411.578	90.19
411.802	88.19
412.025	110.19
412.249	97.19
412.472	108.19
412.695	126.19
412.919	113.19
413.142	99.19
413.365	91.19
413.589	102.19
413.812	92.19
414.035	99.19
414.258	102.19
414.482	99.19
414.705	85.19
414.928	91.19
415.151	89.19
415.374	90.19
415.597	78.19
415.821	85.19
416.044	86.19
416.267	78.19
416.49	86.19
416.713	99.19
416.936	77.19
417.159	108.19
417.382	108.19
417.605	100.19
417.828	102.19
418.051	98.19
418.274	83.19
418.497	83.19
418.72	88.19
418.943	95.19
419.166	90.19
419.389	95.19
419.611	91.19
419.834	85.19
420.057	91.19
420.28	89.19
420.503	106.19
420.726	95.19
420.948	97.19
421.171	103.19
421.394	102.19
421.617	90.19
421.839	71.19
422.062	94.19
422.285	81.19
422.507	114.19
422.73	113.19
422.953	90.19
423.175	94.19
423.398	98.19
423.621	95.19
423.843	95.19
424.066	89.19
424.288	85.19
424.511	107.19
424.733	107.19
424.956	116.19
425.178	119.19
425.401	113.19
425.623	102.19
425.846	89.19
426.068	85.19
426.291	99.19
426.513	98.19
426.735	86.19
426.958	98.19
427.18	103.19
427.402	173.19
427.625	227.19
427.847	208.19
428.069	172.19
428.292	123.19
428.514	93.19
428.736	94.19
428.958	98.19
429.181	113.19
429.403	86.19
429.625	94.19
429.847	86.19
430.069	123.19
430.292	116.19
430.514	95.19
430.736	93.19
430.958	87.19
431.18	92.19
431.402	81.19
431.624	84.19
431.846	95.19
432.068	75.19
432.29	104.19
432.512	93.19
432.734	100.19
432.956	90.19
433.178	105.19
433.4	106.19
433.622	91.19
433.844	92.19
434.066	88.19
434.287	96.19
434.509	91.19
434.731	88.19
434.953	103.19
435.175	91.19
435.397	100.19
435.618	89.19
435.84	113.19
436.062	129.19
436.284	131.19
436.505	119.19
436.727	109.19
436.949	94.19
437.17	99.19
437.392	76.19
437.614	87.19
437.835	117.19
438.057	133.19
438.278	120.19
438.5	112.19
438.721	134.19
438.943	100.19
439.165	105.19
439.386	89.19
439.608	103.19
439.829	109.19
440.05	138.19
440.272	178.19
440.493	98.19
440.715	95.19
440.936	99.19
441.158	99.19
441.379	90.19
441.6	90.19
441.822	101.19
442.043	99.19
442.264	118.19
442.486	107.19
442.707	100.19
442.928	127.19
443.149	157.19
443.371	142.19
443.592	131.19
443.813	137.19
444.034	124.19
444.255	94.19
444.476	96.19
444.698	90.19
444.919	95.19
445.14	133.19
445.361	141.19
445.582	126.19
445.803	159.19
446.024	171.19
446.245	141.19
446.466	119.19
446.687	87.19
446.908	85.19
447.129	84.19
447.35	87.19
447.571	95.19
447.792	80.19
448.013	119.19
448.234	105.19
448.455	115.19
448.675	130.19
448.896	132.19
449.117	117.19
449.338	118.19
449.559	152.19
449.779	158.19
450	116.19
450.221	83.19
450.442	88.19
450.662	93.19
450.883	124.19
451.104	132.19
451.324	97.19
451.545	95.19
451.766	84.19
451.986	95.19
452.207	106.19
452.428	98.19
452.648	102.19
452.869	120.19
453.089	122.19
453.31	134.19
453.53	93.19
453.751	87.19
453.971	102.19
454.192	128.19
454.412	114.19
454.633	89.19
454.853	91.19
455.073	88.19
455.294	106.19
455.514	95.19
455.734	108.19
455.955	97.19
456.175	95.19
456.395	86.19
456.616	87.19
456.836	88.19
457.056	85.19
457.276	94.19
457.497	100.19
457.717	90.19
457.937	97.19
458.157	89.19
458.377	77.19
458.598	117.19
458.818	160.19
459.038	203.19
459.258	131.19
459.478	99.19
459.698	80.19
459.918	87.19
460.138	93.19
460.358	85.19
460.578	86.19
460.798	93.19
461.018	93.19
461.238	91.19
461.458	90.19
461.678	81.19
461.898	89.19
462.118	106.19
462.338	86.19
462.558	86.19
462.777	86.19
462.997	98.19
463.217	115.19
463.437	88.19
463.657	86.19
463.876	88.19
464.096	102.19
464.316	96.19
464.536	99.19
464.755	99.19
464.975	125.19
465.195	199.19
465.414	217.19
465.634	98.19
465.854	90.19
466.073	101.19
466.293	85.19
466.512	85.19
466.732	90.19
466.951	88.19
467.171	97.19
467.391	115.19
467.61	129.19
467.829	167.19
468.049	362.19
468.268	502.19
468.488	160.19
468.707	113.19
468.927	98.19
469.146	86.19
469.365	89.19
469.585	103.19
469.804	110.19
470.023	106.19
470.243	111.19
470.462	87.19
470.681	121.19
470.901	92.19
471.12	103.19
471.339	98.19
471.558	92.19
471.777	111.19
471.997	213.19
472.216	666.19
472.435	1445.19
472.654	397.19
472.873	136.19
473.092	97.19
473.311	97.19
473.53	95.19
473.749	89.19
473.968	106.19
474.187	125.19
474.406	113.19
474.625	86.19
474.844	94.19
475.063	93.19
475.282	90.19
475.501	88.19
475.72	96.19
475.939	78.19
476.158	85.19
476.377	89.19
476.596	107.19
476.814	100.19
477.033	97.19
477.252	83.19
477.471	87.19
477.69	92.19
477.908	93.19
478.127	101.19
478.346	90.19
478.564	104.19
478.783	110.19
479.002	96.19
479.22	105.19
479.439	113.19
479.658	125.19
479.876	114.19
480.095	123.19
480.313	130.19
480.532	135.19
480.751	190.19
480.969	613.19
481.188	2468.19
481.406	1497.19
481.624	238.19
481.843	130.19
482.061	105.19
482.28	106.19
482.498	92.19
482.717	83.19
482.935	93.19
483.153	88.19
483.372	101.19
483.59	97.19
483.808	83.19
484.027	95.19
484.245	108.19
484.463	103.19
484.681	93.19
484.9	93.19
485.118	94.19
485.336	108.19
485.554	104.19
485.772	107.19
485.99	104.19
486.209	116.19
486.427	95.19
486.645	102.19
486.863	107.19
487.081	99.19
487.299	100.19
487.517	98.19
487.735	78.19
487.953	96.19
488.171	102.19
488.389	84.19
488.607	98.19
488.825	93.19
489.043	108.19
489.261	105.19
489.479	87.19
489.696	100.19
489.914	82.19
490.132	88.19
490.35	96.19
490.568	102.19
490.786	89.19
491.003	89.19
491.221	91.19
491.439	99.19
491.657	86.19
491.874	94.19
492.092	105.19
492.31	91.19
492.527	93.19
492.745	96.19
492.963	103.19
493.18	84.19
493.398	104.19
493.615	122.19
493.833	98.19
494.05	94.19
494.268	89.19
494.485	81.19
494.703	81.19
494.92	92.19
495.138	80.19
495.355	94.19
495.573	117.19
495.79	79.19
496.008	76.19
496.225	88.19
496.442	78.19
496.66	96.19
496.877	100.19
497.094	97.19
497.312	85.19
497.529	94.19
497.746	84.19
497.963	104.19
498.181	101.19
498.398	93.19
498.615	110.19
498.832	106.19
499.049	96.19
499.267	98.19
499.484	103.19
499.701	96.19
499.918	96.19
500.135	89.19
500.352	87.19
500.569	102.19
500.786	90.19
501.003	104.19
501.22	102.19
501.437	92.19
501.654	98.19
501.871	132.19
502.088	87.19
502.305	98.19
502.522	89.19
502.739	82.19
502.956	91.19
503.172	109.19
503.389	95.19
503.606	105.19
503.823	90.19
504.04	89.19
504.256	87.19
504.473	78.19
504.69	84.19
504.907	94.19
505.123	88.19
505.34	106.19
505.557	92.19
505.773	87.19
505.99	84.19
506.207	86.19
506.423	88.19
506.64	93.19
506.856	109.19
507.073	108.19
507.289	104.19
507.506	94.19
507.722	120.19
507.939	124.19
508.155	94.19
508.372	103.19
508.588	99.19
508.805	90.19
509.021	91.19
509.238	108.19
509.454	100.19
509.67	91.19
509.887	102.19
510.103	124.19
510.319	213.19
510.536	828.19
510.752	2866.19
510.968	765.19
511.184	160.19
511.401	125.19
511.617	112.19
511.833	107.19
512.049	92.19
512.265	98.19
512.481	93.19
512.698	99.19
512.914	101.19
513.13	111.19
513.346	106.19
