Data from Circ_2000_H10_HRD10591_00048.txt Node
Date: Wed Jan 03 10:49:43 EST 2024
User: Yrep
Spectrometer: HR+D1059
Trigger mode: 1
Integration Time (sec): 1.000000E-1
Scans to average: 1
Electric dark correction enabled: true
Nonlinearity correction enabled: false
Boxcar width: 0
XAxis mode: Wavelengths
Number of Pixels in Spectrum: 2048
>>>>>Begin Spectral Data<<<<<
223.165	-23.88
223.4	-23.88
223.635	-23.88
223.869	-7.88
224.104	-5.88
224.338	-18.88
224.573	-15.88
224.808	-7.88
225.042	-19.88
225.277	-8.88
225.511	7.12
225.746	9.12
225.98	5.12
226.215	16.12
226.449	20.12
226.683	10.12
226.918	23.12
227.152	18.12
227.387	27.12
227.621	40.12
227.856	45.12
228.09	47.12
228.324	45.12
228.559	59.12
228.793	68.12
229.027	70.12
229.262	80.12
229.496	99.12
229.73	93.12
229.964	100.12
230.199	84.12
230.433	75.12
230.667	97.12
230.901	69.12
231.136	80.12
231.37	77.12
231.604	85.12
231.838	84.12
232.072	91.12
232.306	86.12
232.541	89.12
232.775	70.12
233.009	74.12
233.243	85.12
233.477	71.12
233.711	76.12
233.945	71.12
234.179	77.12
234.413	91.12
234.647	86.12
234.881	98.12
235.115	67.12
235.349	77.12
235.583	81.12
235.817	73.12
236.051	88.12
236.285	83.12
236.519	80.12
236.753	66.12
236.987	79.12
237.221	80.12
237.455	88.12
237.689	94.12
237.922	82.12
238.156	80.12
238.39	80.12
238.624	79.12
238.858	55.12
239.091	70.12
239.325	81.12
239.559	90.12
239.793	93.12
240.027	71.12
240.26	80.12
240.494	77.12
240.728	80.12
240.961	91.12
241.195	84.12
241.429	78.12
241.662	82.12
241.896	87.12
242.13	69.12
242.363	93.12
242.597	81.12
242.83	72.12
243.064	69.12
243.298	77.12
243.531	85.12
243.765	87.12
243.998	83.12
244.232	79.12
244.465	97.12
244.699	77.12
244.932	72.12
245.166	65.12
245.399	78.12
245.633	65.12
245.866	88.12
246.099	76.12
246.333	69.12
246.566	78.12
246.8	81.12
247.033	80.12
247.266	82.12
247.5	71.12
247.733	69.12
247.966	69.12
248.2	82.12
248.433	72.12
248.666	95.12
248.899	84.12
249.133	82.12
249.366	102.12
249.599	91.12
249.832	82.12
250.066	84.12
250.299	80.12
250.532	93.12
250.765	87.12
250.998	74.12
251.231	62.12
251.465	76.12
251.698	84.12
251.931	92.12
252.164	84.12
252.397	70.12
252.63	90.12
252.863	74.12
253.096	88.12
253.329	85.12
253.562	87.12
253.795	86.12
254.028	101.12
254.261	94.12
254.494	83.12
254.727	76.12
254.96	88.12
255.193	82.12
255.426	91.12
255.659	88.12
255.892	94.12
256.124	95.12
256.357	89.12
256.59	67.12
256.823	70.12
257.056	79.12
257.289	84.12
257.521	89.12
257.754	92.12
257.987	87.12
258.22	87.12
258.452	87.12
258.685	97.12
258.918	87.12
259.151	69.12
259.383	83.12
259.616	76.12
259.849	84.12
260.081	79.12
260.314	74.12
260.547	86.12
260.779	92.12
261.012	96.12
261.244	87.12
261.477	94.12
261.71	105.12
261.942	149.12
262.175	144.12
262.407	96.12
262.64	90.12
262.872	85.12
263.105	93.12
263.337	85.12
263.57	78.12
263.802	89.12
264.035	81.12
264.267	78.12
264.499	88.12
264.732	80.12
264.964	82.12
265.197	88.12
265.429	91.12
265.661	68.12
265.894	93.12
266.126	84.12
266.358	93.12
266.591	75.12
266.823	86.12
267.055	67.12
267.287	73.12
267.52	87.12
267.752	77.12
267.984	86.12
268.216	94.12
268.448	78.12
268.681	72.12
268.913	85.12
269.145	80.12
269.377	82.12
269.609	84.12
269.841	80.12
270.073	74.12
270.306	89.12
270.538	82.12
270.77	71.12
271.002	76.12
271.234	84.12
271.466	99.12
271.698	85.12
271.93	104.12
272.162	90.12
272.394	89.12
272.626	97.12
272.858	94.12
273.09	98.12
273.322	93.12
273.553	82.12
273.785	91.12
274.017	98.12
274.249	83.12
274.481	86.12
274.713	100.12
274.945	78.12
275.176	85.12
275.408	97.12
275.64	88.12
275.872	100.12
276.104	101.12
276.335	98.12
276.567	120.12
276.799	144.12
277.031	164.12
277.262	148.12
277.494	128.12
277.726	100.12
277.957	97.12
278.189	84.12
278.421	92.12
278.652	94.12
278.884	93.12
279.115	91.12
279.347	85.12
279.579	107.12
279.81	112.12
280.042	155.12
280.273	188.12
280.505	139.12
280.736	109.12
280.968	86.12
281.199	82.12
281.431	87.12
281.662	92.12
281.894	97.12
282.125	108.12
282.356	133.12
282.588	189.12
282.819	133.12
283.051	108.12
283.282	91.12
283.513	88.12
283.745	93.12
283.976	87.12
284.207	81.12
284.439	86.12
284.67	87.12
284.901	82.12
285.132	80.12
285.364	92.12
285.595	87.12
285.826	85.12
286.057	93.12
286.288	90.12
286.52	89.12
286.751	80.12
286.982	94.12
287.213	94.12
287.444	96.12
287.675	89.12
287.906	98.12
288.138	100.12
288.369	102.12
288.6	97.12
288.831	85.12
289.062	96.12
289.293	82.12
289.524	89.12
289.755	83.12
289.986	75.12
290.217	81.12
290.448	86.12
290.679	86.12
290.91	88.12
291.141	86.12
291.371	79.12
291.602	77.12
291.833	93.12
292.064	101.12
292.295	84.12
292.526	97.12
292.757	85.12
292.987	92.12
293.218	80.12
293.449	94.12
293.68	83.12
293.91	91.12
294.141	79.12
294.372	90.12
294.603	81.12
294.833	94.12
295.064	88.12
295.295	93.12
295.525	89.12
295.756	107.12
295.987	134.12
296.217	188.12
296.448	158.12
296.679	113.12
296.909	113.12
297.14	97.12
297.37	104.12
297.601	96.12
297.831	85.12
298.062	91.12
298.292	90.12
298.523	89.12
298.753	93.12
298.984	89.12
299.214	91.12
299.445	94.12
299.675	101.12
299.905	103.12
300.136	88.12
300.366	100.12
300.597	81.12
300.827	93.12
301.057	103.12
301.288	120.12
301.518	103.12
301.748	99.12
301.979	105.12
302.209	95.12
302.439	82.12
302.669	86.12
302.9	85.12
303.13	93.12
303.36	103.12
303.59	140.12
303.82	130.12
304.051	104.12
304.281	104.12
304.511	85.12
304.741	86.12
304.971	78.12
305.201	99.12
305.431	108.12
305.661	96.12
305.891	103.12
306.121	106.12
306.352	106.12
306.582	129.12
306.812	101.12
307.042	109.12
307.272	143.12
307.502	144.12
307.731	142.12
307.961	105.12
308.191	88.12
308.421	99.12
308.651	98.12
308.881	96.12
309.111	87.12
309.341	104.12
309.571	102.12
309.8	104.12
310.03	109.12
310.26	112.12
310.49	109.12
310.72	117.12
310.949	124.12
311.179	97.12
311.409	107.12
311.639	89.12
311.868	104.12
312.098	103.12
312.328	109.12
312.557	121.12
312.787	127.12
313.017	124.12
313.246	107.12
313.476	104.12
313.706	91.12
313.935	90.12
314.165	116.12
314.394	113.12
314.624	77.12
314.853	104.12
315.083	96.12
315.312	109.12
315.542	90.12
315.771	95.12
316.001	88.12
316.23	87.12
316.46	98.12
316.689	97.12
316.919	108.12
317.148	100.12
317.377	112.12
317.607	91.12
317.836	102.12
318.065	103.12
318.295	106.12
318.524	97.12
318.753	85.12
318.983	105.12
319.212	101.12
319.441	118.12
319.67	116.12
319.9	99.12
320.129	102.12
320.358	97.12
320.587	117.12
320.816	116.12
321.046	123.12
321.275	112.12
321.504	98.12
321.733	112.12
321.962	97.12
322.191	111.12
322.42	125.12
322.649	135.12
322.878	125.12
323.108	140.12
323.337	150.12
323.566	153.12
323.795	188.12
324.024	245.12
324.253	530.12
324.482	1130.12
324.71	2354.12
324.939	3044.12
325.168	1106.12
325.397	334.12
325.626	177.12
325.855	152.12
326.084	134.12
326.313	157.12
326.542	165.12
326.77	284.12
326.999	576.12
327.228	1195.12
327.457	2199.12
327.686	1769.12
327.914	558.12
328.143	469.12
328.372	508.12
328.6	305.12
328.829	176.12
329.058	205.12
329.287	208.12
329.515	185.12
329.744	198.12
329.972	381.12
330.201	731.12
330.43	1012.12
330.658	505.12
330.887	279.12
331.115	199.12
331.344	125.12
331.572	110.12
331.801	120.12
332.03	126.12
332.258	117.12
332.486	109.12
332.715	117.12
332.943	107.12
333.172	120.12
333.4	141.12
333.629	140.12
333.857	204.12
334.085	331.12
334.314	682.12
334.542	1252.12
334.771	1200.12
334.999	334.12
335.227	154.12
335.455	109.12
335.684	105.12
335.912	111.12
336.14	113.12
336.369	102.12
336.597	118.12
336.825	102.12
337.053	107.12
337.281	90.12
337.51	90.12
337.738	102.12
337.966	104.12
338.194	101.12
338.422	116.12
338.65	108.12
338.878	95.12
339.106	84.12
339.334	94.12
339.562	102.12
339.79	81.12
340.018	105.12
340.246	107.12
340.474	99.12
340.702	110.12
340.93	96.12
341.158	101.12
341.386	96.12
341.614	99.12
341.842	102.12
342.07	93.12
342.298	92.12
342.526	97.12
342.754	93.12
342.981	96.12
343.209	100.12
343.437	96.12
343.665	91.12
343.893	86.12
344.12	94.12
344.348	89.12
344.576	91.12
344.804	94.12
345.031	100.12
345.259	109.12
345.487	112.12
345.714	105.12
345.942	98.12
346.17	98.12
346.397	100.12
346.625	101.12
346.853	93.12
347.08	99.12
347.308	98.12
347.535	107.12
347.763	115.12
347.99	115.12
348.218	123.12
348.445	134.12
348.673	124.12
348.9	104.12
349.128	98.12
349.355	77.12
349.583	100.12
349.81	92.12
350.037	107.12
350.265	91.12
350.492	101.12
350.72	100.12
350.947	109.12
351.174	113.12
351.402	120.12
351.629	116.12
351.856	130.12
352.083	117.12
352.311	109.12
352.538	141.12
352.765	117.12
352.992	122.12
353.22	126.12
353.447	121.12
353.674	115.12
353.901	105.12
354.128	89.12
354.355	91.12
354.583	100.12
354.81	99.12
355.037	85.12
355.264	92.12
355.491	97.12
355.718	99.12
355.945	100.12
356.172	80.12
356.399	106.12
356.626	84.12
356.853	84.12
357.08	92.12
357.307	94.12
357.534	77.12
357.761	84.12
357.988	88.12
358.215	88.12
358.441	96.12
358.668	102.12
358.895	98.12
359.122	95.12
359.349	92.12
359.576	91.12
359.802	132.12
360.029	150.12
360.256	145.12
360.483	108.12
360.709	108.12
360.936	91.12
361.163	105.12
361.39	98.12
361.616	107.12
361.843	77.12
362.07	103.12
362.296	106.12
362.523	102.12
362.749	101.12
362.976	105.12
363.203	98.12
363.429	106.12
363.656	85.12
363.882	90.12
364.109	95.12
364.335	101.12
364.562	91.12
364.788	90.12
365.015	96.12
365.241	109.12
365.468	118.12
365.694	125.12
365.92	109.12
366.147	100.12
366.373	86.12
366.599	92.12
366.826	84.12
367.052	105.12
367.278	88.12
367.505	92.12
367.731	98.12
367.957	88.12
368.184	107.12
368.41	129.12
368.636	116.12
368.862	144.12
369.089	134.12
369.315	88.12
369.541	87.12
369.767	94.12
369.993	110.12
370.219	103.12
370.445	83.12
370.672	89.12
370.898	97.12
371.124	85.12
371.35	101.12
371.576	97.12
371.802	98.12
372.028	84.12
372.254	96.12
372.48	97.12
372.706	84.12
372.932	88.12
373.158	100.12
373.384	105.12
373.61	94.12
373.835	95.12
374.061	104.12
374.287	97.12
374.513	104.12
374.739	90.12
374.965	88.12
375.191	93.12
375.416	102.12
375.642	91.12
375.868	97.12
376.094	83.12
376.319	100.12
376.545	96.12
376.771	92.12
376.997	84.12
377.222	86.12
377.448	103.12
377.674	96.12
377.899	86.12
378.125	87.12
378.35	98.12
378.576	114.12
378.802	92.12
379.027	105.12
379.253	105.12
379.478	90.12
379.704	84.12
379.929	102.12
380.155	92.12
380.38	86.12
380.606	100.12
380.831	97.12
381.057	88.12
381.282	102.12
381.507	88.12
381.733	94.12
381.958	95.12
382.184	112.12
382.409	95.12
382.634	105.12
382.86	87.12
383.085	93.12
383.31	101.12
383.535	102.12
383.761	100.12
383.986	94.12
384.211	102.12
384.436	93.12
384.662	108.12
384.887	109.12
385.112	123.12
385.337	121.12
385.562	107.12
385.787	96.12
386.013	130.12
386.238	134.12
386.463	121.12
386.688	109.12
386.913	115.12
387.138	106.12
387.363	101.12
387.588	104.12
387.813	94.12
388.038	106.12
388.263	104.12
388.488	128.12
388.713	103.12
388.938	100.12
389.163	107.12
389.387	104.12
389.612	88.12
389.837	88.12
390.062	89.12
390.287	97.12
390.512	102.12
390.736	83.12
390.961	95.12
391.186	99.12
391.411	89.12
391.636	85.12
391.86	104.12
392.085	89.12
392.31	80.12
392.534	78.12
392.759	72.12
392.984	95.12
393.208	92.12
393.433	99.12
393.658	91.12
393.882	99.12
394.107	91.12
394.331	73.12
394.556	85.12
394.78	72.12
395.005	89.12
395.229	87.12
395.454	69.12
395.678	75.12
395.903	83.12
396.127	85.12
396.352	93.12
396.576	93.12
396.801	86.12
397.025	91.12
397.249	100.12
397.474	85.12
397.698	87.12
397.922	103.12
398.147	86.12
398.371	82.12
398.595	76.12
398.82	77.12
399.044	84.12
399.268	106.12
399.492	89.12
399.717	100.12
399.941	100.12
400.165	96.12
400.389	94.12
400.613	92.12
400.837	78.12
401.062	81.12
401.286	90.12
401.51	98.12
401.734	99.12
401.958	121.12
402.182	164.12
402.406	230.12
402.63	155.12
402.854	104.12
403.078	106.12
403.302	93.12
403.526	98.12
403.75	98.12
403.974	79.12
404.198	84.12
404.422	94.12
404.645	91.12
404.869	106.12
405.093	112.12
405.317	129.12
405.541	141.12
405.765	114.12
405.988	150.12
406.212	226.12
406.436	346.12
406.66	239.12
406.883	132.12
407.107	106.12
407.331	114.12
407.555	117.12
407.778	104.12
408.002	98.12
408.226	94.12
408.449	77.12
408.673	86.12
408.896	102.12
409.12	101.12
409.344	78.12
409.567	100.12
409.791	92.12
410.014	98.12
410.238	96.12
410.461	84.12
410.685	100.12
410.908	109.12
411.132	113.12
411.355	102.12
411.578	101.12
411.802	102.12
412.025	94.12
412.249	106.12
412.472	100.12
412.695	121.12
412.919	101.12
413.142	97.12
413.365	90.12
413.589	100.12
413.812	86.12
414.035	82.12
414.258	88.12
414.482	77.12
414.705	95.12
414.928	85.12
415.151	89.12
415.374	100.12
415.597	77.12
415.821	81.12
416.044	75.12
416.267	81.12
416.49	80.12
416.713	83.12
416.936	96.12
417.159	98.12
417.382	87.12
417.605	108.12
417.828	113.12
418.051	84.12
418.274	91.12
418.497	90.12
418.72	83.12
418.943	78.12
419.166	85.12
419.389	81.12
419.611	114.12
419.834	94.12
420.057	93.12
420.28	80.12
420.503	92.12
420.726	100.12
420.948	97.12
421.171	101.12
421.394	104.12
421.617	90.12
421.839	99.12
422.062	98.12
422.285	83.12
422.507	98.12
422.73	116.12
422.953	101.12
423.175	89.12
423.398	94.12
423.621	95.12
423.843	97.12
424.066	89.12
424.288	96.12
424.511	96.12
424.733	106.12
424.956	114.12
425.178	97.12
425.401	103.12
425.623	101.12
425.846	87.12
426.068	100.12
426.291	91.12
426.513	96.12
426.735	94.12
426.958	106.12
427.18	112.12
427.402	177.12
427.625	262.12
427.847	226.12
428.069	190.12
428.292	124.12
428.514	103.12
428.736	89.12
428.958	91.12
429.181	90.12
429.403	84.12
429.625	80.12
429.847	112.12
430.069	105.12
430.292	100.12
430.514	87.12
430.736	88.12
430.958	85.12
431.18	88.12
431.402	92.12
431.624	87.12
431.846	89.12
432.068	85.12
432.29	91.12
432.512	97.12
432.734	77.12
432.956	98.12
433.178	98.12
433.4	108.12
433.622	91.12
433.844	85.12
434.066	92.12
434.287	88.12
434.509	100.12
434.731	87.12
434.953	76.12
435.175	85.12
435.397	98.12
435.618	98.12
435.84	108.12
436.062	139.12
436.284	136.12
436.505	107.12
436.727	118.12
436.949	94.12
437.17	98.12
437.392	91.12
437.614	109.12
437.835	135.12
438.057	144.12
438.278	129.12
438.5	111.12
438.721	137.12
438.943	108.12
439.165	99.12
439.386	85.12
439.608	99.12
439.829	111.12
440.05	153.12
440.272	176.12
440.493	116.12
440.715	85.12
440.936	86.12
441.158	78.12
441.379	92.12
441.6	99.12
441.822	108.12
442.043	107.12
442.264	117.12
442.486	114.12
442.707	114.12
442.928	119.12
443.149	177.12
443.371	173.12
443.592	149.12
443.813	136.12
444.034	128.12
444.255	109.12
444.476	87.12
444.698	88.12
444.919	88.12
445.14	137.12
445.361	148.12
445.582	135.12
445.803	169.12
446.024	188.12
446.245	171.12
446.466	130.12
446.687	98.12
446.908	96.12
447.129	79.12
447.35	89.12
447.571	89.12
447.792	100.12
448.013	114.12
448.234	130.12
448.455	119.12
448.675	107.12
448.896	125.12
449.117	106.12
449.338	117.12
449.559	149.12
449.779	158.12
450	97.12
450.221	91.12
450.442	96.12
450.662	98.12
450.883	122.12
451.104	139.12
451.324	96.12
451.545	99.12
451.766	92.12
451.986	75.12
452.207	100.12
452.428	107.12
452.648	100.12
452.869	128.12
453.089	158.12
453.31	148.12
453.53	90.12
453.751	86.12
453.971	133.12
454.192	154.12
454.412	107.12
454.633	88.12
454.853	100.12
455.073	84.12
455.294	96.12
455.514	97.12
455.734	93.12
455.955	85.12
456.175	78.12
456.395	90.12
456.616	87.12
456.836	87.12
457.056	83.12
457.276	96.12
457.497	74.12
457.717	79.12
457.937	77.12
458.157	94.12
458.377	90.12
458.598	125.12
458.818	234.12
459.038	250.12
459.258	146.12
459.478	80.12
459.698	95.12
459.918	90.12
460.138	75.12
460.358	87.12
460.578	93.12
460.798	93.12
461.018	100.12
461.238	92.12
461.458	78.12
461.678	86.12
461.898	85.12
462.118	89.12
462.338	90.12
462.558	109.12
462.777	98.12
462.997	96.12
463.217	98.12
463.437	105.12
463.657	87.12
463.876	100.12
464.096	100.12
464.316	107.12
464.536	100.12
464.755	104.12
464.975	136.12
465.195	266.12
465.414	265.12
465.634	120.12
465.854	100.12
466.073	96.12
466.293	94.12
466.512	97.12
466.732	79.12
466.951	90.12
467.171	99.12
467.391	108.12
467.61	148.12
467.829	183.12
468.049	409.12
468.268	587.12
468.488	173.12
468.707	96.12
468.927	100.12
469.146	102.12
469.365	88.12
469.585	91.12
469.804	102.12
470.023	116.12
470.243	111.12
470.462	130.12
470.681	157.12
470.901	110.12
471.12	99.12
471.339	94.12
471.558	117.12
471.777	141.12
471.997	234.12
472.216	767.12
472.435	1752.12
472.654	441.12
472.873	140.12
473.092	113.12
473.311	110.12
473.53	92.12
473.749	107.12
473.968	105.12
474.187	119.12
474.406	112.12
474.625	92.12
474.844	87.12
475.063	97.12
475.282	89.12
475.501	93.12
475.72	95.12
475.939	88.12
476.158	98.12
476.377	88.12
476.596	89.12
476.814	108.12
477.033	117.12
477.252	107.12
477.471	103.12
477.69	108.12
477.908	103.12
478.127	110.12
478.346	84.12
478.564	107.12
478.783	115.12
479.002	93.12
479.22	121.12
479.439	108.12
479.658	151.12
479.876	124.12
480.095	111.12
480.313	125.12
480.532	152.12
480.751	229.12
480.969	728.12
481.188	2984.12
481.406	1744.12
481.624	285.12
481.843	122.12
482.061	113.12
482.28	97.12
482.498	105.12
482.717	89.12
482.935	85.12
483.153	98.12
483.372	81.12
483.59	86.12
483.808	88.12
484.027	101.12
484.245	82.12
484.463	99.12
484.681	104.12
484.9	102.12
485.118	106.12
485.336	111.12
485.554	89.12
485.772	113.12
485.99	93.12
486.209	93.12
486.427	113.12
486.645	123.12
486.863	142.12
487.081	110.12
487.299	109.12
487.517	105.12
487.735	93.12
487.953	92.12
488.171	107.12
488.389	103.12
488.607	106.12
488.825	95.12
489.043	102.12
489.261	101.12
489.479	91.12
489.696	84.12
489.914	95.12
490.132	87.12
490.35	92.12
490.568	89.12
490.786	68.12
491.003	90.12
491.221	92.12
491.439	100.12
491.657	93.12
491.874	101.12
492.092	109.12
492.31	101.12
492.527	90.12
492.745	98.12
492.963	92.12
493.18	106.12
493.398	89.12
493.615	101.12
493.833	112.12
494.05	97.12
494.268	102.12
494.485	99.12
494.703	87.12
494.92	91.12
495.138	96.12
495.355	96.12
495.573	91.12
495.79	91.12
496.008	79.12
496.225	83.12
496.442	92.12
496.66	106.12
496.877	85.12
497.094	97.12
497.312	93.12
497.529	88.12
497.746	93.12
497.963	91.12
498.181	94.12
498.398	91.12
498.615	117.12
498.832	125.12
499.049	102.12
499.267	91.12
499.484	96.12
499.701	98.12
499.918	97.12
500.135	75.12
500.352	94.12
500.569	89.12
500.786	88.12
501.003	104.12
501.22	99.12
501.437	89.12
501.654	107.12
501.871	144.12
502.088	101.12
502.305	86.12
502.522	87.12
502.739	99.12
502.956	93.12
503.172	95.12
503.389	112.12
503.606	116.12
503.823	95.12
504.04	75.12
504.256	99.12
504.473	101.12
504.69	88.12
504.907	98.12
505.123	96.12
505.34	91.12
505.557	98.12
505.773	96.12
505.99	93.12
506.207	100.12
506.423	88.12
506.64	94.12
506.856	82.12
507.073	91.12
507.289	105.12
507.506	105.12
507.722	159.12
507.939	130.12
508.155	114.12
508.372	114.12
508.588	106.12
508.805	102.12
509.021	100.12
509.238	89.12
509.454	102.12
509.67	115.12
509.887	116.12
510.103	163.12
510.319	253.12
510.536	1064.12
510.752	3832.12
510.968	986.12
511.184	207.12
511.401	141.12
511.617	103.12
511.833	107.12
512.049	107.12
512.265	103.12
