Data from Circ_2000_H10_HRD10591_00046.txt Node
Date: Wed Jan 03 10:49:43 EST 2024
User: Yrep
Spectrometer: HR+D1059
Trigger mode: 1
Integration Time (sec): 1.000000E-1
Scans to average: 1
Electric dark correction enabled: true
Nonlinearity correction enabled: false
Boxcar width: 0
XAxis mode: Wavelengths
Number of Pixels in Spectrum: 2048
>>>>>Begin Spectral Data<<<<<
223.165	-8.56
223.4	-8.56
223.635	-8.56
223.869	-22.56
224.104	-16.56
224.338	-14.56
224.573	-8.56
224.808	-7.56
225.042	-8.56
225.277	-18.56
225.511	1.44
225.746	-6.56
225.98	13.44
226.215	11.44
226.449	17.44
226.683	23.44
226.918	20.44
227.152	24.44
227.387	54.44
227.621	46.44
227.856	51.44
228.09	47.44
228.324	57.44
228.559	63.44
228.793	69.44
229.027	69.44
229.262	74.44
229.496	81.44
229.73	82.44
229.964	85.44
230.199	75.44
230.433	75.44
230.667	82.44
230.901	78.44
231.136	71.44
231.37	74.44
231.604	86.44
231.838	71.44
232.072	82.44
232.306	89.44
232.541	65.44
232.775	92.44
233.009	87.44
233.243	95.44
233.477	80.44
233.711	87.44
233.945	68.44
234.179	79.44
234.413	86.44
234.647	86.44
234.881	78.44
235.115	93.44
235.349	70.44
235.583	70.44
235.817	80.44
236.051	69.44
236.285	85.44
236.519	75.44
236.753	81.44
236.987	84.44
237.221	93.44
237.455	86.44
237.689	69.44
237.922	89.44
238.156	81.44
238.39	74.44
238.624	94.44
238.858	73.44
239.091	91.44
239.325	71.44
239.559	85.44
239.793	87.44
240.027	66.44
240.26	85.44
240.494	74.44
240.728	79.44
240.961	77.44
241.195	81.44
241.429	75.44
241.662	75.44
241.896	76.44
242.13	79.44
242.363	65.44
242.597	74.44
242.83	98.44
243.064	74.44
243.298	95.44
243.531	87.44
243.765	93.44
243.998	81.44
244.232	86.44
244.465	87.44
244.699	83.44
244.932	99.44
245.166	74.44
245.399	79.44
245.633	80.44
245.866	75.44
246.099	66.44
246.333	93.44
246.566	87.44
246.8	75.44
247.033	71.44
247.266	85.44
247.5	80.44
247.733	78.44
247.966	96.44
248.2	79.44
248.433	82.44
248.666	85.44
248.899	86.44
249.133	86.44
249.366	100.44
249.599	107.44
249.832	96.44
250.066	94.44
250.299	95.44
250.532	90.44
250.765	87.44
250.998	90.44
251.231	69.44
251.465	92.44
251.698	77.44
251.931	81.44
252.164	89.44
252.397	89.44
252.63	68.44
252.863	81.44
253.096	89.44
253.329	92.44
253.562	85.44
253.795	96.44
254.028	82.44
254.261	80.44
254.494	77.44
254.727	83.44
254.96	88.44
255.193	77.44
255.426	86.44
255.659	76.44
255.892	92.44
256.124	93.44
256.357	77.44
256.59	81.44
256.823	94.44
257.056	82.44
257.289	94.44
257.521	85.44
257.754	90.44
257.987	77.44
258.22	70.44
258.452	100.44
258.685	92.44
258.918	81.44
259.151	95.44
259.383	85.44
259.616	83.44
259.849	90.44
260.081	88.44
260.314	102.44
260.547	88.44
260.779	83.44
261.012	91.44
261.244	91.44
261.477	101.44
261.71	95.44
261.942	127.44
262.175	120.44
262.407	95.44
262.64	88.44
262.872	103.44
263.105	92.44
263.337	93.44
263.57	83.44
263.802	88.44
264.035	90.44
264.267	78.44
264.499	82.44
264.732	81.44
264.964	95.44
265.197	81.44
265.429	93.44
265.661	94.44
265.894	77.44
266.126	92.44
266.358	83.44
266.591	80.44
266.823	85.44
267.055	87.44
267.287	82.44
267.52	80.44
267.752	96.44
267.984	78.44
268.216	85.44
268.448	91.44
268.681	86.44
268.913	92.44
269.145	90.44
269.377	93.44
269.609	87.44
269.841	90.44
270.073	84.44
270.306	75.44
270.538	82.44
270.77	92.44
271.002	87.44
271.234	105.44
271.466	93.44
271.698	84.44
271.93	86.44
272.162	85.44
272.394	88.44
272.626	97.44
272.858	96.44
273.09	74.44
273.322	78.44
273.553	88.44
273.785	85.44
274.017	82.44
274.249	72.44
274.481	85.44
274.713	90.44
274.945	96.44
275.176	86.44
275.408	90.44
275.64	104.44
275.872	101.44
276.104	94.44
276.335	98.44
276.567	104.44
276.799	135.44
277.031	145.44
277.262	149.44
277.494	113.44
277.726	86.44
277.957	82.44
278.189	85.44
278.421	84.44
278.652	89.44
278.884	88.44
279.115	94.44
279.347	91.44
279.579	80.44
279.81	110.44
280.042	140.44
280.273	167.44
280.505	114.44
280.736	99.44
280.968	95.44
281.199	97.44
281.431	90.44
281.662	97.44
281.894	91.44
282.125	90.44
282.356	109.44
282.588	144.44
282.819	117.44
283.051	94.44
283.282	105.44
283.513	92.44
283.745	96.44
283.976	87.44
284.207	99.44
284.439	99.44
284.67	93.44
284.901	81.44
285.132	86.44
285.364	79.44
285.595	87.44
285.826	90.44
286.057	80.44
286.288	90.44
286.52	117.44
286.751	87.44
286.982	81.44
287.213	70.44
287.444	94.44
287.675	89.44
287.906	75.44
288.138	78.44
288.369	88.44
288.6	101.44
288.831	91.44
289.062	105.44
289.293	89.44
289.524	89.44
289.755	69.44
289.986	80.44
290.217	92.44
290.448	93.44
290.679	85.44
290.91	81.44
291.141	92.44
291.371	85.44
291.602	82.44
291.833	88.44
292.064	79.44
292.295	92.44
292.526	86.44
292.757	88.44
292.987	83.44
293.218	103.44
293.449	80.44
293.68	97.44
293.91	86.44
294.141	111.44
294.372	93.44
294.603	103.44
294.833	99.44
295.064	90.44
295.295	87.44
295.525	107.44
295.756	110.44
295.987	117.44
296.217	153.44
296.448	133.44
296.679	87.44
296.909	95.44
297.14	87.44
297.37	89.44
297.601	97.44
297.831	94.44
298.062	99.44
298.292	86.44
298.523	90.44
298.753	96.44
298.984	89.44
299.214	92.44
299.445	94.44
299.675	98.44
299.905	97.44
300.136	89.44
300.366	93.44
300.597	92.44
300.827	99.44
301.057	101.44
301.288	129.44
301.518	110.44
301.748	91.44
301.979	107.44
302.209	122.44
302.439	91.44
302.669	88.44
302.9	101.44
303.13	100.44
303.36	108.44
303.59	113.44
303.82	120.44
304.051	102.44
304.281	97.44
304.511	88.44
304.741	91.44
304.971	91.44
305.201	83.44
305.431	88.44
305.661	90.44
305.891	98.44
306.121	85.44
306.352	111.44
306.582	116.44
306.812	105.44
307.042	103.44
307.272	125.44
307.502	127.44
307.731	132.44
307.961	106.44
308.191	90.44
308.421	102.44
308.651	86.44
308.881	95.44
309.111	86.44
309.341	115.44
309.571	114.44
309.8	99.44
310.03	102.44
310.26	109.44
310.49	108.44
310.72	100.44
310.949	117.44
311.179	113.44
311.409	115.44
311.639	94.44
311.868	98.44
312.098	88.44
312.328	101.44
312.557	103.44
312.787	122.44
313.017	110.44
313.246	94.44
313.476	108.44
313.706	90.44
313.935	89.44
314.165	106.44
314.394	115.44
314.624	100.44
314.853	102.44
315.083	100.44
315.312	94.44
315.542	92.44
315.771	90.44
316.001	108.44
316.23	102.44
316.46	84.44
316.689	94.44
316.919	94.44
317.148	100.44
317.377	99.44
317.607	104.44
317.836	102.44
318.065	99.44
318.295	83.44
318.524	98.44
318.753	92.44
318.983	97.44
319.212	115.44
319.441	119.44
319.67	103.44
319.9	86.44
320.129	77.44
320.358	97.44
320.587	87.44
320.816	107.44
321.046	101.44
321.275	94.44
321.504	100.44
321.733	102.44
321.962	110.44
322.191	98.44
322.42	111.44
322.649	114.44
322.878	126.44
323.108	131.44
323.337	149.44
323.566	160.44
323.795	162.44
324.024	221.44
324.253	465.44
324.482	966.44
324.71	2089.44
324.939	2723.44
325.168	983.44
325.397	294.44
325.626	173.44
325.855	145.44
326.084	129.44
326.313	134.44
326.542	173.44
326.77	246.44
326.999	510.44
327.228	1113.44
327.457	1941.44
327.686	1551.44
327.914	498.44
328.143	377.44
328.372	398.44
328.6	254.44
328.829	159.44
329.058	164.44
329.287	168.44
329.515	157.44
329.744	181.44
329.972	269.44
330.201	511.44
330.43	728.44
330.658	376.44
330.887	228.44
331.115	163.44
331.344	120.44
331.572	113.44
331.801	111.44
332.03	129.44
332.258	119.44
332.486	110.44
332.715	104.44
332.943	113.44
333.172	100.44
333.4	111.44
333.629	123.44
333.857	178.44
334.085	266.44
334.314	490.44
334.542	890.44
334.771	870.44
334.999	263.44
335.227	145.44
335.455	114.44
335.684	87.44
335.912	110.44
336.14	97.44
336.369	105.44
336.597	99.44
336.825	95.44
337.053	99.44
337.281	109.44
337.51	92.44
337.738	97.44
337.966	99.44
338.194	105.44
338.422	104.44
338.65	93.44
338.878	90.44
339.106	102.44
339.334	94.44
339.562	96.44
339.79	78.44
340.018	90.44
340.246	117.44
340.474	105.44
340.702	91.44
340.93	89.44
341.158	95.44
341.386	89.44
341.614	104.44
341.842	98.44
342.07	84.44
342.298	83.44
342.526	93.44
342.754	91.44
342.981	92.44
343.209	87.44
343.437	98.44
343.665	81.44
343.893	96.44
344.12	90.44
344.348	97.44
344.576	93.44
344.804	99.44
345.031	84.44
345.259	107.44
345.487	108.44
345.714	101.44
345.942	102.44
346.17	89.44
346.397	108.44
346.625	91.44
346.853	100.44
347.08	98.44
347.308	95.44
347.535	100.44
347.763	105.44
347.99	105.44
348.218	114.44
348.445	104.44
348.673	111.44
348.9	111.44
349.128	101.44
349.355	101.44
349.583	104.44
349.81	88.44
350.037	84.44
350.265	94.44
350.492	99.44
350.72	98.44
350.947	98.44
351.174	113.44
351.402	114.44
351.629	108.44
351.856	115.44
352.083	109.44
352.311	112.44
352.538	108.44
352.765	124.44
352.992	127.44
353.22	114.44
353.447	100.44
353.674	104.44
353.901	94.44
354.128	93.44
354.355	99.44
354.583	90.44
354.81	99.44
355.037	88.44
355.264	85.44
355.491	89.44
355.718	94.44
355.945	96.44
356.172	97.44
356.399	93.44
356.626	93.44
356.853	101.44
357.08	100.44
357.307	100.44
357.534	82.44
357.761	96.44
357.988	107.44
358.215	106.44
358.441	103.44
358.668	98.44
358.895	99.44
359.122	78.44
359.349	89.44
359.576	111.44
359.802	123.44
360.029	145.44
360.256	145.44
360.483	114.44
360.709	93.44
360.936	107.44
361.163	112.44
361.39	106.44
361.616	113.44
361.843	93.44
362.07	100.44
362.296	110.44
362.523	94.44
362.749	103.44
362.976	93.44
363.203	79.44
363.429	77.44
363.656	95.44
363.882	89.44
364.109	96.44
364.335	106.44
364.562	89.44
364.788	101.44
365.015	100.44
365.241	97.44
365.468	113.44
365.694	101.44
365.92	88.44
366.147	93.44
366.373	93.44
366.599	90.44
366.826	103.44
367.052	101.44
367.278	88.44
367.505	90.44
367.731	98.44
367.957	91.44
368.184	93.44
368.41	101.44
368.636	116.44
368.862	126.44
369.089	113.44
369.315	100.44
369.541	91.44
369.767	104.44
369.993	82.44
370.219	104.44
370.445	93.44
370.672	84.44
370.898	102.44
371.124	84.44
371.35	90.44
371.576	91.44
371.802	94.44
372.028	86.44
372.254	83.44
372.48	101.44
372.706	62.44
372.932	84.44
373.158	90.44
373.384	81.44
373.61	94.44
373.835	98.44
374.061	96.44
374.287	94.44
374.513	89.44
374.739	93.44
374.965	77.44
375.191	93.44
375.416	93.44
375.642	91.44
375.868	85.44
376.094	89.44
376.319	99.44
376.545	84.44
376.771	87.44
376.997	92.44
377.222	87.44
377.448	103.44
377.674	86.44
377.899	89.44
378.125	92.44
378.35	95.44
378.576	89.44
378.802	97.44
379.027	87.44
379.253	85.44
379.478	90.44
379.704	89.44
379.929	108.44
380.155	99.44
380.38	102.44
380.606	90.44
380.831	97.44
381.057	90.44
381.282	86.44
381.507	90.44
381.733	98.44
381.958	94.44
382.184	113.44
382.409	91.44
382.634	107.44
382.86	100.44
383.085	93.44
383.31	103.44
383.535	110.44
383.761	114.44
383.986	99.44
384.211	106.44
384.436	110.44
384.662	99.44
384.887	104.44
385.112	95.44
385.337	89.44
385.562	102.44
385.787	119.44
386.013	105.44
386.238	116.44
386.463	116.44
386.688	112.44
386.913	102.44
387.138	103.44
387.363	113.44
387.588	110.44
387.813	99.44
388.038	108.44
388.263	106.44
388.488	133.44
388.713	104.44
388.938	95.44
389.163	94.44
389.387	83.44
389.612	97.44
389.837	95.44
390.062	101.44
390.287	88.44
390.512	103.44
390.736	87.44
390.961	83.44
391.186	92.44
391.411	90.44
391.636	86.44
391.86	94.44
392.085	87.44
392.31	75.44
392.534	87.44
392.759	92.44
392.984	83.44
393.208	93.44
393.433	95.44
393.658	79.44
393.882	91.44
394.107	84.44
394.331	90.44
394.556	78.44
394.78	90.44
395.005	82.44
395.229	90.44
395.454	75.44
395.678	82.44
395.903	74.44
396.127	95.44
396.352	91.44
396.576	81.44
396.801	87.44
397.025	100.44
397.249	90.44
397.474	91.44
397.698	90.44
397.922	93.44
398.147	92.44
398.371	85.44
398.595	87.44
398.82	86.44
399.044	78.44
399.268	86.44
399.492	99.44
399.717	93.44
399.941	103.44
400.165	101.44
400.389	99.44
400.613	90.44
400.837	92.44
401.062	86.44
401.286	93.44
401.51	104.44
401.734	97.44
401.958	89.44
402.182	153.44
402.406	188.44
402.63	153.44
402.854	101.44
403.078	96.44
403.302	92.44
403.526	84.44
403.75	102.44
403.974	90.44
404.198	89.44
404.422	82.44
404.645	89.44
404.869	103.44
405.093	106.44
405.317	130.44
405.541	129.44
405.765	115.44
405.988	133.44
406.212	184.44
406.436	266.44
406.66	180.44
406.883	103.44
407.107	116.44
407.331	110.44
407.555	120.44
407.778	107.44
408.002	90.44
408.226	101.44
408.449	76.44
408.673	87.44
408.896	94.44
409.12	109.44
409.344	91.44
409.567	87.44
409.791	90.44
410.014	97.44
410.238	92.44
410.461	106.44
410.685	95.44
410.908	96.44
411.132	118.44
411.355	103.44
411.578	92.44
411.802	95.44
412.025	86.44
412.249	94.44
412.472	94.44
412.695	113.44
412.919	104.44
413.142	97.44
413.365	88.44
413.589	69.44
413.812	84.44
414.035	73.44
414.258	89.44
414.482	72.44
414.705	101.44
414.928	81.44
415.151	84.44
415.374	93.44
415.597	88.44
415.821	81.44
416.044	89.44
416.267	98.44
416.49	93.44
416.713	90.44
416.936	90.44
417.159	88.44
417.382	88.44
417.605	102.44
417.828	106.44
418.051	109.44
418.274	94.44
418.497	94.44
418.72	76.44
418.943	85.44
419.166	79.44
419.389	77.44
419.611	93.44
419.834	107.44
420.057	92.44
420.28	112.44
420.503	91.44
420.726	78.44
420.948	95.44
421.171	112.44
421.394	93.44
421.617	90.44
421.839	93.44
422.062	97.44
422.285	91.44
422.507	95.44
422.73	114.44
422.953	90.44
423.175	98.44
423.398	83.44
423.621	78.44
423.843	75.44
424.066	78.44
424.288	77.44
424.511	94.44
424.733	87.44
424.956	130.44
425.178	101.44
425.401	102.44
425.623	108.44
425.846	88.44
426.068	96.44
426.291	92.44
426.513	102.44
426.735	106.44
426.958	97.44
427.18	110.44
427.402	171.44
427.625	204.44
427.847	184.44
428.069	173.44
428.292	113.44
428.514	90.44
428.736	86.44
428.958	83.44
429.181	93.44
429.403	92.44
429.625	100.44
429.847	102.44
430.069	99.44
430.292	96.44
430.514	75.44
430.736	73.44
430.958	81.44
431.18	88.44
431.402	90.44
431.624	83.44
431.846	87.44
432.068	87.44
432.29	77.44
432.512	85.44
432.734	86.44
432.956	101.44
433.178	117.44
433.4	96.44
433.622	101.44
433.844	88.44
434.066	83.44
434.287	106.44
434.509	95.44
434.731	92.44
434.953	95.44
435.175	93.44
435.397	93.44
435.618	106.44
435.84	111.44
436.062	131.44
436.284	128.44
436.505	129.44
436.727	108.44
436.949	94.44
437.17	82.44
437.392	78.44
437.614	95.44
437.835	126.44
438.057	142.44
438.278	131.44
438.5	124.44
438.721	118.44
438.943	109.44
439.165	92.44
439.386	93.44
439.608	104.44
439.829	112.44
440.05	130.44
440.272	166.44
440.493	110.44
440.715	104.44
440.936	81.44
441.158	99.44
441.379	83.44
441.6	97.44
441.822	98.44
442.043	109.44
442.264	118.44
442.486	115.44
442.707	113.44
442.928	118.44
443.149	164.44
443.371	149.44
443.592	121.44
443.813	129.44
444.034	132.44
444.255	95.44
444.476	84.44
444.698	80.44
444.919	95.44
445.14	129.44
445.361	129.44
445.582	115.44
445.803	180.44
446.024	163.44
446.245	156.44
446.466	123.44
446.687	93.44
446.908	99.44
447.129	107.44
447.35	91.44
447.571	104.44
447.792	99.44
448.013	99.44
448.234	117.44
448.455	94.44
448.675	112.44
448.896	119.44
449.117	100.44
449.338	100.44
449.559	135.44
449.779	149.44
450	105.44
450.221	90.44
450.442	89.44
450.662	97.44
450.883	116.44
451.104	143.44
451.324	94.44
451.545	93.44
451.766	103.44
451.986	78.44
452.207	90.44
452.428	105.44
452.648	105.44
452.869	135.44
453.089	145.44
453.31	141.44
453.53	113.44
453.751	86.44
453.971	110.44
454.192	122.44
454.412	100.44
454.633	101.44
454.853	84.44
455.073	81.44
455.294	98.44
455.514	102.44
455.734	92.44
455.955	75.44
456.175	73.44
456.395	95.44
456.616	90.44
456.836	81.44
457.056	104.44
457.276	93.44
457.497	93.44
457.717	92.44
457.937	83.44
458.157	96.44
458.377	98.44
458.598	109.44
458.818	166.44
459.038	206.44
459.258	126.44
459.478	97.44
459.698	87.44
459.918	100.44
460.138	59.44
460.358	91.44
460.578	87.44
460.798	91.44
461.018	100.44
461.238	92.44
461.458	78.44
461.678	92.44
461.898	91.44
462.118	89.44
462.338	82.44
462.558	92.44
462.777	87.44
462.997	92.44
463.217	96.44
463.437	93.44
463.657	68.44
463.876	93.44
464.096	101.44
464.316	98.44
464.536	96.44
464.755	102.44
464.975	123.44
465.195	199.44
465.414	199.44
465.634	113.44
465.854	93.44
466.073	96.44
466.293	90.44
466.512	91.44
466.732	94.44
466.951	95.44
467.171	93.44
467.391	115.44
467.61	126.44
467.829	154.44
468.049	311.44
468.268	426.44
468.488	155.44
468.707	101.44
468.927	101.44
469.146	102.44
469.365	94.44
469.585	99.44
469.804	110.44
470.023	106.44
470.243	114.44
470.462	107.44
470.681	113.44
470.901	99.44
471.12	85.44
471.339	96.44
471.558	93.44
471.777	127.44
471.997	177.44
472.216	574.44
472.435	1242.44
472.654	339.44
472.873	116.44
473.092	93.44
473.311	91.44
473.53	95.44
473.749	94.44
473.968	100.44
474.187	124.44
474.406	101.44
474.625	86.44
474.844	85.44
475.063	93.44
475.282	86.44
475.501	90.44
475.72	88.44
475.939	84.44
476.158	100.44
476.377	85.44
476.596	95.44
476.814	102.44
477.033	113.44
477.252	99.44
477.471	91.44
477.69	93.44
477.908	94.44
478.127	91.44
478.346	94.44
478.564	95.44
478.783	107.44
479.002	99.44
479.22	90.44
479.439	117.44
479.658	123.44
479.876	110.44
480.095	109.44
480.313	106.44
480.532	121.44
480.751	183.44
480.969	536.44
481.188	2081.44
481.406	1273.44
481.624	213.44
481.843	113.44
482.061	94.44
482.28	98.44
482.498	87.44
482.717	85.44
482.935	95.44
483.153	107.44
483.372	105.44
483.59	93.44
483.808	109.44
484.027	92.44
484.245	98.44
484.463	107.44
484.681	106.44
484.9	99.44
485.118	100.44
485.336	106.44
485.554	102.44
485.772	105.44
485.99	108.44
486.209	103.44
486.427	110.44
486.645	122.44
486.863	109.44
487.081	95.44
487.299	89.44
487.517	109.44
487.735	101.44
487.953	95.44
488.171	100.44
488.389	103.44
488.607	115.44
488.825	104.44
489.043	95.44
489.261	95.44
489.479	88.44
489.696	88.44
489.914	90.44
490.132	92.44
490.35	94.44
490.568	92.44
490.786	94.44
491.003	81.44
491.221	93.44
491.439	89.44
491.657	93.44
491.874	94.44
492.092	90.44
492.31	83.44
492.527	89.44
492.745	100.44
492.963	111.44
493.18	97.44
493.398	99.44
493.615	101.44
493.833	98.44
494.05	89.44
494.268	81.44
494.485	84.44
494.703	92.44
494.92	81.44
495.138	90.44
495.355	92.44
495.573	76.44
495.79	84.44
496.008	80.44
496.225	90.44
496.442	88.44
496.66	95.44
496.877	95.44
497.094	76.44
497.312	74.44
497.529	91.44
497.746	99.44
497.963	92.44
498.181	94.44
498.398	105.44
498.615	100.44
498.832	107.44
499.049	93.44
499.267	99.44
499.484	92.44
499.701	87.44
499.918	88.44
500.135	95.44
500.352	95.44
500.569	100.44
500.786	88.44
501.003	77.44
501.22	94.44
501.437	84.44
501.654	91.44
501.871	118.44
502.088	108.44
502.305	104.44
502.522	83.44
502.739	85.44
502.956	100.44
503.172	100.44
503.389	104.44
503.606	107.44
503.823	98.44
504.04	83.44
504.256	83.44
504.473	100.44
504.69	87.44
504.907	94.44
505.123	98.44
505.34	92.44
505.557	85.44
505.773	113.44
505.99	92.44
506.207	79.44
506.423	91.44
506.64	98.44
506.856	89.44
507.073	78.44
507.289	89.44
507.506	95.44
507.722	121.44
507.939	118.44
508.155	95.44
508.372	87.44
508.588	98.44
508.805	94.44
509.021	88.44
509.238	99.44
509.454	112.44
509.67	113.44
509.887	104.44
510.103	134.44
510.319	221.44
510.536	857.44
510.752	2922.44
510.968	789.44
511.184	181.44
511.401	109.44
511.617	102.44
511.833	108.44
512.049	92.44
512.265	103.44
512.481	101.44
512.698	109.44
512.914	118.44
513.13	103.44
513.346	91.44
