Data from Circ_2000_H10_HRD10591_00027.txt Node
Date: Wed Jan 03 10:49:39 EST 2024
User: Yrep
Spectrometer: HR+D1059
Trigger mode: 1
Integration Time (sec): 1.000000E-1
Scans to average: 1
Electric dark correction enabled: true
Nonlinearity correction enabled: false
Boxcar width: 0
XAxis mode: Wavelengths
Number of Pixels in Spectrum: 2048
>>>>>Begin Spectral Data<<<<<
223.165	-14.19
223.4	-14.19
223.635	-14.19
223.869	-30.19
224.104	-15.19
224.338	-13.19
224.573	-19.19
224.808	-19.19
225.042	-2.19
225.277	-9.19
225.511	3.81
225.746	3.81
225.98	-6.19
226.215	19.81
226.449	21.81
226.683	18.81
226.918	30.81
227.152	29.81
227.387	30.81
227.621	40.81
227.856	41.81
228.09	46.81
228.324	52.81
228.559	57.81
228.793	62.81
229.027	58.81
229.262	61.81
229.496	81.81
229.73	72.81
229.964	77.81
230.199	82.81
230.433	67.81
230.667	74.81
230.901	80.81
231.136	67.81
231.37	81.81
231.604	85.81
231.838	90.81
232.072	76.81
232.306	77.81
232.541	90.81
232.775	91.81
233.009	80.81
233.243	95.81
233.477	91.81
233.711	93.81
233.945	72.81
234.179	70.81
234.413	76.81
234.647	78.81
234.881	72.81
235.115	77.81
235.349	72.81
235.583	78.81
235.817	78.81
236.051	61.81
236.285	82.81
236.519	85.81
236.753	81.81
236.987	84.81
237.221	78.81
237.455	82.81
237.689	73.81
237.922	77.81
238.156	72.81
238.39	71.81
238.624	85.81
238.858	88.81
239.091	76.81
239.325	81.81
239.559	81.81
239.793	89.81
240.027	60.81
240.26	72.81
240.494	81.81
240.728	81.81
240.961	92.81
241.195	79.81
241.429	79.81
241.662	74.81
241.896	83.81
242.13	79.81
242.363	68.81
242.597	73.81
242.83	91.81
243.064	79.81
243.298	79.81
243.531	91.81
243.765	87.81
243.998	83.81
244.232	85.81
244.465	96.81
244.699	86.81
244.932	81.81
245.166	71.81
245.399	79.81
245.633	84.81
245.866	80.81
246.099	74.81
246.333	81.81
246.566	78.81
246.8	89.81
247.033	76.81
247.266	77.81
247.5	73.81
247.733	93.81
247.966	64.81
248.2	77.81
248.433	82.81
248.666	85.81
248.899	77.81
249.133	81.81
249.366	86.81
249.599	93.81
249.832	86.81
250.066	78.81
250.299	67.81
250.532	92.81
250.765	77.81
250.998	96.81
251.231	85.81
251.465	88.81
251.698	89.81
251.931	77.81
252.164	79.81
252.397	65.81
252.63	77.81
252.863	87.81
253.096	89.81
253.329	86.81
253.562	87.81
253.795	85.81
254.028	76.81
254.261	73.81
254.494	69.81
254.727	71.81
254.96	87.81
255.193	85.81
255.426	79.81
255.659	89.81
255.892	78.81
256.124	79.81
256.357	91.81
256.59	78.81
256.823	82.81
257.056	90.81
257.289	74.81
257.521	68.81
257.754	72.81
257.987	83.81
258.22	73.81
258.452	88.81
258.685	85.81
258.918	79.81
259.151	90.81
259.383	72.81
259.616	82.81
259.849	91.81
260.081	76.81
260.314	72.81
260.547	77.81
260.779	88.81
261.012	83.81
261.244	91.81
261.477	96.81
261.71	88.81
261.942	106.81
262.175	101.81
262.407	81.81
262.64	79.81
262.872	79.81
263.105	75.81
263.337	95.81
263.57	91.81
263.802	90.81
264.035	75.81
264.267	82.81
264.499	74.81
264.732	88.81
264.964	90.81
265.197	73.81
265.429	84.81
265.661	73.81
265.894	87.81
266.126	91.81
266.358	72.81
266.591	80.81
266.823	89.81
267.055	77.81
267.287	78.81
267.52	83.81
267.752	98.81
267.984	86.81
268.216	92.81
268.448	81.81
268.681	77.81
268.913	83.81
269.145	74.81
269.377	98.81
269.609	92.81
269.841	82.81
270.073	79.81
270.306	71.81
270.538	69.81
270.77	92.81
271.002	89.81
271.234	90.81
271.466	80.81
271.698	101.81
271.93	87.81
272.162	83.81
272.394	94.81
272.626	94.81
272.858	79.81
273.09	93.81
273.322	83.81
273.553	79.81
273.785	81.81
274.017	93.81
274.249	79.81
274.481	86.81
274.713	83.81
274.945	90.81
275.176	83.81
275.408	87.81
275.64	101.81
275.872	90.81
276.104	89.81
276.335	79.81
276.567	101.81
276.799	95.81
277.031	109.81
277.262	113.81
277.494	105.81
277.726	78.81
277.957	79.81
278.189	96.81
278.421	97.81
278.652	81.81
278.884	82.81
279.115	79.81
279.347	89.81
279.579	89.81
279.81	103.81
280.042	124.81
280.273	129.81
280.505	109.81
280.736	77.81
280.968	88.81
281.199	79.81
281.431	88.81
281.662	95.81
281.894	85.81
282.125	103.81
282.356	98.81
282.588	133.81
282.819	118.81
283.051	89.81
283.282	87.81
283.513	79.81
283.745	101.81
283.976	102.81
284.207	87.81
284.439	74.81
284.67	91.81
284.901	80.81
285.132	101.81
285.364	99.81
285.595	87.81
285.826	78.81
286.057	91.81
286.288	80.81
286.52	79.81
286.751	83.81
286.982	112.81
287.213	84.81
287.444	82.81
287.675	83.81
287.906	95.81
288.138	86.81
288.369	93.81
288.6	84.81
288.831	96.81
289.062	92.81
289.293	79.81
289.524	97.81
289.755	92.81
289.986	94.81
290.217	111.81
290.448	80.81
290.679	89.81
290.91	86.81
291.141	94.81
291.371	77.81
291.602	77.81
291.833	99.81
292.064	90.81
292.295	89.81
292.526	77.81
292.757	75.81
292.987	83.81
293.218	93.81
293.449	84.81
293.68	98.81
293.91	85.81
294.141	91.81
294.372	84.81
294.603	94.81
294.833	105.81
295.064	89.81
295.295	77.81
295.525	90.81
295.756	91.81
295.987	102.81
296.217	145.81
296.448	118.81
296.679	94.81
296.909	95.81
297.14	93.81
297.37	93.81
297.601	92.81
297.831	95.81
298.062	93.81
298.292	93.81
298.523	80.81
298.753	94.81
298.984	81.81
299.214	94.81
299.445	105.81
299.675	94.81
299.905	98.81
300.136	86.81
300.366	94.81
300.597	76.81
300.827	84.81
301.057	103.81
301.288	104.81
301.518	105.81
301.748	87.81
301.979	90.81
302.209	92.81
302.439	90.81
302.669	87.81
302.9	94.81
303.13	95.81
303.36	93.81
303.59	103.81
303.82	111.81
304.051	107.81
304.281	85.81
304.511	93.81
304.741	83.81
304.971	87.81
305.201	115.81
305.431	95.81
305.661	94.81
305.891	101.81
306.121	106.81
306.352	110.81
306.582	111.81
306.812	95.81
307.042	90.81
307.272	100.81
307.502	110.81
307.731	123.81
307.961	101.81
308.191	91.81
308.421	93.81
308.651	85.81
308.881	78.81
309.111	100.81
309.341	104.81
309.571	93.81
309.8	88.81
310.03	91.81
310.26	98.81
310.49	92.81
310.72	102.81
310.949	109.81
311.179	93.81
311.409	103.81
311.639	101.81
311.868	89.81
312.098	101.81
312.328	87.81
312.557	89.81
312.787	104.81
313.017	95.81
313.246	107.81
313.476	83.81
313.706	95.81
313.935	92.81
314.165	101.81
314.394	105.81
314.624	90.81
314.853	91.81
315.083	87.81
315.312	92.81
315.542	92.81
315.771	93.81
316.001	87.81
316.23	98.81
316.46	97.81
316.689	81.81
316.919	89.81
317.148	90.81
317.377	110.81
317.607	105.81
317.836	104.81
318.065	102.81
318.295	89.81
318.524	102.81
318.753	89.81
318.983	101.81
319.212	107.81
319.441	119.81
319.67	107.81
319.9	101.81
320.129	97.81
320.358	95.81
320.587	90.81
320.816	100.81
321.046	103.81
321.275	89.81
321.504	86.81
321.733	92.81
321.962	99.81
322.191	96.81
322.42	102.81
322.649	110.81
322.878	114.81
323.108	131.81
323.337	133.81
323.566	126.81
323.795	137.81
324.024	201.81
324.253	380.81
324.482	813.81
324.71	1628.81
324.939	2172.81
325.168	807.81
325.397	261.81
325.626	149.81
325.855	133.81
326.084	143.81
326.313	130.81
326.542	150.81
326.77	201.81
326.999	461.81
327.228	927.81
327.457	1733.81
327.686	1353.81
327.914	391.81
328.143	279.81
328.372	259.81
328.6	181.81
328.829	145.81
329.058	143.81
329.287	133.81
329.515	125.81
329.744	151.81
329.972	179.81
330.201	313.81
330.43	435.81
330.658	235.81
330.887	181.81
331.115	143.81
331.344	102.81
331.572	106.81
331.801	121.81
332.03	102.81
332.258	101.81
332.486	107.81
332.715	95.81
332.943	102.81
333.172	110.81
333.4	121.81
333.629	118.81
333.857	147.81
334.085	190.81
334.314	310.81
334.542	539.81
334.771	497.81
334.999	182.81
335.227	122.81
335.455	94.81
335.684	101.81
335.912	99.81
336.14	92.81
336.369	92.81
336.597	107.81
336.825	100.81
337.053	79.81
337.281	95.81
337.51	86.81
337.738	91.81
337.966	91.81
338.194	103.81
338.422	92.81
338.65	99.81
338.878	92.81
339.106	99.81
339.334	110.81
339.562	98.81
339.79	101.81
340.018	89.81
340.246	90.81
340.474	97.81
340.702	102.81
340.93	95.81
341.158	95.81
341.386	102.81
341.614	97.81
341.842	91.81
342.07	87.81
342.298	87.81
342.526	97.81
342.754	89.81
342.981	80.81
343.209	86.81
343.437	106.81
343.665	94.81
343.893	85.81
344.12	95.81
344.348	98.81
344.576	73.81
344.804	90.81
345.031	96.81
345.259	105.81
345.487	95.81
345.714	112.81
345.942	92.81
346.17	101.81
346.397	99.81
346.625	90.81
346.853	83.81
347.08	91.81
347.308	106.81
347.535	106.81
347.763	91.81
347.99	98.81
348.218	112.81
348.445	110.81
348.673	108.81
348.9	99.81
349.128	89.81
349.355	95.81
349.583	106.81
349.81	100.81
350.037	110.81
350.265	98.81
350.492	98.81
350.72	91.81
350.947	95.81
351.174	109.81
351.402	109.81
351.629	94.81
351.856	106.81
352.083	90.81
352.311	110.81
352.538	118.81
352.765	103.81
352.992	110.81
353.22	106.81
353.447	104.81
353.674	104.81
353.901	104.81
354.128	94.81
354.355	96.81
354.583	95.81
354.81	94.81
355.037	94.81
355.264	95.81
355.491	92.81
355.718	99.81
355.945	93.81
356.172	91.81
356.399	99.81
356.626	103.81
356.853	98.81
357.08	101.81
357.307	94.81
357.534	88.81
357.761	90.81
357.988	106.81
358.215	97.81
358.441	95.81
358.668	85.81
358.895	90.81
359.122	89.81
359.349	80.81
359.576	86.81
359.802	95.81
360.029	125.81
360.256	114.81
360.483	93.81
360.709	107.81
360.936	95.81
361.163	112.81
361.39	92.81
361.616	95.81
361.843	92.81
362.07	111.81
362.296	94.81
362.523	89.81
362.749	107.81
362.976	86.81
363.203	102.81
363.429	81.81
363.656	93.81
363.882	97.81
364.109	85.81
364.335	89.81
364.562	99.81
364.788	87.81
365.015	90.81
365.241	92.81
365.468	114.81
365.694	103.81
365.92	114.81
366.147	93.81
366.373	76.81
366.599	86.81
366.826	83.81
367.052	108.81
367.278	88.81
367.505	88.81
367.731	85.81
367.957	106.81
368.184	85.81
368.41	110.81
368.636	105.81
368.862	118.81
369.089	110.81
369.315	101.81
369.541	89.81
369.767	87.81
369.993	94.81
370.219	90.81
370.445	75.81
370.672	96.81
370.898	92.81
371.124	90.81
371.35	94.81
371.576	91.81
371.802	88.81
372.028	75.81
372.254	85.81
372.48	94.81
372.706	82.81
372.932	90.81
373.158	100.81
373.384	106.81
373.61	86.81
373.835	97.81
374.061	99.81
374.287	86.81
374.513	107.81
374.739	97.81
374.965	100.81
375.191	94.81
375.416	97.81
375.642	97.81
375.868	105.81
376.094	87.81
376.319	77.81
376.545	85.81
376.771	94.81
376.997	84.81
377.222	89.81
377.448	75.81
377.674	92.81
377.899	83.81
378.125	90.81
378.35	95.81
378.576	96.81
378.802	95.81
379.027	78.81
379.253	89.81
379.478	88.81
379.704	109.81
379.929	108.81
380.155	94.81
380.38	97.81
380.606	101.81
380.831	99.81
381.057	108.81
381.282	87.81
381.507	98.81
381.733	100.81
381.958	107.81
382.184	83.81
382.409	82.81
382.634	111.81
382.86	108.81
383.085	107.81
383.31	104.81
383.535	92.81
383.761	97.81
383.986	105.81
384.211	93.81
384.436	117.81
384.662	99.81
384.887	102.81
385.112	121.81
385.337	111.81
385.562	111.81
385.787	115.81
386.013	131.81
386.238	131.81
386.463	117.81
386.688	119.81
386.913	105.81
387.138	129.81
387.363	99.81
387.588	104.81
387.813	102.81
388.038	111.81
388.263	110.81
388.488	111.81
388.713	107.81
388.938	98.81
389.163	102.81
389.387	101.81
389.612	105.81
389.837	113.81
390.062	89.81
390.287	99.81
390.512	92.81
390.736	106.81
390.961	95.81
391.186	95.81
391.411	98.81
391.636	89.81
391.86	97.81
392.085	89.81
392.31	78.81
392.534	101.81
392.759	91.81
392.984	85.81
393.208	86.81
393.433	109.81
393.658	95.81
393.882	93.81
394.107	94.81
394.331	90.81
394.556	94.81
394.78	88.81
395.005	80.81
395.229	83.81
395.454	91.81
395.678	79.81
395.903	84.81
396.127	99.81
396.352	92.81
396.576	89.81
396.801	88.81
397.025	88.81
397.249	83.81
397.474	91.81
397.698	78.81
397.922	90.81
398.147	73.81
398.371	96.81
398.595	94.81
398.82	98.81
399.044	85.81
399.268	89.81
399.492	96.81
399.717	88.81
399.941	93.81
400.165	93.81
400.389	83.81
400.613	105.81
400.837	74.81
401.062	83.81
401.286	90.81
401.51	93.81
401.734	93.81
401.958	102.81
402.182	129.81
402.406	151.81
402.63	107.81
402.854	93.81
403.078	83.81
403.302	83.81
403.526	71.81
403.75	104.81
403.974	95.81
404.198	89.81
404.422	89.81
404.645	97.81
404.869	98.81
405.093	116.81
405.317	122.81
405.541	104.81
405.765	106.81
405.988	111.81
406.212	161.81
406.436	211.81
406.66	144.81
406.883	91.81
407.107	89.81
407.331	102.81
407.555	110.81
407.778	99.81
408.002	96.81
408.226	104.81
408.449	96.81
408.673	93.81
408.896	88.81
409.12	96.81
409.344	85.81
409.567	80.81
409.791	94.81
410.014	99.81
410.238	94.81
410.461	94.81
410.685	90.81
410.908	108.81
411.132	109.81
411.355	88.81
411.578	99.81
411.802	95.81
412.025	97.81
412.249	93.81
412.472	84.81
412.695	96.81
412.919	89.81
413.142	92.81
413.365	90.81
413.589	92.81
413.812	87.81
414.035	81.81
414.258	102.81
414.482	87.81
414.705	90.81
414.928	87.81
415.151	88.81
415.374	102.81
415.597	98.81
415.821	79.81
416.044	90.81
416.267	80.81
416.49	83.81
416.713	77.81
416.936	74.81
417.159	94.81
417.382	98.81
417.605	95.81
417.828	104.81
418.051	105.81
418.274	82.81
418.497	88.81
418.72	86.81
418.943	80.81
419.166	87.81
419.389	84.81
419.611	80.81
419.834	94.81
420.057	79.81
420.28	92.81
420.503	83.81
420.726	89.81
420.948	100.81
421.171	95.81
421.394	100.81
421.617	89.81
421.839	82.81
422.062	84.81
422.285	98.81
422.507	82.81
422.73	103.81
422.953	102.81
423.175	93.81
423.398	84.81
423.621	88.81
423.843	85.81
424.066	103.81
424.288	80.81
424.511	89.81
424.733	105.81
424.956	115.81
425.178	92.81
425.401	113.81
425.623	111.81
425.846	100.81
426.068	94.81
426.291	76.81
426.513	93.81
426.735	89.81
426.958	89.81
427.18	118.81
427.402	133.81
427.625	182.81
427.847	173.81
428.069	130.81
428.292	105.81
428.514	94.81
428.736	82.81
428.958	94.81
429.181	79.81
429.403	96.81
429.625	82.81
429.847	100.81
430.069	106.81
430.292	97.81
430.514	83.81
430.736	81.81
430.958	88.81
431.18	98.81
431.402	79.81
431.624	87.81
431.846	96.81
432.068	78.81
432.29	86.81
432.512	91.81
432.734	70.81
432.956	85.81
433.178	90.81
433.4	107.81
433.622	89.81
433.844	73.81
434.066	93.81
434.287	91.81
434.509	81.81
434.731	108.81
434.953	99.81
435.175	77.81
435.397	75.81
435.618	91.81
435.84	100.81
436.062	107.81
436.284	114.81
436.505	87.81
436.727	101.81
436.949	89.81
437.17	86.81
437.392	83.81
437.614	94.81
437.835	102.81
438.057	117.81
438.278	111.81
438.5	105.81
438.721	111.81
438.943	101.81
439.165	85.81
439.386	85.81
439.608	89.81
439.829	95.81
440.05	109.81
440.272	133.81
440.493	101.81
440.715	75.81
440.936	86.81
441.158	86.81
441.379	90.81
441.6	106.81
441.822	88.81
442.043	91.81
442.264	102.81
442.486	86.81
442.707	94.81
442.928	122.81
443.149	127.81
443.371	134.81
443.592	95.81
443.813	108.81
444.034	110.81
444.255	82.81
444.476	95.81
444.698	101.81
444.919	80.81
445.14	124.81
445.361	110.81
445.582	118.81
445.803	142.81
446.024	132.81
446.245	133.81
446.466	119.81
446.687	92.81
446.908	88.81
447.129	105.81
447.35	77.81
447.571	88.81
447.792	84.81
448.013	94.81
448.234	103.81
448.455	89.81
448.675	132.81
448.896	121.81
449.117	102.81
449.338	105.81
449.559	123.81
449.779	137.81
450	95.81
450.221	102.81
450.442	103.81
450.662	92.81
450.883	116.81
451.104	110.81
451.324	96.81
451.545	84.81
451.766	83.81
451.986	85.81
452.207	86.81
452.428	100.81
452.648	104.81
452.869	105.81
453.089	123.81
453.31	135.81
453.53	86.81
453.751	97.81
453.971	97.81
454.192	111.81
454.412	99.81
454.633	92.81
454.853	105.81
455.073	93.81
455.294	98.81
455.514	103.81
455.734	104.81
455.955	90.81
456.175	82.81
456.395	93.81
456.616	94.81
456.836	96.81
457.056	97.81
457.276	93.81
457.497	80.81
457.717	85.81
457.937	98.81
458.157	84.81
458.377	81.81
458.598	105.81
458.818	159.81
459.038	177.81
459.258	123.81
459.478	75.81
459.698	86.81
459.918	90.81
460.138	90.81
460.358	70.81
460.578	90.81
460.798	90.81
461.018	91.81
461.238	90.81
461.458	83.81
461.678	88.81
461.898	87.81
462.118	75.81
462.338	97.81
462.558	92.81
462.777	90.81
462.997	83.81
463.217	79.81
463.437	72.81
463.657	94.81
463.876	84.81
464.096	84.81
464.316	85.81
464.536	87.81
464.755	76.81
464.975	101.81
465.195	153.81
465.414	158.81
465.634	91.81
465.854	90.81
466.073	89.81
466.293	106.81
466.512	78.81
466.732	96.81
466.951	73.81
467.171	77.81
467.391	89.81
467.61	107.81
467.829	118.81
468.049	188.81
468.268	265.81
468.488	130.81
468.707	90.81
468.927	93.81
469.146	88.81
469.365	94.81
469.585	91.81
469.804	92.81
470.023	104.81
470.243	86.81
470.462	109.81
470.681	108.81
470.901	89.81
471.12	106.81
471.339	101.81
471.558	82.81
471.777	107.81
471.997	133.81
472.216	335.81
472.435	684.81
472.654	206.81
472.873	109.81
473.092	95.81
473.311	76.81
473.53	79.81
473.749	99.81
473.968	100.81
474.187	88.81
474.406	95.81
474.625	105.81
474.844	83.81
475.063	81.81
475.282	93.81
475.501	97.81
475.72	77.81
475.939	108.81
476.158	90.81
476.377	88.81
476.596	93.81
476.814	92.81
477.033	94.81
477.252	94.81
477.471	106.81
477.69	69.81
477.908	88.81
478.127	94.81
478.346	90.81
478.564	94.81
478.783	105.81
479.002	87.81
479.22	112.81
479.439	122.81
479.658	111.81
479.876	99.81
480.095	83.81
480.313	102.81
480.532	116.81
480.751	129.81
480.969	333.81
481.188	1182.81
481.406	727.81
481.624	176.81
481.843	103.81
482.061	95.81
482.28	71.81
482.498	85.81
482.717	99.81
482.935	95.81
483.153	100.81
483.372	89.81
483.59	85.81
483.808	95.81
484.027	102.81
484.245	90.81
484.463	99.81
484.681	102.81
484.9	98.81
485.118	100.81
485.336	102.81
485.554	93.81
485.772	89.81
485.99	109.81
486.209	113.81
486.427	102.81
486.645	103.81
486.863	121.81
487.081	103.81
487.299	104.81
487.517	112.81
487.735	94.81
487.953	92.81
488.171	99.81
488.389	108.81
488.607	100.81
488.825	90.81
489.043	97.81
489.261	111.81
489.479	97.81
489.696	81.81
489.914	75.81
490.132	84.81
490.35	91.81
490.568	89.81
490.786	94.81
491.003	86.81
491.221	83.81
491.439	93.81
491.657	89.81
491.874	91.81
492.092	81.81
492.31	85.81
492.527	86.81
492.745	95.81
492.963	83.81
493.18	97.81
493.398	95.81
493.615	90.81
493.833	87.81
494.05	95.81
494.268	96.81
494.485	101.81
494.703	89.81
494.92	99.81
495.138	97.81
495.355	95.81
495.573	98.81
495.79	78.81
496.008	86.81
496.225	87.81
496.442	88.81
496.66	88.81
496.877	87.81
497.094	95.81
497.312	86.81
497.529	95.81
497.746	80.81
497.963	90.81
498.181	101.81
498.398	88.81
498.615	102.81
498.832	119.81
499.049	102.81
499.267	83.81
499.484	87.81
499.701	83.81
499.918	90.81
500.135	98.81
500.352	94.81
500.569	95.81
500.786	103.81
501.003	90.81
501.22	90.81
501.437	85.81
501.654	95.81
501.871	103.81
502.088	99.81
502.305	94.81
502.522	95.81
502.739	89.81
502.956	93.81
503.172	94.81
503.389	95.81
503.606	99.81
503.823	85.81
504.04	101.81
504.256	78.81
504.473	100.81
504.69	94.81
504.907	84.81
505.123	88.81
505.34	91.81
505.557	92.81
505.773	92.81
505.99	91.81
506.207	98.81
506.423	80.81
506.64	87.81
506.856	89.81
507.073	91.81
507.289	79.81
507.506	94.81
507.722	120.81
507.939	120.81
508.155	102.81
508.372	88.81
508.588	97.81
508.805	86.81
509.021	94.81
509.238	99.81
509.454	110.81
509.67	91.81
509.887	106.81
510.103	129.81
510.319	211.81
510.536	699.81
510.752	2301.81
510.968	633.81
511.184	154.81
511.401	115.81
511.617	105.81
511.833	105.81
512.049	100.81
512.265	90.81
512.481	103.81
512.698	94.81
512.914	91.81
513.13	98.81
513.346	99.81
513.562	103.81
513.778	84.81
513.994	99.81
514.21	101.81
514.426	115.81
