Data from Circ_2000_H10_HRD10591_00054.txt Node
Date: Wed Jan 03 10:49:44 EST 2024
User: Yrep
Spectrometer: HR+D1059
Trigger mode: 1
Integration Time (sec): 1.000000E-1
Scans to average: 1
Electric dark correction enabled: true
Nonlinearity correction enabled: false
Boxcar width: 0
XAxis mode: Wavelengths
Number of Pixels in Spectrum: 2048
>>>>>Begin Spectral Data<<<<<
223.165	-23.94
223.4	-23.94
223.635	-23.94
223.869	-12.94
224.104	-9.94
224.338	-8.94
224.573	-31.94
224.808	-17.94
225.042	-6.94
225.277	-14.94
225.511	-7.94
225.746	2.06
225.98	21.06
226.215	21.06
226.449	17.06
226.683	18.06
226.918	31.06
227.152	25.06
227.387	40.06
227.621	37.06
227.856	54.06
228.09	59.06
228.324	45.06
228.559	60.06
228.793	68.06
229.027	64.06
229.262	55.06
229.496	61.06
229.73	76.06
229.964	83.06
230.199	87.06
230.433	72.06
230.667	83.06
230.901	85.06
231.136	78.06
231.37	76.06
231.604	60.06
231.838	92.06
232.072	79.06
232.306	75.06
232.541	87.06
232.775	72.06
233.009	100.06
233.243	94.06
233.477	78.06
233.711	71.06
233.945	90.06
234.179	80.06
234.413	89.06
234.647	82.06
234.881	75.06
235.115	80.06
235.349	75.06
235.583	67.06
235.817	82.06
236.051	81.06
236.285	75.06
236.519	72.06
236.753	85.06
236.987	71.06
237.221	78.06
237.455	85.06
237.689	77.06
237.922	78.06
238.156	71.06
238.39	91.06
238.624	81.06
238.858	78.06
239.091	98.06
239.325	89.06
239.559	90.06
239.793	75.06
240.027	77.06
240.26	84.06
240.494	77.06
240.728	89.06
240.961	77.06
241.195	89.06
241.429	84.06
241.662	86.06
241.896	80.06
242.13	74.06
242.363	81.06
242.597	81.06
242.83	74.06
243.064	77.06
243.298	81.06
243.531	65.06
243.765	72.06
243.998	80.06
244.232	92.06
244.465	94.06
244.699	90.06
244.932	86.06
245.166	77.06
245.399	67.06
245.633	77.06
245.866	82.06
246.099	73.06
246.333	76.06
246.566	76.06
246.8	78.06
247.033	90.06
247.266	82.06
247.5	93.06
247.733	75.06
247.966	79.06
248.2	77.06
248.433	84.06
248.666	78.06
248.899	91.06
249.133	92.06
249.366	94.06
249.599	74.06
249.832	76.06
250.066	72.06
250.299	82.06
250.532	88.06
250.765	94.06
250.998	98.06
251.231	92.06
251.465	81.06
251.698	80.06
251.931	79.06
252.164	82.06
252.397	90.06
252.63	87.06
252.863	78.06
253.096	79.06
253.329	84.06
253.562	81.06
253.795	82.06
254.028	79.06
254.261	85.06
254.494	79.06
254.727	94.06
254.96	96.06
255.193	85.06
255.426	82.06
255.659	86.06
255.892	102.06
256.124	91.06
256.357	81.06
256.59	91.06
256.823	82.06
257.056	77.06
257.289	95.06
257.521	84.06
257.754	73.06
257.987	76.06
258.22	94.06
258.452	86.06
258.685	92.06
258.918	69.06
259.151	80.06
259.383	85.06
259.616	92.06
259.849	104.06
260.081	70.06
260.314	85.06
260.547	78.06
260.779	95.06
261.012	96.06
261.244	95.06
261.477	93.06
261.71	101.06
261.942	110.06
262.175	118.06
262.407	100.06
262.64	75.06
262.872	88.06
263.105	78.06
263.337	79.06
263.57	79.06
263.802	93.06
264.035	77.06
264.267	87.06
264.499	101.06
264.732	85.06
264.964	86.06
265.197	75.06
265.429	92.06
265.661	74.06
265.894	77.06
266.126	91.06
266.358	84.06
266.591	90.06
266.823	71.06
267.055	83.06
267.287	96.06
267.52	81.06
267.752	75.06
267.984	84.06
268.216	93.06
268.448	94.06
268.681	100.06
268.913	88.06
269.145	87.06
269.377	84.06
269.609	99.06
269.841	93.06
270.073	92.06
270.306	106.06
270.538	99.06
270.77	81.06
271.002	86.06
271.234	81.06
271.466	92.06
271.698	89.06
271.93	88.06
272.162	73.06
272.394	81.06
272.626	85.06
272.858	94.06
273.09	83.06
273.322	97.06
273.553	85.06
273.785	78.06
274.017	77.06
274.249	73.06
274.481	93.06
274.713	100.06
274.945	82.06
275.176	86.06
275.408	87.06
275.64	90.06
275.872	103.06
276.104	99.06
276.335	94.06
276.567	102.06
276.799	102.06
277.031	129.06
277.262	108.06
277.494	117.06
277.726	86.06
277.957	79.06
278.189	88.06
278.421	73.06
278.652	81.06
278.884	85.06
279.115	101.06
279.347	106.06
279.579	90.06
279.81	114.06
280.042	115.06
280.273	145.06
280.505	113.06
280.736	98.06
280.968	86.06
281.199	77.06
281.431	84.06
281.662	96.06
281.894	73.06
282.125	106.06
282.356	119.06
282.588	137.06
282.819	121.06
283.051	93.06
283.282	75.06
283.513	84.06
283.745	85.06
283.976	103.06
284.207	81.06
284.439	87.06
284.67	94.06
284.901	88.06
285.132	91.06
285.364	80.06
285.595	95.06
285.826	87.06
286.057	90.06
286.288	85.06
286.52	80.06
286.751	100.06
286.982	79.06
287.213	87.06
287.444	92.06
287.675	76.06
287.906	95.06
288.138	90.06
288.369	83.06
288.6	103.06
288.831	74.06
289.062	98.06
289.293	98.06
289.524	89.06
289.755	78.06
289.986	87.06
290.217	100.06
290.448	82.06
290.679	98.06
290.91	83.06
291.141	95.06
291.371	94.06
291.602	93.06
291.833	77.06
292.064	93.06
292.295	95.06
292.526	90.06
292.757	86.06
292.987	86.06
293.218	86.06
293.449	87.06
293.68	93.06
293.91	94.06
294.141	86.06
294.372	82.06
294.603	90.06
294.833	90.06
295.064	90.06
295.295	91.06
295.525	101.06
295.756	93.06
295.987	115.06
296.217	146.06
296.448	125.06
296.679	86.06
296.909	98.06
297.14	95.06
297.37	94.06
297.601	94.06
297.831	90.06
298.062	102.06
298.292	90.06
298.523	93.06
298.753	77.06
298.984	74.06
299.214	88.06
299.445	83.06
299.675	85.06
299.905	91.06
300.136	81.06
300.366	92.06
300.597	92.06
300.827	100.06
301.057	83.06
301.288	88.06
301.518	98.06
301.748	85.06
301.979	107.06
302.209	100.06
302.439	73.06
302.669	104.06
302.9	93.06
303.13	95.06
303.36	117.06
303.59	110.06
303.82	105.06
304.051	89.06
304.281	83.06
304.511	95.06
304.741	101.06
304.971	84.06
305.201	95.06
305.431	94.06
305.661	97.06
305.891	104.06
306.121	98.06
306.352	105.06
306.582	119.06
306.812	114.06
307.042	101.06
307.272	130.06
307.502	129.06
307.731	126.06
307.961	105.06
308.191	94.06
308.421	99.06
308.651	71.06
308.881	87.06
309.111	101.06
309.341	97.06
309.571	107.06
309.8	96.06
310.03	101.06
310.26	93.06
310.49	117.06
310.72	103.06
310.949	104.06
311.179	119.06
311.409	98.06
311.639	94.06
311.868	96.06
312.098	106.06
312.328	97.06
312.557	97.06
312.787	110.06
313.017	97.06
313.246	95.06
313.476	100.06
313.706	100.06
313.935	101.06
314.165	99.06
314.394	107.06
314.624	105.06
314.853	95.06
315.083	98.06
315.312	97.06
315.542	95.06
315.771	88.06
316.001	93.06
316.23	94.06
316.46	87.06
316.689	87.06
316.919	95.06
317.148	88.06
317.377	90.06
317.607	94.06
317.836	103.06
318.065	89.06
318.295	78.06
318.524	91.06
318.753	98.06
318.983	100.06
319.212	100.06
319.441	109.06
319.67	101.06
319.9	90.06
320.129	90.06
320.358	88.06
320.587	100.06
320.816	103.06
321.046	99.06
321.275	99.06
321.504	94.06
321.733	92.06
321.962	100.06
322.191	109.06
322.42	105.06
322.649	110.06
322.878	108.06
323.108	134.06
323.337	118.06
323.566	133.06
323.795	146.06
324.024	237.06
324.253	445.06
324.482	945.06
324.71	1994.06
324.939	2596.06
325.168	930.06
325.397	267.06
325.626	177.06
325.855	141.06
326.084	123.06
326.313	135.06
326.542	158.06
326.77	247.06
326.999	522.06
327.228	1102.06
327.457	1929.06
327.686	1539.06
327.914	468.06
328.143	327.06
328.372	346.06
328.6	227.06
328.829	149.06
329.058	151.06
329.287	150.06
329.515	130.06
329.744	158.06
329.972	273.06
330.201	439.06
330.43	631.06
330.658	341.06
330.887	213.06
331.115	145.06
331.344	111.06
331.572	101.06
331.801	117.06
332.03	105.06
332.258	84.06
332.486	108.06
332.715	105.06
332.943	115.06
333.172	103.06
333.4	105.06
333.629	119.06
333.857	170.06
334.085	248.06
334.314	491.06
334.542	828.06
334.771	765.06
334.999	250.06
335.227	138.06
335.455	106.06
335.684	110.06
335.912	101.06
336.14	109.06
336.369	95.06
336.597	101.06
336.825	99.06
337.053	103.06
337.281	87.06
337.51	78.06
337.738	93.06
337.966	99.06
338.194	100.06
338.422	102.06
338.65	101.06
338.878	102.06
339.106	97.06
339.334	83.06
339.562	84.06
339.79	79.06
340.018	89.06
340.246	89.06
340.474	92.06
340.702	98.06
340.93	105.06
341.158	100.06
341.386	90.06
341.614	93.06
341.842	87.06
342.07	94.06
342.298	103.06
342.526	81.06
342.754	86.06
342.981	83.06
343.209	84.06
343.437	106.06
343.665	97.06
343.893	92.06
344.12	96.06
344.348	80.06
344.576	104.06
344.804	83.06
345.031	105.06
345.259	108.06
345.487	99.06
345.714	93.06
345.942	102.06
346.17	91.06
346.397	88.06
346.625	103.06
346.853	103.06
347.08	93.06
347.308	106.06
347.535	106.06
347.763	125.06
347.99	103.06
348.218	102.06
348.445	119.06
348.673	116.06
348.9	103.06
349.128	81.06
349.355	93.06
349.583	100.06
349.81	93.06
350.037	102.06
350.265	90.06
350.492	105.06
350.72	87.06
350.947	108.06
351.174	113.06
351.402	113.06
351.629	113.06
351.856	117.06
352.083	118.06
352.311	92.06
352.538	119.06
352.765	121.06
352.992	120.06
353.22	102.06
353.447	104.06
353.674	107.06
353.901	99.06
354.128	90.06
354.355	111.06
354.583	103.06
354.81	91.06
355.037	92.06
355.264	91.06
355.491	84.06
355.718	98.06
355.945	94.06
356.172	89.06
356.399	88.06
356.626	98.06
356.853	87.06
357.08	88.06
357.307	89.06
357.534	91.06
357.761	105.06
357.988	97.06
358.215	81.06
358.441	91.06
358.668	88.06
358.895	101.06
359.122	104.06
359.349	89.06
359.576	104.06
359.802	119.06
360.029	121.06
360.256	127.06
360.483	108.06
360.709	97.06
360.936	93.06
361.163	101.06
361.39	90.06
361.616	108.06
361.843	91.06
362.07	89.06
362.296	93.06
362.523	95.06
362.749	94.06
362.976	94.06
363.203	99.06
363.429	97.06
363.656	92.06
363.882	101.06
364.109	98.06
364.335	96.06
364.562	101.06
364.788	104.06
365.015	107.06
365.241	98.06
365.468	111.06
365.694	103.06
365.92	89.06
366.147	97.06
366.373	84.06
366.599	90.06
366.826	96.06
367.052	90.06
367.278	97.06
367.505	103.06
367.731	90.06
367.957	85.06
368.184	103.06
368.41	102.06
368.636	113.06
368.862	116.06
369.089	114.06
369.315	97.06
369.541	97.06
369.767	97.06
369.993	103.06
370.219	100.06
370.445	101.06
370.672	81.06
370.898	91.06
371.124	78.06
371.35	87.06
371.576	95.06
371.802	91.06
372.028	90.06
372.254	87.06
372.48	95.06
372.706	92.06
372.932	90.06
373.158	92.06
373.384	77.06
373.61	108.06
373.835	86.06
374.061	90.06
374.287	100.06
374.513	95.06
374.739	97.06
374.965	87.06
375.191	93.06
375.416	92.06
375.642	94.06
375.868	90.06
376.094	99.06
376.319	101.06
376.545	84.06
376.771	77.06
376.997	98.06
377.222	102.06
377.448	86.06
377.674	92.06
377.899	91.06
378.125	83.06
378.35	97.06
378.576	82.06
378.802	100.06
379.027	94.06
379.253	91.06
379.478	96.06
379.704	94.06
379.929	98.06
380.155	118.06
380.38	88.06
380.606	99.06
380.831	100.06
381.057	91.06
381.282	83.06
381.507	82.06
381.733	89.06
381.958	90.06
382.184	88.06
382.409	104.06
382.634	96.06
382.86	95.06
383.085	96.06
383.31	102.06
383.535	103.06
383.761	89.06
383.986	101.06
384.211	100.06
384.436	93.06
384.662	90.06
384.887	103.06
385.112	103.06
385.337	91.06
385.562	103.06
385.787	99.06
386.013	114.06
386.238	132.06
386.463	98.06
386.688	113.06
386.913	97.06
387.138	101.06
387.363	95.06
387.588	101.06
387.813	109.06
388.038	117.06
388.263	115.06
388.488	122.06
388.713	89.06
388.938	99.06
389.163	88.06
389.387	86.06
389.612	111.06
389.837	101.06
390.062	93.06
390.287	103.06
390.512	107.06
390.736	87.06
390.961	95.06
391.186	81.06
391.411	84.06
391.636	104.06
391.86	83.06
392.085	97.06
392.31	98.06
392.534	85.06
392.759	94.06
392.984	84.06
393.208	87.06
393.433	95.06
393.658	86.06
393.882	78.06
394.107	76.06
394.331	89.06
394.556	82.06
394.78	82.06
395.005	98.06
395.229	76.06
395.454	80.06
395.678	80.06
395.903	85.06
396.127	92.06
396.352	99.06
396.576	86.06
396.801	80.06
397.025	87.06
397.249	105.06
397.474	77.06
397.698	77.06
397.922	83.06
398.147	79.06
398.371	86.06
398.595	81.06
398.82	81.06
399.044	89.06
399.268	96.06
399.492	85.06
399.717	85.06
399.941	96.06
400.165	97.06
400.389	97.06
400.613	102.06
400.837	101.06
401.062	91.06
401.286	93.06
401.51	88.06
401.734	90.06
401.958	101.06
402.182	120.06
402.406	173.06
402.63	124.06
402.854	99.06
403.078	92.06
403.302	92.06
403.526	91.06
403.75	101.06
403.974	81.06
404.198	89.06
404.422	82.06
404.645	102.06
404.869	95.06
405.093	97.06
405.317	125.06
405.541	119.06
405.765	109.06
405.988	121.06
406.212	170.06
406.436	225.06
406.66	161.06
406.883	105.06
407.107	84.06
407.331	109.06
407.555	112.06
407.778	96.06
408.002	90.06
408.226	93.06
408.449	91.06
408.673	87.06
408.896	102.06
409.12	96.06
409.344	95.06
409.567	92.06
409.791	108.06
410.014	107.06
410.238	113.06
410.461	89.06
410.685	93.06
410.908	106.06
411.132	107.06
411.355	115.06
411.578	86.06
411.802	91.06
412.025	91.06
412.249	92.06
412.472	120.06
412.695	111.06
412.919	104.06
413.142	96.06
413.365	89.06
413.589	92.06
413.812	99.06
414.035	102.06
414.258	93.06
414.482	93.06
414.705	81.06
414.928	95.06
415.151	85.06
415.374	86.06
415.597	101.06
415.821	100.06
416.044	87.06
416.267	95.06
416.49	82.06
416.713	94.06
416.936	95.06
417.159	92.06
417.382	79.06
417.605	100.06
417.828	104.06
418.051	101.06
418.274	107.06
418.497	81.06
418.72	75.06
418.943	93.06
419.166	100.06
419.389	105.06
419.611	90.06
419.834	92.06
420.057	76.06
420.28	83.06
420.503	87.06
420.726	102.06
420.948	83.06
421.171	112.06
421.394	108.06
421.617	88.06
421.839	97.06
422.062	100.06
422.285	98.06
422.507	105.06
422.73	97.06
422.953	93.06
423.175	93.06
423.398	81.06
423.621	86.06
423.843	97.06
424.066	75.06
424.288	93.06
424.511	86.06
424.733	111.06
424.956	116.06
425.178	92.06
425.401	108.06
425.623	103.06
425.846	105.06
426.068	109.06
426.291	82.06
426.513	87.06
426.735	101.06
426.958	95.06
427.18	119.06
427.402	163.06
427.625	214.06
427.847	197.06
428.069	152.06
428.292	109.06
428.514	83.06
428.736	71.06
428.958	77.06
429.181	76.06
429.403	92.06
429.625	69.06
429.847	95.06
430.069	99.06
430.292	94.06
430.514	88.06
430.736	75.06
430.958	84.06
431.18	96.06
431.402	102.06
431.624	85.06
431.846	97.06
432.068	84.06
432.29	95.06
432.512	77.06
432.734	86.06
432.956	103.06
433.178	102.06
433.4	105.06
433.622	99.06
433.844	92.06
434.066	94.06
434.287	86.06
434.509	86.06
434.731	101.06
434.953	95.06
435.175	105.06
435.397	79.06
435.618	101.06
435.84	123.06
436.062	144.06
436.284	123.06
436.505	99.06
436.727	94.06
436.949	81.06
437.17	81.06
437.392	89.06
437.614	83.06
437.835	114.06
438.057	141.06
438.278	122.06
438.5	115.06
438.721	143.06
438.943	110.06
439.165	88.06
439.386	84.06
439.608	94.06
439.829	119.06
440.05	143.06
440.272	168.06
440.493	109.06
440.715	89.06
440.936	76.06
441.158	73.06
441.379	86.06
441.6	99.06
441.822	92.06
442.043	95.06
442.264	113.06
442.486	107.06
442.707	115.06
442.928	113.06
443.149	153.06
443.371	142.06
443.592	121.06
443.813	132.06
444.034	137.06
444.255	93.06
444.476	94.06
444.698	87.06
444.919	90.06
445.14	130.06
445.361	137.06
445.582	124.06
445.803	147.06
446.024	164.06
446.245	148.06
446.466	115.06
446.687	86.06
446.908	105.06
447.129	86.06
447.35	97.06
447.571	90.06
447.792	97.06
448.013	91.06
448.234	112.06
448.455	94.06
448.675	131.06
448.896	146.06
449.117	118.06
449.338	106.06
449.559	142.06
449.779	151.06
450	111.06
450.221	85.06
450.442	90.06
450.662	121.06
450.883	126.06
451.104	121.06
451.324	97.06
451.545	89.06
451.766	86.06
451.986	85.06
452.207	104.06
452.428	103.06
452.648	106.06
452.869	110.06
453.089	117.06
453.31	114.06
453.53	85.06
453.751	90.06
453.971	105.06
454.192	125.06
454.412	92.06
454.633	87.06
454.853	83.06
455.073	86.06
455.294	101.06
455.514	108.06
455.734	87.06
455.955	93.06
456.175	84.06
456.395	88.06
456.616	99.06
456.836	95.06
457.056	104.06
457.276	91.06
457.497	90.06
457.717	79.06
457.937	90.06
458.157	93.06
458.377	95.06
458.598	113.06
458.818	170.06
459.038	197.06
459.258	119.06
459.478	94.06
459.698	82.06
459.918	87.06
460.138	85.06
460.358	86.06
460.578	76.06
460.798	99.06
461.018	97.06
461.238	97.06
461.458	84.06
461.678	95.06
461.898	95.06
462.118	76.06
462.338	85.06
462.558	97.06
462.777	82.06
462.997	92.06
463.217	87.06
463.437	97.06
463.657	93.06
463.876	93.06
464.096	112.06
464.316	105.06
464.536	83.06
464.755	100.06
464.975	105.06
465.195	189.06
465.414	195.06
465.634	108.06
465.854	81.06
466.073	93.06
466.293	94.06
466.512	90.06
466.732	76.06
466.951	101.06
467.171	96.06
467.391	99.06
467.61	107.06
467.829	157.06
468.049	277.06
468.268	377.06
468.488	139.06
468.707	110.06
468.927	83.06
469.146	76.06
469.365	90.06
469.585	95.06
469.804	107.06
470.023	98.06
470.243	94.06
470.462	111.06
470.681	118.06
470.901	97.06
471.12	87.06
471.339	93.06
471.558	112.06
471.777	115.06
471.997	193.06
472.216	517.06
472.435	1066.06
472.654	300.06
472.873	113.06
473.092	97.06
473.311	84.06
473.53	96.06
473.749	103.06
473.968	100.06
474.187	121.06
474.406	102.06
474.625	97.06
474.844	87.06
475.063	69.06
475.282	83.06
475.501	84.06
475.72	91.06
475.939	87.06
476.158	89.06
476.377	80.06
476.596	86.06
476.814	93.06
477.033	97.06
477.252	93.06
477.471	80.06
477.69	89.06
477.908	86.06
478.127	105.06
478.346	100.06
478.564	97.06
478.783	103.06
479.002	114.06
479.22	104.06
479.439	110.06
479.658	116.06
479.876	103.06
480.095	92.06
480.313	114.06
480.532	126.06
480.751	171.06
480.969	520.06
481.188	1868.06
481.406	1117.06
481.624	221.06
481.843	110.06
482.061	94.06
482.28	77.06
482.498	82.06
482.717	103.06
482.935	100.06
483.153	94.06
483.372	107.06
483.59	85.06
483.808	87.06
484.027	93.06
484.245	90.06
484.463	95.06
484.681	92.06
484.9	94.06
485.118	113.06
485.336	93.06
485.554	103.06
485.772	94.06
485.99	117.06
486.209	106.06
486.427	105.06
486.645	111.06
486.863	117.06
487.081	107.06
487.299	97.06
487.517	110.06
487.735	95.06
487.953	89.06
488.171	91.06
488.389	82.06
488.607	101.06
488.825	89.06
489.043	94.06
489.261	95.06
489.479	88.06
489.696	95.06
489.914	89.06
490.132	88.06
490.35	87.06
490.568	86.06
490.786	91.06
491.003	98.06
491.221	93.06
491.439	113.06
491.657	97.06
491.874	102.06
492.092	94.06
492.31	99.06
492.527	95.06
492.745	94.06
492.963	100.06
493.18	107.06
493.398	86.06
493.615	104.06
493.833	87.06
494.05	81.06
494.268	93.06
494.485	88.06
494.703	97.06
494.92	105.06
495.138	85.06
495.355	95.06
495.573	66.06
495.79	103.06
496.008	90.06
496.225	80.06
496.442	91.06
496.66	82.06
496.877	80.06
497.094	95.06
497.312	93.06
497.529	85.06
497.746	96.06
497.963	81.06
498.181	82.06
498.398	88.06
498.615	117.06
498.832	100.06
499.049	87.06
499.267	77.06
499.484	85.06
499.701	98.06
499.918	96.06
500.135	88.06
500.352	85.06
500.569	83.06
500.786	95.06
501.003	96.06
501.22	94.06
501.437	90.06
501.654	83.06
501.871	109.06
502.088	94.06
502.305	83.06
502.522	92.06
502.739	90.06
502.956	106.06
503.172	93.06
503.389	102.06
503.606	104.06
503.823	104.06
504.04	103.06
504.256	97.06
504.473	94.06
504.69	81.06
504.907	85.06
505.123	96.06
505.34	103.06
505.557	98.06
505.773	103.06
505.99	91.06
506.207	94.06
506.423	93.06
506.64	83.06
506.856	88.06
507.073	86.06
507.289	93.06
507.506	102.06
507.722	131.06
507.939	123.06
508.155	105.06
508.372	78.06
508.588	86.06
508.805	93.06
509.021	91.06
509.238	102.06
509.454	104.06
509.67	101.06
509.887	118.06
510.103	124.06
510.319	229.06
510.536	782.06
510.752	2560.06
510.968	711.06
511.184	161.06
511.401	124.06
511.617	129.06
511.833	97.06
512.049	103.06
512.265	109.06
512.481	84.06
512.698	92.06
512.914	85.06
513.13	94.06
513.346	108.06
513.562	90.06
513.778	98.06
