Data from Circ_2000_H10_HRD10591_00010.txt Node
Date: Wed Jan 03 10:49:35 EST 2024
User: Yrep
Spectrometer: HR+D1059
Trigger mode: 1
Integration Time (sec): 1.000000E-1
Scans to average: 1
Electric dark correction enabled: true
Nonlinearity correction enabled: false
Boxcar width: 0
XAxis mode: Wavelengths
Number of Pixels in Spectrum: 2048
>>>>>Begin Spectral Data<<<<<
223.165	-9.94
223.4	-9.94
223.635	-9.94
223.869	-16.94
224.104	-14.94
224.338	-8.94
224.573	-16.94
224.808	-27.94
225.042	-8.94
225.277	-5.94
225.511	-11.94
225.746	13.06
225.98	1.06
226.215	10.06
226.449	19.06
226.683	21.06
226.918	17.06
227.152	41.06
227.387	24.06
227.621	32.06
227.856	42.06
228.09	44.06
228.324	53.06
228.559	51.06
228.793	63.06
229.027	72.06
229.262	65.06
229.496	74.06
229.73	79.06
229.964	80.06
230.199	74.06
230.433	80.06
230.667	89.06
230.901	65.06
231.136	75.06
231.37	73.06
231.604	71.06
231.838	70.06
232.072	75.06
232.306	77.06
232.541	82.06
232.775	78.06
233.009	66.06
233.243	79.06
233.477	86.06
233.711	69.06
233.945	86.06
234.179	70.06
234.413	74.06
234.647	74.06
234.881	75.06
235.115	90.06
235.349	77.06
235.583	87.06
235.817	75.06
236.051	60.06
236.285	53.06
236.519	84.06
236.753	73.06
236.987	77.06
237.221	73.06
237.455	77.06
237.689	90.06
237.922	79.06
238.156	79.06
238.39	79.06
238.624	80.06
238.858	88.06
239.091	88.06
239.325	58.06
239.559	71.06
239.793	81.06
240.027	85.06
240.26	79.06
240.494	67.06
240.728	73.06
240.961	73.06
241.195	69.06
241.429	79.06
241.662	66.06
241.896	71.06
242.13	70.06
242.363	67.06
242.597	70.06
242.83	73.06
243.064	75.06
243.298	82.06
243.531	71.06
243.765	79.06
243.998	76.06
244.232	82.06
244.465	68.06
244.699	75.06
244.932	74.06
245.166	72.06
245.399	68.06
245.633	72.06
245.866	75.06
246.099	77.06
246.333	68.06
246.566	53.06
246.8	82.06
247.033	75.06
247.266	69.06
247.5	77.06
247.733	90.06
247.966	73.06
248.2	94.06
248.433	72.06
248.666	80.06
248.899	71.06
249.133	90.06
249.366	101.06
249.599	89.06
249.832	61.06
250.066	96.06
250.299	74.06
250.532	69.06
250.765	78.06
250.998	89.06
251.231	82.06
251.465	90.06
251.698	64.06
251.931	70.06
252.164	78.06
252.397	90.06
252.63	80.06
252.863	75.06
253.096	71.06
253.329	68.06
253.562	69.06
253.795	81.06
254.028	77.06
254.261	85.06
254.494	65.06
254.727	75.06
254.96	75.06
255.193	75.06
255.426	74.06
255.659	77.06
255.892	73.06
256.124	78.06
256.357	84.06
256.59	75.06
256.823	77.06
257.056	87.06
257.289	85.06
257.521	87.06
257.754	75.06
257.987	81.06
258.22	73.06
258.452	86.06
258.685	78.06
258.918	91.06
259.151	63.06
259.383	76.06
259.616	90.06
259.849	79.06
260.081	88.06
260.314	93.06
260.547	82.06
260.779	59.06
261.012	79.06
261.244	82.06
261.477	82.06
261.71	91.06
261.942	101.06
262.175	98.06
262.407	75.06
262.64	75.06
262.872	82.06
263.105	80.06
263.337	88.06
263.57	84.06
263.802	85.06
264.035	86.06
264.267	93.06
264.499	92.06
264.732	86.06
264.964	81.06
265.197	77.06
265.429	91.06
265.661	95.06
265.894	80.06
266.126	88.06
266.358	77.06
266.591	86.06
266.823	74.06
267.055	81.06
267.287	84.06
267.52	74.06
267.752	80.06
267.984	75.06
268.216	71.06
268.448	72.06
268.681	73.06
268.913	79.06
269.145	86.06
269.377	83.06
269.609	87.06
269.841	77.06
270.073	66.06
270.306	84.06
270.538	77.06
270.77	69.06
271.002	81.06
271.234	83.06
271.466	69.06
271.698	84.06
271.93	88.06
272.162	79.06
272.394	89.06
272.626	99.06
272.858	79.06
273.09	82.06
273.322	79.06
273.553	72.06
273.785	73.06
274.017	75.06
274.249	95.06
274.481	82.06
274.713	77.06
274.945	72.06
275.176	77.06
275.408	64.06
275.64	88.06
275.872	93.06
276.104	91.06
276.335	83.06
276.567	96.06
276.799	101.06
277.031	88.06
277.262	104.06
277.494	75.06
277.726	74.06
277.957	79.06
278.189	88.06
278.421	76.06
278.652	81.06
278.884	86.06
279.115	92.06
279.347	91.06
279.579	86.06
279.81	89.06
280.042	101.06
280.273	87.06
280.505	85.06
280.736	71.06
280.968	82.06
281.199	93.06
281.431	80.06
281.662	80.06
281.894	91.06
282.125	106.06
282.356	98.06
282.588	118.06
282.819	101.06
283.051	77.06
283.282	89.06
283.513	86.06
283.745	69.06
283.976	104.06
284.207	89.06
284.439	82.06
284.67	76.06
284.901	73.06
285.132	93.06
285.364	83.06
285.595	82.06
285.826	89.06
286.057	91.06
286.288	82.06
286.52	77.06
286.751	80.06
286.982	95.06
287.213	81.06
287.444	85.06
287.675	78.06
287.906	92.06
288.138	95.06
288.369	95.06
288.6	78.06
288.831	93.06
289.062	85.06
289.293	96.06
289.524	72.06
289.755	85.06
289.986	85.06
290.217	87.06
290.448	88.06
290.679	91.06
290.91	79.06
291.141	79.06
291.371	93.06
291.602	81.06
291.833	93.06
292.064	97.06
292.295	94.06
292.526	76.06
292.757	71.06
292.987	88.06
293.218	98.06
293.449	89.06
293.68	83.06
293.91	88.06
294.141	99.06
294.372	81.06
294.603	84.06
294.833	82.06
295.064	95.06
295.295	85.06
295.525	71.06
295.756	92.06
295.987	101.06
296.217	122.06
296.448	113.06
296.679	86.06
296.909	72.06
297.14	93.06
297.37	75.06
297.601	72.06
297.831	88.06
298.062	80.06
298.292	89.06
298.523	94.06
298.753	101.06
298.984	98.06
299.214	75.06
299.445	90.06
299.675	85.06
299.905	88.06
300.136	83.06
300.366	78.06
300.597	87.06
300.827	72.06
301.057	96.06
301.288	101.06
301.518	85.06
301.748	87.06
301.979	97.06
302.209	105.06
302.439	93.06
302.669	93.06
302.9	100.06
303.13	84.06
303.36	75.06
303.59	90.06
303.82	95.06
304.051	101.06
304.281	90.06
304.511	86.06
304.741	84.06
304.971	71.06
305.201	84.06
305.431	93.06
305.661	94.06
305.891	90.06
306.121	96.06
306.352	99.06
306.582	98.06
306.812	99.06
307.042	91.06
307.272	96.06
307.502	99.06
307.731	98.06
307.961	86.06
308.191	102.06
308.421	94.06
308.651	90.06
308.881	83.06
309.111	78.06
309.341	90.06
309.571	97.06
309.8	97.06
310.03	94.06
310.26	90.06
310.49	97.06
310.72	91.06
310.949	95.06
311.179	114.06
311.409	84.06
311.639	79.06
311.868	86.06
312.098	90.06
312.328	104.06
312.557	90.06
312.787	98.06
313.017	96.06
313.246	88.06
313.476	90.06
313.706	95.06
313.935	91.06
314.165	99.06
314.394	100.06
314.624	98.06
314.853	91.06
315.083	83.06
315.312	78.06
315.542	83.06
315.771	86.06
316.001	93.06
316.23	93.06
316.46	92.06
316.689	103.06
316.919	90.06
317.148	73.06
317.377	83.06
317.607	98.06
317.836	102.06
318.065	86.06
318.295	94.06
318.524	91.06
318.753	90.06
318.983	97.06
319.212	98.06
319.441	105.06
319.67	91.06
319.9	100.06
320.129	97.06
320.358	79.06
320.587	90.06
320.816	102.06
321.046	113.06
321.275	104.06
321.504	100.06
321.733	103.06
321.962	78.06
322.191	102.06
322.42	96.06
322.649	98.06
322.878	102.06
323.108	102.06
323.337	112.06
323.566	111.06
323.795	134.06
324.024	173.06
324.253	354.06
324.482	729.06
324.71	1469.06
324.939	1924.06
325.168	734.06
325.397	206.06
325.626	131.06
325.855	126.06
326.084	129.06
326.313	122.06
326.542	141.06
326.77	204.06
326.999	400.06
327.228	819.06
327.457	1500.06
327.686	1179.06
327.914	332.06
328.143	197.06
328.372	189.06
328.6	132.06
328.829	114.06
329.058	132.06
329.287	135.06
329.515	98.06
329.744	115.06
329.972	140.06
330.201	177.06
330.43	218.06
330.658	154.06
330.887	138.06
331.115	111.06
331.344	92.06
331.572	90.06
331.801	97.06
332.03	94.06
332.258	98.06
332.486	88.06
332.715	75.06
332.943	84.06
333.172	98.06
333.4	95.06
333.629	94.06
333.857	126.06
334.085	128.06
334.314	153.06
334.542	259.06
334.771	265.06
334.999	113.06
335.227	96.06
335.455	98.06
335.684	77.06
335.912	75.06
336.14	100.06
336.369	100.06
336.597	91.06
336.825	93.06
337.053	89.06
337.281	91.06
337.51	96.06
337.738	82.06
337.966	88.06
338.194	84.06
338.422	97.06
338.65	84.06
338.878	87.06
339.106	88.06
339.334	90.06
339.562	78.06
339.79	100.06
340.018	86.06
340.246	85.06
340.474	92.06
340.702	101.06
340.93	75.06
341.158	91.06
341.386	93.06
341.614	88.06
341.842	81.06
342.07	81.06
342.298	82.06
342.526	84.06
342.754	87.06
342.981	81.06
343.209	84.06
343.437	99.06
343.665	90.06
343.893	72.06
344.12	86.06
344.348	81.06
344.576	110.06
344.804	107.06
345.031	93.06
345.259	89.06
345.487	97.06
345.714	79.06
345.942	90.06
346.17	81.06
346.397	77.06
346.625	84.06
346.853	85.06
347.08	80.06
347.308	93.06
347.535	87.06
347.763	97.06
347.99	88.06
348.218	82.06
348.445	96.06
348.673	91.06
348.9	85.06
349.128	89.06
349.355	90.06
349.583	100.06
349.81	89.06
350.037	100.06
350.265	88.06
350.492	99.06
350.72	90.06
350.947	86.06
351.174	81.06
351.402	99.06
351.629	102.06
351.856	106.06
352.083	84.06
352.311	100.06
352.538	111.06
352.765	115.06
352.992	108.06
353.22	110.06
353.447	98.06
353.674	105.06
353.901	94.06
354.128	106.06
354.355	90.06
354.583	90.06
354.81	89.06
355.037	93.06
355.264	94.06
355.491	94.06
355.718	88.06
355.945	86.06
356.172	86.06
356.399	100.06
356.626	97.06
356.853	90.06
357.08	86.06
357.307	84.06
357.534	100.06
357.761	93.06
357.988	108.06
358.215	112.06
358.441	91.06
358.668	99.06
358.895	87.06
359.122	85.06
359.349	85.06
359.576	81.06
359.802	95.06
360.029	102.06
360.256	97.06
360.483	90.06
360.709	86.06
360.936	86.06
361.163	81.06
361.39	97.06
361.616	105.06
361.843	97.06
362.07	84.06
362.296	88.06
362.523	79.06
362.749	83.06
362.976	93.06
363.203	82.06
363.429	93.06
363.656	89.06
363.882	62.06
364.109	88.06
364.335	80.06
364.562	85.06
364.788	97.06
365.015	85.06
365.241	94.06
365.468	97.06
365.694	88.06
365.92	79.06
366.147	77.06
366.373	84.06
366.599	88.06
366.826	84.06
367.052	81.06
367.278	92.06
367.505	101.06
367.731	86.06
367.957	91.06
368.184	96.06
368.41	98.06
368.636	89.06
368.862	118.06
369.089	95.06
369.315	87.06
369.541	83.06
369.767	90.06
369.993	84.06
370.219	90.06
370.445	78.06
370.672	86.06
370.898	88.06
371.124	79.06
371.35	89.06
371.576	76.06
371.802	93.06
372.028	82.06
372.254	83.06
372.48	89.06
372.706	80.06
372.932	76.06
373.158	76.06
373.384	78.06
373.61	93.06
373.835	90.06
374.061	84.06
374.287	84.06
374.513	90.06
374.739	75.06
374.965	94.06
375.191	91.06
375.416	86.06
375.642	87.06
375.868	88.06
376.094	93.06
376.319	100.06
376.545	89.06
376.771	86.06
376.997	91.06
377.222	93.06
377.448	99.06
377.674	97.06
377.899	94.06
378.125	94.06
378.35	85.06
378.576	79.06
378.802	88.06
379.027	91.06
379.253	80.06
379.478	91.06
379.704	91.06
379.929	102.06
380.155	94.06
380.38	99.06
380.606	107.06
380.831	95.06
381.057	94.06
381.282	107.06
381.507	109.06
381.733	107.06
381.958	102.06
382.184	112.06
382.409	88.06
382.634	114.06
382.86	108.06
383.085	104.06
383.31	97.06
383.535	99.06
383.761	106.06
383.986	106.06
384.211	109.06
384.436	100.06
384.662	106.06
384.887	131.06
385.112	125.06
385.337	116.06
385.562	127.06
385.787	120.06
386.013	120.06
386.238	126.06
386.463	121.06
386.688	121.06
386.913	116.06
387.138	131.06
387.363	109.06
387.588	94.06
387.813	115.06
388.038	119.06
388.263	118.06
388.488	125.06
388.713	97.06
388.938	97.06
389.163	96.06
389.387	85.06
389.612	92.06
389.837	96.06
390.062	97.06
390.287	95.06
390.512	94.06
390.736	83.06
390.961	80.06
391.186	83.06
391.411	89.06
391.636	91.06
391.86	77.06
392.085	80.06
392.31	97.06
392.534	92.06
392.759	81.06
392.984	79.06
393.208	92.06
393.433	86.06
393.658	93.06
393.882	78.06
394.107	76.06
394.331	84.06
394.556	95.06
394.78	87.06
395.005	77.06
395.229	81.06
395.454	81.06
395.678	86.06
395.903	75.06
396.127	66.06
396.352	84.06
396.576	81.06
396.801	85.06
397.025	84.06
397.249	79.06
397.474	68.06
397.698	77.06
397.922	90.06
398.147	78.06
398.371	83.06
398.595	78.06
398.82	81.06
399.044	81.06
399.268	90.06
399.492	79.06
399.717	77.06
399.941	109.06
400.165	84.06
400.389	84.06
400.613	75.06
400.837	81.06
401.062	89.06
401.286	90.06
401.51	87.06
401.734	93.06
401.958	85.06
402.182	114.06
402.406	132.06
402.63	98.06
402.854	87.06
403.078	79.06
403.302	81.06
403.526	82.06
403.75	81.06
403.974	89.06
404.198	82.06
404.422	74.06
404.645	73.06
404.869	85.06
405.093	112.06
405.317	102.06
405.541	96.06
405.765	82.06
405.988	111.06
406.212	156.06
406.436	195.06
406.66	143.06
406.883	97.06
407.107	74.06
407.331	72.06
407.555	85.06
407.778	73.06
408.002	82.06
408.226	74.06
408.449	79.06
408.673	81.06
408.896	98.06
409.12	96.06
409.344	82.06
409.567	69.06
409.791	70.06
410.014	96.06
410.238	95.06
410.461	85.06
410.685	79.06
410.908	90.06
411.132	95.06
411.355	94.06
411.578	86.06
411.802	89.06
412.025	80.06
412.249	82.06
412.472	102.06
412.695	95.06
412.919	90.06
413.142	80.06
413.365	74.06
413.589	92.06
413.812	100.06
414.035	81.06
414.258	75.06
414.482	85.06
414.705	75.06
414.928	90.06
415.151	85.06
415.374	86.06
415.597	103.06
415.821	91.06
416.044	87.06
416.267	90.06
416.49	86.06
416.713	90.06
416.936	83.06
417.159	84.06
417.382	78.06
417.605	97.06
417.828	87.06
418.051	92.06
418.274	87.06
418.497	90.06
418.72	86.06
418.943	80.06
419.166	94.06
419.389	92.06
419.611	74.06
419.834	92.06
420.057	79.06
420.28	87.06
420.503	91.06
420.726	77.06
420.948	64.06
421.171	80.06
421.394	104.06
421.617	86.06
421.839	80.06
422.062	87.06
422.285	83.06
422.507	97.06
422.73	100.06
422.953	81.06
423.175	96.06
423.398	77.06
423.621	89.06
423.843	94.06
424.066	86.06
424.288	102.06
424.511	86.06
424.733	89.06
424.956	94.06
425.178	85.06
425.401	82.06
425.623	99.06
425.846	89.06
426.068	78.06
426.291	95.06
426.513	64.06
426.735	95.06
426.958	82.06
427.18	89.06
427.402	114.06
427.625	147.06
427.847	130.06
428.069	123.06
428.292	111.06
428.514	79.06
428.736	88.06
428.958	91.06
429.181	81.06
429.403	73.06
429.625	79.06
429.847	82.06
430.069	106.06
430.292	93.06
430.514	86.06
430.736	79.06
430.958	84.06
431.18	67.06
431.402	93.06
431.624	67.06
431.846	92.06
432.068	103.06
432.29	76.06
432.512	86.06
432.734	86.06
432.956	82.06
433.178	85.06
433.4	77.06
433.622	87.06
433.844	81.06
434.066	84.06
434.287	72.06
434.509	81.06
434.731	99.06
434.953	97.06
435.175	94.06
435.397	94.06
435.618	92.06
435.84	96.06
436.062	113.06
436.284	99.06
436.505	84.06
436.727	84.06
436.949	55.06
437.17	83.06
437.392	71.06
437.614	97.06
437.835	89.06
438.057	90.06
438.278	90.06
438.5	113.06
438.721	96.06
438.943	105.06
439.165	80.06
439.386	95.06
439.608	93.06
439.829	89.06
440.05	106.06
440.272	131.06
440.493	88.06
440.715	103.06
440.936	77.06
441.158	80.06
441.379	96.06
441.6	96.06
441.822	98.06
442.043	87.06
442.264	96.06
442.486	95.06
442.707	98.06
442.928	77.06
443.149	114.06
443.371	121.06
443.592	101.06
443.813	91.06
444.034	86.06
444.255	96.06
444.476	79.06
444.698	90.06
444.919	80.06
445.14	121.06
445.361	126.06
445.582	103.06
445.803	129.06
446.024	123.06
446.245	123.06
446.466	85.06
446.687	89.06
446.908	74.06
447.129	79.06
447.35	93.06
447.571	89.06
447.792	77.06
448.013	79.06
448.234	96.06
448.455	84.06
448.675	107.06
448.896	109.06
449.117	91.06
449.338	95.06
449.559	97.06
449.779	124.06
450	72.06
450.221	82.06
450.442	81.06
450.662	101.06
450.883	101.06
451.104	110.06
451.324	83.06
451.545	86.06
451.766	72.06
451.986	85.06
452.207	87.06
452.428	81.06
452.648	85.06
452.869	93.06
453.089	113.06
453.31	103.06
453.53	97.06
453.751	85.06
453.971	103.06
454.192	104.06
454.412	82.06
454.633	81.06
454.853	85.06
455.073	62.06
455.294	82.06
455.514	100.06
455.734	72.06
455.955	83.06
456.175	70.06
456.395	71.06
456.616	95.06
456.836	85.06
457.056	82.06
457.276	87.06
457.497	83.06
457.717	81.06
457.937	80.06
458.157	77.06
458.377	78.06
458.598	90.06
458.818	132.06
459.038	144.06
459.258	101.06
459.478	90.06
459.698	77.06
459.918	80.06
460.138	86.06
460.358	89.06
460.578	65.06
460.798	85.06
461.018	89.06
461.238	85.06
461.458	70.06
461.678	84.06
461.898	75.06
462.118	89.06
462.338	82.06
462.558	75.06
462.777	83.06
462.997	91.06
463.217	87.06
463.437	86.06
463.657	91.06
463.876	91.06
464.096	78.06
464.316	87.06
464.536	86.06
464.755	99.06
464.975	87.06
465.195	151.06
465.414	148.06
465.634	102.06
465.854	87.06
466.073	79.06
466.293	84.06
466.512	86.06
466.732	94.06
466.951	86.06
467.171	94.06
467.391	80.06
467.61	98.06
467.829	117.06
468.049	120.06
468.268	149.06
468.488	83.06
468.707	83.06
468.927	95.06
469.146	74.06
469.365	74.06
469.585	99.06
469.804	82.06
470.023	97.06
470.243	88.06
470.462	104.06
470.681	101.06
470.901	98.06
471.12	86.06
471.339	86.06
471.558	87.06
471.777	81.06
471.997	99.06
472.216	179.06
472.435	342.06
472.654	127.06
472.873	87.06
473.092	82.06
473.311	86.06
473.53	78.06
473.749	89.06
473.968	98.06
474.187	86.06
474.406	90.06
474.625	77.06
474.844	75.06
475.063	64.06
475.282	88.06
475.501	71.06
475.72	78.06
475.939	75.06
476.158	88.06
476.377	99.06
476.596	81.06
476.814	76.06
477.033	91.06
477.252	75.06
477.471	84.06
477.69	80.06
477.908	95.06
478.127	89.06
478.346	83.06
478.564	84.06
478.783	88.06
479.002	95.06
479.22	79.06
479.439	85.06
479.658	102.06
479.876	99.06
480.095	94.06
480.313	85.06
480.532	93.06
480.751	113.06
480.969	170.06
481.188	522.06
481.406	340.06
481.624	124.06
481.843	93.06
482.061	87.06
482.28	94.06
482.498	85.06
482.717	90.06
482.935	79.06
483.153	79.06
483.372	85.06
483.59	97.06
483.808	75.06
484.027	79.06
484.245	88.06
484.463	99.06
484.681	106.06
484.9	96.06
485.118	104.06
485.336	93.06
485.554	95.06
485.772	98.06
485.99	91.06
486.209	94.06
486.427	97.06
486.645	107.06
486.863	109.06
487.081	99.06
487.299	106.06
487.517	97.06
487.735	108.06
487.953	92.06
488.171	98.06
488.389	93.06
488.607	106.06
488.825	92.06
489.043	90.06
489.261	89.06
489.479	84.06
489.696	92.06
489.914	95.06
490.132	83.06
490.35	89.06
490.568	74.06
490.786	86.06
491.003	72.06
491.221	83.06
491.439	87.06
491.657	92.06
491.874	79.06
492.092	76.06
492.31	79.06
492.527	90.06
492.745	104.06
492.963	99.06
493.18	89.06
493.398	85.06
493.615	95.06
493.833	97.06
494.05	83.06
494.268	94.06
494.485	80.06
494.703	82.06
494.92	86.06
495.138	91.06
495.355	98.06
495.573	83.06
495.79	86.06
496.008	66.06
496.225	91.06
496.442	85.06
496.66	79.06
496.877	84.06
497.094	80.06
497.312	85.06
497.529	96.06
497.746	84.06
497.963	85.06
498.181	75.06
498.398	89.06
498.615	109.06
498.832	88.06
499.049	87.06
499.267	93.06
499.484	100.06
499.701	90.06
499.918	84.06
500.135	87.06
500.352	88.06
500.569	83.06
500.786	93.06
501.003	93.06
501.22	77.06
501.437	99.06
501.654	83.06
501.871	102.06
502.088	102.06
502.305	82.06
502.522	97.06
502.739	97.06
502.956	90.06
503.172	88.06
503.389	92.06
503.606	112.06
503.823	100.06
504.04	89.06
504.256	83.06
504.473	89.06
504.69	100.06
504.907	87.06
505.123	69.06
505.34	74.06
505.557	95.06
505.773	86.06
505.99	87.06
506.207	94.06
506.423	94.06
506.64	77.06
506.856	90.06
507.073	84.06
507.289	91.06
507.506	88.06
507.722	88.06
507.939	95.06
508.155	105.06
508.372	96.06
508.588	103.06
508.805	101.06
509.021	83.06
509.238	92.06
509.454	90.06
509.67	99.06
509.887	105.06
510.103	127.06
510.319	211.06
510.536	658.06
510.752	2093.06
510.968	573.06
511.184	133.06
511.401	106.06
511.617	93.06
511.833	91.06
512.049	87.06
512.265	81.06
512.481	84.06
512.698	80.06
512.914	97.06
513.13	100.06
513.346	94.06
513.562	85.06
513.778	99.06
513.994	93.06
514.21	101.06
514.426	107.06
514.642	110.06
514.858	111.06
515.074	148.06
515.29	395.06
515.506	1275.06
515.721	497.06
515.937	146.06
516.153	108.06
516.369	92.06
516.585	93.06
516.801	85.06
