Data from Circ_2000_H10_HRD10591_00003.txt Node
Date: Wed Jan 03 10:49:34 EST 2024
User: Yrep
Spectrometer: HR+D1059
Trigger mode: 1
Integration Time (sec): 1.000000E-1
Scans to average: 1
Electric dark correction enabled: true
Nonlinearity correction enabled: false
Boxcar width: 0
XAxis mode: Wavelengths
Number of Pixels in Spectrum: 2048
>>>>>Begin Spectral Data<<<<<
223.165	-12.31
223.4	-12.31
223.635	-12.31
223.869	-22.31
224.104	-18.31
224.338	-20.31
224.573	-11.31
224.808	-22.31
225.042	0.69
225.277	-13.31
225.511	8.69
225.746	-1.31
225.98	6.69
226.215	10.69
226.449	9.69
226.683	33.69
226.918	24.69
227.152	26.69
227.387	41.69
227.621	34.69
227.856	46.69
228.09	47.69
228.324	51.69
228.559	58.69
228.793	48.69
229.027	77.69
229.262	60.69
229.496	76.69
229.73	70.69
229.964	84.69
230.199	76.69
230.433	76.69
230.667	69.69
230.901	82.69
231.136	76.69
231.37	67.69
231.604	79.69
231.838	78.69
232.072	83.69
232.306	95.69
232.541	80.69
232.775	70.69
233.009	92.69
233.243	73.69
233.477	70.69
233.711	79.69
233.945	83.69
234.179	89.69
234.413	77.69
234.647	67.69
234.881	72.69
235.115	87.69
235.349	92.69
235.583	77.69
235.817	77.69
236.051	72.69
236.285	79.69
236.519	88.69
236.753	81.69
236.987	71.69
237.221	86.69
237.455	83.69
237.689	79.69
237.922	84.69
238.156	82.69
238.39	84.69
238.624	70.69
238.858	68.69
239.091	78.69
239.325	77.69
239.559	76.69
239.793	80.69
240.027	79.69
240.26	73.69
240.494	88.69
240.728	82.69
240.961	76.69
241.195	76.69
241.429	78.69
241.662	80.69
241.896	85.69
242.13	75.69
242.363	89.69
242.597	80.69
242.83	69.69
243.064	76.69
243.298	77.69
243.531	67.69
243.765	87.69
243.998	96.69
244.232	80.69
244.465	74.69
244.699	71.69
244.932	94.69
245.166	70.69
245.399	68.69
245.633	68.69
245.866	86.69
246.099	84.69
246.333	75.69
246.566	78.69
246.8	96.69
247.033	74.69
247.266	73.69
247.5	71.69
247.733	77.69
247.966	82.69
248.2	82.69
248.433	64.69
248.666	70.69
248.899	89.69
249.133	86.69
249.366	81.69
249.599	86.69
249.832	79.69
250.066	82.69
250.299	66.69
250.532	84.69
250.765	77.69
250.998	86.69
251.231	72.69
251.465	75.69
251.698	77.69
251.931	82.69
252.164	90.69
252.397	82.69
252.63	81.69
252.863	88.69
253.096	72.69
253.329	83.69
253.562	87.69
253.795	85.69
254.028	85.69
254.261	76.69
254.494	80.69
254.727	80.69
254.96	94.69
255.193	85.69
255.426	73.69
255.659	81.69
255.892	82.69
256.124	98.69
256.357	91.69
256.59	89.69
256.823	88.69
257.056	88.69
257.289	81.69
257.521	91.69
257.754	87.69
257.987	87.69
258.22	86.69
258.452	85.69
258.685	78.69
258.918	76.69
259.151	87.69
259.383	89.69
259.616	86.69
259.849	74.69
260.081	94.69
260.314	85.69
260.547	86.69
260.779	71.69
261.012	91.69
261.244	72.69
261.477	92.69
261.71	87.69
261.942	105.69
262.175	117.69
262.407	99.69
262.64	80.69
262.872	94.69
263.105	83.69
263.337	81.69
263.57	72.69
263.802	89.69
264.035	95.69
264.267	87.69
264.499	91.69
264.732	87.69
264.964	77.69
265.197	78.69
265.429	77.69
265.661	79.69
265.894	94.69
266.126	69.69
266.358	86.69
266.591	92.69
266.823	94.69
267.055	92.69
267.287	80.69
267.52	83.69
267.752	70.69
267.984	90.69
268.216	73.69
268.448	92.69
268.681	78.69
268.913	100.69
269.145	92.69
269.377	84.69
269.609	94.69
269.841	97.69
270.073	82.69
270.306	74.69
270.538	84.69
270.77	75.69
271.002	84.69
271.234	83.69
271.466	81.69
271.698	85.69
271.93	85.69
272.162	92.69
272.394	88.69
272.626	77.69
272.858	78.69
273.09	83.69
273.322	73.69
273.553	70.69
273.785	79.69
274.017	93.69
274.249	100.69
274.481	87.69
274.713	71.69
274.945	101.69
275.176	89.69
275.408	90.69
275.64	89.69
275.872	79.69
276.104	81.69
276.335	81.69
276.567	90.69
276.799	104.69
277.031	112.69
277.262	115.69
277.494	93.69
277.726	76.69
277.957	85.69
278.189	87.69
278.421	94.69
278.652	82.69
278.884	97.69
279.115	80.69
279.347	67.69
279.579	90.69
279.81	101.69
280.042	99.69
280.273	109.69
280.505	108.69
280.736	82.69
280.968	87.69
281.199	87.69
281.431	90.69
281.662	71.69
281.894	85.69
282.125	89.69
282.356	109.69
282.588	121.69
282.819	113.69
283.051	81.69
283.282	75.69
283.513	96.69
283.745	90.69
283.976	76.69
284.207	89.69
284.439	76.69
284.67	94.69
284.901	84.69
285.132	88.69
285.364	82.69
285.595	80.69
285.826	83.69
286.057	87.69
286.288	75.69
286.52	93.69
286.751	75.69
286.982	84.69
287.213	76.69
287.444	101.69
287.675	85.69
287.906	77.69
288.138	80.69
288.369	86.69
288.6	86.69
288.831	102.69
289.062	91.69
289.293	82.69
289.524	81.69
289.755	89.69
289.986	88.69
290.217	82.69
290.448	89.69
290.679	78.69
290.91	98.69
291.141	95.69
291.371	92.69
291.602	91.69
291.833	85.69
292.064	85.69
292.295	94.69
292.526	89.69
292.757	94.69
292.987	88.69
293.218	85.69
293.449	91.69
293.68	83.69
293.91	80.69
294.141	89.69
294.372	88.69
294.603	89.69
294.833	90.69
295.064	91.69
295.295	106.69
295.525	92.69
295.756	102.69
295.987	101.69
296.217	130.69
296.448	128.69
296.679	89.69
296.909	100.69
297.14	93.69
297.37	84.69
297.601	90.69
297.831	84.69
298.062	78.69
298.292	89.69
298.523	100.69
298.753	83.69
298.984	90.69
299.214	89.69
299.445	86.69
299.675	87.69
299.905	98.69
300.136	100.69
300.366	77.69
300.597	79.69
300.827	97.69
301.057	98.69
301.288	88.69
301.518	84.69
301.748	89.69
301.979	106.69
302.209	102.69
302.439	82.69
302.669	91.69
302.9	92.69
303.13	81.69
303.36	75.69
303.59	97.69
303.82	106.69
304.051	93.69
304.281	71.69
304.511	90.69
304.741	93.69
304.971	90.69
305.201	80.69
305.431	94.69
305.661	88.69
305.891	100.69
306.121	92.69
306.352	96.69
306.582	101.69
306.812	84.69
307.042	90.69
307.272	104.69
307.502	98.69
307.731	103.69
307.961	89.69
308.191	86.69
308.421	104.69
308.651	98.69
308.881	95.69
309.111	82.69
309.341	108.69
309.571	89.69
309.8	90.69
310.03	101.69
310.26	103.69
310.49	92.69
310.72	107.69
310.949	105.69
311.179	91.69
311.409	82.69
311.639	91.69
311.868	81.69
312.098	86.69
312.328	98.69
312.557	102.69
312.787	103.69
313.017	94.69
313.246	102.69
313.476	87.69
313.706	85.69
313.935	93.69
314.165	85.69
314.394	106.69
314.624	106.69
314.853	92.69
315.083	78.69
315.312	105.69
315.542	91.69
315.771	85.69
316.001	81.69
316.23	99.69
316.46	84.69
316.689	78.69
316.919	94.69
317.148	90.69
317.377	90.69
317.607	93.69
317.836	98.69
318.065	97.69
318.295	93.69
318.524	88.69
318.753	82.69
318.983	93.69
319.212	84.69
319.441	92.69
319.67	100.69
319.9	89.69
320.129	96.69
320.358	91.69
320.587	100.69
320.816	94.69
321.046	87.69
321.275	89.69
321.504	81.69
321.733	99.69
321.962	98.69
322.191	101.69
322.42	114.69
322.649	111.69
322.878	113.69
323.108	99.69
323.337	115.69
323.566	120.69
323.795	139.69
324.024	186.69
324.253	355.69
324.482	734.69
324.71	1501.69
324.939	1976.69
325.168	758.69
325.397	247.69
325.626	135.69
325.855	124.69
326.084	128.69
326.313	125.69
326.542	146.69
326.77	228.69
326.999	426.69
327.228	869.69
327.457	1562.69
327.686	1243.69
327.914	373.69
328.143	232.69
328.372	212.69
328.6	152.69
328.829	112.69
329.058	120.69
329.287	142.69
329.515	115.69
329.744	142.69
329.972	166.69
330.201	254.69
330.43	349.69
330.658	209.69
330.887	157.69
331.115	123.69
331.344	90.69
331.572	106.69
331.801	110.69
332.03	89.69
332.258	89.69
332.486	88.69
332.715	101.69
332.943	86.69
333.172	101.69
333.4	105.69
333.629	110.69
333.857	141.69
334.085	162.69
334.314	268.69
334.542	436.69
334.771	382.69
334.999	153.69
335.227	110.69
335.455	90.69
335.684	102.69
335.912	91.69
336.14	103.69
336.369	97.69
336.597	108.69
336.825	97.69
337.053	95.69
337.281	93.69
337.51	86.69
337.738	91.69
337.966	83.69
338.194	101.69
338.422	102.69
338.65	89.69
338.878	109.69
339.106	84.69
339.334	101.69
339.562	99.69
339.79	99.69
340.018	99.69
340.246	101.69
340.474	102.69
340.702	100.69
340.93	99.69
341.158	86.69
341.386	93.69
341.614	90.69
341.842	90.69
342.07	89.69
342.298	91.69
342.526	91.69
342.754	88.69
342.981	94.69
343.209	87.69
343.437	85.69
343.665	100.69
343.893	98.69
344.12	91.69
344.348	98.69
344.576	101.69
344.804	89.69
345.031	96.69
345.259	89.69
345.487	93.69
345.714	98.69
345.942	100.69
346.17	84.69
346.397	88.69
346.625	86.69
346.853	96.69
347.08	98.69
347.308	85.69
347.535	93.69
347.763	97.69
347.99	109.69
348.218	94.69
348.445	97.69
348.673	109.69
348.9	85.69
349.128	93.69
349.355	84.69
349.583	109.69
349.81	101.69
350.037	96.69
350.265	101.69
350.492	99.69
350.72	87.69
350.947	103.69
351.174	104.69
351.402	114.69
351.629	95.69
351.856	93.69
352.083	96.69
352.311	104.69
352.538	99.69
352.765	97.69
352.992	112.69
353.22	108.69
353.447	117.69
353.674	100.69
353.901	97.69
354.128	90.69
354.355	91.69
354.583	94.69
354.81	101.69
355.037	107.69
355.264	98.69
355.491	107.69
355.718	97.69
355.945	109.69
356.172	94.69
356.399	90.69
356.626	84.69
356.853	92.69
357.08	98.69
357.307	86.69
357.534	83.69
357.761	97.69
357.988	91.69
358.215	106.69
358.441	108.69
358.668	93.69
358.895	105.69
359.122	95.69
359.349	94.69
359.576	98.69
359.802	93.69
360.029	104.69
360.256	109.69
360.483	106.69
360.709	92.69
360.936	90.69
361.163	91.69
361.39	89.69
361.616	100.69
361.843	94.69
362.07	93.69
362.296	101.69
362.523	88.69
362.749	94.69
362.976	93.69
363.203	101.69
363.429	91.69
363.656	94.69
363.882	91.69
364.109	100.69
364.335	91.69
364.562	90.69
364.788	96.69
365.015	99.69
365.241	98.69
365.468	96.69
365.694	99.69
365.92	94.69
366.147	93.69
366.373	85.69
366.599	86.69
366.826	87.69
367.052	76.69
367.278	88.69
367.505	101.69
367.731	93.69
367.957	93.69
368.184	88.69
368.41	93.69
368.636	97.69
368.862	107.69
369.089	93.69
369.315	84.69
369.541	91.69
369.767	104.69
369.993	80.69
370.219	86.69
370.445	86.69
370.672	79.69
370.898	89.69
371.124	73.69
371.35	99.69
371.576	96.69
371.802	85.69
372.028	91.69
372.254	92.69
372.48	90.69
372.706	100.69
372.932	89.69
373.158	94.69
373.384	75.69
373.61	92.69
373.835	94.69
374.061	92.69
374.287	80.69
374.513	92.69
374.739	94.69
374.965	81.69
375.191	93.69
375.416	90.69
375.642	96.69
375.868	93.69
376.094	95.69
376.319	90.69
376.545	100.69
376.771	71.69
376.997	97.69
377.222	97.69
377.448	104.69
377.674	99.69
377.899	89.69
378.125	88.69
378.35	99.69
378.576	96.69
378.802	84.69
379.027	92.69
379.253	99.69
379.478	105.69
379.704	98.69
379.929	117.69
380.155	98.69
380.38	98.69
380.606	104.69
380.831	101.69
381.057	124.69
381.282	107.69
381.507	117.69
381.733	112.69
381.958	108.69
382.184	108.69
382.409	120.69
382.634	109.69
382.86	115.69
383.085	116.69
383.31	117.69
383.535	120.69
383.761	117.69
383.986	116.69
384.211	114.69
384.436	115.69
384.662	109.69
384.887	124.69
385.112	138.69
385.337	132.69
385.562	131.69
385.787	141.69
386.013	146.69
386.238	149.69
386.463	127.69
386.688	136.69
386.913	131.69
387.138	129.69
387.363	131.69
387.588	112.69
387.813	107.69
388.038	130.69
388.263	154.69
388.488	126.69
388.713	92.69
388.938	93.69
389.163	103.69
389.387	100.69
389.612	95.69
389.837	86.69
390.062	78.69
390.287	98.69
390.512	82.69
390.736	82.69
390.961	94.69
391.186	89.69
391.411	83.69
391.636	76.69
391.86	92.69
392.085	96.69
392.31	78.69
392.534	66.69
392.759	92.69
392.984	100.69
393.208	93.69
393.433	89.69
393.658	94.69
393.882	88.69
394.107	83.69
394.331	92.69
394.556	89.69
394.78	86.69
395.005	96.69
395.229	88.69
395.454	77.69
395.678	89.69
395.903	94.69
396.127	88.69
396.352	88.69
396.576	85.69
396.801	94.69
397.025	97.69
397.249	89.69
397.474	113.69
397.698	83.69
397.922	88.69
398.147	86.69
398.371	97.69
398.595	92.69
398.82	101.69
399.044	98.69
399.268	93.69
399.492	93.69
399.717	94.69
399.941	94.69
400.165	88.69
400.389	101.69
400.613	92.69
400.837	85.69
401.062	93.69
401.286	99.69
401.51	85.69
401.734	90.69
401.958	104.69
402.182	112.69
402.406	140.69
402.63	118.69
402.854	99.69
403.078	85.69
403.302	92.69
403.526	77.69
403.75	86.69
403.974	82.69
404.198	93.69
404.422	82.69
404.645	84.69
404.869	94.69
405.093	112.69
405.317	114.69
405.541	109.69
405.765	101.69
405.988	112.69
406.212	146.69
406.436	199.69
406.66	132.69
406.883	110.69
407.107	88.69
407.331	104.69
407.555	99.69
407.778	93.69
408.002	88.69
408.226	81.69
408.449	94.69
408.673	101.69
408.896	88.69
409.12	98.69
409.344	95.69
409.567	83.69
409.791	102.69
410.014	104.69
410.238	86.69
410.461	107.69
410.685	117.69
410.908	104.69
411.132	104.69
411.355	116.69
411.578	83.69
411.802	86.69
412.025	98.69
412.249	103.69
412.472	111.69
412.695	107.69
412.919	96.69
413.142	91.69
413.365	92.69
413.589	91.69
413.812	98.69
414.035	85.69
414.258	96.69
414.482	89.69
414.705	106.69
414.928	106.69
415.151	100.69
415.374	88.69
415.597	83.69
415.821	88.69
416.044	102.69
416.267	105.69
416.49	94.69
416.713	110.69
416.936	92.69
417.159	80.69
417.382	90.69
417.605	98.69
417.828	94.69
418.051	85.69
418.274	92.69
418.497	85.69
418.72	84.69
418.943	86.69
419.166	92.69
419.389	89.69
419.611	91.69
419.834	92.69
420.057	82.69
420.28	85.69
420.503	86.69
420.726	79.69
420.948	91.69
421.171	91.69
421.394	89.69
421.617	98.69
421.839	92.69
422.062	93.69
422.285	98.69
422.507	86.69
422.73	117.69
422.953	95.69
423.175	84.69
423.398	94.69
423.621	87.69
423.843	89.69
424.066	89.69
424.288	84.69
424.511	95.69
424.733	91.69
424.956	104.69
425.178	89.69
425.401	108.69
425.623	86.69
425.846	97.69
426.068	84.69
426.291	89.69
426.513	91.69
426.735	77.69
426.958	94.69
427.18	109.69
427.402	143.69
427.625	168.69
427.847	144.69
428.069	158.69
428.292	104.69
428.514	104.69
428.736	82.69
428.958	73.69
429.181	90.69
429.403	78.69
429.625	73.69
429.847	82.69
430.069	90.69
430.292	94.69
430.514	82.69
430.736	85.69
430.958	86.69
431.18	77.69
431.402	90.69
431.624	93.69
431.846	86.69
432.068	76.69
432.29	86.69
432.512	98.69
432.734	83.69
432.956	102.69
433.178	101.69
433.4	82.69
433.622	94.69
433.844	87.69
434.066	86.69
434.287	93.69
434.509	84.69
434.731	101.69
434.953	86.69
435.175	88.69
435.397	86.69
435.618	99.69
435.84	106.69
436.062	122.69
436.284	104.69
436.505	87.69
436.727	89.69
436.949	78.69
437.17	92.69
437.392	86.69
437.614	96.69
437.835	102.69
438.057	111.69
438.278	120.69
438.5	103.69
438.721	116.69
438.943	89.69
439.165	84.69
439.386	101.69
439.608	79.69
439.829	109.69
440.05	107.69
440.272	125.69
440.493	96.69
440.715	92.69
440.936	87.69
441.158	85.69
441.379	96.69
441.6	95.69
441.822	90.69
442.043	102.69
442.264	109.69
442.486	104.69
442.707	99.69
442.928	82.69
443.149	119.69
443.371	123.69
443.592	110.69
443.813	117.69
444.034	101.69
444.255	90.69
444.476	94.69
444.698	78.69
444.919	91.69
445.14	137.69
445.361	122.69
445.582	119.69
445.803	129.69
446.024	134.69
446.245	140.69
446.466	107.69
446.687	77.69
446.908	77.69
447.129	82.69
447.35	86.69
447.571	105.69
447.792	90.69
448.013	106.69
448.234	109.69
448.455	106.69
448.675	109.69
448.896	112.69
449.117	95.69
449.338	108.69
449.559	114.69
449.779	124.69
450	99.69
450.221	98.69
450.442	119.69
450.662	98.69
450.883	98.69
451.104	109.69
451.324	100.69
451.545	72.69
451.766	88.69
451.986	83.69
452.207	85.69
452.428	86.69
452.648	102.69
452.869	109.69
453.089	101.69
453.31	107.69
453.53	77.69
453.751	95.69
453.971	91.69
454.192	99.69
454.412	85.69
454.633	90.69
454.853	82.69
455.073	87.69
455.294	94.69
455.514	99.69
455.734	91.69
455.955	83.69
456.175	82.69
456.395	85.69
456.616	90.69
456.836	90.69
457.056	78.69
457.276	68.69
457.497	93.69
457.717	94.69
457.937	80.69
458.157	89.69
458.377	75.69
458.598	106.69
458.818	137.69
459.038	154.69
459.258	130.69
459.478	90.69
459.698	94.69
459.918	88.69
460.138	74.69
460.358	83.69
460.578	91.69
460.798	88.69
461.018	96.69
461.238	90.69
461.458	94.69
461.678	89.69
461.898	82.69
462.118	87.69
462.338	77.69
462.558	86.69
462.777	78.69
462.997	93.69
463.217	99.69
463.437	97.69
463.657	88.69
463.876	93.69
464.096	89.69
464.316	88.69
464.536	96.69
464.755	92.69
464.975	101.69
465.195	141.69
465.414	136.69
465.634	92.69
465.854	95.69
466.073	91.69
466.293	90.69
466.512	86.69
466.732	91.69
466.951	92.69
467.171	99.69
467.391	112.69
467.61	104.69
467.829	116.69
468.049	172.69
468.268	210.69
468.488	121.69
468.707	93.69
468.927	69.69
469.146	81.69
469.365	100.69
469.585	94.69
469.804	101.69
470.023	99.69
470.243	95.69
470.462	100.69
470.681	113.69
470.901	82.69
471.12	85.69
471.339	86.69
471.558	84.69
471.777	96.69
471.997	122.69
472.216	264.69
472.435	496.69
472.654	185.69
472.873	92.69
473.092	73.69
473.311	97.69
473.53	84.69
473.749	82.69
473.968	109.69
474.187	106.69
474.406	109.69
474.625	93.69
474.844	90.69
475.063	82.69
475.282	99.69
475.501	94.69
475.72	91.69
475.939	80.69
476.158	72.69
476.377	83.69
476.596	93.69
476.814	95.69
477.033	91.69
477.252	80.69
477.471	93.69
477.69	72.69
477.908	91.69
478.127	85.69
478.346	97.69
478.564	102.69
478.783	108.69
479.002	87.69
479.22	67.69
479.439	99.69
479.658	104.69
479.876	100.69
480.095	92.69
480.313	99.69
480.532	93.69
480.751	122.69
480.969	278.69
481.188	853.69
481.406	551.69
481.624	144.69
481.843	86.69
482.061	92.69
482.28	104.69
482.498	85.69
482.717	88.69
482.935	89.69
483.153	84.69
483.372	88.69
483.59	89.69
483.808	69.69
484.027	80.69
484.245	93.69
484.463	84.69
484.681	104.69
484.9	94.69
485.118	100.69
485.336	97.69
485.554	95.69
485.772	106.69
485.99	111.69
486.209	106.69
486.427	108.69
486.645	113.69
486.863	108.69
487.081	106.69
487.299	106.69
487.517	93.69
487.735	90.69
487.953	97.69
488.171	87.69
488.389	90.69
488.607	105.69
488.825	87.69
489.043	88.69
489.261	82.69
489.479	92.69
489.696	92.69
489.914	81.69
490.132	83.69
490.35	95.69
490.568	82.69
490.786	91.69
491.003	97.69
491.221	99.69
491.439	73.69
491.657	101.69
491.874	111.69
492.092	94.69
492.31	79.69
492.527	92.69
492.745	103.69
492.963	86.69
493.18	93.69
493.398	99.69
493.615	101.69
493.833	104.69
494.05	97.69
494.268	92.69
494.485	110.69
494.703	100.69
494.92	92.69
495.138	78.69
495.355	84.69
495.573	100.69
495.79	97.69
496.008	93.69
496.225	84.69
496.442	89.69
496.66	75.69
496.877	88.69
497.094	87.69
497.312	89.69
497.529	84.69
497.746	92.69
497.963	72.69
498.181	81.69
498.398	104.69
498.615	104.69
498.832	93.69
499.049	101.69
499.267	92.69
499.484	96.69
499.701	83.69
499.918	87.69
500.135	84.69
500.352	84.69
500.569	95.69
500.786	96.69
501.003	82.69
501.22	82.69
501.437	103.69
501.654	86.69
501.871	111.69
502.088	97.69
502.305	85.69
502.522	93.69
502.739	94.69
502.956	80.69
503.172	89.69
503.389	97.69
503.606	102.69
503.823	100.69
504.04	98.69
504.256	81.69
504.473	84.69
504.69	77.69
504.907	89.69
505.123	90.69
505.34	91.69
505.557	97.69
505.773	73.69
505.99	90.69
506.207	82.69
506.423	97.69
506.64	83.69
506.856	91.69
507.073	86.69
507.289	87.69
507.506	104.69
507.722	114.69
507.939	109.69
508.155	84.69
508.372	98.69
508.588	93.69
508.805	93.69
509.021	94.69
509.238	104.69
509.454	93.69
509.67	106.69
509.887	101.69
510.103	119.69
510.319	194.69
510.536	658.69
510.752	2077.69
510.968	595.69
511.184	153.69
511.401	97.69
511.617	94.69
511.833	104.69
512.049	99.69
512.265	92.69
512.481	91.69
512.698	99.69
512.914	73.69
513.13	96.69
513.346	82.69
513.562	96.69
513.778	99.69
513.994	90.69
514.21	104.69
514.426	103.69
514.642	128.69
514.858	136.69
515.074	144.69
