Data from Circ_2000_H10_HRD10591_00012.txt Node
Date: Wed Jan 03 10:49:36 EST 2024
User: Yrep
Spectrometer: HR+D1059
Trigger mode: 1
Integration Time (sec): 1.000000E-1
Scans to average: 1
Electric dark correction enabled: true
Nonlinearity correction enabled: false
Boxcar width: 0
XAxis mode: Wavelengths
Number of Pixels in Spectrum: 2048
>>>>>Begin Spectral Data<<<<<
223.165	-13.19
223.4	-13.19
223.635	-13.19
223.869	-12.19
224.104	-17.19
224.338	-14.19
224.573	-25.19
224.808	-15.19
225.042	-10.19
225.277	-15.19
225.511	7.81
225.746	11.81
225.98	14.81
226.215	7.81
226.449	6.81
226.683	16.81
226.918	24.81
227.152	31.81
227.387	38.81
227.621	40.81
227.856	38.81
228.09	53.81
228.324	53.81
228.559	52.81
228.793	56.81
229.027	68.81
229.262	44.81
229.496	83.81
229.73	82.81
229.964	81.81
230.199	75.81
230.433	77.81
230.667	86.81
230.901	74.81
231.136	81.81
231.37	83.81
231.604	72.81
231.838	81.81
232.072	98.81
232.306	84.81
232.541	71.81
232.775	72.81
233.009	76.81
233.243	75.81
233.477	78.81
233.711	87.81
233.945	66.81
234.179	86.81
234.413	81.81
234.647	93.81
234.881	74.81
235.115	89.81
235.349	77.81
235.583	71.81
235.817	69.81
236.051	76.81
236.285	87.81
236.519	72.81
236.753	88.81
236.987	79.81
237.221	89.81
237.455	92.81
237.689	89.81
237.922	84.81
238.156	78.81
238.39	68.81
238.624	79.81
238.858	78.81
239.091	80.81
239.325	79.81
239.559	84.81
239.793	86.81
240.027	96.81
240.26	90.81
240.494	76.81
240.728	83.81
240.961	70.81
241.195	79.81
241.429	79.81
241.662	82.81
241.896	74.81
242.13	77.81
242.363	76.81
242.597	93.81
242.83	84.81
243.064	74.81
243.298	78.81
243.531	78.81
243.765	69.81
243.998	95.81
244.232	76.81
244.465	82.81
244.699	71.81
244.932	80.81
245.166	83.81
245.399	94.81
245.633	79.81
245.866	82.81
246.099	77.81
246.333	90.81
246.566	82.81
246.8	83.81
247.033	75.81
247.266	64.81
247.5	89.81
247.733	79.81
247.966	93.81
248.2	81.81
248.433	82.81
248.666	86.81
248.899	97.81
249.133	88.81
249.366	82.81
249.599	104.81
249.832	88.81
250.066	78.81
250.299	86.81
250.532	83.81
250.765	83.81
250.998	85.81
251.231	74.81
251.465	77.81
251.698	64.81
251.931	86.81
252.164	89.81
252.397	80.81
252.63	89.81
252.863	74.81
253.096	78.81
253.329	61.81
253.562	69.81
253.795	79.81
254.028	88.81
254.261	91.81
254.494	89.81
254.727	87.81
254.96	76.81
255.193	80.81
255.426	91.81
255.659	90.81
255.892	81.81
256.124	74.81
256.357	77.81
256.59	74.81
256.823	79.81
257.056	85.81
257.289	71.81
257.521	84.81
257.754	88.81
257.987	93.81
258.22	97.81
258.452	84.81
258.685	86.81
258.918	90.81
259.151	57.81
259.383	87.81
259.616	95.81
259.849	73.81
260.081	93.81
260.314	82.81
260.547	81.81
260.779	64.81
261.012	75.81
261.244	78.81
261.477	86.81
261.71	105.81
261.942	111.81
262.175	109.81
262.407	88.81
262.64	80.81
262.872	91.81
263.105	77.81
263.337	87.81
263.57	70.81
263.802	87.81
264.035	85.81
264.267	87.81
264.499	88.81
264.732	76.81
264.964	103.81
265.197	81.81
265.429	82.81
265.661	89.81
265.894	94.81
266.126	86.81
266.358	88.81
266.591	85.81
266.823	88.81
267.055	84.81
267.287	73.81
267.52	86.81
267.752	67.81
267.984	74.81
268.216	95.81
268.448	86.81
268.681	79.81
268.913	83.81
269.145	66.81
269.377	78.81
269.609	75.81
269.841	84.81
270.073	91.81
270.306	84.81
270.538	80.81
270.77	76.81
271.002	85.81
271.234	82.81
271.466	88.81
271.698	82.81
271.93	82.81
272.162	72.81
272.394	91.81
272.626	74.81
272.858	79.81
273.09	95.81
273.322	78.81
273.553	75.81
273.785	92.81
274.017	85.81
274.249	84.81
274.481	78.81
274.713	76.81
274.945	79.81
275.176	86.81
275.408	100.81
275.64	92.81
275.872	85.81
276.104	93.81
276.335	80.81
276.567	97.81
276.799	111.81
277.031	118.81
277.262	113.81
277.494	92.81
277.726	89.81
277.957	81.81
278.189	87.81
278.421	91.81
278.652	92.81
278.884	81.81
279.115	88.81
279.347	91.81
279.579	84.81
279.81	102.81
280.042	104.81
280.273	105.81
280.505	91.81
280.736	80.81
280.968	76.81
281.199	89.81
281.431	84.81
281.662	90.81
281.894	77.81
282.125	94.81
282.356	119.81
282.588	126.81
282.819	106.81
283.051	95.81
283.282	82.81
283.513	107.81
283.745	78.81
283.976	91.81
284.207	99.81
284.439	78.81
284.67	78.81
284.901	67.81
285.132	94.81
285.364	95.81
285.595	87.81
285.826	79.81
286.057	87.81
286.288	88.81
286.52	89.81
286.751	78.81
286.982	86.81
287.213	91.81
287.444	93.81
287.675	86.81
287.906	91.81
288.138	88.81
288.369	91.81
288.6	98.81
288.831	93.81
289.062	103.81
289.293	90.81
289.524	87.81
289.755	84.81
289.986	83.81
290.217	91.81
290.448	84.81
290.679	94.81
290.91	93.81
291.141	96.81
291.371	99.81
291.602	99.81
291.833	100.81
292.064	91.81
292.295	86.81
292.526	107.81
292.757	67.81
292.987	88.81
293.218	86.81
293.449	93.81
293.68	94.81
293.91	83.81
294.141	98.81
294.372	97.81
294.603	98.81
294.833	87.81
295.064	84.81
295.295	80.81
295.525	74.81
295.756	99.81
295.987	107.81
296.217	124.81
296.448	104.81
296.679	92.81
296.909	91.81
297.14	91.81
297.37	104.81
297.601	93.81
297.831	90.81
298.062	83.81
298.292	87.81
298.523	92.81
298.753	83.81
298.984	61.81
299.214	93.81
299.445	76.81
299.675	88.81
299.905	95.81
300.136	97.81
300.366	87.81
300.597	90.81
300.827	88.81
301.057	94.81
301.288	90.81
301.518	98.81
301.748	84.81
301.979	92.81
302.209	103.81
302.439	94.81
302.669	85.81
302.9	85.81
303.13	106.81
303.36	95.81
303.59	119.81
303.82	106.81
304.051	88.81
304.281	93.81
304.511	81.81
304.741	96.81
304.971	92.81
305.201	101.81
305.431	96.81
305.661	96.81
305.891	89.81
306.121	84.81
306.352	101.81
306.582	109.81
306.812	91.81
307.042	98.81
307.272	108.81
307.502	102.81
307.731	103.81
307.961	92.81
308.191	88.81
308.421	95.81
308.651	86.81
308.881	83.81
309.111	89.81
309.341	83.81
309.571	99.81
309.8	96.81
310.03	87.81
310.26	93.81
310.49	88.81
310.72	99.81
310.949	92.81
311.179	99.81
311.409	93.81
311.639	86.81
311.868	89.81
312.098	93.81
312.328	99.81
312.557	109.81
312.787	92.81
313.017	101.81
313.246	88.81
313.476	97.81
313.706	92.81
313.935	83.81
314.165	103.81
314.394	95.81
314.624	91.81
314.853	96.81
315.083	92.81
315.312	79.81
315.542	89.81
315.771	89.81
316.001	88.81
316.23	80.81
316.46	106.81
316.689	81.81
316.919	95.81
317.148	85.81
317.377	82.81
317.607	100.81
317.836	97.81
318.065	87.81
318.295	85.81
318.524	93.81
318.753	94.81
318.983	86.81
319.212	90.81
319.441	122.81
319.67	95.81
319.9	85.81
320.129	70.81
320.358	88.81
320.587	105.81
320.816	102.81
321.046	102.81
321.275	99.81
321.504	101.81
321.733	105.81
321.962	97.81
322.191	94.81
322.42	108.81
322.649	116.81
322.878	122.81
323.108	123.81
323.337	126.81
323.566	126.81
323.795	148.81
324.024	194.81
324.253	387.81
324.482	786.81
324.71	1608.81
324.939	2189.81
325.168	828.81
325.397	237.81
325.626	150.81
325.855	133.81
326.084	106.81
326.313	130.81
326.542	149.81
326.77	230.81
326.999	437.81
327.228	926.81
327.457	1701.81
327.686	1367.81
327.914	381.81
328.143	242.81
328.372	214.81
328.6	169.81
328.829	127.81
329.058	138.81
329.287	136.81
329.515	120.81
329.744	126.81
329.972	154.81
330.201	243.81
330.43	344.81
330.658	224.81
330.887	154.81
331.115	129.81
331.344	101.81
331.572	100.81
331.801	95.81
332.03	104.81
332.258	99.81
332.486	86.81
332.715	90.81
332.943	90.81
333.172	98.81
333.4	108.81
333.629	108.81
333.857	133.81
334.085	171.81
334.314	257.81
334.542	409.81
334.771	408.81
334.999	169.81
335.227	124.81
335.455	92.81
335.684	104.81
335.912	107.81
336.14	96.81
336.369	104.81
336.597	110.81
336.825	99.81
337.053	93.81
337.281	92.81
337.51	91.81
337.738	92.81
337.966	100.81
338.194	90.81
338.422	95.81
338.65	94.81
338.878	102.81
339.106	89.81
339.334	86.81
339.562	104.81
339.79	101.81
340.018	86.81
340.246	85.81
340.474	88.81
340.702	88.81
340.93	94.81
341.158	96.81
341.386	79.81
341.614	96.81
341.842	103.81
342.07	98.81
342.298	92.81
342.526	91.81
342.754	84.81
342.981	87.81
343.209	92.81
343.437	96.81
343.665	94.81
343.893	93.81
344.12	89.81
344.348	94.81
344.576	95.81
344.804	94.81
345.031	83.81
345.259	107.81
345.487	104.81
345.714	76.81
345.942	90.81
346.17	95.81
346.397	100.81
346.625	111.81
346.853	93.81
347.08	86.81
347.308	113.81
347.535	95.81
347.763	88.81
347.99	100.81
348.218	103.81
348.445	102.81
348.673	82.81
348.9	96.81
349.128	94.81
349.355	84.81
349.583	96.81
349.81	91.81
350.037	95.81
350.265	82.81
350.492	98.81
350.72	98.81
350.947	101.81
351.174	113.81
351.402	111.81
351.629	109.81
351.856	86.81
352.083	104.81
352.311	119.81
352.538	120.81
352.765	117.81
352.992	109.81
353.22	112.81
353.447	109.81
353.674	95.81
353.901	94.81
354.128	95.81
354.355	117.81
354.583	92.81
354.81	103.81
355.037	101.81
355.264	96.81
355.491	98.81
355.718	95.81
355.945	94.81
356.172	102.81
356.399	104.81
356.626	92.81
356.853	101.81
357.08	107.81
357.307	98.81
357.534	89.81
357.761	101.81
357.988	90.81
358.215	97.81
358.441	109.81
358.668	96.81
358.895	96.81
359.122	87.81
359.349	86.81
359.576	84.81
359.802	98.81
360.029	108.81
360.256	119.81
360.483	111.81
360.709	94.81
360.936	98.81
361.163	91.81
361.39	94.81
361.616	90.81
361.843	88.81
362.07	104.81
362.296	87.81
362.523	80.81
362.749	88.81
362.976	98.81
363.203	98.81
363.429	91.81
363.656	81.81
363.882	106.81
364.109	88.81
364.335	101.81
364.562	94.81
364.788	94.81
365.015	77.81
365.241	98.81
365.468	104.81
365.694	102.81
365.92	89.81
366.147	90.81
366.373	94.81
366.599	92.81
366.826	89.81
367.052	81.81
367.278	82.81
367.505	100.81
367.731	95.81
367.957	103.81
368.184	92.81
368.41	96.81
368.636	110.81
368.862	116.81
369.089	111.81
369.315	86.81
369.541	91.81
369.767	95.81
369.993	88.81
370.219	89.81
370.445	87.81
370.672	83.81
370.898	92.81
371.124	95.81
371.35	96.81
371.576	83.81
371.802	86.81
372.028	94.81
372.254	89.81
372.48	77.81
372.706	90.81
372.932	93.81
373.158	95.81
373.384	97.81
373.61	105.81
373.835	95.81
374.061	90.81
374.287	83.81
374.513	83.81
374.739	83.81
374.965	90.81
375.191	106.81
375.416	89.81
375.642	94.81
375.868	96.81
376.094	88.81
376.319	96.81
376.545	94.81
376.771	96.81
376.997	93.81
377.222	86.81
377.448	106.81
377.674	89.81
377.899	102.81
378.125	92.81
378.35	102.81
378.576	104.81
378.802	88.81
379.027	92.81
379.253	87.81
379.478	103.81
379.704	88.81
379.929	102.81
380.155	107.81
380.38	115.81
380.606	119.81
380.831	105.81
381.057	111.81
381.282	104.81
381.507	106.81
381.733	107.81
381.958	101.81
382.184	101.81
382.409	110.81
382.634	107.81
382.86	106.81
383.085	101.81
383.31	107.81
383.535	114.81
383.761	107.81
383.986	98.81
384.211	116.81
384.436	110.81
384.662	118.81
384.887	116.81
385.112	107.81
385.337	114.81
385.562	129.81
385.787	108.81
386.013	131.81
386.238	125.81
386.463	110.81
386.688	118.81
386.913	119.81
387.138	115.81
387.363	130.81
387.588	117.81
387.813	115.81
388.038	107.81
388.263	132.81
388.488	126.81
388.713	103.81
388.938	110.81
389.163	92.81
389.387	99.81
389.612	101.81
389.837	103.81
390.062	79.81
390.287	98.81
390.512	90.81
390.736	93.81
390.961	104.81
391.186	88.81
391.411	101.81
391.636	98.81
391.86	81.81
392.085	90.81
392.31	83.81
392.534	90.81
392.759	97.81
392.984	88.81
393.208	86.81
393.433	99.81
393.658	103.81
393.882	91.81
394.107	92.81
394.331	87.81
394.556	90.81
394.78	92.81
395.005	96.81
395.229	95.81
395.454	95.81
395.678	97.81
395.903	96.81
396.127	91.81
396.352	72.81
396.576	92.81
396.801	90.81
397.025	100.81
397.249	91.81
397.474	92.81
397.698	100.81
397.922	96.81
398.147	85.81
398.371	90.81
398.595	80.81
398.82	78.81
399.044	85.81
399.268	93.81
399.492	81.81
399.717	87.81
399.941	75.81
400.165	91.81
400.389	93.81
400.613	92.81
400.837	82.81
401.062	86.81
401.286	87.81
401.51	79.81
401.734	98.81
401.958	105.81
402.182	130.81
402.406	143.81
402.63	114.81
402.854	106.81
403.078	91.81
403.302	99.81
403.526	100.81
403.75	84.81
403.974	96.81
404.198	77.81
404.422	81.81
404.645	83.81
404.869	92.81
405.093	107.81
405.317	113.81
405.541	112.81
405.765	100.81
405.988	114.81
406.212	159.81
406.436	210.81
406.66	144.81
406.883	103.81
407.107	110.81
407.331	108.81
407.555	99.81
407.778	90.81
408.002	90.81
408.226	86.81
408.449	87.81
408.673	99.81
408.896	91.81
409.12	94.81
409.344	88.81
409.567	105.81
409.791	93.81
410.014	96.81
410.238	90.81
410.461	83.81
410.685	109.81
410.908	120.81
411.132	119.81
411.355	95.81
411.578	99.81
411.802	92.81
412.025	89.81
412.249	95.81
412.472	93.81
412.695	103.81
412.919	95.81
413.142	90.81
413.365	93.81
413.589	88.81
413.812	102.81
414.035	83.81
414.258	97.81
414.482	93.81
414.705	91.81
414.928	107.81
415.151	100.81
415.374	87.81
415.597	88.81
415.821	87.81
416.044	93.81
416.267	97.81
416.49	86.81
416.713	101.81
416.936	106.81
417.159	93.81
417.382	103.81
417.605	96.81
417.828	91.81
418.051	94.81
418.274	89.81
418.497	87.81
418.72	102.81
418.943	84.81
419.166	80.81
419.389	94.81
419.611	98.81
419.834	100.81
420.057	93.81
420.28	95.81
420.503	91.81
420.726	98.81
420.948	90.81
421.171	89.81
421.394	92.81
421.617	95.81
421.839	84.81
422.062	84.81
422.285	98.81
422.507	105.81
422.73	114.81
422.953	99.81
423.175	87.81
423.398	91.81
423.621	86.81
423.843	92.81
424.066	98.81
424.288	97.81
424.511	94.81
424.733	94.81
424.956	107.81
425.178	97.81
425.401	98.81
425.623	91.81
425.846	86.81
426.068	90.81
426.291	89.81
426.513	94.81
426.735	102.81
426.958	90.81
427.18	110.81
427.402	148.81
427.625	179.81
427.847	152.81
428.069	156.81
428.292	97.81
428.514	99.81
428.736	88.81
428.958	82.81
429.181	100.81
429.403	96.81
429.625	78.81
429.847	101.81
430.069	110.81
430.292	109.81
430.514	87.81
430.736	88.81
430.958	82.81
431.18	81.81
431.402	78.81
431.624	69.81
431.846	75.81
432.068	78.81
432.29	106.81
432.512	87.81
432.734	88.81
432.956	91.81
433.178	98.81
433.4	107.81
433.622	99.81
433.844	88.81
434.066	108.81
434.287	103.81
434.509	90.81
434.731	100.81
434.953	93.81
435.175	78.81
435.397	94.81
435.618	89.81
435.84	96.81
436.062	122.81
436.284	111.81
436.505	111.81
436.727	109.81
436.949	85.81
437.17	96.81
437.392	82.81
437.614	88.81
437.835	110.81
438.057	116.81
438.278	116.81
438.5	110.81
438.721	131.81
438.943	114.81
439.165	80.81
439.386	105.81
439.608	96.81
439.829	105.81
440.05	134.81
440.272	155.81
440.493	91.81
440.715	87.81
440.936	92.81
441.158	94.81
441.379	88.81
441.6	83.81
441.822	100.81
442.043	101.81
442.264	97.81
442.486	110.81
442.707	101.81
442.928	108.81
443.149	131.81
443.371	144.81
443.592	127.81
443.813	108.81
444.034	109.81
444.255	95.81
444.476	93.81
444.698	83.81
444.919	98.81
445.14	140.81
445.361	112.81
445.582	126.81
445.803	138.81
446.024	137.81
446.245	149.81
446.466	102.81
446.687	104.81
446.908	79.81
447.129	93.81
447.35	97.81
447.571	91.81
447.792	85.81
448.013	98.81
448.234	102.81
448.455	103.81
448.675	117.81
448.896	115.81
449.117	104.81
449.338	102.81
449.559	140.81
449.779	134.81
450	95.81
450.221	90.81
450.442	107.81
450.662	99.81
450.883	93.81
451.104	109.81
451.324	94.81
451.545	89.81
451.766	84.81
451.986	88.81
452.207	101.81
452.428	94.81
452.648	89.81
452.869	103.81
453.089	120.81
453.31	109.81
453.53	87.81
453.751	92.81
453.971	117.81
454.192	106.81
454.412	91.81
454.633	94.81
454.853	93.81
455.073	94.81
455.294	81.81
455.514	100.81
455.734	94.81
455.955	84.81
456.175	82.81
456.395	96.81
456.616	88.81
456.836	88.81
457.056	91.81
457.276	96.81
457.497	87.81
457.717	75.81
457.937	87.81
458.157	88.81
458.377	103.81
458.598	104.81
458.818	147.81
459.038	155.81
459.258	114.81
459.478	86.81
459.698	92.81
459.918	74.81
460.138	95.81
460.358	90.81
460.578	92.81
460.798	79.81
461.018	89.81
461.238	86.81
461.458	79.81
461.678	90.81
461.898	80.81
462.118	81.81
462.338	88.81
462.558	82.81
462.777	86.81
462.997	91.81
463.217	92.81
463.437	96.81
463.657	93.81
463.876	107.81
464.096	88.81
464.316	84.81
464.536	85.81
464.755	94.81
464.975	90.81
465.195	154.81
465.414	168.81
465.634	108.81
465.854	83.81
466.073	77.81
466.293	90.81
466.512	88.81
466.732	98.81
466.951	94.81
467.171	95.81
467.391	99.81
467.61	100.81
467.829	98.81
468.049	165.81
468.268	218.81
468.488	119.81
468.707	106.81
468.927	75.81
469.146	74.81
469.365	76.81
469.585	91.81
469.804	103.81
470.023	91.81
470.243	94.81
470.462	119.81
470.681	105.81
470.901	96.81
471.12	90.81
471.339	103.81
471.558	95.81
471.777	100.81
471.997	119.81
472.216	255.81
472.435	508.81
472.654	174.81
472.873	104.81
473.092	92.81
473.311	98.81
473.53	99.81
473.749	92.81
473.968	102.81
474.187	106.81
474.406	95.81
474.625	89.81
474.844	94.81
475.063	84.81
475.282	70.81
475.501	102.81
475.72	80.81
475.939	77.81
476.158	80.81
476.377	97.81
476.596	97.81
476.814	94.81
477.033	95.81
477.252	86.81
477.471	92.81
477.69	89.81
477.908	92.81
478.127	85.81
478.346	91.81
478.564	86.81
478.783	104.81
479.002	98.81
479.22	102.81
479.439	98.81
479.658	107.81
479.876	99.81
480.095	108.81
480.313	99.81
480.532	107.81
480.751	137.81
480.969	259.81
481.188	846.81
481.406	534.81
481.624	135.81
481.843	107.81
482.061	94.81
482.28	103.81
482.498	92.81
482.717	87.81
482.935	71.81
483.153	74.81
483.372	90.81
483.59	78.81
483.808	95.81
484.027	98.81
484.245	98.81
484.463	95.81
484.681	99.81
484.9	96.81
485.118	103.81
485.336	99.81
485.554	106.81
485.772	96.81
485.99	106.81
486.209	106.81
486.427	107.81
486.645	107.81
486.863	119.81
487.081	106.81
487.299	108.81
487.517	96.81
487.735	86.81
487.953	89.81
488.171	87.81
488.389	96.81
488.607	109.81
488.825	95.81
489.043	96.81
489.261	94.81
489.479	91.81
489.696	99.81
489.914	97.81
490.132	93.81
490.35	95.81
490.568	79.81
490.786	90.81
491.003	93.81
491.221	88.81
491.439	103.81
491.657	90.81
491.874	92.81
492.092	84.81
492.31	104.81
492.527	78.81
492.745	97.81
492.963	102.81
493.18	98.81
493.398	90.81
493.615	81.81
493.833	78.81
494.05	100.81
494.268	93.81
494.485	92.81
494.703	79.81
494.92	110.81
495.138	93.81
495.355	87.81
495.573	104.81
495.79	88.81
496.008	93.81
496.225	98.81
496.442	84.81
496.66	100.81
496.877	74.81
497.094	100.81
497.312	93.81
497.529	100.81
497.746	94.81
497.963	107.81
498.181	91.81
498.398	89.81
498.615	113.81
498.832	107.81
499.049	88.81
499.267	84.81
499.484	86.81
499.701	83.81
499.918	104.81
500.135	82.81
500.352	92.81
500.569	95.81
500.786	79.81
501.003	105.81
501.22	95.81
501.437	94.81
501.654	101.81
501.871	100.81
502.088	89.81
502.305	87.81
502.522	81.81
502.739	90.81
502.956	95.81
503.172	89.81
503.389	105.81
503.606	109.81
503.823	108.81
504.04	101.81
504.256	96.81
504.473	85.81
504.69	88.81
504.907	91.81
505.123	85.81
505.34	91.81
505.557	100.81
505.773	94.81
505.99	88.81
506.207	103.81
506.423	84.81
506.64	84.81
506.856	97.81
507.073	90.81
507.289	94.81
507.506	107.81
507.722	112.81
507.939	110.81
508.155	96.81
508.372	88.81
508.588	92.81
508.805	93.81
509.021	100.81
509.238	94.81
509.454	98.81
509.67	103.81
509.887	122.81
510.103	115.81
510.319	191.81
510.536	668.81
510.752	2122.81
510.968	621.81
511.184	146.81
511.401	111.81
511.617	87.81
511.833	92.81
512.049	91.81
512.265	92.81
512.481	84.81
512.698	97.81
512.914	92.81
513.13	87.81
513.346	89.81
513.562	90.81
513.778	89.81
513.994	87.81
514.21	110.81
514.426	111.81
514.642	120.81
