Data from Circ_2000_H10_HRD10591_00073.txt Node
Date: Wed Jan 03 10:49:48 EST 2024
User: Yrep
Spectrometer: HR+D1059
Trigger mode: 1
Integration Time (sec): 1.000000E-1
Scans to average: 1
Electric dark correction enabled: true
Nonlinearity correction enabled: false
Boxcar width: 0
XAxis mode: Wavelengths
Number of Pixels in Spectrum: 2048
>>>>>Begin Spectral Data<<<<<
223.165	-15.62
223.4	-15.62
223.635	-15.62
223.869	-29.62
224.104	-10.62
224.338	-9.62
224.573	-0.62
224.808	-16.62
225.042	-19.62
225.277	-2.62
225.511	-12.62
225.746	5.38
225.98	9.38
226.215	14.38
226.449	18.38
226.683	8.38
226.918	23.38
227.152	38.38
227.387	48.38
227.621	48.38
227.856	47.38
228.09	49.38
228.324	63.38
228.559	74.38
228.793	73.38
229.027	60.38
229.262	69.38
229.496	84.38
229.73	92.38
229.964	87.38
230.199	77.38
230.433	80.38
230.667	85.38
230.901	86.38
231.136	71.38
231.37	90.38
231.604	87.38
231.838	83.38
232.072	77.38
232.306	87.38
232.541	79.38
232.775	85.38
233.009	78.38
233.243	88.38
233.477	85.38
233.711	90.38
233.945	86.38
234.179	76.38
234.413	86.38
234.647	78.38
234.881	87.38
235.115	87.38
235.349	86.38
235.583	73.38
235.817	79.38
236.051	78.38
236.285	77.38
236.519	92.38
236.753	87.38
236.987	77.38
237.221	86.38
237.455	87.38
237.689	71.38
237.922	70.38
238.156	84.38
238.39	70.38
238.624	75.38
238.858	87.38
239.091	72.38
239.325	75.38
239.559	82.38
239.793	70.38
240.027	78.38
240.26	80.38
240.494	82.38
240.728	88.38
240.961	87.38
241.195	62.38
241.429	88.38
241.662	75.38
241.896	80.38
242.13	84.38
242.363	83.38
242.597	67.38
242.83	72.38
243.064	77.38
243.298	73.38
243.531	91.38
243.765	83.38
243.998	85.38
244.232	81.38
244.465	94.38
244.699	87.38
244.932	86.38
245.166	89.38
245.399	83.38
245.633	76.38
245.866	84.38
246.099	86.38
246.333	87.38
246.566	71.38
246.8	82.38
247.033	78.38
247.266	87.38
247.5	88.38
247.733	82.38
247.966	90.38
248.2	79.38
248.433	68.38
248.666	93.38
248.899	103.38
249.133	96.38
249.366	97.38
249.599	96.38
249.832	85.38
250.066	91.38
250.299	80.38
250.532	72.38
250.765	86.38
250.998	85.38
251.231	85.38
251.465	70.38
251.698	90.38
251.931	73.38
252.164	81.38
252.397	90.38
252.63	72.38
252.863	83.38
253.096	78.38
253.329	88.38
253.562	68.38
253.795	84.38
254.028	100.38
254.261	90.38
254.494	83.38
254.727	90.38
254.96	85.38
255.193	87.38
255.426	81.38
255.659	76.38
255.892	83.38
256.124	86.38
256.357	100.38
256.59	95.38
256.823	81.38
257.056	101.38
257.289	86.38
257.521	94.38
257.754	94.38
257.987	88.38
258.22	94.38
258.452	85.38
258.685	89.38
258.918	88.38
259.151	79.38
259.383	82.38
259.616	87.38
259.849	83.38
260.081	92.38
260.314	75.38
260.547	103.38
260.779	104.38
261.012	90.38
261.244	103.38
261.477	79.38
261.71	108.38
261.942	125.38
262.175	110.38
262.407	108.38
262.64	96.38
262.872	85.38
263.105	102.38
263.337	84.38
263.57	80.38
263.802	75.38
264.035	85.38
264.267	84.38
264.499	79.38
264.732	76.38
264.964	81.38
265.197	82.38
265.429	88.38
265.661	85.38
265.894	82.38
266.126	87.38
266.358	84.38
266.591	87.38
266.823	77.38
267.055	83.38
267.287	76.38
267.52	87.38
267.752	82.38
267.984	90.38
268.216	80.38
268.448	72.38
268.681	79.38
268.913	84.38
269.145	83.38
269.377	93.38
269.609	86.38
269.841	82.38
270.073	86.38
270.306	83.38
270.538	76.38
270.77	85.38
271.002	89.38
271.234	89.38
271.466	88.38
271.698	89.38
271.93	89.38
272.162	86.38
272.394	85.38
272.626	90.38
272.858	82.38
273.09	84.38
273.322	78.38
273.553	82.38
273.785	83.38
274.017	82.38
274.249	99.38
274.481	94.38
274.713	93.38
274.945	91.38
275.176	89.38
275.408	91.38
275.64	94.38
275.872	104.38
276.104	95.38
276.335	104.38
276.567	120.38
276.799	124.38
277.031	125.38
277.262	147.38
277.494	121.38
277.726	93.38
277.957	88.38
278.189	84.38
278.421	100.38
278.652	85.38
278.884	83.38
279.115	104.38
279.347	97.38
279.579	100.38
279.81	112.38
280.042	144.38
280.273	171.38
280.505	137.38
280.736	90.38
280.968	92.38
281.199	78.38
281.431	88.38
281.662	96.38
281.894	91.38
282.125	98.38
282.356	125.38
282.588	169.38
282.819	125.38
283.051	84.38
283.282	74.38
283.513	83.38
283.745	98.38
283.976	97.38
284.207	101.38
284.439	95.38
284.67	87.38
284.901	102.38
285.132	83.38
285.364	83.38
285.595	96.38
285.826	96.38
286.057	83.38
286.288	80.38
286.52	103.38
286.751	85.38
286.982	92.38
287.213	92.38
287.444	88.38
287.675	89.38
287.906	82.38
288.138	96.38
288.369	95.38
288.6	94.38
288.831	87.38
289.062	92.38
289.293	82.38
289.524	106.38
289.755	90.38
289.986	89.38
290.217	76.38
290.448	76.38
290.679	106.38
290.91	83.38
291.141	87.38
291.371	95.38
291.602	89.38
291.833	100.38
292.064	82.38
292.295	83.38
292.526	77.38
292.757	91.38
292.987	76.38
293.218	102.38
293.449	94.38
293.68	84.38
293.91	98.38
294.141	81.38
294.372	91.38
294.603	92.38
294.833	98.38
295.064	100.38
295.295	95.38
295.525	84.38
295.756	121.38
295.987	101.38
296.217	149.38
296.448	127.38
296.679	95.38
296.909	94.38
297.14	93.38
297.37	95.38
297.601	94.38
297.831	93.38
298.062	83.38
298.292	86.38
298.523	105.38
298.753	91.38
298.984	93.38
299.214	99.38
299.445	104.38
299.675	100.38
299.905	93.38
300.136	94.38
300.366	90.38
300.597	90.38
300.827	99.38
301.057	116.38
301.288	107.38
301.518	95.38
301.748	80.38
301.979	110.38
302.209	97.38
302.439	89.38
302.669	100.38
302.9	92.38
303.13	98.38
303.36	104.38
303.59	118.38
303.82	144.38
304.051	130.38
304.281	93.38
304.511	98.38
304.741	96.38
304.971	102.38
305.201	97.38
305.431	102.38
305.661	92.38
305.891	94.38
306.121	99.38
306.352	110.38
306.582	115.38
306.812	104.38
307.042	115.38
307.272	124.38
307.502	131.38
307.731	141.38
307.961	119.38
308.191	101.38
308.421	93.38
308.651	96.38
308.881	103.38
309.111	93.38
309.341	108.38
309.571	98.38
309.8	110.38
310.03	86.38
310.26	99.38
310.49	88.38
310.72	92.38
310.949	111.38
311.179	116.38
311.409	110.38
311.639	100.38
311.868	91.38
312.098	89.38
312.328	90.38
312.557	110.38
312.787	114.38
313.017	102.38
313.246	89.38
313.476	97.38
313.706	89.38
313.935	86.38
314.165	97.38
314.394	120.38
314.624	108.38
314.853	111.38
315.083	108.38
315.312	107.38
315.542	88.38
315.771	91.38
316.001	99.38
316.23	85.38
316.46	88.38
316.689	87.38
316.919	99.38
317.148	91.38
317.377	90.38
317.607	100.38
317.836	111.38
318.065	105.38
318.295	81.38
318.524	79.38
318.753	100.38
318.983	119.38
319.212	110.38
319.441	113.38
319.67	110.38
319.9	87.38
320.129	96.38
320.358	97.38
320.587	110.38
320.816	111.38
321.046	105.38
321.275	105.38
321.504	87.38
321.733	110.38
321.962	102.38
322.191	104.38
322.42	111.38
322.649	117.38
322.878	120.38
323.108	134.38
323.337	153.38
323.566	153.38
323.795	173.38
324.024	235.38
324.253	477.38
324.482	1025.38
324.71	2118.38
324.939	2793.38
325.168	1031.38
325.397	276.38
325.626	176.38
325.855	124.38
326.084	142.38
326.313	148.38
326.542	172.38
326.77	263.38
326.999	562.38
327.228	1146.38
327.457	2091.38
327.686	1638.38
327.914	519.38
328.143	372.38
328.372	442.38
328.6	279.38
328.829	180.38
329.058	174.38
329.287	170.38
329.515	154.38
329.744	195.38
329.972	305.38
330.201	580.38
330.43	821.38
330.658	402.38
330.887	224.38
331.115	168.38
331.344	122.38
331.572	117.38
331.801	110.38
332.03	103.38
332.258	106.38
332.486	96.38
332.715	97.38
332.943	111.38
333.172	119.38
333.4	102.38
333.629	137.38
333.857	175.38
334.085	302.38
334.314	551.38
334.542	1035.38
334.771	948.38
334.999	294.38
335.227	144.38
335.455	118.38
335.684	104.38
335.912	104.38
336.14	104.38
336.369	107.38
336.597	120.38
336.825	114.38
337.053	99.38
337.281	83.38
337.51	101.38
337.738	101.38
337.966	102.38
338.194	96.38
338.422	108.38
338.65	104.38
338.878	94.38
339.106	95.38
339.334	91.38
339.562	88.38
339.79	99.38
340.018	90.38
340.246	99.38
340.474	107.38
340.702	111.38
340.93	95.38
341.158	103.38
341.386	109.38
341.614	84.38
341.842	112.38
342.07	92.38
342.298	94.38
342.526	99.38
342.754	89.38
342.981	95.38
343.209	96.38
343.437	94.38
343.665	79.38
343.893	93.38
344.12	92.38
344.348	92.38
344.576	99.38
344.804	91.38
345.031	96.38
345.259	107.38
345.487	114.38
345.714	104.38
345.942	93.38
346.17	106.38
346.397	99.38
346.625	110.38
346.853	99.38
347.08	92.38
347.308	104.38
347.535	90.38
347.763	98.38
347.99	95.38
348.218	115.38
348.445	110.38
348.673	117.38
348.9	102.38
349.128	96.38
349.355	116.38
349.583	91.38
349.81	95.38
350.037	103.38
350.265	101.38
350.492	91.38
350.72	95.38
350.947	120.38
351.174	126.38
351.402	124.38
351.629	100.38
351.856	109.38
352.083	108.38
352.311	114.38
352.538	122.38
352.765	124.38
352.992	129.38
353.22	121.38
353.447	110.38
353.674	115.38
353.901	84.38
354.128	101.38
354.355	106.38
354.583	96.38
354.81	91.38
355.037	94.38
355.264	97.38
355.491	94.38
355.718	86.38
355.945	104.38
356.172	95.38
356.399	82.38
356.626	91.38
356.853	94.38
357.08	92.38
357.307	99.38
357.534	107.38
357.761	90.38
357.988	85.38
358.215	92.38
358.441	95.38
358.668	96.38
358.895	84.38
359.122	90.38
359.349	99.38
359.576	83.38
359.802	118.38
360.029	139.38
360.256	120.38
360.483	114.38
360.709	101.38
360.936	105.38
361.163	98.38
361.39	97.38
361.616	92.38
361.843	88.38
362.07	99.38
362.296	101.38
362.523	101.38
362.749	103.38
362.976	100.38
363.203	108.38
363.429	93.38
363.656	75.38
363.882	76.38
364.109	100.38
364.335	88.38
364.562	94.38
364.788	98.38
365.015	90.38
365.241	101.38
365.468	116.38
365.694	130.38
365.92	99.38
366.147	101.38
366.373	83.38
366.599	94.38
366.826	83.38
367.052	84.38
367.278	90.38
367.505	101.38
367.731	76.38
367.957	100.38
368.184	103.38
368.41	114.38
368.636	115.38
368.862	130.38
369.089	118.38
369.315	86.38
369.541	89.38
369.767	96.38
369.993	93.38
370.219	100.38
370.445	84.38
370.672	104.38
370.898	98.38
371.124	103.38
371.35	103.38
371.576	93.38
371.802	95.38
372.028	91.38
372.254	78.38
372.48	83.38
372.706	85.38
372.932	91.38
373.158	91.38
373.384	95.38
373.61	106.38
373.835	98.38
374.061	92.38
374.287	88.38
374.513	98.38
374.739	102.38
374.965	89.38
375.191	91.38
375.416	82.38
375.642	88.38
375.868	91.38
376.094	102.38
376.319	87.38
376.545	91.38
376.771	92.38
376.997	87.38
377.222	91.38
377.448	100.38
377.674	84.38
377.899	94.38
378.125	100.38
378.35	88.38
378.576	88.38
378.802	86.38
379.027	98.38
379.253	90.38
379.478	96.38
379.704	96.38
379.929	102.38
380.155	100.38
380.38	82.38
380.606	90.38
380.831	91.38
381.057	101.38
381.282	88.38
381.507	86.38
381.733	100.38
381.958	94.38
382.184	112.38
382.409	94.38
382.634	96.38
382.86	80.38
383.085	100.38
383.31	116.38
383.535	109.38
383.761	91.38
383.986	103.38
384.211	103.38
384.436	93.38
384.662	97.38
384.887	100.38
385.112	95.38
385.337	115.38
385.562	104.38
385.787	93.38
386.013	122.38
386.238	112.38
386.463	123.38
386.688	113.38
386.913	92.38
387.138	97.38
387.363	93.38
387.588	103.38
387.813	99.38
388.038	106.38
388.263	104.38
388.488	94.38
388.713	94.38
388.938	95.38
389.163	107.38
389.387	97.38
389.612	98.38
389.837	91.38
390.062	98.38
390.287	82.38
390.512	99.38
390.736	98.38
390.961	95.38
391.186	107.38
391.411	93.38
391.636	85.38
391.86	104.38
392.085	91.38
392.31	103.38
392.534	104.38
392.759	93.38
392.984	91.38
393.208	79.38
393.433	105.38
393.658	93.38
393.882	89.38
394.107	84.38
394.331	93.38
394.556	88.38
394.78	99.38
395.005	90.38
395.229	89.38
395.454	82.38
395.678	86.38
395.903	115.38
396.127	93.38
396.352	87.38
396.576	82.38
396.801	84.38
397.025	73.38
397.249	90.38
397.474	77.38
397.698	94.38
397.922	110.38
398.147	106.38
398.371	95.38
398.595	88.38
398.82	87.38
399.044	87.38
399.268	87.38
399.492	79.38
399.717	102.38
399.941	103.38
400.165	98.38
400.389	100.38
400.613	102.38
400.837	95.38
401.062	77.38
401.286	97.38
401.51	101.38
401.734	95.38
401.958	125.38
402.182	136.38
402.406	198.38
402.63	151.38
402.854	103.38
403.078	101.38
403.302	95.38
403.526	87.38
403.75	91.38
403.974	95.38
404.198	98.38
404.422	101.38
404.645	98.38
404.869	91.38
405.093	104.38
405.317	122.38
405.541	114.38
405.765	100.38
405.988	138.38
406.212	208.38
406.436	296.38
406.66	180.38
406.883	117.38
407.107	106.38
407.331	91.38
407.555	92.38
407.778	90.38
408.002	77.38
408.226	92.38
408.449	85.38
408.673	101.38
408.896	102.38
409.12	93.38
409.344	86.38
409.567	77.38
409.791	97.38
410.014	107.38
410.238	94.38
410.461	93.38
410.685	85.38
410.908	109.38
411.132	110.38
411.355	103.38
411.578	109.38
411.802	98.38
412.025	97.38
412.249	103.38
412.472	113.38
412.695	118.38
412.919	102.38
413.142	94.38
413.365	96.38
413.589	98.38
413.812	98.38
414.035	95.38
414.258	85.38
414.482	87.38
414.705	97.38
414.928	91.38
415.151	89.38
415.374	90.38
415.597	88.38
415.821	93.38
416.044	86.38
416.267	106.38
416.49	97.38
416.713	90.38
416.936	102.38
417.159	92.38
417.382	100.38
417.605	107.38
417.828	104.38
418.051	93.38
418.274	103.38
418.497	101.38
418.72	85.38
418.943	92.38
419.166	98.38
419.389	86.38
419.611	85.38
419.834	88.38
420.057	84.38
420.28	110.38
420.503	78.38
420.726	99.38
420.948	101.38
421.171	97.38
421.394	85.38
421.617	89.38
421.839	90.38
422.062	85.38
422.285	99.38
422.507	116.38
422.73	111.38
422.953	93.38
423.175	95.38
423.398	85.38
423.621	95.38
423.843	86.38
424.066	85.38
424.288	95.38
424.511	102.38
424.733	109.38
424.956	118.38
425.178	103.38
425.401	115.38
425.623	111.38
425.846	101.38
426.068	92.38
426.291	95.38
426.513	99.38
426.735	76.38
426.958	96.38
427.18	116.38
427.402	184.38
427.625	225.38
427.847	196.38
428.069	175.38
428.292	114.38
428.514	90.38
428.736	88.38
428.958	83.38
429.181	96.38
429.403	94.38
429.625	86.38
429.847	97.38
430.069	109.38
430.292	102.38
430.514	76.38
430.736	81.38
430.958	84.38
431.18	91.38
431.402	88.38
431.624	89.38
431.846	74.38
432.068	74.38
432.29	84.38
432.512	93.38
432.734	75.38
432.956	100.38
433.178	107.38
433.4	120.38
433.622	102.38
433.844	92.38
434.066	84.38
434.287	94.38
434.509	90.38
434.731	96.38
434.953	85.38
435.175	101.38
435.397	84.38
435.618	98.38
435.84	119.38
436.062	127.38
436.284	120.38
436.505	117.38
436.727	106.38
436.949	99.38
437.17	99.38
437.392	102.38
437.614	103.38
437.835	128.38
438.057	135.38
438.278	119.38
438.5	121.38
438.721	129.38
438.943	104.38
439.165	103.38
439.386	88.38
439.608	100.38
439.829	105.38
440.05	135.38
440.272	182.38
440.493	115.38
440.715	95.38
440.936	81.38
441.158	99.38
441.379	81.38
441.6	101.38
441.822	114.38
442.043	105.38
442.264	109.38
442.486	102.38
442.707	96.38
442.928	118.38
443.149	164.38
443.371	163.38
443.592	112.38
443.813	126.38
444.034	123.38
444.255	119.38
444.476	95.38
444.698	79.38
444.919	77.38
445.14	131.38
445.361	141.38
445.582	126.38
445.803	165.38
446.024	187.38
446.245	137.38
446.466	116.38
446.687	96.38
446.908	102.38
447.129	91.38
447.35	97.38
447.571	96.38
447.792	98.38
448.013	88.38
448.234	121.38
448.455	125.38
448.675	135.38
448.896	133.38
449.117	99.38
449.338	126.38
449.559	133.38
449.779	154.38
450	107.38
450.221	92.38
450.442	102.38
450.662	107.38
450.883	113.38
451.104	127.38
451.324	101.38
451.545	100.38
451.766	92.38
451.986	92.38
452.207	89.38
452.428	99.38
452.648	104.38
452.869	119.38
453.089	111.38
453.31	125.38
453.53	96.38
453.751	88.38
453.971	108.38
454.192	103.38
454.412	90.38
454.633	97.38
454.853	90.38
455.073	84.38
455.294	106.38
455.514	112.38
455.734	92.38
455.955	86.38
456.175	100.38
456.395	105.38
456.616	82.38
456.836	92.38
457.056	88.38
457.276	89.38
457.497	101.38
457.717	85.38
457.937	88.38
458.157	85.38
458.377	95.38
458.598	108.38
458.818	185.38
459.038	210.38
459.258	137.38
459.478	92.38
459.698	91.38
459.918	94.38
460.138	99.38
460.358	90.38
460.578	92.38
460.798	101.38
461.018	90.38
461.238	88.38
461.458	76.38
461.678	77.38
461.898	93.38
462.118	96.38
462.338	105.38
462.558	83.38
462.777	81.38
462.997	83.38
463.217	99.38
463.437	98.38
463.657	109.38
463.876	94.38
464.096	87.38
464.316	101.38
464.536	116.38
464.755	115.38
464.975	117.38
465.195	205.38
465.414	197.38
465.634	95.38
465.854	90.38
466.073	101.38
466.293	93.38
466.512	86.38
466.732	85.38
466.951	97.38
467.171	124.38
467.391	113.38
467.61	117.38
467.829	160.38
468.049	367.38
468.268	492.38
468.488	156.38
468.707	101.38
468.927	99.38
469.146	95.38
469.365	87.38
469.585	93.38
469.804	100.38
470.023	112.38
470.243	100.38
470.462	117.38
470.681	114.38
470.901	92.38
471.12	86.38
471.339	87.38
471.558	114.38
471.777	125.38
471.997	195.38
472.216	678.38
472.435	1413.38
472.654	364.38
472.873	126.38
473.092	94.38
473.311	92.38
473.53	83.38
473.749	80.38
473.968	103.38
474.187	121.38
474.406	102.38
474.625	101.38
474.844	101.38
475.063	97.38
475.282	95.38
475.501	94.38
475.72	96.38
475.939	93.38
476.158	94.38
476.377	86.38
476.596	94.38
476.814	99.38
477.033	97.38
477.252	81.38
477.471	88.38
477.69	98.38
477.908	96.38
478.127	84.38
478.346	101.38
478.564	81.38
478.783	107.38
479.002	118.38
479.22	106.38
479.439	113.38
479.658	123.38
479.876	99.38
480.095	95.38
480.313	130.38
480.532	125.38
480.751	198.38
480.969	610.38
481.188	2441.38
481.406	1456.38
481.624	260.38
481.843	116.38
482.061	91.38
482.28	105.38
482.498	102.38
482.717	103.38
482.935	80.38
483.153	98.38
483.372	86.38
483.59	88.38
483.808	84.38
484.027	93.38
484.245	84.38
484.463	90.38
484.681	95.38
484.9	91.38
485.118	91.38
485.336	103.38
485.554	98.38
485.772	103.38
485.99	98.38
486.209	105.38
486.427	111.38
486.645	119.38
486.863	126.38
487.081	98.38
487.299	115.38
487.517	96.38
487.735	101.38
487.953	94.38
488.171	97.38
488.389	93.38
488.607	121.38
488.825	95.38
489.043	79.38
489.261	102.38
489.479	96.38
489.696	85.38
489.914	95.38
490.132	95.38
490.35	103.38
490.568	96.38
490.786	96.38
491.003	98.38
491.221	92.38
491.439	97.38
491.657	77.38
491.874	79.38
492.092	87.38
492.31	101.38
492.527	113.38
492.745	101.38
492.963	85.38
493.18	72.38
493.398	105.38
493.615	91.38
493.833	90.38
494.05	90.38
494.268	75.38
494.485	84.38
494.703	91.38
494.92	88.38
495.138	84.38
495.355	84.38
495.573	105.38
495.79	95.38
496.008	101.38
496.225	100.38
496.442	96.38
496.66	95.38
496.877	109.38
497.094	95.38
497.312	96.38
497.529	92.38
497.746	85.38
497.963	99.38
498.181	103.38
498.398	107.38
498.615	114.38
498.832	112.38
499.049	96.38
499.267	92.38
499.484	97.38
499.701	102.38
499.918	82.38
500.135	87.38
500.352	84.38
500.569	88.38
500.786	100.38
501.003	93.38
501.22	84.38
501.437	95.38
501.654	101.38
501.871	130.38
502.088	112.38
502.305	80.38
502.522	90.38
502.739	104.38
502.956	104.38
503.172	92.38
503.389	102.38
503.606	120.38
503.823	103.38
504.04	109.38
504.256	94.38
504.473	88.38
504.69	91.38
504.907	89.38
505.123	95.38
505.34	84.38
505.557	101.38
505.773	98.38
505.99	86.38
506.207	97.38
506.423	87.38
506.64	95.38
506.856	91.38
507.073	95.38
507.289	109.38
507.506	99.38
507.722	124.38
507.939	122.38
508.155	98.38
508.372	101.38
508.588	94.38
508.805	88.38
509.021	93.38
509.238	107.38
509.454	114.38
509.67	114.38
509.887	109.38
510.103	146.38
510.319	242.38
510.536	878.38
510.752	3015.38
510.968	816.38
511.184	172.38
511.401	134.38
511.617	111.38
511.833	101.38
512.049	114.38
512.265	99.38
512.481	102.38
512.698	109.38
512.914	110.38
