Data from Circ_2000_H10_HRD10591_00001.txt Node
Date: Wed Jan 03 10:49:34 EST 2024
User: Yrep
Spectrometer: HR+D1059
Trigger mode: 1
Integration Time (sec): 1.000000E-1
Scans to average: 1
Electric dark correction enabled: true
Nonlinearity correction enabled: false
Boxcar width: 0
XAxis mode: Wavelengths
Number of Pixels in Spectrum: 2048
>>>>>Begin Spectral Data<<<<<
223.165	-25.38
223.4	-25.38
223.635	-25.38
223.869	-10.38
224.104	-18.38
224.338	-33.38
224.573	-5.38
224.808	-5.38
225.042	-14.38
225.277	-11.38
225.511	3.62
225.746	8.62
225.98	5.62
226.215	-2.38
226.449	23.62
226.683	11.62
226.918	30.62
227.152	42.62
227.387	45.62
227.621	27.62
227.856	52.62
228.09	51.62
228.324	61.62
228.559	61.62
228.793	67.62
229.027	72.62
229.262	65.62
229.496	75.62
229.73	81.62
229.964	90.62
230.199	67.62
230.433	60.62
230.667	69.62
230.901	89.62
231.136	88.62
231.37	77.62
231.604	85.62
231.838	84.62
232.072	80.62
232.306	81.62
232.541	81.62
232.775	67.62
233.009	81.62
233.243	86.62
233.477	93.62
233.711	81.62
233.945	91.62
234.179	92.62
234.413	78.62
234.647	84.62
234.881	78.62
235.115	78.62
235.349	85.62
235.583	87.62
235.817	76.62
236.051	92.62
236.285	93.62
236.519	90.62
236.753	72.62
236.987	85.62
237.221	84.62
237.455	83.62
237.689	81.62
237.922	84.62
238.156	88.62
238.39	79.62
238.624	81.62
238.858	65.62
239.091	76.62
239.325	88.62
239.559	71.62
239.793	77.62
240.027	85.62
240.26	74.62
240.494	74.62
240.728	78.62
240.961	74.62
241.195	64.62
241.429	75.62
241.662	67.62
241.896	80.62
242.13	71.62
242.363	87.62
242.597	86.62
242.83	79.62
243.064	77.62
243.298	94.62
243.531	74.62
243.765	69.62
243.998	92.62
244.232	87.62
244.465	84.62
244.699	79.62
244.932	84.62
245.166	82.62
245.399	79.62
245.633	77.62
245.866	87.62
246.099	94.62
246.333	94.62
246.566	73.62
246.8	81.62
247.033	76.62
247.266	71.62
247.5	67.62
247.733	84.62
247.966	83.62
248.2	88.62
248.433	89.62
248.666	96.62
248.899	93.62
249.133	75.62
249.366	101.62
249.599	97.62
249.832	83.62
250.066	85.62
250.299	92.62
250.532	72.62
250.765	84.62
250.998	83.62
251.231	81.62
251.465	92.62
251.698	75.62
251.931	65.62
252.164	72.62
252.397	91.62
252.63	81.62
252.863	72.62
253.096	92.62
253.329	86.62
253.562	73.62
253.795	82.62
254.028	80.62
254.261	71.62
254.494	77.62
254.727	89.62
254.96	83.62
255.193	88.62
255.426	91.62
255.659	80.62
255.892	88.62
256.124	73.62
256.357	73.62
256.59	100.62
256.823	79.62
257.056	75.62
257.289	84.62
257.521	87.62
257.754	71.62
257.987	87.62
258.22	91.62
258.452	81.62
258.685	89.62
258.918	81.62
259.151	75.62
259.383	69.62
259.616	91.62
259.849	86.62
260.081	88.62
260.314	86.62
260.547	84.62
260.779	93.62
261.012	81.62
261.244	90.62
261.477	96.62
261.71	96.62
261.942	104.62
262.175	115.62
262.407	87.62
262.64	86.62
262.872	73.62
263.105	88.62
263.337	103.62
263.57	77.62
263.802	80.62
264.035	81.62
264.267	67.62
264.499	77.62
264.732	73.62
264.964	83.62
265.197	92.62
265.429	87.62
265.661	98.62
265.894	80.62
266.126	81.62
266.358	82.62
266.591	81.62
266.823	74.62
267.055	85.62
267.287	93.62
267.52	90.62
267.752	85.62
267.984	88.62
268.216	92.62
268.448	81.62
268.681	87.62
268.913	107.62
269.145	75.62
269.377	84.62
269.609	75.62
269.841	72.62
270.073	89.62
270.306	85.62
270.538	78.62
270.77	80.62
271.002	83.62
271.234	89.62
271.466	97.62
271.698	92.62
271.93	91.62
272.162	96.62
272.394	81.62
272.626	80.62
272.858	77.62
273.09	91.62
273.322	63.62
273.553	90.62
273.785	108.62
274.017	92.62
274.249	80.62
274.481	92.62
274.713	103.62
274.945	106.62
275.176	90.62
275.408	92.62
275.64	96.62
275.872	96.62
276.104	80.62
276.335	89.62
276.567	89.62
276.799	106.62
277.031	122.62
277.262	107.62
277.494	100.62
277.726	83.62
277.957	89.62
278.189	92.62
278.421	73.62
278.652	85.62
278.884	83.62
279.115	92.62
279.347	77.62
279.579	96.62
279.81	95.62
280.042	94.62
280.273	102.62
280.505	92.62
280.736	89.62
280.968	87.62
281.199	79.62
281.431	72.62
281.662	73.62
281.894	101.62
282.125	108.62
282.356	108.62
282.588	139.62
282.819	112.62
283.051	98.62
283.282	93.62
283.513	100.62
283.745	83.62
283.976	99.62
284.207	107.62
284.439	89.62
284.67	80.62
284.901	87.62
285.132	96.62
285.364	78.62
285.595	84.62
285.826	87.62
286.057	92.62
286.288	87.62
286.52	99.62
286.751	88.62
286.982	98.62
287.213	90.62
287.444	88.62
287.675	88.62
287.906	107.62
288.138	83.62
288.369	91.62
288.6	110.62
288.831	87.62
289.062	92.62
289.293	86.62
289.524	75.62
289.755	71.62
289.986	90.62
290.217	86.62
290.448	86.62
290.679	116.62
290.91	90.62
291.141	83.62
291.371	86.62
291.602	98.62
291.833	89.62
292.064	85.62
292.295	103.62
292.526	83.62
292.757	73.62
292.987	97.62
293.218	100.62
293.449	110.62
293.68	97.62
293.91	108.62
294.141	89.62
294.372	96.62
294.603	95.62
294.833	80.62
295.064	86.62
295.295	94.62
295.525	83.62
295.756	94.62
295.987	103.62
296.217	140.62
296.448	133.62
296.679	81.62
296.909	95.62
297.14	88.62
297.37	105.62
297.601	82.62
297.831	90.62
298.062	88.62
298.292	93.62
298.523	92.62
298.753	102.62
298.984	74.62
299.214	83.62
299.445	92.62
299.675	105.62
299.905	96.62
300.136	88.62
300.366	81.62
300.597	103.62
300.827	72.62
301.057	95.62
301.288	113.62
301.518	99.62
301.748	100.62
301.979	113.62
302.209	97.62
302.439	94.62
302.669	80.62
302.9	93.62
303.13	92.62
303.36	84.62
303.59	109.62
303.82	119.62
304.051	99.62
304.281	92.62
304.511	104.62
304.741	86.62
304.971	86.62
305.201	85.62
305.431	94.62
305.661	83.62
305.891	89.62
306.121	96.62
306.352	84.62
306.582	102.62
306.812	105.62
307.042	89.62
307.272	100.62
307.502	116.62
307.731	102.62
307.961	102.62
308.191	88.62
308.421	85.62
308.651	100.62
308.881	111.62
309.111	99.62
309.341	96.62
309.571	94.62
309.8	104.62
310.03	100.62
310.26	97.62
310.49	97.62
310.72	97.62
310.949	102.62
311.179	99.62
311.409	94.62
311.639	94.62
311.868	106.62
312.098	103.62
312.328	107.62
312.557	97.62
312.787	111.62
313.017	95.62
313.246	92.62
313.476	90.62
313.706	95.62
313.935	101.62
314.165	92.62
314.394	107.62
314.624	112.62
314.853	96.62
315.083	105.62
315.312	100.62
315.542	89.62
315.771	106.62
316.001	92.62
316.23	88.62
316.46	75.62
316.689	108.62
316.919	90.62
317.148	94.62
317.377	107.62
317.607	100.62
317.836	87.62
318.065	93.62
318.295	107.62
318.524	75.62
318.753	94.62
318.983	90.62
319.212	88.62
319.441	95.62
319.67	93.62
319.9	101.62
320.129	108.62
320.358	104.62
320.587	98.62
320.816	91.62
321.046	96.62
321.275	99.62
321.504	95.62
321.733	102.62
321.962	106.62
322.191	113.62
322.42	93.62
322.649	105.62
322.878	111.62
323.108	121.62
323.337	115.62
323.566	132.62
323.795	159.62
324.024	208.62
324.253	388.62
324.482	823.62
324.71	1687.62
324.939	2256.62
325.168	835.62
325.397	245.62
325.626	140.62
325.855	131.62
326.084	134.62
326.313	136.62
326.542	161.62
326.77	231.62
326.999	445.62
327.228	927.62
327.457	1721.62
327.686	1410.62
327.914	408.62
328.143	251.62
328.372	235.62
328.6	169.62
328.829	132.62
329.058	127.62
329.287	145.62
329.515	120.62
329.744	125.62
329.972	175.62
330.201	235.62
330.43	344.62
330.658	231.62
330.887	177.62
331.115	121.62
331.344	117.62
331.572	103.62
331.801	109.62
332.03	103.62
332.258	111.62
332.486	88.62
332.715	107.62
332.943	101.62
333.172	106.62
333.4	111.62
333.629	117.62
333.857	137.62
334.085	175.62
334.314	239.62
334.542	422.62
334.771	409.62
334.999	163.62
335.227	118.62
335.455	106.62
335.684	103.62
335.912	102.62
336.14	101.62
336.369	91.62
336.597	95.62
336.825	100.62
337.053	94.62
337.281	87.62
337.51	92.62
337.738	98.62
337.966	99.62
338.194	94.62
338.422	96.62
338.65	94.62
338.878	87.62
339.106	94.62
339.334	109.62
339.562	84.62
339.79	96.62
340.018	107.62
340.246	87.62
340.474	86.62
340.702	84.62
340.93	100.62
341.158	91.62
341.386	95.62
341.614	117.62
341.842	98.62
342.07	92.62
342.298	96.62
342.526	103.62
342.754	87.62
342.981	91.62
343.209	90.62
343.437	100.62
343.665	81.62
343.893	86.62
344.12	93.62
344.348	107.62
344.576	103.62
344.804	101.62
345.031	92.62
345.259	106.62
345.487	92.62
345.714	83.62
345.942	90.62
346.17	96.62
346.397	84.62
346.625	89.62
346.853	84.62
347.08	84.62
347.308	97.62
347.535	96.62
347.763	105.62
347.99	107.62
348.218	95.62
348.445	108.62
348.673	102.62
348.9	112.62
349.128	102.62
349.355	88.62
349.583	95.62
349.81	91.62
350.037	110.62
350.265	101.62
350.492	86.62
350.72	87.62
350.947	115.62
351.174	109.62
351.402	113.62
351.629	113.62
351.856	91.62
352.083	101.62
352.311	118.62
352.538	119.62
352.765	95.62
352.992	111.62
353.22	128.62
353.447	106.62
353.674	114.62
353.901	106.62
354.128	89.62
354.355	95.62
354.583	89.62
354.81	99.62
355.037	99.62
355.264	98.62
355.491	102.62
355.718	97.62
355.945	92.62
356.172	103.62
356.399	100.62
356.626	98.62
356.853	82.62
357.08	109.62
357.307	92.62
357.534	107.62
357.761	106.62
357.988	115.62
358.215	105.62
358.441	103.62
358.668	107.62
358.895	100.62
359.122	95.62
359.349	102.62
359.576	97.62
359.802	109.62
360.029	122.62
360.256	111.62
360.483	94.62
360.709	91.62
360.936	98.62
361.163	88.62
361.39	93.62
361.616	101.62
361.843	94.62
362.07	89.62
362.296	90.62
362.523	97.62
362.749	91.62
362.976	93.62
363.203	99.62
363.429	96.62
363.656	107.62
363.882	92.62
364.109	117.62
364.335	113.62
364.562	101.62
364.788	105.62
365.015	100.62
365.241	100.62
365.468	105.62
365.694	116.62
365.92	97.62
366.147	94.62
366.373	97.62
366.599	94.62
366.826	88.62
367.052	98.62
367.278	81.62
367.505	103.62
367.731	85.62
367.957	95.62
368.184	105.62
368.41	104.62
368.636	112.62
368.862	110.62
369.089	112.62
369.315	104.62
369.541	108.62
369.767	90.62
369.993	96.62
370.219	85.62
370.445	87.62
370.672	90.62
370.898	112.62
371.124	89.62
371.35	103.62
371.576	78.62
371.802	91.62
372.028	99.62
372.254	88.62
372.48	88.62
372.706	74.62
372.932	82.62
373.158	90.62
373.384	95.62
373.61	106.62
373.835	84.62
374.061	83.62
374.287	100.62
374.513	94.62
374.739	105.62
374.965	91.62
375.191	101.62
375.416	102.62
375.642	94.62
375.868	87.62
376.094	93.62
376.319	92.62
376.545	97.62
376.771	92.62
376.997	100.62
377.222	104.62
377.448	88.62
377.674	93.62
377.899	107.62
378.125	94.62
378.35	79.62
378.576	109.62
378.802	107.62
379.027	100.62
379.253	100.62
379.478	116.62
379.704	102.62
379.929	108.62
380.155	115.62
380.38	98.62
380.606	104.62
380.831	112.62
381.057	115.62
381.282	114.62
381.507	106.62
381.733	115.62
381.958	115.62
382.184	112.62
382.409	96.62
382.634	131.62
382.86	128.62
383.085	124.62
383.31	111.62
383.535	140.62
383.761	109.62
383.986	121.62
384.211	115.62
384.436	121.62
384.662	133.62
384.887	145.62
385.112	143.62
385.337	150.62
385.562	154.62
385.787	137.62
386.013	129.62
386.238	152.62
386.463	150.62
386.688	142.62
386.913	149.62
387.138	146.62
387.363	147.62
387.588	129.62
387.813	122.62
388.038	147.62
388.263	159.62
388.488	158.62
388.713	121.62
388.938	107.62
389.163	98.62
389.387	92.62
389.612	104.62
389.837	87.62
390.062	105.62
390.287	117.62
390.512	103.62
390.736	101.62
390.961	82.62
391.186	95.62
391.411	99.62
391.636	98.62
391.86	88.62
392.085	99.62
392.31	93.62
392.534	88.62
392.759	108.62
392.984	102.62
393.208	105.62
393.433	97.62
393.658	105.62
393.882	90.62
394.107	80.62
394.331	90.62
394.556	83.62
394.78	83.62
395.005	87.62
395.229	83.62
395.454	96.62
395.678	99.62
395.903	79.62
396.127	80.62
396.352	91.62
396.576	76.62
396.801	90.62
397.025	103.62
397.249	95.62
397.474	81.62
397.698	91.62
397.922	92.62
398.147	99.62
398.371	104.62
398.595	89.62
398.82	91.62
399.044	87.62
399.268	97.62
399.492	91.62
399.717	86.62
399.941	97.62
400.165	91.62
400.389	83.62
400.613	107.62
400.837	100.62
401.062	92.62
401.286	97.62
401.51	83.62
401.734	83.62
401.958	117.62
402.182	127.62
402.406	171.62
402.63	117.62
402.854	97.62
403.078	101.62
403.302	91.62
403.526	89.62
403.75	86.62
403.974	81.62
404.198	85.62
404.422	89.62
404.645	92.62
404.869	109.62
405.093	111.62
405.317	117.62
405.541	109.62
405.765	106.62
405.988	93.62
406.212	165.62
406.436	216.62
406.66	152.62
406.883	109.62
407.107	110.62
407.331	98.62
407.555	108.62
407.778	95.62
408.002	91.62
408.226	89.62
408.449	93.62
408.673	102.62
408.896	109.62
409.12	108.62
409.344	92.62
409.567	92.62
409.791	82.62
410.014	115.62
410.238	93.62
410.461	86.62
410.685	96.62
410.908	96.62
411.132	100.62
411.355	101.62
411.578	106.62
411.802	90.62
412.025	95.62
412.249	105.62
412.472	105.62
412.695	115.62
412.919	121.62
413.142	108.62
413.365	74.62
413.589	98.62
413.812	83.62
414.035	83.62
414.258	101.62
414.482	100.62
414.705	99.62
414.928	107.62
415.151	100.62
415.374	115.62
415.597	91.62
415.821	106.62
416.044	88.62
416.267	89.62
416.49	98.62
416.713	96.62
416.936	94.62
417.159	88.62
417.382	88.62
417.605	102.62
417.828	118.62
418.051	112.62
418.274	99.62
418.497	96.62
418.72	109.62
418.943	89.62
419.166	95.62
419.389	88.62
419.611	97.62
419.834	101.62
420.057	94.62
420.28	102.62
420.503	106.62
420.726	92.62
420.948	87.62
421.171	107.62
421.394	107.62
421.617	96.62
421.839	99.62
422.062	97.62
422.285	96.62
422.507	111.62
422.73	123.62
422.953	108.62
423.175	91.62
423.398	76.62
423.621	100.62
423.843	87.62
424.066	102.62
424.288	94.62
424.511	89.62
424.733	100.62
424.956	111.62
425.178	104.62
425.401	95.62
425.623	113.62
425.846	88.62
426.068	89.62
426.291	101.62
426.513	88.62
426.735	93.62
426.958	96.62
427.18	113.62
427.402	130.62
427.625	177.62
427.847	154.62
428.069	161.62
428.292	105.62
428.514	98.62
428.736	104.62
428.958	103.62
429.181	90.62
429.403	83.62
429.625	89.62
429.847	90.62
430.069	108.62
430.292	89.62
430.514	87.62
430.736	81.62
430.958	97.62
431.18	89.62
431.402	92.62
431.624	75.62
431.846	75.62
432.068	105.62
432.29	104.62
432.512	90.62
432.734	95.62
432.956	97.62
433.178	105.62
433.4	112.62
433.622	100.62
433.844	91.62
434.066	87.62
434.287	86.62
434.509	105.62
434.731	106.62
434.953	98.62
435.175	99.62
435.397	95.62
435.618	94.62
435.84	92.62
436.062	129.62
436.284	115.62
436.505	99.62
436.727	94.62
436.949	98.62
437.17	93.62
437.392	84.62
437.614	92.62
437.835	104.62
438.057	120.62
438.278	100.62
438.5	115.62
438.721	114.62
438.943	91.62
439.165	77.62
439.386	81.62
439.608	107.62
439.829	101.62
440.05	122.62
440.272	157.62
440.493	111.62
440.715	96.62
440.936	92.62
441.158	93.62
441.379	93.62
441.6	101.62
441.822	102.62
442.043	104.62
442.264	113.62
442.486	88.62
442.707	100.62
442.928	119.62
443.149	134.62
443.371	140.62
443.592	124.62
443.813	119.62
444.034	113.62
444.255	91.62
444.476	95.62
444.698	105.62
444.919	90.62
445.14	137.62
445.361	129.62
445.582	118.62
445.803	152.62
446.024	131.62
446.245	141.62
446.466	103.62
446.687	94.62
446.908	94.62
447.129	80.62
447.35	92.62
447.571	91.62
447.792	100.62
448.013	101.62
448.234	106.62
448.455	102.62
448.675	118.62
448.896	130.62
449.117	93.62
449.338	107.62
449.559	131.62
449.779	142.62
450	91.62
450.221	99.62
450.442	77.62
450.662	95.62
450.883	101.62
451.104	108.62
451.324	101.62
451.545	92.62
451.766	91.62
451.986	87.62
452.207	96.62
452.428	103.62
452.648	93.62
452.869	126.62
453.089	123.62
453.31	116.62
453.53	102.62
453.751	99.62
453.971	101.62
454.192	108.62
454.412	97.62
454.633	92.62
454.853	99.62
455.073	85.62
455.294	84.62
455.514	110.62
455.734	93.62
455.955	94.62
456.175	84.62
456.395	87.62
456.616	77.62
456.836	88.62
457.056	97.62
457.276	90.62
457.497	83.62
457.717	92.62
457.937	81.62
458.157	95.62
458.377	83.62
458.598	111.62
458.818	144.62
459.038	174.62
459.258	120.62
459.478	104.62
459.698	108.62
459.918	75.62
460.138	86.62
460.358	87.62
460.578	96.62
460.798	92.62
461.018	87.62
461.238	80.62
461.458	86.62
461.678	90.62
461.898	90.62
462.118	95.62
462.338	93.62
462.558	82.62
462.777	94.62
462.997	97.62
463.217	88.62
463.437	88.62
463.657	90.62
463.876	97.62
464.096	95.62
464.316	87.62
464.536	101.62
464.755	106.62
464.975	113.62
465.195	160.62
465.414	156.62
465.634	115.62
465.854	101.62
466.073	90.62
466.293	100.62
466.512	97.62
466.732	96.62
466.951	96.62
467.171	100.62
467.391	94.62
467.61	117.62
467.829	119.62
468.049	169.62
468.268	214.62
468.488	100.62
468.707	92.62
468.927	96.62
469.146	79.62
469.365	88.62
469.585	92.62
469.804	90.62
470.023	101.62
470.243	86.62
470.462	93.62
470.681	110.62
470.901	96.62
471.12	92.62
471.339	90.62
471.558	99.62
471.777	90.62
471.997	104.62
472.216	239.62
472.435	511.62
472.654	176.62
472.873	95.62
473.092	109.62
473.311	76.62
473.53	85.62
473.749	91.62
473.968	104.62
474.187	103.62
474.406	113.62
474.625	80.62
474.844	93.62
475.063	97.62
475.282	73.62
475.501	94.62
475.72	94.62
475.939	85.62
476.158	87.62
476.377	84.62
476.596	94.62
476.814	93.62
477.033	96.62
477.252	94.62
477.471	95.62
477.69	89.62
477.908	97.62
478.127	94.62
478.346	81.62
478.564	91.62
478.783	100.62
479.002	92.62
479.22	78.62
479.439	95.62
479.658	102.62
479.876	101.62
480.095	102.62
480.313	100.62
480.532	107.62
480.751	124.62
480.969	269.62
481.188	797.62
481.406	532.62
481.624	146.62
481.843	106.62
482.061	85.62
482.28	95.62
482.498	90.62
482.717	89.62
482.935	99.62
483.153	91.62
483.372	86.62
483.59	96.62
483.808	83.62
484.027	101.62
484.245	94.62
484.463	95.62
484.681	106.62
484.9	102.62
485.118	101.62
485.336	102.62
485.554	110.62
485.772	113.62
485.99	113.62
486.209	115.62
486.427	118.62
486.645	119.62
486.863	110.62
487.081	112.62
487.299	97.62
487.517	97.62
487.735	103.62
487.953	95.62
488.171	95.62
488.389	95.62
488.607	95.62
488.825	98.62
489.043	90.62
489.261	91.62
489.479	96.62
489.696	91.62
489.914	90.62
490.132	85.62
490.35	105.62
490.568	97.62
490.786	103.62
491.003	95.62
491.221	86.62
491.439	103.62
491.657	103.62
491.874	92.62
492.092	83.62
492.31	91.62
492.527	93.62
492.745	86.62
492.963	91.62
493.18	90.62
493.398	96.62
493.615	98.62
493.833	87.62
494.05	90.62
494.268	110.62
494.485	103.62
494.703	103.62
494.92	95.62
495.138	104.62
495.355	90.62
495.573	90.62
495.79	105.62
496.008	93.62
496.225	94.62
496.442	92.62
496.66	101.62
496.877	89.62
497.094	97.62
497.312	102.62
497.529	104.62
497.746	89.62
497.963	91.62
498.181	97.62
498.398	102.62
498.615	112.62
498.832	92.62
499.049	92.62
499.267	105.62
499.484	95.62
499.701	110.62
499.918	80.62
500.135	96.62
500.352	85.62
500.569	96.62
500.786	95.62
501.003	96.62
501.22	90.62
501.437	85.62
501.654	96.62
501.871	117.62
502.088	109.62
502.305	108.62
502.522	102.62
502.739	103.62
502.956	104.62
503.172	98.62
503.389	97.62
503.606	115.62
503.823	94.62
504.04	93.62
504.256	87.62
504.473	101.62
504.69	87.62
504.907	97.62
505.123	94.62
505.34	97.62
505.557	89.62
505.773	77.62
505.99	87.62
506.207	88.62
506.423	95.62
506.64	94.62
506.856	91.62
507.073	97.62
507.289	98.62
507.506	87.62
507.722	121.62
507.939	122.62
508.155	112.62
508.372	100.62
508.588	102.62
508.805	94.62
509.021	101.62
509.238	87.62
509.454	96.62
509.67	109.62
509.887	107.62
510.103	129.62
510.319	218.62
510.536	680.62
510.752	2199.62
510.968	636.62
511.184	156.62
511.401	101.62
511.617	112.62
511.833	104.62
512.049	92.62
512.265	96.62
512.481	94.62
512.698	90.62
512.914	101.62
513.13	107.62
