Data from Circ_2000_H10_HRD10591_00082.txt Node
Date: Wed Jan 03 10:49:50 EST 2024
User: Yrep
Spectrometer: HR+D1059
Trigger mode: 1
Integration Time (sec): 1.000000E-1
Scans to average: 1
Electric dark correction enabled: true
Nonlinearity correction enabled: false
Boxcar width: 0
XAxis mode: Wavelengths
Number of Pixels in Spectrum: 2048
>>>>>Begin Spectral Data<<<<<
223.165	-11.38
223.4	-11.38
223.635	-11.38
223.869	-3.38
224.104	-17.38
224.338	-9.38
224.573	-9.38
224.808	-13.38
225.042	-5.38
225.277	-11.38
225.511	-13.38
225.746	-2.38
225.98	10.62
226.215	2.62
226.449	5.62
226.683	16.62
226.918	22.62
227.152	38.62
227.387	43.62
227.621	39.62
227.856	45.62
228.09	52.62
228.324	70.62
228.559	55.62
228.793	54.62
229.027	70.62
229.262	78.62
229.496	63.62
229.73	110.62
229.964	104.62
230.199	79.62
230.433	81.62
230.667	84.62
230.901	82.62
231.136	64.62
231.37	86.62
231.604	81.62
231.838	79.62
232.072	68.62
232.306	100.62
232.541	91.62
232.775	82.62
233.009	84.62
233.243	69.62
233.477	71.62
233.711	90.62
233.945	81.62
234.179	91.62
234.413	87.62
234.647	77.62
234.881	73.62
235.115	77.62
235.349	75.62
235.583	91.62
235.817	83.62
236.051	82.62
236.285	84.62
236.519	73.62
236.753	64.62
236.987	79.62
237.221	90.62
237.455	103.62
237.689	76.62
237.922	87.62
238.156	73.62
238.39	91.62
238.624	63.62
238.858	90.62
239.091	64.62
239.325	85.62
239.559	76.62
239.793	86.62
240.027	82.62
240.26	73.62
240.494	84.62
240.728	83.62
240.961	74.62
241.195	74.62
241.429	85.62
241.662	85.62
241.896	79.62
242.13	85.62
242.363	77.62
242.597	75.62
242.83	73.62
243.064	80.62
243.298	77.62
243.531	72.62
243.765	86.62
243.998	79.62
244.232	90.62
244.465	91.62
244.699	83.62
244.932	79.62
245.166	84.62
245.399	77.62
245.633	85.62
245.866	77.62
246.099	85.62
246.333	67.62
246.566	85.62
246.8	95.62
247.033	80.62
247.266	81.62
247.5	78.62
247.733	73.62
247.966	77.62
248.2	89.62
248.433	96.62
248.666	91.62
248.899	92.62
249.133	89.62
249.366	105.62
249.599	99.62
249.832	95.62
250.066	98.62
250.299	72.62
250.532	86.62
250.765	77.62
250.998	79.62
251.231	82.62
251.465	70.62
251.698	63.62
251.931	77.62
252.164	88.62
252.397	91.62
252.63	66.62
252.863	86.62
253.096	83.62
253.329	76.62
253.562	72.62
253.795	87.62
254.028	80.62
254.261	75.62
254.494	94.62
254.727	88.62
254.96	82.62
255.193	88.62
255.426	80.62
255.659	83.62
255.892	99.62
256.124	102.62
256.357	82.62
256.59	86.62
256.823	76.62
257.056	101.62
257.289	88.62
257.521	73.62
257.754	92.62
257.987	95.62
258.22	102.62
258.452	98.62
258.685	91.62
258.918	95.62
259.151	85.62
259.383	96.62
259.616	91.62
259.849	91.62
260.081	97.62
260.314	87.62
260.547	85.62
260.779	88.62
261.012	92.62
261.244	105.62
261.477	98.62
261.71	108.62
261.942	135.62
262.175	143.62
262.407	103.62
262.64	92.62
262.872	91.62
263.105	88.62
263.337	88.62
263.57	80.62
263.802	101.62
264.035	86.62
264.267	78.62
264.499	84.62
264.732	82.62
264.964	89.62
265.197	82.62
265.429	86.62
265.661	78.62
265.894	85.62
266.126	80.62
266.358	84.62
266.591	89.62
266.823	92.62
267.055	91.62
267.287	88.62
267.52	84.62
267.752	96.62
267.984	78.62
268.216	96.62
268.448	99.62
268.681	93.62
268.913	79.62
269.145	97.62
269.377	96.62
269.609	82.62
269.841	83.62
270.073	83.62
270.306	87.62
270.538	72.62
270.77	96.62
271.002	82.62
271.234	94.62
271.466	87.62
271.698	92.62
271.93	91.62
272.162	88.62
272.394	81.62
272.626	92.62
272.858	84.62
273.09	79.62
273.322	98.62
273.553	88.62
273.785	90.62
274.017	85.62
274.249	92.62
274.481	95.62
274.713	76.62
274.945	80.62
275.176	108.62
275.408	96.62
275.64	105.62
275.872	100.62
276.104	107.62
276.335	108.62
276.567	109.62
276.799	140.62
277.031	160.62
277.262	179.62
277.494	152.62
277.726	89.62
277.957	94.62
278.189	95.62
278.421	86.62
278.652	93.62
278.884	94.62
279.115	76.62
279.347	95.62
279.579	86.62
279.81	117.62
280.042	171.62
280.273	213.62
280.505	158.62
280.736	105.62
280.968	89.62
281.199	90.62
281.431	82.62
281.662	91.62
281.894	90.62
282.125	108.62
282.356	149.62
282.588	174.62
282.819	143.62
283.051	90.62
283.282	99.62
283.513	87.62
283.745	97.62
283.976	82.62
284.207	92.62
284.439	86.62
284.67	100.62
284.901	83.62
285.132	95.62
285.364	93.62
285.595	82.62
285.826	82.62
286.057	94.62
286.288	86.62
286.52	90.62
286.751	98.62
286.982	90.62
287.213	90.62
287.444	86.62
287.675	91.62
287.906	91.62
288.138	93.62
288.369	98.62
288.6	107.62
288.831	84.62
289.062	94.62
289.293	94.62
289.524	85.62
289.755	83.62
289.986	89.62
290.217	90.62
290.448	92.62
290.679	88.62
290.91	99.62
291.141	92.62
291.371	94.62
291.602	94.62
291.833	88.62
292.064	74.62
292.295	95.62
292.526	104.62
292.757	95.62
292.987	93.62
293.218	100.62
293.449	104.62
293.68	86.62
293.91	80.62
294.141	106.62
294.372	82.62
294.603	84.62
294.833	111.62
295.064	98.62
295.295	103.62
295.525	102.62
295.756	106.62
295.987	120.62
296.217	169.62
296.448	157.62
296.679	96.62
296.909	81.62
297.14	78.62
297.37	104.62
297.601	89.62
297.831	91.62
298.062	119.62
298.292	107.62
298.523	93.62
298.753	94.62
298.984	113.62
299.214	89.62
299.445	90.62
299.675	94.62
299.905	91.62
300.136	88.62
300.366	92.62
300.597	84.62
300.827	104.62
301.057	95.62
301.288	112.62
301.518	106.62
301.748	92.62
301.979	104.62
302.209	94.62
302.439	94.62
302.669	99.62
302.9	103.62
303.13	99.62
303.36	107.62
303.59	130.62
303.82	147.62
304.051	99.62
304.281	92.62
304.511	100.62
304.741	97.62
304.971	82.62
305.201	101.62
305.431	94.62
305.661	88.62
305.891	106.62
306.121	104.62
306.352	109.62
306.582	115.62
306.812	103.62
307.042	109.62
307.272	132.62
307.502	163.62
307.731	158.62
307.961	121.62
308.191	98.62
308.421	95.62
308.651	101.62
308.881	92.62
309.111	98.62
309.341	95.62
309.571	111.62
309.8	107.62
310.03	112.62
310.26	119.62
310.49	98.62
310.72	99.62
310.949	102.62
311.179	116.62
311.409	95.62
311.639	95.62
311.868	116.62
312.098	103.62
312.328	114.62
312.557	119.62
312.787	138.62
313.017	116.62
313.246	114.62
313.476	96.62
313.706	101.62
313.935	84.62
314.165	98.62
314.394	115.62
314.624	116.62
314.853	116.62
315.083	90.62
315.312	86.62
315.542	109.62
315.771	117.62
316.001	94.62
316.23	95.62
316.46	90.62
316.689	93.62
316.919	96.62
317.148	113.62
317.377	103.62
317.607	92.62
317.836	120.62
318.065	107.62
318.295	101.62
318.524	106.62
318.753	104.62
318.983	97.62
319.212	107.62
319.441	116.62
319.67	109.62
319.9	107.62
320.129	102.62
320.358	101.62
320.587	100.62
320.816	100.62
321.046	116.62
321.275	112.62
321.504	98.62
321.733	105.62
321.962	104.62
322.191	91.62
322.42	116.62
322.649	136.62
322.878	126.62
323.108	134.62
323.337	157.62
323.566	163.62
323.795	184.62
324.024	270.62
324.253	569.62
324.482	1179.62
324.71	2424.62
324.939	3278.62
325.168	1159.62
325.397	316.62
325.626	187.62
325.855	148.62
326.084	160.62
326.313	159.62
326.542	188.62
326.77	290.62
326.999	612.62
327.228	1289.62
327.457	2404.62
327.686	1874.62
327.914	570.62
328.143	482.62
328.372	550.62
328.6	334.62
328.829	195.62
329.058	191.62
329.287	196.62
329.515	170.62
329.744	222.62
329.972	386.62
330.201	759.62
330.43	1130.62
330.658	534.62
330.887	281.62
331.115	180.62
331.344	134.62
331.572	120.62
331.801	144.62
332.03	127.62
332.258	105.62
332.486	117.62
332.715	104.62
332.943	100.62
333.172	120.62
333.4	124.62
333.629	150.62
333.857	222.62
334.085	354.62
334.314	680.62
334.542	1382.62
334.771	1311.62
334.999	380.62
335.227	171.62
335.455	122.62
335.684	124.62
335.912	106.62
336.14	104.62
336.369	114.62
336.597	115.62
336.825	113.62
337.053	108.62
337.281	104.62
337.51	99.62
337.738	103.62
337.966	106.62
338.194	97.62
338.422	95.62
338.65	110.62
338.878	114.62
339.106	81.62
339.334	93.62
339.562	110.62
339.79	105.62
340.018	92.62
340.246	113.62
340.474	103.62
340.702	108.62
340.93	99.62
341.158	118.62
341.386	119.62
341.614	99.62
341.842	92.62
342.07	94.62
342.298	103.62
342.526	98.62
342.754	85.62
342.981	94.62
343.209	77.62
343.437	100.62
343.665	86.62
343.893	85.62
344.12	93.62
344.348	83.62
344.576	96.62
344.804	84.62
345.031	111.62
345.259	118.62
345.487	108.62
345.714	105.62
345.942	106.62
346.17	94.62
346.397	99.62
346.625	89.62
346.853	90.62
347.08	103.62
347.308	104.62
347.535	96.62
347.763	95.62
347.99	85.62
348.218	122.62
348.445	125.62
348.673	111.62
348.9	117.62
349.128	89.62
349.355	98.62
349.583	86.62
349.81	101.62
350.037	103.62
350.265	95.62
350.492	117.62
350.72	103.62
350.947	111.62
351.174	116.62
351.402	132.62
351.629	107.62
351.856	115.62
352.083	108.62
352.311	127.62
352.538	125.62
352.765	132.62
352.992	124.62
353.22	123.62
353.447	123.62
353.674	109.62
353.901	88.62
354.128	95.62
354.355	102.62
354.583	104.62
354.81	97.62
355.037	104.62
355.264	99.62
355.491	80.62
355.718	99.62
355.945	91.62
356.172	84.62
356.399	101.62
356.626	96.62
356.853	99.62
357.08	98.62
357.307	92.62
357.534	87.62
357.761	97.62
357.988	105.62
358.215	103.62
358.441	93.62
358.668	86.62
358.895	94.62
359.122	91.62
359.349	107.62
359.576	101.62
359.802	128.62
360.029	141.62
360.256	138.62
360.483	130.62
360.709	97.62
360.936	108.62
361.163	95.62
361.39	100.62
361.616	108.62
361.843	104.62
362.07	93.62
362.296	108.62
362.523	110.62
362.749	91.62
362.976	96.62
363.203	91.62
363.429	86.62
363.656	95.62
363.882	96.62
364.109	104.62
364.335	102.62
364.562	96.62
364.788	93.62
365.015	115.62
365.241	126.62
365.468	124.62
365.694	118.62
365.92	105.62
366.147	106.62
366.373	102.62
366.599	88.62
366.826	100.62
367.052	90.62
367.278	94.62
367.505	81.62
367.731	94.62
367.957	106.62
368.184	105.62
368.41	118.62
368.636	132.62
368.862	146.62
369.089	126.62
369.315	96.62
369.541	91.62
369.767	100.62
369.993	78.62
370.219	97.62
370.445	87.62
370.672	96.62
370.898	92.62
371.124	90.62
371.35	83.62
371.576	83.62
371.802	86.62
372.028	92.62
372.254	96.62
372.48	77.62
372.706	80.62
372.932	93.62
373.158	80.62
373.384	100.62
373.61	94.62
373.835	92.62
374.061	96.62
374.287	118.62
374.513	92.62
374.739	94.62
374.965	93.62
375.191	98.62
375.416	97.62
375.642	95.62
375.868	107.62
376.094	89.62
376.319	101.62
376.545	96.62
376.771	92.62
376.997	103.62
377.222	99.62
377.448	91.62
377.674	91.62
377.899	102.62
378.125	91.62
378.35	88.62
378.576	103.62
378.802	86.62
379.027	88.62
379.253	81.62
379.478	97.62
379.704	91.62
379.929	83.62
380.155	108.62
380.38	95.62
380.606	89.62
380.831	110.62
381.057	96.62
381.282	98.62
381.507	98.62
381.733	98.62
381.958	94.62
382.184	100.62
382.409	92.62
382.634	95.62
382.86	92.62
383.085	106.62
383.31	99.62
383.535	107.62
383.761	98.62
383.986	105.62
384.211	92.62
384.436	98.62
384.662	100.62
384.887	110.62
385.112	105.62
385.337	110.62
385.562	108.62
385.787	100.62
386.013	111.62
386.238	127.62
386.463	112.62
386.688	121.62
386.913	104.62
387.138	121.62
387.363	95.62
387.588	97.62
387.813	79.62
388.038	115.62
388.263	100.62
388.488	119.62
388.713	90.62
388.938	94.62
389.163	103.62
389.387	96.62
389.612	104.62
389.837	93.62
390.062	95.62
390.287	94.62
390.512	81.62
390.736	89.62
390.961	115.62
391.186	90.62
391.411	93.62
391.636	101.62
391.86	84.62
392.085	78.62
392.31	90.62
392.534	96.62
392.759	105.62
392.984	70.62
393.208	80.62
393.433	99.62
393.658	83.62
393.882	99.62
394.107	83.62
394.331	82.62
394.556	93.62
394.78	87.62
395.005	86.62
395.229	78.62
395.454	86.62
395.678	107.62
395.903	85.62
396.127	94.62
396.352	88.62
396.576	83.62
396.801	72.62
397.025	76.62
397.249	99.62
397.474	102.62
397.698	99.62
397.922	91.62
398.147	84.62
398.371	79.62
398.595	93.62
398.82	82.62
399.044	78.62
399.268	100.62
399.492	93.62
399.717	94.62
399.941	77.62
400.165	98.62
400.389	109.62
400.613	83.62
400.837	86.62
401.062	72.62
401.286	85.62
401.51	107.62
401.734	93.62
401.958	99.62
402.182	156.62
402.406	210.62
402.63	150.62
402.854	106.62
403.078	90.62
403.302	91.62
403.526	83.62
403.75	91.62
403.974	99.62
404.198	106.62
404.422	90.62
404.645	90.62
404.869	112.62
405.093	126.62
405.317	128.62
405.541	133.62
405.765	130.62
405.988	140.62
406.212	235.62
406.436	335.62
406.66	210.62
406.883	120.62
407.107	103.62
407.331	104.62
407.555	96.62
407.778	105.62
408.002	101.62
408.226	78.62
408.449	93.62
408.673	84.62
408.896	109.62
409.12	115.62
409.344	91.62
409.567	95.62
409.791	95.62
410.014	103.62
410.238	99.62
410.461	94.62
410.685	100.62
410.908	93.62
411.132	115.62
411.355	117.62
411.578	93.62
411.802	89.62
412.025	90.62
412.249	99.62
412.472	107.62
412.695	128.62
412.919	113.62
413.142	100.62
413.365	86.62
413.589	100.62
413.812	91.62
414.035	105.62
414.258	91.62
414.482	89.62
414.705	95.62
414.928	91.62
415.151	100.62
415.374	95.62
415.597	79.62
415.821	95.62
416.044	104.62
416.267	91.62
416.49	102.62
416.713	101.62
416.936	93.62
417.159	96.62
417.382	103.62
417.605	89.62
417.828	103.62
418.051	87.62
418.274	95.62
418.497	100.62
418.72	98.62
418.943	91.62
419.166	94.62
419.389	95.62
419.611	97.62
419.834	94.62
420.057	97.62
420.28	91.62
420.503	84.62
420.726	89.62
420.948	96.62
421.171	98.62
421.394	95.62
421.617	102.62
421.839	95.62
422.062	95.62
422.285	96.62
422.507	102.62
422.73	102.62
422.953	84.62
423.175	92.62
423.398	97.62
423.621	99.62
423.843	102.62
424.066	72.62
424.288	84.62
424.511	86.62
424.733	99.62
424.956	142.62
425.178	118.62
425.401	122.62
425.623	107.62
425.846	99.62
426.068	98.62
426.291	98.62
426.513	116.62
426.735	93.62
426.958	105.62
427.18	124.62
427.402	186.62
427.625	291.62
427.847	242.62
428.069	242.62
428.292	112.62
428.514	89.62
428.736	85.62
428.958	92.62
429.181	97.62
429.403	87.62
429.625	94.62
429.847	100.62
430.069	106.62
430.292	105.62
430.514	94.62
430.736	89.62
430.958	80.62
431.18	92.62
431.402	98.62
431.624	91.62
431.846	87.62
432.068	94.62
432.29	92.62
432.512	87.62
432.734	92.62
432.956	87.62
433.178	116.62
433.4	119.62
433.622	89.62
433.844	78.62
434.066	76.62
434.287	96.62
434.509	100.62
434.731	86.62
434.953	101.62
435.175	77.62
435.397	86.62
435.618	100.62
435.84	131.62
436.062	139.62
436.284	126.62
436.505	109.62
436.727	108.62
436.949	101.62
437.17	96.62
437.392	98.62
437.614	108.62
437.835	131.62
438.057	157.62
438.278	137.62
438.5	109.62
438.721	150.62
438.943	109.62
439.165	98.62
439.386	106.62
439.608	99.62
439.829	108.62
440.05	158.62
440.272	188.62
440.493	119.62
440.715	87.62
440.936	94.62
441.158	95.62
441.379	96.62
441.6	96.62
441.822	106.62
442.043	88.62
442.264	115.62
442.486	116.62
442.707	115.62
442.928	123.62
443.149	180.62
443.371	189.62
443.592	127.62
443.813	130.62
444.034	134.62
444.255	110.62
444.476	100.62
444.698	89.62
444.919	101.62
445.14	140.62
445.361	135.62
445.582	130.62
445.803	176.62
446.024	182.62
446.245	186.62
446.466	135.62
446.687	94.62
446.908	91.62
447.129	87.62
447.35	107.62
447.571	102.62
447.792	106.62
448.013	109.62
448.234	139.62
448.455	121.62
448.675	136.62
448.896	137.62
449.117	117.62
449.338	108.62
449.559	148.62
449.779	170.62
450	112.62
450.221	87.62
450.442	102.62
450.662	109.62
450.883	135.62
451.104	134.62
451.324	111.62
451.545	97.62
451.766	93.62
451.986	87.62
452.207	82.62
452.428	113.62
452.648	97.62
452.869	123.62
453.089	139.62
453.31	153.62
453.53	113.62
453.751	102.62
453.971	120.62
454.192	122.62
454.412	95.62
454.633	98.62
454.853	87.62
455.073	86.62
455.294	108.62
455.514	132.62
455.734	107.62
455.955	85.62
456.175	86.62
456.395	91.62
456.616	82.62
456.836	105.62
457.056	88.62
457.276	93.62
457.497	78.62
457.717	82.62
457.937	88.62
458.157	77.62
458.377	100.62
458.598	134.62
458.818	227.62
459.038	243.62
459.258	147.62
459.478	103.62
459.698	90.62
459.918	94.62
460.138	82.62
460.358	91.62
460.578	98.62
460.798	71.62
461.018	96.62
461.238	89.62
461.458	94.62
461.678	92.62
461.898	96.62
462.118	80.62
462.338	88.62
462.558	83.62
462.777	80.62
462.997	82.62
463.217	96.62
463.437	90.62
463.657	102.62
463.876	90.62
464.096	99.62
464.316	106.62
464.536	98.62
464.755	105.62
464.975	119.62
465.195	234.62
465.414	243.62
465.634	117.62
465.854	97.62
466.073	77.62
466.293	90.62
466.512	96.62
466.732	90.62
466.951	94.62
467.171	92.62
467.391	110.62
467.61	130.62
467.829	189.62
468.049	427.62
468.268	673.62
468.488	204.62
468.707	109.62
468.927	92.62
469.146	87.62
469.365	100.62
469.585	109.62
469.804	112.62
470.023	110.62
470.243	88.62
470.462	110.62
470.681	132.62
470.901	95.62
471.12	102.62
471.339	104.62
471.558	125.62
471.777	147.62
471.997	251.62
472.216	829.62
472.435	1871.62
472.654	471.62
472.873	153.62
473.092	101.62
473.311	105.62
473.53	104.62
473.749	106.62
473.968	95.62
474.187	112.62
474.406	120.62
474.625	94.62
474.844	92.62
475.063	98.62
475.282	86.62
475.501	88.62
475.72	80.62
475.939	100.62
476.158	87.62
476.377	93.62
476.596	102.62
476.814	93.62
477.033	104.62
477.252	94.62
477.471	95.62
477.69	102.62
477.908	105.62
478.127	89.62
478.346	100.62
478.564	98.62
478.783	117.62
479.002	118.62
479.22	110.62
479.439	123.62
479.658	131.62
479.876	128.62
480.095	135.62
480.313	138.62
480.532	160.62
480.751	238.62
480.969	777.62
481.188	3292.62
481.406	1938.62
481.624	308.62
481.843	120.62
482.061	112.62
482.28	97.62
482.498	104.62
482.717	106.62
482.935	107.62
483.153	108.62
483.372	95.62
483.59	84.62
483.808	87.62
484.027	109.62
484.245	105.62
484.463	101.62
484.681	99.62
484.9	98.62
485.118	92.62
485.336	103.62
485.554	100.62
485.772	108.62
485.99	118.62
486.209	99.62
486.427	104.62
486.645	137.62
486.863	134.62
487.081	102.62
487.299	112.62
487.517	96.62
487.735	100.62
487.953	108.62
488.171	101.62
488.389	103.62
488.607	126.62
488.825	100.62
489.043	84.62
489.261	98.62
489.479	93.62
489.696	94.62
489.914	99.62
490.132	82.62
490.35	74.62
490.568	95.62
490.786	99.62
491.003	92.62
491.221	104.62
491.439	99.62
491.657	94.62
491.874	92.62
492.092	92.62
492.31	95.62
492.527	93.62
492.745	101.62
492.963	86.62
493.18	89.62
493.398	95.62
493.615	95.62
493.833	110.62
494.05	100.62
494.268	78.62
494.485	100.62
494.703	105.62
494.92	97.62
495.138	99.62
495.355	75.62
495.573	74.62
495.79	84.62
496.008	114.62
496.225	92.62
496.442	97.62
496.66	96.62
496.877	102.62
497.094	92.62
497.312	103.62
497.529	97.62
497.746	102.62
497.963	109.62
498.181	102.62
498.398	96.62
498.615	134.62
498.832	114.62
499.049	92.62
499.267	102.62
499.484	96.62
499.701	85.62
499.918	89.62
500.135	98.62
500.352	85.62
500.569	95.62
500.786	105.62
501.003	90.62
501.22	86.62
501.437	94.62
501.654	104.62
501.871	136.62
502.088	93.62
502.305	96.62
502.522	88.62
502.739	87.62
502.956	75.62
503.172	94.62
503.389	105.62
503.606	132.62
503.823	112.62
504.04	96.62
504.256	94.62
504.473	107.62
504.69	93.62
504.907	104.62
505.123	99.62
505.34	91.62
505.557	91.62
505.773	101.62
505.99	97.62
506.207	92.62
506.423	92.62
506.64	92.62
506.856	99.62
507.073	92.62
507.289	91.62
507.506	101.62
507.722	152.62
507.939	148.62
508.155	103.62
508.372	107.62
508.588	88.62
508.805	96.62
509.021	100.62
509.238	106.62
509.454	107.62
509.67	114.62
509.887	107.62
510.103	144.62
510.319	244.62
510.536	995.62
510.752	3565.62
510.968	951.62
511.184	194.62
511.401	140.62
511.617	112.62
511.833	110.62
512.049	83.62
