Data from Circ_2000_H10_HRD10591_00005.txt Node
Date: Wed Jan 03 10:49:34 EST 2024
User: Yrep
Spectrometer: HR+D1059
Trigger mode: 1
Integration Time (sec): 1.000000E-1
Scans to average: 1
Electric dark correction enabled: true
Nonlinearity correction enabled: false
Boxcar width: 0
XAxis mode: Wavelengths
Number of Pixels in Spectrum: 2048
>>>>>Begin Spectral Data<<<<<
223.165	-16.44
223.4	-16.44
223.635	-16.44
223.869	-27.44
224.104	-15.44
224.338	0.56
224.573	-19.44
224.808	-8.44
225.042	-10.44
225.277	6.56
225.511	3.56
225.746	-5.44
225.98	0.56
226.215	4.56
226.449	3.56
226.683	21.56
226.918	35.56
227.152	26.56
227.387	35.56
227.621	45.56
227.856	54.56
228.09	49.56
228.324	57.56
228.559	65.56
228.793	68.56
229.027	67.56
229.262	72.56
229.496	69.56
229.73	73.56
229.964	89.56
230.199	79.56
230.433	77.56
230.667	80.56
230.901	89.56
231.136	79.56
231.37	80.56
231.604	79.56
231.838	78.56
232.072	83.56
232.306	92.56
232.541	79.56
232.775	84.56
233.009	91.56
233.243	87.56
233.477	91.56
233.711	92.56
233.945	88.56
234.179	85.56
234.413	96.56
234.647	85.56
234.881	89.56
235.115	78.56
235.349	95.56
235.583	97.56
235.817	69.56
236.051	78.56
236.285	77.56
236.519	81.56
236.753	84.56
236.987	96.56
237.221	81.56
237.455	84.56
237.689	76.56
237.922	87.56
238.156	84.56
238.39	82.56
238.624	72.56
238.858	96.56
239.091	94.56
239.325	88.56
239.559	81.56
239.793	90.56
240.027	78.56
240.26	79.56
240.494	77.56
240.728	80.56
240.961	83.56
241.195	79.56
241.429	90.56
241.662	71.56
241.896	64.56
242.13	81.56
242.363	70.56
242.597	79.56
242.83	83.56
243.064	79.56
243.298	89.56
243.531	91.56
243.765	100.56
243.998	71.56
244.232	79.56
244.465	97.56
244.699	84.56
244.932	82.56
245.166	80.56
245.399	80.56
245.633	87.56
245.866	75.56
246.099	79.56
246.333	75.56
246.566	69.56
246.8	73.56
247.033	84.56
247.266	79.56
247.5	87.56
247.733	85.56
247.966	78.56
248.2	87.56
248.433	88.56
248.666	86.56
248.899	86.56
249.133	78.56
249.366	99.56
249.599	106.56
249.832	87.56
250.066	75.56
250.299	85.56
250.532	76.56
250.765	87.56
250.998	83.56
251.231	88.56
251.465	83.56
251.698	80.56
251.931	96.56
252.164	81.56
252.397	79.56
252.63	93.56
252.863	78.56
253.096	88.56
253.329	101.56
253.562	94.56
253.795	76.56
254.028	78.56
254.261	88.56
254.494	71.56
254.727	77.56
254.96	83.56
255.193	86.56
255.426	97.56
255.659	84.56
255.892	89.56
256.124	89.56
256.357	83.56
256.59	80.56
256.823	80.56
257.056	96.56
257.289	85.56
257.521	89.56
257.754	85.56
257.987	78.56
258.22	83.56
258.452	80.56
258.685	84.56
258.918	85.56
259.151	84.56
259.383	87.56
259.616	104.56
259.849	86.56
260.081	86.56
260.314	76.56
260.547	71.56
260.779	89.56
261.012	91.56
261.244	85.56
261.477	84.56
261.71	101.56
261.942	114.56
262.175	115.56
262.407	87.56
262.64	88.56
262.872	92.56
263.105	91.56
263.337	91.56
263.57	94.56
263.802	95.56
264.035	92.56
264.267	86.56
264.499	73.56
264.732	94.56
264.964	93.56
265.197	99.56
265.429	95.56
265.661	85.56
265.894	93.56
266.126	91.56
266.358	70.56
266.591	80.56
266.823	104.56
267.055	87.56
267.287	89.56
267.52	87.56
267.752	80.56
267.984	80.56
268.216	84.56
268.448	88.56
268.681	75.56
268.913	79.56
269.145	75.56
269.377	84.56
269.609	84.56
269.841	89.56
270.073	82.56
270.306	78.56
270.538	82.56
270.77	88.56
271.002	98.56
271.234	100.56
271.466	86.56
271.698	85.56
271.93	91.56
272.162	87.56
272.394	92.56
272.626	93.56
272.858	88.56
273.09	90.56
273.322	84.56
273.553	83.56
273.785	89.56
274.017	87.56
274.249	96.56
274.481	83.56
274.713	84.56
274.945	84.56
275.176	83.56
275.408	106.56
275.64	96.56
275.872	89.56
276.104	87.56
276.335	84.56
276.567	100.56
276.799	112.56
277.031	99.56
277.262	110.56
277.494	106.56
277.726	89.56
277.957	88.56
278.189	88.56
278.421	91.56
278.652	93.56
278.884	85.56
279.115	81.56
279.347	83.56
279.579	95.56
279.81	72.56
280.042	103.56
280.273	113.56
280.505	92.56
280.736	100.56
280.968	87.56
281.199	92.56
281.431	99.56
281.662	85.56
281.894	83.56
282.125	95.56
282.356	97.56
282.588	129.56
282.819	107.56
283.051	106.56
283.282	97.56
283.513	104.56
283.745	91.56
283.976	85.56
284.207	93.56
284.439	90.56
284.67	96.56
284.901	91.56
285.132	92.56
285.364	84.56
285.595	86.56
285.826	94.56
286.057	88.56
286.288	93.56
286.52	91.56
286.751	97.56
286.982	88.56
287.213	84.56
287.444	95.56
287.675	96.56
287.906	87.56
288.138	91.56
288.369	100.56
288.6	84.56
288.831	85.56
289.062	98.56
289.293	103.56
289.524	94.56
289.755	86.56
289.986	86.56
290.217	91.56
290.448	86.56
290.679	84.56
290.91	83.56
291.141	85.56
291.371	97.56
291.602	89.56
291.833	86.56
292.064	85.56
292.295	81.56
292.526	88.56
292.757	89.56
292.987	87.56
293.218	93.56
293.449	96.56
293.68	95.56
293.91	101.56
294.141	105.56
294.372	101.56
294.603	83.56
294.833	91.56
295.064	90.56
295.295	103.56
295.525	102.56
295.756	106.56
295.987	114.56
296.217	136.56
296.448	122.56
296.679	89.56
296.909	96.56
297.14	80.56
297.37	88.56
297.601	92.56
297.831	91.56
298.062	90.56
298.292	74.56
298.523	94.56
298.753	95.56
298.984	95.56
299.214	97.56
299.445	97.56
299.675	103.56
299.905	107.56
300.136	93.56
300.366	90.56
300.597	87.56
300.827	83.56
301.057	99.56
301.288	86.56
301.518	104.56
301.748	102.56
301.979	104.56
302.209	90.56
302.439	85.56
302.669	100.56
302.9	93.56
303.13	100.56
303.36	104.56
303.59	108.56
303.82	114.56
304.051	108.56
304.281	101.56
304.511	83.56
304.741	101.56
304.971	91.56
305.201	91.56
305.431	96.56
305.661	92.56
305.891	95.56
306.121	92.56
306.352	101.56
306.582	90.56
306.812	103.56
307.042	104.56
307.272	100.56
307.502	99.56
307.731	94.56
307.961	90.56
308.191	85.56
308.421	93.56
308.651	78.56
308.881	95.56
309.111	89.56
309.341	96.56
309.571	104.56
309.8	98.56
310.03	98.56
310.26	81.56
310.49	90.56
310.72	107.56
310.949	101.56
311.179	107.56
311.409	93.56
311.639	86.56
311.868	95.56
312.098	102.56
312.328	89.56
312.557	101.56
312.787	114.56
313.017	96.56
313.246	104.56
313.476	102.56
313.706	86.56
313.935	104.56
314.165	103.56
314.394	104.56
314.624	96.56
314.853	108.56
315.083	95.56
315.312	94.56
315.542	103.56
315.771	103.56
316.001	105.56
316.23	103.56
316.46	95.56
316.689	88.56
316.919	88.56
317.148	102.56
317.377	102.56
317.607	108.56
317.836	91.56
318.065	87.56
318.295	83.56
318.524	87.56
318.753	83.56
318.983	88.56
319.212	94.56
319.441	92.56
319.67	100.56
319.9	105.56
320.129	101.56
320.358	102.56
320.587	102.56
320.816	104.56
321.046	104.56
321.275	89.56
321.504	96.56
321.733	112.56
321.962	93.56
322.191	101.56
322.42	100.56
322.649	98.56
322.878	108.56
323.108	140.56
323.337	119.56
323.566	136.56
323.795	157.56
324.024	197.56
324.253	372.56
324.482	733.56
324.71	1542.56
324.939	1989.56
325.168	761.56
325.397	225.56
325.626	144.56
325.855	123.56
326.084	114.56
326.313	114.56
326.542	154.56
326.77	214.56
326.999	428.56
327.228	860.56
327.457	1557.56
327.686	1208.56
327.914	359.56
328.143	215.56
328.372	203.56
328.6	161.56
328.829	124.56
329.058	120.56
329.287	100.56
329.515	119.56
329.744	120.56
329.972	154.56
330.201	205.56
330.43	259.56
330.658	170.56
330.887	135.56
331.115	113.56
331.344	91.56
331.572	116.56
331.801	98.56
332.03	100.56
332.258	92.56
332.486	90.56
332.715	109.56
332.943	109.56
333.172	103.56
333.4	112.56
333.629	116.56
333.857	120.56
334.085	142.56
334.314	196.56
334.542	301.56
334.771	279.56
334.999	132.56
335.227	94.56
335.455	104.56
335.684	114.56
335.912	99.56
336.14	102.56
336.369	96.56
336.597	87.56
336.825	107.56
337.053	109.56
337.281	95.56
337.51	95.56
337.738	101.56
337.966	89.56
338.194	97.56
338.422	103.56
338.65	93.56
338.878	88.56
339.106	96.56
339.334	98.56
339.562	96.56
339.79	91.56
340.018	96.56
340.246	101.56
340.474	90.56
340.702	99.56
340.93	96.56
341.158	89.56
341.386	92.56
341.614	93.56
341.842	91.56
342.07	95.56
342.298	109.56
342.526	93.56
342.754	89.56
342.981	107.56
343.209	94.56
343.437	97.56
343.665	103.56
343.893	83.56
344.12	110.56
344.348	95.56
344.576	103.56
344.804	76.56
345.031	111.56
345.259	84.56
345.487	98.56
345.714	94.56
345.942	103.56
346.17	102.56
346.397	96.56
346.625	88.56
346.853	97.56
347.08	93.56
347.308	92.56
347.535	102.56
347.763	103.56
347.99	119.56
348.218	100.56
348.445	101.56
348.673	104.56
348.9	100.56
349.128	104.56
349.355	91.56
349.583	99.56
349.81	92.56
350.037	93.56
350.265	100.56
350.492	83.56
350.72	97.56
350.947	102.56
351.174	129.56
351.402	125.56
351.629	111.56
351.856	97.56
352.083	103.56
352.311	102.56
352.538	107.56
352.765	110.56
352.992	120.56
353.22	119.56
353.447	104.56
353.674	111.56
353.901	96.56
354.128	108.56
354.355	85.56
354.583	80.56
354.81	101.56
355.037	112.56
355.264	101.56
355.491	100.56
355.718	100.56
355.945	96.56
356.172	98.56
356.399	100.56
356.626	111.56
356.853	94.56
357.08	97.56
357.307	102.56
357.534	105.56
357.761	103.56
357.988	104.56
358.215	97.56
358.441	119.56
358.668	99.56
358.895	105.56
359.122	108.56
359.349	108.56
359.576	100.56
359.802	104.56
360.029	98.56
360.256	102.56
360.483	108.56
360.709	98.56
360.936	93.56
361.163	91.56
361.39	103.56
361.616	96.56
361.843	95.56
362.07	105.56
362.296	97.56
362.523	106.56
362.749	87.56
362.976	89.56
363.203	104.56
363.429	96.56
363.656	89.56
363.882	101.56
364.109	90.56
364.335	105.56
364.562	91.56
364.788	94.56
365.015	109.56
365.241	109.56
365.468	109.56
365.694	95.56
365.92	102.56
366.147	94.56
366.373	91.56
366.599	95.56
366.826	83.56
367.052	99.56
367.278	94.56
367.505	94.56
367.731	92.56
367.957	96.56
368.184	85.56
368.41	91.56
368.636	106.56
368.862	118.56
369.089	106.56
369.315	78.56
369.541	94.56
369.767	100.56
369.993	91.56
370.219	101.56
370.445	87.56
370.672	87.56
370.898	92.56
371.124	89.56
371.35	111.56
371.576	97.56
371.802	98.56
372.028	86.56
372.254	92.56
372.48	89.56
372.706	92.56
372.932	93.56
373.158	88.56
373.384	107.56
373.61	91.56
373.835	85.56
374.061	95.56
374.287	85.56
374.513	95.56
374.739	92.56
374.965	92.56
375.191	94.56
375.416	89.56
375.642	100.56
375.868	100.56
376.094	92.56
376.319	105.56
376.545	103.56
376.771	102.56
376.997	92.56
377.222	93.56
377.448	101.56
377.674	96.56
377.899	97.56
378.125	103.56
378.35	88.56
378.576	103.56
378.802	93.56
379.027	92.56
379.253	108.56
379.478	118.56
379.704	104.56
379.929	111.56
380.155	103.56
380.38	113.56
380.606	105.56
380.831	119.56
381.057	118.56
381.282	110.56
381.507	119.56
381.733	102.56
381.958	111.56
382.184	106.56
382.409	106.56
382.634	121.56
382.86	118.56
383.085	120.56
383.31	129.56
383.535	134.56
383.761	124.56
383.986	115.56
384.211	113.56
384.436	108.56
384.662	127.56
384.887	113.56
385.112	135.56
385.337	134.56
385.562	133.56
385.787	123.56
386.013	126.56
386.238	142.56
386.463	142.56
386.688	149.56
386.913	136.56
387.138	129.56
387.363	119.56
387.588	116.56
387.813	126.56
388.038	133.56
388.263	160.56
388.488	137.56
388.713	105.56
388.938	95.56
389.163	102.56
389.387	94.56
389.612	95.56
389.837	92.56
390.062	90.56
390.287	118.56
390.512	96.56
390.736	88.56
390.961	92.56
391.186	99.56
391.411	101.56
391.636	95.56
391.86	93.56
392.085	90.56
392.31	100.56
392.534	92.56
392.759	85.56
392.984	101.56
393.208	103.56
393.433	108.56
393.658	102.56
393.882	94.56
394.107	97.56
394.331	92.56
394.556	97.56
394.78	103.56
395.005	91.56
395.229	82.56
395.454	93.56
395.678	91.56
395.903	85.56
396.127	105.56
396.352	96.56
396.576	93.56
396.801	81.56
397.025	110.56
397.249	90.56
397.474	98.56
397.698	94.56
397.922	103.56
398.147	84.56
398.371	87.56
398.595	110.56
398.82	96.56
399.044	82.56
399.268	85.56
399.492	90.56
399.717	86.56
399.941	93.56
400.165	98.56
400.389	100.56
400.613	92.56
400.837	89.56
401.062	81.56
401.286	89.56
401.51	96.56
401.734	97.56
401.958	107.56
402.182	128.56
402.406	150.56
402.63	148.56
402.854	100.56
403.078	91.56
403.302	76.56
403.526	86.56
403.75	87.56
403.974	100.56
404.198	96.56
404.422	92.56
404.645	103.56
404.869	87.56
405.093	81.56
405.317	106.56
405.541	93.56
405.765	84.56
405.988	115.56
406.212	165.56
406.436	220.56
406.66	148.56
406.883	110.56
407.107	109.56
407.331	105.56
407.555	105.56
407.778	99.56
408.002	92.56
408.226	91.56
408.449	92.56
408.673	98.56
408.896	96.56
409.12	91.56
409.344	87.56
409.567	95.56
409.791	100.56
410.014	94.56
410.238	92.56
410.461	93.56
410.685	102.56
410.908	84.56
411.132	110.56
411.355	90.56
411.578	111.56
411.802	102.56
412.025	92.56
412.249	87.56
412.472	118.56
412.695	107.56
412.919	100.56
413.142	96.56
413.365	89.56
413.589	106.56
413.812	89.56
414.035	98.56
414.258	99.56
414.482	89.56
414.705	93.56
414.928	102.56
415.151	79.56
415.374	104.56
415.597	93.56
415.821	94.56
416.044	90.56
416.267	101.56
416.49	89.56
416.713	90.56
416.936	87.56
417.159	95.56
417.382	89.56
417.605	104.56
417.828	91.56
418.051	92.56
418.274	101.56
418.497	99.56
418.72	77.56
418.943	103.56
419.166	91.56
419.389	88.56
419.611	95.56
419.834	95.56
420.057	95.56
420.28	96.56
420.503	95.56
420.726	95.56
420.948	96.56
421.171	94.56
421.394	88.56
421.617	95.56
421.839	93.56
422.062	96.56
422.285	96.56
422.507	104.56
422.73	94.56
422.953	102.56
423.175	99.56
423.398	93.56
423.621	90.56
423.843	86.56
424.066	95.56
424.288	102.56
424.511	85.56
424.733	107.56
424.956	99.56
425.178	94.56
425.401	112.56
425.623	100.56
425.846	103.56
426.068	100.56
426.291	91.56
426.513	93.56
426.735	94.56
426.958	93.56
427.18	126.56
427.402	136.56
427.625	156.56
427.847	134.56
428.069	128.56
428.292	101.56
428.514	89.56
428.736	91.56
428.958	106.56
429.181	94.56
429.403	91.56
429.625	90.56
429.847	77.56
430.069	109.56
430.292	102.56
430.514	97.56
430.736	90.56
430.958	90.56
431.18	93.56
431.402	70.56
431.624	87.56
431.846	66.56
432.068	77.56
432.29	76.56
432.512	88.56
432.734	94.56
432.956	92.56
433.178	97.56
433.4	100.56
433.622	93.56
433.844	79.56
434.066	108.56
434.287	110.56
434.509	90.56
434.731	90.56
434.953	92.56
435.175	84.56
435.397	85.56
435.618	95.56
435.84	84.56
436.062	133.56
436.284	109.56
436.505	95.56
436.727	115.56
436.949	93.56
437.17	93.56
437.392	96.56
437.614	74.56
437.835	105.56
438.057	109.56
438.278	112.56
438.5	96.56
438.721	117.56
438.943	91.56
439.165	81.56
439.386	86.56
439.608	96.56
439.829	93.56
440.05	113.56
440.272	131.56
440.493	116.56
440.715	93.56
440.936	89.56
441.158	87.56
441.379	95.56
441.6	90.56
441.822	83.56
442.043	98.56
442.264	95.56
442.486	97.56
442.707	106.56
442.928	112.56
443.149	116.56
443.371	139.56
443.592	111.56
443.813	112.56
444.034	102.56
444.255	86.56
444.476	95.56
444.698	84.56
444.919	97.56
445.14	140.56
445.361	124.56
445.582	107.56
445.803	103.56
446.024	147.56
446.245	123.56
446.466	106.56
446.687	109.56
446.908	94.56
447.129	100.56
447.35	93.56
447.571	103.56
447.792	93.56
448.013	95.56
448.234	120.56
448.455	99.56
448.675	94.56
448.896	102.56
449.117	102.56
449.338	97.56
449.559	121.56
449.779	123.56
450	96.56
450.221	83.56
450.442	101.56
450.662	96.56
450.883	112.56
451.104	116.56
451.324	102.56
451.545	92.56
451.766	87.56
451.986	87.56
452.207	95.56
452.428	93.56
452.648	101.56
452.869	116.56
453.089	114.56
453.31	120.56
453.53	101.56
453.751	98.56
453.971	102.56
454.192	115.56
454.412	88.56
454.633	85.56
454.853	107.56
455.073	91.56
455.294	75.56
455.514	90.56
455.734	84.56
455.955	84.56
456.175	84.56
456.395	91.56
456.616	84.56
456.836	86.56
457.056	91.56
457.276	82.56
457.497	77.56
457.717	84.56
457.937	84.56
458.157	80.56
458.377	104.56
458.598	99.56
458.818	125.56
459.038	146.56
459.258	105.56
459.478	82.56
459.698	83.56
459.918	91.56
460.138	82.56
460.358	90.56
460.578	100.56
460.798	87.56
461.018	89.56
461.238	82.56
461.458	76.56
461.678	100.56
461.898	86.56
462.118	92.56
462.338	91.56
462.558	74.56
462.777	80.56
462.997	97.56
463.217	79.56
463.437	91.56
463.657	86.56
463.876	96.56
464.096	90.56
464.316	99.56
464.536	91.56
464.755	78.56
464.975	97.56
465.195	139.56
465.414	151.56
465.634	103.56
465.854	83.56
466.073	92.56
466.293	94.56
466.512	97.56
466.732	85.56
466.951	83.56
467.171	94.56
467.391	110.56
467.61	120.56
467.829	106.56
468.049	147.56
468.268	181.56
468.488	106.56
468.707	90.56
468.927	101.56
469.146	84.56
469.365	96.56
469.585	93.56
469.804	93.56
470.023	109.56
470.243	98.56
470.462	102.56
470.681	92.56
470.901	97.56
471.12	81.56
471.339	85.56
471.558	84.56
471.777	114.56
471.997	104.56
472.216	205.56
472.435	391.56
472.654	148.56
472.873	91.56
473.092	91.56
473.311	89.56
473.53	88.56
473.749	83.56
473.968	95.56
474.187	106.56
474.406	100.56
474.625	88.56
474.844	69.56
475.063	88.56
475.282	73.56
475.501	92.56
475.72	92.56
475.939	87.56
476.158	87.56
476.377	94.56
476.596	87.56
476.814	86.56
477.033	84.56
477.252	96.56
477.471	78.56
477.69	87.56
477.908	99.56
478.127	96.56
478.346	89.56
478.564	106.56
478.783	105.56
479.002	99.56
479.22	95.56
479.439	88.56
479.658	96.56
479.876	93.56
480.095	100.56
480.313	96.56
480.532	112.56
480.751	127.56
480.969	205.56
481.188	609.56
481.406	396.56
481.624	117.56
481.843	99.56
482.061	84.56
482.28	105.56
482.498	89.56
482.717	86.56
482.935	110.56
483.153	87.56
483.372	69.56
483.59	89.56
483.808	106.56
484.027	92.56
484.245	88.56
484.463	94.56
484.681	96.56
484.9	99.56
485.118	93.56
485.336	104.56
485.554	101.56
485.772	110.56
485.99	116.56
486.209	114.56
486.427	116.56
486.645	112.56
486.863	120.56
487.081	99.56
487.299	104.56
487.517	108.56
487.735	95.56
487.953	98.56
488.171	92.56
488.389	97.56
488.607	119.56
488.825	107.56
489.043	91.56
489.261	89.56
489.479	104.56
489.696	105.56
489.914	83.56
490.132	77.56
490.35	98.56
490.568	109.56
490.786	83.56
491.003	82.56
491.221	96.56
491.439	85.56
491.657	105.56
491.874	101.56
492.092	104.56
492.31	95.56
492.527	88.56
492.745	94.56
492.963	92.56
493.18	83.56
493.398	91.56
493.615	100.56
493.833	86.56
494.05	87.56
494.268	87.56
494.485	92.56
494.703	84.56
494.92	79.56
495.138	99.56
495.355	82.56
495.573	81.56
495.79	104.56
496.008	92.56
496.225	88.56
496.442	95.56
496.66	101.56
496.877	100.56
497.094	100.56
497.312	91.56
497.529	85.56
497.746	81.56
497.963	86.56
498.181	98.56
498.398	99.56
498.615	97.56
498.832	94.56
499.049	97.56
499.267	101.56
499.484	90.56
499.701	93.56
499.918	93.56
500.135	84.56
500.352	94.56
500.569	88.56
500.786	95.56
501.003	97.56
501.22	78.56
501.437	100.56
501.654	87.56
501.871	96.56
502.088	83.56
502.305	100.56
502.522	101.56
502.739	92.56
502.956	105.56
503.172	86.56
503.389	102.56
503.606	119.56
503.823	109.56
504.04	105.56
504.256	97.56
504.473	79.56
504.69	92.56
504.907	97.56
505.123	102.56
505.34	89.56
505.557	83.56
505.773	79.56
505.99	96.56
506.207	83.56
506.423	100.56
506.64	84.56
506.856	87.56
507.073	83.56
507.289	102.56
507.506	99.56
507.722	112.56
507.939	100.56
508.155	98.56
508.372	107.56
508.588	92.56
508.805	103.56
509.021	93.56
509.238	95.56
509.454	98.56
509.67	107.56
509.887	105.56
510.103	124.56
510.319	206.56
510.536	683.56
510.752	2166.56
510.968	615.56
511.184	161.56
511.401	114.56
511.617	109.56
511.833	89.56
512.049	98.56
512.265	93.56
512.481	85.56
512.698	79.56
512.914	103.56
513.13	87.56
513.346	95.56
513.562	100.56
513.778	103.56
