Data from Circ_2000_H10_HRD10591_00053.txt Node
Date: Wed Jan 03 10:49:44 EST 2024
User: Yrep
Spectrometer: HR+D1059
Trigger mode: 1
Integration Time (sec): 1.000000E-1
Scans to average: 1
Electric dark correction enabled: true
Nonlinearity correction enabled: false
Boxcar width: 0
XAxis mode: Wavelengths
Number of Pixels in Spectrum: 2048
>>>>>Begin Spectral Data<<<<<
223.165	-23.12
223.4	-23.12
223.635	-23.12
223.869	-16.12
224.104	-21.12
224.338	-25.12
224.573	-7.12
224.808	-23.12
225.042	-4.12
225.277	-4.12
225.511	-0.12
225.746	1.88
225.98	6.88
226.215	11.88
226.449	17.88
226.683	14.88
226.918	31.88
227.152	38.88
227.387	27.88
227.621	45.88
227.856	46.88
228.09	55.88
228.324	58.88
228.559	58.88
228.793	61.88
229.027	52.88
229.262	56.88
229.496	81.88
229.73	95.88
229.964	99.88
230.199	79.88
230.433	70.88
230.667	81.88
230.901	77.88
231.136	81.88
231.37	73.88
231.604	80.88
231.838	79.88
232.072	83.88
232.306	85.88
232.541	82.88
232.775	92.88
233.009	87.88
233.243	83.88
233.477	85.88
233.711	75.88
233.945	79.88
234.179	84.88
234.413	80.88
234.647	78.88
234.881	81.88
235.115	79.88
235.349	89.88
235.583	79.88
235.817	80.88
236.051	79.88
236.285	74.88
236.519	79.88
236.753	82.88
236.987	84.88
237.221	84.88
237.455	81.88
237.689	90.88
237.922	77.88
238.156	74.88
238.39	90.88
238.624	88.88
238.858	80.88
239.091	80.88
239.325	85.88
239.559	92.88
239.793	90.88
240.027	78.88
240.26	69.88
240.494	88.88
240.728	73.88
240.961	82.88
241.195	84.88
241.429	77.88
241.662	81.88
241.896	71.88
242.13	73.88
242.363	79.88
242.597	68.88
242.83	68.88
243.064	77.88
243.298	67.88
243.531	76.88
243.765	84.88
243.998	74.88
244.232	74.88
244.465	71.88
244.699	91.88
244.932	71.88
245.166	92.88
245.399	83.88
245.633	79.88
245.866	83.88
246.099	88.88
246.333	76.88
246.566	69.88
246.8	90.88
247.033	103.88
247.266	83.88
247.5	69.88
247.733	85.88
247.966	81.88
248.2	75.88
248.433	90.88
248.666	80.88
248.899	89.88
249.133	90.88
249.366	105.88
249.599	95.88
249.832	92.88
250.066	83.88
250.299	71.88
250.532	66.88
250.765	83.88
250.998	90.88
251.231	81.88
251.465	73.88
251.698	94.88
251.931	93.88
252.164	86.88
252.397	77.88
252.63	86.88
252.863	85.88
253.096	69.88
253.329	88.88
253.562	81.88
253.795	87.88
254.028	84.88
254.261	88.88
254.494	90.88
254.727	79.88
254.96	85.88
255.193	83.88
255.426	80.88
255.659	82.88
255.892	102.88
256.124	86.88
256.357	87.88
256.59	81.88
256.823	77.88
257.056	100.88
257.289	99.88
257.521	83.88
257.754	85.88
257.987	86.88
258.22	85.88
258.452	103.88
258.685	98.88
258.918	77.88
259.151	57.88
259.383	92.88
259.616	87.88
259.849	90.88
260.081	99.88
260.314	85.88
260.547	73.88
260.779	77.88
261.012	88.88
261.244	96.88
261.477	98.88
261.71	94.88
261.942	114.88
262.175	148.88
262.407	91.88
262.64	76.88
262.872	83.88
263.105	91.88
263.337	87.88
263.57	67.88
263.802	92.88
264.035	84.88
264.267	92.88
264.499	75.88
264.732	74.88
264.964	77.88
265.197	78.88
265.429	79.88
265.661	88.88
265.894	75.88
266.126	85.88
266.358	81.88
266.591	77.88
266.823	84.88
267.055	81.88
267.287	70.88
267.52	81.88
267.752	82.88
267.984	94.88
268.216	90.88
268.448	89.88
268.681	93.88
268.913	93.88
269.145	74.88
269.377	76.88
269.609	77.88
269.841	86.88
270.073	74.88
270.306	67.88
270.538	103.88
270.77	89.88
271.002	65.88
271.234	81.88
271.466	92.88
271.698	97.88
271.93	89.88
272.162	85.88
272.394	103.88
272.626	109.88
272.858	92.88
273.09	83.88
273.322	98.88
273.553	100.88
273.785	63.88
274.017	83.88
274.249	100.88
274.481	84.88
274.713	88.88
274.945	98.88
275.176	98.88
275.408	101.88
275.64	101.88
275.872	109.88
276.104	91.88
276.335	93.88
276.567	118.88
276.799	136.88
277.031	149.88
277.262	129.88
277.494	108.88
277.726	94.88
277.957	98.88
278.189	83.88
278.421	85.88
278.652	74.88
278.884	95.88
279.115	88.88
279.347	89.88
279.579	86.88
279.81	104.88
280.042	153.88
280.273	187.88
280.505	145.88
280.736	100.88
280.968	100.88
281.199	82.88
281.431	93.88
281.662	101.88
281.894	86.88
282.125	116.88
282.356	133.88
282.588	163.88
282.819	129.88
283.051	99.88
283.282	79.88
283.513	95.88
283.745	97.88
283.976	81.88
284.207	82.88
284.439	102.88
284.67	86.88
284.901	86.88
285.132	103.88
285.364	81.88
285.595	95.88
285.826	83.88
286.057	83.88
286.288	81.88
286.52	89.88
286.751	92.88
286.982	86.88
287.213	89.88
287.444	85.88
287.675	91.88
287.906	108.88
288.138	99.88
288.369	85.88
288.6	94.88
288.831	85.88
289.062	96.88
289.293	98.88
289.524	98.88
289.755	76.88
289.986	81.88
290.217	94.88
290.448	85.88
290.679	88.88
290.91	95.88
291.141	98.88
291.371	99.88
291.602	105.88
291.833	72.88
292.064	89.88
292.295	79.88
292.526	87.88
292.757	75.88
292.987	85.88
293.218	79.88
293.449	98.88
293.68	94.88
293.91	93.88
294.141	85.88
294.372	94.88
294.603	92.88
294.833	92.88
295.064	82.88
295.295	95.88
295.525	95.88
295.756	111.88
295.987	125.88
296.217	159.88
296.448	135.88
296.679	97.88
296.909	84.88
297.14	86.88
297.37	81.88
297.601	88.88
297.831	96.88
298.062	98.88
298.292	94.88
298.523	83.88
298.753	93.88
298.984	95.88
299.214	99.88
299.445	94.88
299.675	97.88
299.905	96.88
300.136	101.88
300.366	106.88
300.597	90.88
300.827	86.88
301.057	108.88
301.288	116.88
301.518	108.88
301.748	102.88
301.979	120.88
302.209	104.88
302.439	103.88
302.669	89.88
302.9	86.88
303.13	102.88
303.36	105.88
303.59	113.88
303.82	134.88
304.051	94.88
304.281	88.88
304.511	96.88
304.741	94.88
304.971	97.88
305.201	81.88
305.431	100.88
305.661	92.88
305.891	99.88
306.121	108.88
306.352	97.88
306.582	95.88
306.812	95.88
307.042	104.88
307.272	120.88
307.502	134.88
307.731	132.88
307.961	113.88
308.191	93.88
308.421	92.88
308.651	95.88
308.881	95.88
309.111	78.88
309.341	103.88
309.571	95.88
309.8	104.88
310.03	105.88
310.26	100.88
310.49	104.88
310.72	117.88
310.949	107.88
311.179	97.88
311.409	113.88
311.639	109.88
311.868	105.88
312.098	113.88
312.328	103.88
312.557	104.88
312.787	124.88
313.017	105.88
313.246	93.88
313.476	90.88
313.706	113.88
313.935	101.88
314.165	108.88
314.394	116.88
314.624	99.88
314.853	99.88
315.083	89.88
315.312	94.88
315.542	99.88
315.771	106.88
316.001	98.88
316.23	108.88
316.46	96.88
316.689	88.88
316.919	101.88
317.148	117.88
317.377	94.88
317.607	107.88
317.836	106.88
318.065	102.88
318.295	78.88
318.524	74.88
318.753	99.88
318.983	108.88
319.212	92.88
319.441	102.88
319.67	124.88
319.9	101.88
320.129	100.88
320.358	99.88
320.587	97.88
320.816	99.88
321.046	109.88
321.275	100.88
321.504	111.88
321.733	100.88
321.962	103.88
322.191	111.88
322.42	120.88
322.649	120.88
322.878	122.88
323.108	121.88
323.337	130.88
323.566	155.88
323.795	188.88
324.024	248.88
324.253	524.88
324.482	1113.88
324.71	2270.88
324.939	3078.88
325.168	1057.88
325.397	291.88
325.626	170.88
325.855	161.88
326.084	145.88
326.313	154.88
326.542	185.88
326.77	281.88
326.999	562.88
327.228	1217.88
327.457	2249.88
327.686	1766.88
327.914	515.88
328.143	384.88
328.372	441.88
328.6	268.88
328.829	159.88
329.058	167.88
329.287	172.88
329.515	161.88
329.744	199.88
329.972	316.88
330.201	601.88
330.43	863.88
330.658	414.88
330.887	241.88
331.115	175.88
331.344	129.88
331.572	125.88
331.801	125.88
332.03	118.88
332.258	120.88
332.486	98.88
332.715	110.88
332.943	110.88
333.172	118.88
333.4	100.88
333.629	134.88
333.857	193.88
334.085	297.88
334.314	575.88
334.542	1069.88
334.771	1008.88
334.999	309.88
335.227	139.88
335.455	126.88
335.684	138.88
335.912	110.88
336.14	91.88
336.369	106.88
336.597	106.88
336.825	108.88
337.053	111.88
337.281	109.88
337.51	93.88
337.738	104.88
337.966	102.88
338.194	86.88
338.422	113.88
338.65	106.88
338.878	90.88
339.106	86.88
339.334	109.88
339.562	89.88
339.79	89.88
340.018	113.88
340.246	94.88
340.474	95.88
340.702	102.88
340.93	104.88
341.158	115.88
341.386	101.88
341.614	100.88
341.842	116.88
342.07	103.88
342.298	94.88
342.526	100.88
342.754	94.88
342.981	94.88
343.209	91.88
343.437	101.88
343.665	102.88
343.893	102.88
344.12	93.88
344.348	107.88
344.576	90.88
344.804	88.88
345.031	95.88
345.259	102.88
345.487	115.88
345.714	98.88
345.942	82.88
346.17	92.88
346.397	100.88
346.625	81.88
346.853	92.88
347.08	95.88
347.308	117.88
347.535	109.88
347.763	102.88
347.99	112.88
348.218	116.88
348.445	117.88
348.673	113.88
348.9	112.88
349.128	95.88
349.355	82.88
349.583	102.88
349.81	90.88
350.037	101.88
350.265	110.88
350.492	95.88
350.72	93.88
350.947	117.88
351.174	119.88
351.402	121.88
351.629	99.88
351.856	115.88
352.083	107.88
352.311	127.88
352.538	127.88
352.765	122.88
352.992	117.88
353.22	139.88
353.447	118.88
353.674	117.88
353.901	109.88
354.128	90.88
354.355	89.88
354.583	112.88
354.81	101.88
355.037	102.88
355.264	110.88
355.491	103.88
355.718	89.88
355.945	86.88
356.172	95.88
356.399	93.88
356.626	90.88
356.853	89.88
357.08	78.88
357.307	95.88
357.534	103.88
357.761	97.88
357.988	101.88
358.215	108.88
358.441	107.88
358.668	90.88
358.895	88.88
359.122	91.88
359.349	73.88
359.576	98.88
359.802	101.88
360.029	138.88
360.256	133.88
360.483	102.88
360.709	92.88
360.936	94.88
361.163	98.88
361.39	107.88
361.616	103.88
361.843	89.88
362.07	111.88
362.296	103.88
362.523	94.88
362.749	94.88
362.976	86.88
363.203	103.88
363.429	95.88
363.656	93.88
363.882	89.88
364.109	103.88
364.335	95.88
364.562	95.88
364.788	89.88
365.015	95.88
365.241	107.88
365.468	116.88
365.694	106.88
365.92	99.88
366.147	95.88
366.373	94.88
366.599	103.88
366.826	92.88
367.052	95.88
367.278	99.88
367.505	100.88
367.731	98.88
367.957	98.88
368.184	93.88
368.41	105.88
368.636	108.88
368.862	130.88
369.089	121.88
369.315	112.88
369.541	95.88
369.767	109.88
369.993	99.88
370.219	99.88
370.445	93.88
370.672	82.88
370.898	103.88
371.124	102.88
371.35	81.88
371.576	74.88
371.802	94.88
372.028	81.88
372.254	87.88
372.48	73.88
372.706	85.88
372.932	96.88
373.158	95.88
373.384	95.88
373.61	92.88
373.835	94.88
374.061	90.88
374.287	89.88
374.513	101.88
374.739	88.88
374.965	102.88
375.191	97.88
375.416	100.88
375.642	87.88
375.868	85.88
376.094	92.88
376.319	87.88
376.545	91.88
376.771	102.88
376.997	82.88
377.222	96.88
377.448	91.88
377.674	83.88
377.899	94.88
378.125	89.88
378.35	94.88
378.576	94.88
378.802	103.88
379.027	96.88
379.253	104.88
379.478	97.88
379.704	89.88
379.929	92.88
380.155	97.88
380.38	84.88
380.606	91.88
380.831	92.88
381.057	103.88
381.282	112.88
381.507	87.88
381.733	99.88
381.958	102.88
382.184	92.88
382.409	98.88
382.634	86.88
382.86	96.88
383.085	117.88
383.31	109.88
383.535	107.88
383.761	116.88
383.986	108.88
384.211	105.88
384.436	99.88
384.662	113.88
384.887	85.88
385.112	101.88
385.337	92.88
385.562	106.88
385.787	101.88
386.013	121.88
386.238	134.88
386.463	114.88
386.688	101.88
386.913	106.88
387.138	118.88
387.363	104.88
387.588	100.88
387.813	106.88
388.038	98.88
388.263	110.88
388.488	108.88
388.713	100.88
388.938	89.88
389.163	101.88
389.387	104.88
389.612	91.88
389.837	98.88
390.062	95.88
390.287	94.88
390.512	96.88
390.736	97.88
390.961	94.88
391.186	98.88
391.411	105.88
391.636	94.88
391.86	85.88
392.085	88.88
392.31	86.88
392.534	83.88
392.759	100.88
392.984	83.88
393.208	83.88
393.433	103.88
393.658	104.88
393.882	86.88
394.107	95.88
394.331	90.88
394.556	101.88
394.78	93.88
395.005	94.88
395.229	74.88
395.454	112.88
395.678	76.88
395.903	72.88
396.127	84.88
396.352	88.88
396.576	87.88
396.801	84.88
397.025	95.88
397.249	83.88
397.474	87.88
397.698	78.88
397.922	82.88
398.147	94.88
398.371	90.88
398.595	87.88
398.82	86.88
399.044	100.88
399.268	82.88
399.492	94.88
399.717	85.88
399.941	103.88
400.165	99.88
400.389	102.88
400.613	94.88
400.837	103.88
401.062	106.88
401.286	87.88
401.51	96.88
401.734	82.88
401.958	101.88
402.182	116.88
402.406	181.88
402.63	145.88
402.854	111.88
403.078	97.88
403.302	106.88
403.526	87.88
403.75	94.88
403.974	90.88
404.198	82.88
404.422	100.88
404.645	92.88
404.869	92.88
405.093	103.88
405.317	123.88
405.541	144.88
405.765	101.88
405.988	140.88
406.212	208.88
406.436	283.88
406.66	191.88
406.883	112.88
407.107	95.88
407.331	105.88
407.555	117.88
407.778	111.88
408.002	91.88
408.226	102.88
408.449	97.88
408.673	97.88
408.896	82.88
409.12	111.88
409.344	101.88
409.567	103.88
409.791	101.88
410.014	113.88
410.238	81.88
410.461	94.88
410.685	94.88
410.908	88.88
411.132	93.88
411.355	90.88
411.578	110.88
411.802	87.88
412.025	103.88
412.249	90.88
412.472	114.88
412.695	140.88
412.919	111.88
413.142	92.88
413.365	94.88
413.589	97.88
413.812	91.88
414.035	109.88
414.258	88.88
414.482	94.88
414.705	79.88
414.928	94.88
415.151	83.88
415.374	100.88
415.597	104.88
415.821	117.88
416.044	85.88
416.267	94.88
416.49	95.88
416.713	93.88
416.936	102.88
417.159	98.88
417.382	81.88
417.605	91.88
417.828	108.88
418.051	109.88
418.274	93.88
418.497	91.88
418.72	89.88
418.943	81.88
419.166	94.88
419.389	89.88
419.611	95.88
419.834	98.88
420.057	107.88
420.28	98.88
420.503	91.88
420.726	87.88
420.948	89.88
421.171	88.88
421.394	91.88
421.617	86.88
421.839	87.88
422.062	88.88
422.285	106.88
422.507	98.88
422.73	107.88
422.953	102.88
423.175	94.88
423.398	99.88
423.621	91.88
423.843	103.88
424.066	94.88
424.288	85.88
424.511	86.88
424.733	97.88
424.956	106.88
425.178	116.88
425.401	102.88
425.623	105.88
425.846	94.88
426.068	109.88
426.291	99.88
426.513	85.88
426.735	92.88
426.958	99.88
427.18	129.88
427.402	163.88
427.625	233.88
427.847	223.88
428.069	208.88
428.292	113.88
428.514	95.88
428.736	87.88
428.958	80.88
429.181	91.88
429.403	89.88
429.625	82.88
429.847	97.88
430.069	103.88
430.292	105.88
430.514	89.88
430.736	84.88
430.958	86.88
431.18	88.88
431.402	106.88
431.624	99.88
431.846	86.88
432.068	81.88
432.29	76.88
432.512	79.88
432.734	97.88
432.956	97.88
433.178	103.88
433.4	99.88
433.622	92.88
433.844	97.88
434.066	88.88
434.287	91.88
434.509	90.88
434.731	98.88
434.953	93.88
435.175	106.88
435.397	75.88
435.618	105.88
435.84	120.88
436.062	147.88
436.284	139.88
436.505	115.88
436.727	114.88
436.949	102.88
437.17	101.88
437.392	99.88
437.614	93.88
437.835	128.88
438.057	139.88
438.278	125.88
438.5	119.88
438.721	159.88
438.943	130.88
439.165	97.88
439.386	85.88
439.608	108.88
439.829	108.88
440.05	146.88
440.272	171.88
440.493	101.88
440.715	90.88
440.936	85.88
441.158	85.88
441.379	103.88
441.6	105.88
441.822	110.88
442.043	104.88
442.264	120.88
442.486	104.88
442.707	95.88
442.928	126.88
443.149	169.88
443.371	168.88
443.592	129.88
443.813	134.88
444.034	139.88
444.255	96.88
444.476	94.88
444.698	87.88
444.919	105.88
445.14	151.88
445.361	136.88
445.582	134.88
445.803	177.88
446.024	159.88
446.245	177.88
446.466	122.88
446.687	104.88
446.908	96.88
447.129	83.88
447.35	90.88
447.571	88.88
447.792	88.88
448.013	102.88
448.234	124.88
448.455	102.88
448.675	134.88
448.896	134.88
449.117	108.88
449.338	119.88
449.559	145.88
449.779	168.88
450	96.88
450.221	93.88
450.442	97.88
450.662	105.88
450.883	107.88
451.104	119.88
451.324	107.88
451.545	92.88
451.766	76.88
451.986	81.88
452.207	66.88
452.428	92.88
452.648	113.88
452.869	111.88
453.089	136.88
453.31	129.88
453.53	104.88
453.751	101.88
453.971	122.88
454.192	131.88
454.412	115.88
454.633	84.88
454.853	100.88
455.073	95.88
455.294	79.88
455.514	102.88
455.734	81.88
455.955	84.88
456.175	93.88
456.395	82.88
456.616	86.88
456.836	86.88
457.056	106.88
457.276	94.88
457.497	82.88
457.717	97.88
457.937	92.88
458.157	97.88
458.377	93.88
458.598	109.88
458.818	195.88
459.038	209.88
459.258	146.88
459.478	103.88
459.698	81.88
459.918	96.88
460.138	83.88
460.358	89.88
460.578	93.88
460.798	93.88
461.018	108.88
461.238	80.88
461.458	97.88
461.678	86.88
461.898	82.88
462.118	87.88
462.338	87.88
462.558	93.88
462.777	73.88
462.997	92.88
463.217	102.88
463.437	97.88
463.657	92.88
463.876	91.88
464.096	90.88
464.316	85.88
464.536	113.88
464.755	97.88
464.975	102.88
465.195	227.88
465.414	222.88
465.634	127.88
465.854	93.88
466.073	89.88
466.293	92.88
466.512	86.88
466.732	98.88
466.951	94.88
467.171	91.88
467.391	85.88
467.61	126.88
467.829	173.88
468.049	358.88
468.268	492.88
468.488	149.88
468.707	89.88
468.927	89.88
469.146	75.88
469.365	88.88
469.585	92.88
469.804	102.88
470.023	114.88
470.243	102.88
470.462	111.88
470.681	124.88
470.901	110.88
471.12	90.88
471.339	96.88
471.558	104.88
471.777	122.88
471.997	211.88
472.216	655.88
472.435	1427.88
472.654	371.88
472.873	126.88
473.092	104.88
473.311	97.88
473.53	95.88
473.749	98.88
473.968	107.88
474.187	122.88
474.406	120.88
474.625	95.88
474.844	97.88
475.063	90.88
475.282	90.88
475.501	98.88
475.72	77.88
475.939	82.88
476.158	97.88
476.377	84.88
476.596	94.88
476.814	99.88
477.033	97.88
477.252	93.88
477.471	83.88
477.69	96.88
477.908	92.88
478.127	79.88
478.346	94.88
478.564	94.88
478.783	104.88
479.002	96.88
479.22	85.88
479.439	129.88
479.658	126.88
479.876	129.88
480.095	115.88
480.313	121.88
480.532	131.88
480.751	193.88
480.969	611.88
481.188	2433.88
481.406	1417.88
481.624	241.88
481.843	109.88
482.061	113.88
482.28	74.88
482.498	101.88
482.717	102.88
482.935	93.88
483.153	102.88
483.372	87.88
483.59	82.88
483.808	105.88
484.027	90.88
484.245	108.88
484.463	109.88
484.681	104.88
484.9	95.88
485.118	105.88
485.336	104.88
485.554	95.88
485.772	102.88
485.99	93.88
486.209	97.88
486.427	116.88
486.645	118.88
486.863	114.88
487.081	107.88
487.299	105.88
487.517	85.88
487.735	92.88
487.953	79.88
488.171	82.88
488.389	103.88
488.607	98.88
488.825	101.88
489.043	92.88
489.261	95.88
489.479	105.88
489.696	92.88
489.914	100.88
490.132	89.88
490.35	91.88
490.568	100.88
490.786	99.88
491.003	89.88
491.221	101.88
491.439	102.88
491.657	86.88
491.874	85.88
492.092	94.88
492.31	109.88
492.527	97.88
492.745	100.88
492.963	94.88
493.18	103.88
493.398	93.88
493.615	100.88
493.833	97.88
494.05	100.88
494.268	81.88
494.485	99.88
494.703	84.88
494.92	92.88
495.138	83.88
495.355	89.88
495.573	76.88
495.79	89.88
496.008	90.88
496.225	91.88
496.442	97.88
496.66	92.88
496.877	100.88
497.094	85.88
497.312	90.88
497.529	70.88
497.746	78.88
497.963	82.88
498.181	102.88
498.398	92.88
498.615	120.88
498.832	106.88
499.049	99.88
499.267	101.88
499.484	94.88
499.701	93.88
499.918	101.88
500.135	89.88
500.352	90.88
500.569	86.88
500.786	97.88
501.003	85.88
501.22	96.88
501.437	105.88
501.654	99.88
501.871	129.88
502.088	107.88
502.305	105.88
502.522	106.88
502.739	95.88
502.956	90.88
503.172	99.88
503.389	102.88
503.606	134.88
503.823	101.88
504.04	92.88
504.256	90.88
504.473	101.88
504.69	95.88
504.907	95.88
505.123	100.88
505.34	88.88
505.557	91.88
505.773	89.88
505.99	81.88
506.207	100.88
506.423	97.88
506.64	89.88
506.856	91.88
507.073	95.88
507.289	102.88
507.506	98.88
507.722	120.88
507.939	125.88
508.155	106.88
508.372	103.88
508.588	92.88
508.805	89.88
509.021	95.88
509.238	95.88
509.454	114.88
509.67	105.88
509.887	104.88
510.103	133.88
510.319	232.88
510.536	870.88
510.752	2945.88
510.968	805.88
511.184	173.88
511.401	126.88
511.617	108.88
511.833	105.88
512.049	104.88
512.265	97.88
512.481	98.88
512.698	99.88
