Data from Circ_2000_H10_HRD10591_00023.txt Node
Date: Wed Jan 03 10:49:38 EST 2024
User: Yrep
Spectrometer: HR+D1059
Trigger mode: 1
Integration Time (sec): 1.000000E-1
Scans to average: 1
Electric dark correction enabled: true
Nonlinearity correction enabled: false
Boxcar width: 0
XAxis mode: Wavelengths
Number of Pixels in Spectrum: 2048
>>>>>Begin Spectral Data<<<<<
223.165	-15.69
223.4	-15.69
223.635	-15.69
223.869	-21.69
224.104	-24.69
224.338	-15.69
224.573	-14.69
224.808	-20.69
225.042	-6.69
225.277	-2.69
225.511	13.31
225.746	7.31
225.98	13.31
226.215	11.31
226.449	18.31
226.683	12.31
226.918	17.31
227.152	29.31
227.387	29.31
227.621	32.31
227.856	45.31
228.09	37.31
228.324	42.31
228.559	41.31
228.793	52.31
229.027	63.31
229.262	63.31
229.496	74.31
229.73	88.31
229.964	86.31
230.199	79.31
230.433	78.31
230.667	75.31
230.901	86.31
231.136	82.31
231.37	77.31
231.604	79.31
231.838	91.31
232.072	84.31
232.306	74.31
232.541	84.31
232.775	78.31
233.009	75.31
233.243	86.31
233.477	82.31
233.711	72.31
233.945	91.31
234.179	81.31
234.413	73.31
234.647	91.31
234.881	96.31
235.115	79.31
235.349	76.31
235.583	77.31
235.817	67.31
236.051	89.31
236.285	77.31
236.519	88.31
236.753	80.31
236.987	82.31
237.221	76.31
237.455	91.31
237.689	86.31
237.922	85.31
238.156	84.31
238.39	86.31
238.624	81.31
238.858	77.31
239.091	85.31
239.325	77.31
239.559	72.31
239.793	70.31
240.027	82.31
240.26	89.31
240.494	76.31
240.728	81.31
240.961	85.31
241.195	84.31
241.429	69.31
241.662	79.31
241.896	67.31
242.13	78.31
242.363	70.31
242.597	77.31
242.83	91.31
243.064	57.31
243.298	87.31
243.531	74.31
243.765	68.31
243.998	66.31
244.232	88.31
244.465	75.31
244.699	76.31
244.932	68.31
245.166	86.31
245.399	65.31
245.633	83.31
245.866	92.31
246.099	78.31
246.333	69.31
246.566	78.31
246.8	75.31
247.033	84.31
247.266	74.31
247.5	71.31
247.733	84.31
247.966	79.31
248.2	83.31
248.433	82.31
248.666	77.31
248.899	81.31
249.133	89.31
249.366	86.31
249.599	106.31
249.832	75.31
250.066	74.31
250.299	81.31
250.532	70.31
250.765	67.31
250.998	75.31
251.231	86.31
251.465	89.31
251.698	82.31
251.931	75.31
252.164	79.31
252.397	78.31
252.63	73.31
252.863	54.31
253.096	81.31
253.329	67.31
253.562	85.31
253.795	87.31
254.028	88.31
254.261	79.31
254.494	80.31
254.727	78.31
254.96	73.31
255.193	86.31
255.426	89.31
255.659	88.31
255.892	83.31
256.124	84.31
256.357	58.31
256.59	80.31
256.823	76.31
257.056	86.31
257.289	87.31
257.521	86.31
257.754	93.31
257.987	90.31
258.22	91.31
258.452	91.31
258.685	74.31
258.918	92.31
259.151	76.31
259.383	79.31
259.616	85.31
259.849	73.31
260.081	88.31
260.314	86.31
260.547	93.31
260.779	84.31
261.012	85.31
261.244	94.31
261.477	78.31
261.71	94.31
261.942	91.31
262.175	105.31
262.407	85.31
262.64	74.31
262.872	70.31
263.105	55.31
263.337	85.31
263.57	75.31
263.802	81.31
264.035	83.31
264.267	86.31
264.499	90.31
264.732	95.31
264.964	85.31
265.197	87.31
265.429	75.31
265.661	82.31
265.894	88.31
266.126	74.31
266.358	78.31
266.591	90.31
266.823	90.31
267.055	82.31
267.287	86.31
267.52	67.31
267.752	81.31
267.984	92.31
268.216	80.31
268.448	81.31
268.681	82.31
268.913	89.31
269.145	66.31
269.377	85.31
269.609	98.31
269.841	81.31
270.073	97.31
270.306	87.31
270.538	86.31
270.77	84.31
271.002	84.31
271.234	82.31
271.466	72.31
271.698	82.31
271.93	83.31
272.162	86.31
272.394	82.31
272.626	84.31
272.858	97.31
273.09	87.31
273.322	74.31
273.553	94.31
273.785	82.31
274.017	85.31
274.249	75.31
274.481	88.31
274.713	94.31
274.945	90.31
275.176	87.31
275.408	77.31
275.64	87.31
275.872	89.31
276.104	89.31
276.335	74.31
276.567	86.31
276.799	96.31
277.031	109.31
277.262	104.31
277.494	79.31
277.726	90.31
277.957	86.31
278.189	80.31
278.421	86.31
278.652	83.31
278.884	81.31
279.115	85.31
279.347	92.31
279.579	89.31
279.81	86.31
280.042	105.31
280.273	112.31
280.505	103.31
280.736	87.31
280.968	84.31
281.199	81.31
281.431	85.31
281.662	76.31
281.894	95.31
282.125	104.31
282.356	115.31
282.588	117.31
282.819	91.31
283.051	81.31
283.282	79.31
283.513	83.31
283.745	85.31
283.976	97.31
284.207	81.31
284.439	88.31
284.67	83.31
284.901	90.31
285.132	85.31
285.364	79.31
285.595	95.31
285.826	84.31
286.057	75.31
286.288	85.31
286.52	93.31
286.751	90.31
286.982	77.31
287.213	78.31
287.444	84.31
287.675	87.31
287.906	85.31
288.138	71.31
288.369	96.31
288.6	85.31
288.831	76.31
289.062	76.31
289.293	86.31
289.524	92.31
289.755	94.31
289.986	83.31
290.217	90.31
290.448	89.31
290.679	89.31
290.91	90.31
291.141	89.31
291.371	92.31
291.602	91.31
291.833	91.31
292.064	89.31
292.295	86.31
292.526	99.31
292.757	86.31
292.987	83.31
293.218	94.31
293.449	96.31
293.68	79.31
293.91	81.31
294.141	80.31
294.372	88.31
294.603	85.31
294.833	84.31
295.064	84.31
295.295	74.31
295.525	97.31
295.756	105.31
295.987	110.31
296.217	125.31
296.448	113.31
296.679	88.31
296.909	60.31
297.14	110.31
297.37	95.31
297.601	99.31
297.831	92.31
298.062	89.31
298.292	69.31
298.523	80.31
298.753	84.31
298.984	91.31
299.214	84.31
299.445	88.31
299.675	98.31
299.905	103.31
300.136	93.31
300.366	82.31
300.597	93.31
300.827	111.31
301.057	76.31
301.288	78.31
301.518	97.31
301.748	89.31
301.979	106.31
302.209	86.31
302.439	76.31
302.669	92.31
302.9	82.31
303.13	83.31
303.36	94.31
303.59	96.31
303.82	109.31
304.051	104.31
304.281	97.31
304.511	90.31
304.741	92.31
304.971	85.31
305.201	83.31
305.431	88.31
305.661	89.31
305.891	76.31
306.121	93.31
306.352	110.31
306.582	95.31
306.812	106.31
307.042	105.31
307.272	89.31
307.502	111.31
307.731	101.31
307.961	93.31
308.191	103.31
308.421	93.31
308.651	92.31
308.881	98.31
309.111	101.31
309.341	83.31
309.571	91.31
309.8	87.31
310.03	109.31
310.26	81.31
310.49	88.31
310.72	101.31
310.949	102.31
311.179	90.31
311.409	86.31
311.639	84.31
311.868	97.31
312.098	100.31
312.328	101.31
312.557	101.31
312.787	94.31
313.017	97.31
313.246	99.31
313.476	85.31
313.706	79.31
313.935	86.31
314.165	90.31
314.394	86.31
314.624	97.31
314.853	104.31
315.083	85.31
315.312	91.31
315.542	87.31
315.771	105.31
316.001	98.31
316.23	85.31
316.46	87.31
316.689	100.31
316.919	101.31
317.148	91.31
317.377	90.31
317.607	95.31
317.836	90.31
318.065	92.31
318.295	87.31
318.524	94.31
318.753	94.31
318.983	96.31
319.212	101.31
319.441	104.31
319.67	106.31
319.9	82.31
320.129	87.31
320.358	91.31
320.587	78.31
320.816	96.31
321.046	99.31
321.275	102.31
321.504	95.31
321.733	99.31
321.962	92.31
322.191	100.31
322.42	87.31
322.649	93.31
322.878	105.31
323.108	112.31
323.337	99.31
323.566	127.31
323.795	159.31
324.024	204.31
324.253	338.31
324.482	654.31
324.71	1318.31
324.939	1708.31
325.168	644.31
325.397	200.31
325.626	129.31
325.855	124.31
326.084	111.31
326.313	117.31
326.542	144.31
326.77	199.31
326.999	369.31
327.228	754.31
327.457	1359.31
327.686	1075.31
327.914	309.31
328.143	187.31
328.372	184.31
328.6	150.31
328.829	120.31
329.058	115.31
329.287	117.31
329.515	106.31
329.744	107.31
329.972	146.31
330.201	195.31
330.43	236.31
330.658	155.31
330.887	133.31
331.115	114.31
331.344	94.31
331.572	97.31
331.801	98.31
332.03	112.31
332.258	97.31
332.486	86.31
332.715	88.31
332.943	99.31
333.172	91.31
333.4	109.31
333.629	107.31
333.857	121.31
334.085	134.31
334.314	190.31
334.542	277.31
334.771	242.31
334.999	119.31
335.227	99.31
335.455	114.31
335.684	97.31
335.912	94.31
336.14	104.31
336.369	92.31
336.597	113.31
336.825	94.31
337.053	85.31
337.281	94.31
337.51	94.31
337.738	95.31
337.966	85.31
338.194	91.31
338.422	109.31
338.65	96.31
338.878	85.31
339.106	82.31
339.334	92.31
339.562	75.31
339.79	106.31
340.018	104.31
340.246	84.31
340.474	104.31
340.702	98.31
340.93	90.31
341.158	78.31
341.386	96.31
341.614	95.31
341.842	87.31
342.07	81.31
342.298	79.31
342.526	83.31
342.754	92.31
342.981	99.31
343.209	90.31
343.437	95.31
343.665	91.31
343.893	84.31
344.12	95.31
344.348	85.31
344.576	105.31
344.804	107.31
345.031	81.31
345.259	94.31
345.487	101.31
345.714	83.31
345.942	90.31
346.17	112.31
346.397	82.31
346.625	84.31
346.853	95.31
347.08	78.31
347.308	93.31
347.535	96.31
347.763	92.31
347.99	99.31
348.218	86.31
348.445	98.31
348.673	89.31
348.9	89.31
349.128	90.31
349.355	88.31
349.583	89.31
349.81	90.31
350.037	102.31
350.265	105.31
350.492	90.31
350.72	105.31
350.947	97.31
351.174	95.31
351.402	101.31
351.629	101.31
351.856	95.31
352.083	103.31
352.311	101.31
352.538	112.31
352.765	94.31
352.992	108.31
353.22	97.31
353.447	107.31
353.674	104.31
353.901	101.31
354.128	99.31
354.355	90.31
354.583	84.31
354.81	92.31
355.037	98.31
355.264	87.31
355.491	85.31
355.718	90.31
355.945	97.31
356.172	92.31
356.399	106.31
356.626	100.31
356.853	81.31
357.08	110.31
357.307	89.31
357.534	88.31
357.761	89.31
357.988	94.31
358.215	98.31
358.441	111.31
358.668	106.31
358.895	81.31
359.122	79.31
359.349	91.31
359.576	74.31
359.802	89.31
360.029	98.31
360.256	111.31
360.483	94.31
360.709	87.31
360.936	92.31
361.163	93.31
361.39	86.31
361.616	115.31
361.843	94.31
362.07	105.31
362.296	95.31
362.523	81.31
362.749	93.31
362.976	76.31
363.203	90.31
363.429	93.31
363.656	77.31
363.882	91.31
364.109	97.31
364.335	81.31
364.562	80.31
364.788	92.31
365.015	106.31
365.241	92.31
365.468	89.31
365.694	106.31
365.92	84.31
366.147	98.31
366.373	92.31
366.599	82.31
366.826	89.31
367.052	79.31
367.278	91.31
367.505	74.31
367.731	85.31
367.957	86.31
368.184	102.31
368.41	104.31
368.636	95.31
368.862	107.31
369.089	112.31
369.315	99.31
369.541	101.31
369.767	88.31
369.993	92.31
370.219	85.31
370.445	100.31
370.672	80.31
370.898	82.31
371.124	90.31
371.35	93.31
371.576	93.31
371.802	92.31
372.028	81.31
372.254	84.31
372.48	87.31
372.706	88.31
372.932	94.31
373.158	91.31
373.384	91.31
373.61	95.31
373.835	100.31
374.061	84.31
374.287	85.31
374.513	92.31
374.739	90.31
374.965	85.31
375.191	85.31
375.416	86.31
375.642	89.31
375.868	85.31
376.094	87.31
376.319	89.31
376.545	88.31
376.771	89.31
376.997	94.31
377.222	91.31
377.448	89.31
377.674	82.31
377.899	90.31
378.125	90.31
378.35	98.31
378.576	79.31
378.802	81.31
379.027	84.31
379.253	95.31
379.478	96.31
379.704	115.31
379.929	98.31
380.155	91.31
380.38	98.31
380.606	95.31
380.831	91.31
381.057	102.31
381.282	102.31
381.507	104.31
381.733	104.31
381.958	95.31
382.184	104.31
382.409	76.31
382.634	107.31
382.86	101.31
383.085	97.31
383.31	110.31
383.535	116.31
383.761	106.31
383.986	101.31
384.211	93.31
384.436	109.31
384.662	102.31
384.887	113.31
385.112	117.31
385.337	110.31
385.562	115.31
385.787	108.31
386.013	110.31
386.238	109.31
386.463	101.31
386.688	120.31
386.913	106.31
387.138	115.31
387.363	112.31
387.588	109.31
387.813	103.31
388.038	113.31
388.263	119.31
388.488	122.31
388.713	109.31
388.938	106.31
389.163	108.31
389.387	103.31
389.612	114.31
389.837	102.31
390.062	98.31
390.287	100.31
390.512	88.31
390.736	92.31
390.961	94.31
391.186	90.31
391.411	105.31
391.636	101.31
391.86	85.31
392.085	100.31
392.31	85.31
392.534	87.31
392.759	84.31
392.984	77.31
393.208	92.31
393.433	99.31
393.658	97.31
393.882	95.31
394.107	88.31
394.331	97.31
394.556	84.31
394.78	90.31
395.005	88.31
395.229	95.31
395.454	85.31
395.678	99.31
395.903	76.31
396.127	88.31
396.352	89.31
396.576	87.31
396.801	74.31
397.025	88.31
397.249	91.31
397.474	93.31
397.698	88.31
397.922	96.31
398.147	81.31
398.371	88.31
398.595	75.31
398.82	92.31
399.044	102.31
399.268	82.31
399.492	82.31
399.717	93.31
399.941	91.31
400.165	78.31
400.389	106.31
400.613	86.31
400.837	96.31
401.062	81.31
401.286	83.31
401.51	88.31
401.734	84.31
401.958	95.31
402.182	108.31
402.406	135.31
402.63	113.31
402.854	84.31
403.078	94.31
403.302	84.31
403.526	82.31
403.75	81.31
403.974	88.31
404.198	89.31
404.422	88.31
404.645	111.31
404.869	97.31
405.093	108.31
405.317	110.31
405.541	107.31
405.765	83.31
405.988	103.31
406.212	138.31
406.436	189.31
406.66	113.31
406.883	94.31
407.107	103.31
407.331	97.31
407.555	83.31
407.778	98.31
408.002	101.31
408.226	88.31
408.449	93.31
408.673	82.31
408.896	96.31
409.12	91.31
409.344	88.31
409.567	87.31
409.791	84.31
410.014	105.31
410.238	87.31
410.461	80.31
410.685	82.31
410.908	108.31
411.132	108.31
411.355	101.31
411.578	94.31
411.802	82.31
412.025	96.31
412.249	88.31
412.472	88.31
412.695	104.31
412.919	91.31
413.142	88.31
413.365	88.31
413.589	78.31
413.812	89.31
414.035	97.31
414.258	104.31
414.482	87.31
414.705	94.31
414.928	87.31
415.151	93.31
415.374	96.31
415.597	89.31
415.821	81.31
416.044	89.31
416.267	86.31
416.49	101.31
416.713	86.31
416.936	92.31
417.159	80.31
417.382	99.31
417.605	81.31
417.828	82.31
418.051	100.31
418.274	100.31
418.497	87.31
418.72	95.31
418.943	86.31
419.166	81.31
419.389	88.31
419.611	83.31
419.834	94.31
420.057	98.31
420.28	100.31
420.503	67.31
420.726	78.31
420.948	94.31
421.171	100.31
421.394	84.31
421.617	90.31
421.839	91.31
422.062	86.31
422.285	101.31
422.507	98.31
422.73	104.31
422.953	98.31
423.175	90.31
423.398	75.31
423.621	93.31
423.843	83.31
424.066	89.31
424.288	90.31
424.511	106.31
424.733	96.31
424.956	100.31
425.178	94.31
425.401	94.31
425.623	89.31
425.846	82.31
426.068	82.31
426.291	100.31
426.513	82.31
426.735	98.31
426.958	91.31
427.18	111.31
427.402	124.31
427.625	158.31
427.847	132.31
428.069	114.31
428.292	94.31
428.514	90.31
428.736	86.31
428.958	89.31
429.181	75.31
429.403	81.31
429.625	82.31
429.847	91.31
430.069	100.31
430.292	84.31
430.514	87.31
430.736	84.31
430.958	96.31
431.18	85.31
431.402	81.31
431.624	95.31
431.846	94.31
432.068	73.31
432.29	77.31
432.512	97.31
432.734	91.31
432.956	103.31
433.178	86.31
433.4	90.31
433.622	82.31
433.844	97.31
434.066	95.31
434.287	96.31
434.509	92.31
434.731	94.31
434.953	84.31
435.175	74.31
435.397	93.31
435.618	93.31
435.84	100.31
436.062	109.31
436.284	101.31
436.505	101.31
436.727	98.31
436.949	92.31
437.17	80.31
437.392	82.31
437.614	101.31
437.835	110.31
438.057	109.31
438.278	109.31
438.5	98.31
438.721	98.31
438.943	93.31
439.165	94.31
439.386	101.31
439.608	107.31
439.829	104.31
440.05	118.31
440.272	115.31
440.493	107.31
440.715	84.31
440.936	87.31
441.158	88.31
441.379	85.31
441.6	90.31
441.822	93.31
442.043	85.31
442.264	106.31
442.486	94.31
442.707	95.31
442.928	92.31
443.149	102.31
443.371	120.31
443.592	100.31
443.813	99.31
444.034	105.31
444.255	109.31
444.476	89.31
444.698	78.31
444.919	87.31
445.14	137.31
445.361	117.31
445.582	103.31
445.803	104.31
446.024	118.31
446.245	117.31
446.466	94.31
446.687	88.31
446.908	85.31
447.129	79.31
447.35	83.31
447.571	96.31
447.792	82.31
448.013	84.31
448.234	97.31
448.455	99.31
448.675	113.31
448.896	111.31
449.117	87.31
449.338	90.31
449.559	123.31
449.779	118.31
450	88.31
450.221	85.31
450.442	84.31
450.662	99.31
450.883	102.31
451.104	105.31
451.324	88.31
451.545	83.31
451.766	83.31
451.986	81.31
452.207	85.31
452.428	95.31
452.648	94.31
452.869	98.31
453.089	99.31
453.31	102.31
453.53	90.31
453.751	84.31
453.971	100.31
454.192	106.31
454.412	84.31
454.633	84.31
454.853	84.31
455.073	91.31
455.294	77.31
455.514	85.31
455.734	87.31
455.955	95.31
456.175	85.31
456.395	87.31
456.616	72.31
456.836	79.31
457.056	74.31
457.276	69.31
457.497	73.31
457.717	68.31
457.937	90.31
458.157	80.31
458.377	89.31
458.598	100.31
458.818	115.31
459.038	134.31
459.258	98.31
459.478	89.31
459.698	88.31
459.918	79.31
460.138	85.31
460.358	77.31
460.578	84.31
460.798	86.31
461.018	98.31
461.238	82.31
461.458	103.31
461.678	97.31
461.898	70.31
462.118	79.31
462.338	98.31
462.558	89.31
462.777	98.31
462.997	90.31
463.217	74.31
463.437	96.31
463.657	76.31
463.876	95.31
464.096	89.31
464.316	94.31
464.536	99.31
464.755	97.31
464.975	99.31
465.195	139.31
465.414	108.31
465.634	94.31
465.854	83.31
466.073	78.31
466.293	91.31
466.512	74.31
466.732	91.31
466.951	99.31
467.171	92.31
467.391	86.31
467.61	104.31
467.829	103.31
468.049	130.31
468.268	169.31
468.488	95.31
468.707	88.31
468.927	87.31
469.146	79.31
469.365	80.31
469.585	80.31
469.804	92.31
470.023	89.31
470.243	92.31
470.462	95.31
470.681	110.31
470.901	89.31
471.12	83.31
471.339	78.31
471.558	85.31
471.777	109.31
471.997	109.31
472.216	202.31
472.435	360.31
472.654	155.31
472.873	89.31
473.092	84.31
473.311	93.31
473.53	83.31
473.749	86.31
473.968	83.31
474.187	90.31
474.406	99.31
474.625	82.31
474.844	85.31
475.063	79.31
475.282	81.31
475.501	93.31
475.72	85.31
475.939	87.31
476.158	88.31
476.377	100.31
476.596	87.31
476.814	91.31
477.033	89.31
477.252	87.31
477.471	93.31
477.69	89.31
477.908	85.31
478.127	98.31
478.346	87.31
478.564	103.31
478.783	104.31
479.002	85.31
479.22	87.31
479.439	92.31
479.658	97.31
479.876	89.31
480.095	96.31
480.313	103.31
480.532	102.31
480.751	113.31
480.969	209.31
481.188	588.31
481.406	353.31
481.624	117.31
481.843	94.31
482.061	85.31
482.28	86.31
482.498	81.31
482.717	97.31
482.935	94.31
483.153	92.31
483.372	87.31
483.59	92.31
483.808	93.31
484.027	95.31
484.245	93.31
484.463	95.31
484.681	86.31
484.9	96.31
485.118	107.31
485.336	99.31
485.554	90.31
485.772	107.31
485.99	115.31
486.209	101.31
486.427	109.31
486.645	103.31
486.863	103.31
487.081	100.31
487.299	103.31
487.517	94.31
487.735	99.31
487.953	106.31
488.171	105.31
488.389	87.31
488.607	80.31
488.825	91.31
489.043	83.31
489.261	97.31
489.479	97.31
489.696	93.31
489.914	93.31
490.132	86.31
490.35	76.31
490.568	83.31
490.786	82.31
491.003	94.31
491.221	89.31
491.439	86.31
491.657	95.31
491.874	85.31
492.092	95.31
492.31	73.31
492.527	85.31
492.745	81.31
492.963	96.31
493.18	89.31
493.398	85.31
493.615	93.31
493.833	88.31
494.05	90.31
494.268	95.31
494.485	97.31
494.703	83.31
494.92	94.31
495.138	85.31
495.355	84.31
495.573	97.31
495.79	80.31
496.008	92.31
496.225	99.31
496.442	90.31
496.66	84.31
496.877	95.31
497.094	100.31
497.312	94.31
497.529	98.31
497.746	86.31
497.963	92.31
498.181	91.31
498.398	97.31
498.615	98.31
498.832	93.31
499.049	97.31
499.267	81.31
499.484	92.31
499.701	86.31
499.918	104.31
500.135	94.31
500.352	104.31
500.569	90.31
500.786	95.31
501.003	85.31
501.22	97.31
501.437	91.31
501.654	90.31
501.871	88.31
502.088	77.31
502.305	100.31
502.522	82.31
502.739	79.31
502.956	95.31
503.172	83.31
503.389	89.31
503.606	106.31
503.823	83.31
504.04	90.31
504.256	82.31
504.473	97.31
504.69	85.31
504.907	90.31
505.123	81.31
505.34	86.31
505.557	87.31
505.773	101.31
505.99	92.31
506.207	74.31
506.423	87.31
506.64	91.31
506.856	103.31
507.073	88.31
507.289	85.31
507.506	106.31
507.722	87.31
507.939	102.31
508.155	93.31
508.372	89.31
508.588	97.31
508.805	108.31
509.021	94.31
509.238	87.31
509.454	94.31
509.67	98.31
509.887	103.31
510.103	126.31
510.319	194.31
510.536	579.31
510.752	1786.31
510.968	517.31
511.184	132.31
511.401	105.31
511.617	102.31
511.833	91.31
512.049	107.31
512.265	94.31
512.481	92.31
512.698	97.31
512.914	106.31
513.13	83.31
513.346	74.31
513.562	89.31
513.778	89.31
513.994	98.31
514.21	95.31
514.426	103.31
514.642	120.31
514.858	109.31
515.074	144.31
515.29	329.31
515.506	1047.31
515.721	410.31
