Data from Circ_2000_H10_HRD10591_00074.txt Node
Date: Wed Jan 03 10:49:48 EST 2024
User: Yrep
Spectrometer: HR+D1059
Trigger mode: 1
Integration Time (sec): 1.000000E-1
Scans to average: 1
Electric dark correction enabled: true
Nonlinearity correction enabled: false
Boxcar width: 0
XAxis mode: Wavelengths
Number of Pixels in Spectrum: 2048
>>>>>Begin Spectral Data<<<<<
223.165	-9.12
223.4	-9.12
223.635	-9.12
223.869	-7.12
224.104	-20.12
224.338	-14.12
224.573	-35.12
224.808	-4.12
225.042	-10.12
225.277	-9.12
225.511	3.88
225.746	2.88
225.98	8.88
226.215	15.88
226.449	13.88
226.683	14.88
226.918	24.88
227.152	23.88
227.387	30.88
227.621	31.88
227.856	51.88
228.09	58.88
228.324	51.88
228.559	73.88
228.793	58.88
229.027	67.88
229.262	79.88
229.496	74.88
229.73	86.88
229.964	101.88
230.199	85.88
230.433	80.88
230.667	84.88
230.901	76.88
231.136	85.88
231.37	63.88
231.604	77.88
231.838	71.88
232.072	72.88
232.306	84.88
232.541	81.88
232.775	69.88
233.009	81.88
233.243	91.88
233.477	88.88
233.711	86.88
233.945	85.88
234.179	77.88
234.413	73.88
234.647	71.88
234.881	91.88
235.115	71.88
235.349	73.88
235.583	86.88
235.817	72.88
236.051	93.88
236.285	90.88
236.519	73.88
236.753	79.88
236.987	94.88
237.221	72.88
237.455	86.88
237.689	96.88
237.922	85.88
238.156	82.88
238.39	76.88
238.624	87.88
238.858	81.88
239.091	85.88
239.325	88.88
239.559	81.88
239.793	84.88
240.027	76.88
240.26	78.88
240.494	75.88
240.728	79.88
240.961	81.88
241.195	75.88
241.429	79.88
241.662	77.88
241.896	80.88
242.13	71.88
242.363	95.88
242.597	81.88
242.83	72.88
243.064	77.88
243.298	87.88
243.531	84.88
243.765	85.88
243.998	68.88
244.232	89.88
244.465	79.88
244.699	85.88
244.932	83.88
245.166	86.88
245.399	81.88
245.633	90.88
245.866	86.88
246.099	74.88
246.333	63.88
246.566	85.88
246.8	93.88
247.033	82.88
247.266	77.88
247.5	73.88
247.733	84.88
247.966	71.88
248.2	76.88
248.433	85.88
248.666	74.88
248.899	96.88
249.133	85.88
249.366	89.88
249.599	98.88
249.832	72.88
250.066	81.88
250.299	89.88
250.532	81.88
250.765	82.88
250.998	74.88
251.231	100.88
251.465	76.88
251.698	81.88
251.931	96.88
252.164	85.88
252.397	74.88
252.63	86.88
252.863	95.88
253.096	84.88
253.329	68.88
253.562	76.88
253.795	88.88
254.028	77.88
254.261	65.88
254.494	96.88
254.727	94.88
254.96	85.88
255.193	60.88
255.426	87.88
255.659	88.88
255.892	85.88
256.124	92.88
256.357	70.88
256.59	69.88
256.823	76.88
257.056	90.88
257.289	89.88
257.521	78.88
257.754	69.88
257.987	82.88
258.22	94.88
258.452	89.88
258.685	86.88
258.918	83.88
259.151	90.88
259.383	69.88
259.616	93.88
259.849	79.88
260.081	89.88
260.314	81.88
260.547	105.88
260.779	93.88
261.012	89.88
261.244	87.88
261.477	90.88
261.71	93.88
261.942	121.88
262.175	106.88
262.407	89.88
262.64	83.88
262.872	85.88
263.105	84.88
263.337	81.88
263.57	84.88
263.802	87.88
264.035	82.88
264.267	84.88
264.499	70.88
264.732	99.88
264.964	83.88
265.197	100.88
265.429	88.88
265.661	80.88
265.894	81.88
266.126	95.88
266.358	90.88
266.591	83.88
266.823	84.88
267.055	97.88
267.287	92.88
267.52	101.88
267.752	78.88
267.984	79.88
268.216	91.88
268.448	81.88
268.681	91.88
268.913	106.88
269.145	99.88
269.377	98.88
269.609	70.88
269.841	93.88
270.073	92.88
270.306	88.88
270.538	85.88
270.77	86.88
271.002	68.88
271.234	92.88
271.466	83.88
271.698	83.88
271.93	97.88
272.162	76.88
272.394	89.88
272.626	82.88
272.858	85.88
273.09	82.88
273.322	78.88
273.553	77.88
273.785	84.88
274.017	92.88
274.249	85.88
274.481	87.88
274.713	88.88
274.945	91.88
275.176	85.88
275.408	94.88
275.64	86.88
275.872	91.88
276.104	88.88
276.335	85.88
276.567	96.88
276.799	123.88
277.031	119.88
277.262	130.88
277.494	111.88
277.726	97.88
277.957	82.88
278.189	84.88
278.421	75.88
278.652	94.88
278.884	95.88
279.115	95.88
279.347	80.88
279.579	79.88
279.81	94.88
280.042	117.88
280.273	163.88
280.505	108.88
280.736	103.88
280.968	78.88
281.199	89.88
281.431	83.88
281.662	101.88
281.894	94.88
282.125	87.88
282.356	117.88
282.588	169.88
282.819	111.88
283.051	97.88
283.282	86.88
283.513	85.88
283.745	71.88
283.976	81.88
284.207	96.88
284.439	93.88
284.67	84.88
284.901	67.88
285.132	81.88
285.364	86.88
285.595	86.88
285.826	103.88
286.057	88.88
286.288	94.88
286.52	89.88
286.751	91.88
286.982	83.88
287.213	78.88
287.444	106.88
287.675	92.88
287.906	67.88
288.138	90.88
288.369	96.88
288.6	89.88
288.831	92.88
289.062	91.88
289.293	92.88
289.524	90.88
289.755	70.88
289.986	78.88
290.217	93.88
290.448	95.88
290.679	83.88
290.91	85.88
291.141	94.88
291.371	97.88
291.602	86.88
291.833	83.88
292.064	91.88
292.295	110.88
292.526	83.88
292.757	89.88
292.987	78.88
293.218	84.88
293.449	79.88
293.68	88.88
293.91	86.88
294.141	102.88
294.372	77.88
294.603	92.88
294.833	80.88
295.064	94.88
295.295	78.88
295.525	82.88
295.756	108.88
295.987	108.88
296.217	144.88
296.448	126.88
296.679	99.88
296.909	87.88
297.14	81.88
297.37	96.88
297.601	73.88
297.831	89.88
298.062	88.88
298.292	94.88
298.523	104.88
298.753	102.88
298.984	94.88
299.214	102.88
299.445	88.88
299.675	85.88
299.905	94.88
300.136	87.88
300.366	79.88
300.597	81.88
300.827	113.88
301.057	107.88
301.288	113.88
301.518	91.88
301.748	89.88
301.979	102.88
302.209	85.88
302.439	94.88
302.669	86.88
302.9	90.88
303.13	96.88
303.36	102.88
303.59	115.88
303.82	130.88
304.051	101.88
304.281	106.88
304.511	91.88
304.741	91.88
304.971	103.88
305.201	102.88
305.431	90.88
305.661	97.88
305.891	89.88
306.121	92.88
306.352	111.88
306.582	106.88
306.812	88.88
307.042	103.88
307.272	106.88
307.502	123.88
307.731	116.88
307.961	105.88
308.191	100.88
308.421	98.88
308.651	113.88
308.881	92.88
309.111	103.88
309.341	102.88
309.571	113.88
309.8	95.88
310.03	107.88
310.26	106.88
310.49	83.88
310.72	106.88
310.949	113.88
311.179	115.88
311.409	87.88
311.639	84.88
311.868	93.88
312.098	114.88
312.328	103.88
312.557	100.88
312.787	113.88
313.017	95.88
313.246	97.88
313.476	98.88
313.706	98.88
313.935	102.88
314.165	101.88
314.394	97.88
314.624	82.88
314.853	102.88
315.083	92.88
315.312	94.88
315.542	93.88
315.771	92.88
316.001	72.88
316.23	96.88
316.46	85.88
316.689	97.88
316.919	95.88
317.148	89.88
317.377	93.88
317.607	95.88
317.836	92.88
318.065	95.88
318.295	79.88
318.524	90.88
318.753	88.88
318.983	92.88
319.212	110.88
319.441	105.88
319.67	113.88
319.9	108.88
320.129	69.88
320.358	110.88
320.587	100.88
320.816	95.88
321.046	92.88
321.275	98.88
321.504	78.88
321.733	108.88
321.962	110.88
322.191	108.88
322.42	119.88
322.649	117.88
322.878	120.88
323.108	123.88
323.337	121.88
323.566	137.88
323.795	156.88
324.024	212.88
324.253	407.88
324.482	886.88
324.71	1815.88
324.939	2418.88
325.168	891.88
325.397	260.88
325.626	137.88
325.855	141.88
326.084	125.88
326.313	141.88
326.542	169.88
326.77	225.88
326.999	492.88
327.228	1009.88
327.457	1844.88
327.686	1479.88
327.914	434.88
328.143	316.88
328.372	365.88
328.6	243.88
328.829	147.88
329.058	159.88
329.287	147.88
329.515	142.88
329.744	145.88
329.972	257.88
330.201	479.88
330.43	685.88
330.658	335.88
330.887	193.88
331.115	130.88
331.344	105.88
331.572	110.88
331.801	104.88
332.03	108.88
332.258	107.88
332.486	93.88
332.715	89.88
332.943	106.88
333.172	106.88
333.4	122.88
333.629	137.88
333.857	166.88
334.085	233.88
334.314	455.88
334.542	837.88
334.771	803.88
334.999	256.88
335.227	135.88
335.455	94.88
335.684	105.88
335.912	98.88
336.14	92.88
336.369	115.88
336.597	109.88
336.825	104.88
337.053	91.88
337.281	94.88
337.51	73.88
337.738	88.88
337.966	89.88
338.194	99.88
338.422	101.88
338.65	97.88
338.878	94.88
339.106	99.88
339.334	101.88
339.562	84.88
339.79	72.88
340.018	93.88
340.246	99.88
340.474	88.88
340.702	92.88
340.93	98.88
341.158	84.88
341.386	89.88
341.614	94.88
341.842	92.88
342.07	95.88
342.298	100.88
342.526	86.88
342.754	89.88
342.981	99.88
343.209	77.88
343.437	95.88
343.665	98.88
343.893	91.88
344.12	108.88
344.348	83.88
344.576	93.88
344.804	98.88
345.031	97.88
345.259	109.88
345.487	89.88
345.714	93.88
345.942	91.88
346.17	89.88
346.397	93.88
346.625	86.88
346.853	98.88
347.08	100.88
347.308	98.88
347.535	102.88
347.763	101.88
347.99	120.88
348.218	106.88
348.445	110.88
348.673	98.88
348.9	98.88
349.128	103.88
349.355	83.88
349.583	97.88
349.81	96.88
350.037	95.88
350.265	92.88
350.492	91.88
350.72	93.88
350.947	105.88
351.174	95.88
351.402	108.88
351.629	119.88
351.856	116.88
352.083	121.88
352.311	101.88
352.538	119.88
352.765	110.88
352.992	107.88
353.22	114.88
353.447	103.88
353.674	100.88
353.901	97.88
354.128	113.88
354.355	77.88
354.583	101.88
354.81	99.88
355.037	110.88
355.264	85.88
355.491	95.88
355.718	95.88
355.945	92.88
356.172	94.88
356.399	94.88
356.626	112.88
356.853	93.88
357.08	89.88
357.307	89.88
357.534	83.88
357.761	97.88
357.988	98.88
358.215	95.88
358.441	99.88
358.668	92.88
358.895	88.88
359.122	90.88
359.349	94.88
359.576	87.88
359.802	108.88
360.029	118.88
360.256	118.88
360.483	91.88
360.709	90.88
360.936	88.88
361.163	110.88
361.39	92.88
361.616	94.88
361.843	98.88
362.07	90.88
362.296	100.88
362.523	93.88
362.749	83.88
362.976	88.88
363.203	85.88
363.429	85.88
363.656	86.88
363.882	81.88
364.109	91.88
364.335	102.88
364.562	98.88
364.788	82.88
365.015	94.88
365.241	99.88
365.468	99.88
365.694	122.88
365.92	94.88
366.147	94.88
366.373	107.88
366.599	84.88
366.826	88.88
367.052	106.88
367.278	93.88
367.505	105.88
367.731	98.88
367.957	98.88
368.184	97.88
368.41	95.88
368.636	117.88
368.862	114.88
369.089	105.88
369.315	93.88
369.541	98.88
369.767	83.88
369.993	92.88
370.219	86.88
370.445	94.88
370.672	84.88
370.898	92.88
371.124	89.88
371.35	76.88
371.576	84.88
371.802	92.88
372.028	95.88
372.254	85.88
372.48	90.88
372.706	75.88
372.932	98.88
373.158	97.88
373.384	80.88
373.61	89.88
373.835	96.88
374.061	87.88
374.287	91.88
374.513	94.88
374.739	76.88
374.965	91.88
375.191	91.88
375.416	86.88
375.642	99.88
375.868	86.88
376.094	105.88
376.319	102.88
376.545	82.88
376.771	100.88
376.997	73.88
377.222	84.88
377.448	92.88
377.674	108.88
377.899	92.88
378.125	87.88
378.35	84.88
378.576	83.88
378.802	86.88
379.027	101.88
379.253	81.88
379.478	91.88
379.704	93.88
379.929	82.88
380.155	92.88
380.38	102.88
380.606	101.88
380.831	94.88
381.057	92.88
381.282	87.88
381.507	90.88
381.733	96.88
381.958	97.88
382.184	106.88
382.409	104.88
382.634	105.88
382.86	108.88
383.085	105.88
383.31	100.88
383.535	84.88
383.761	111.88
383.986	91.88
384.211	95.88
384.436	103.88
384.662	85.88
384.887	103.88
385.112	105.88
385.337	90.88
385.562	105.88
385.787	124.88
386.013	120.88
386.238	126.88
386.463	108.88
386.688	87.88
386.913	109.88
387.138	105.88
387.363	96.88
387.588	93.88
387.813	82.88
388.038	108.88
388.263	124.88
388.488	108.88
388.713	87.88
388.938	88.88
389.163	93.88
389.387	116.88
389.612	107.88
389.837	107.88
390.062	93.88
390.287	86.88
390.512	94.88
390.736	83.88
390.961	94.88
391.186	83.88
391.411	107.88
391.636	102.88
391.86	91.88
392.085	85.88
392.31	87.88
392.534	96.88
392.759	81.88
392.984	92.88
393.208	82.88
393.433	97.88
393.658	90.88
393.882	88.88
394.107	86.88
394.331	99.88
394.556	91.88
394.78	83.88
395.005	95.88
395.229	92.88
395.454	98.88
395.678	91.88
395.903	83.88
396.127	85.88
396.352	82.88
396.576	98.88
396.801	93.88
397.025	82.88
397.249	74.88
397.474	100.88
397.698	86.88
397.922	94.88
398.147	89.88
398.371	85.88
398.595	83.88
398.82	89.88
399.044	91.88
399.268	91.88
399.492	101.88
399.717	89.88
399.941	94.88
400.165	93.88
400.389	103.88
400.613	106.88
400.837	94.88
401.062	93.88
401.286	77.88
401.51	95.88
401.734	91.88
401.958	116.88
402.182	128.88
402.406	174.88
402.63	123.88
402.854	103.88
403.078	102.88
403.302	78.88
403.526	92.88
403.75	88.88
403.974	81.88
404.198	95.88
404.422	91.88
404.645	97.88
404.869	94.88
405.093	105.88
405.317	121.88
405.541	134.88
405.765	101.88
405.988	122.88
406.212	180.88
406.436	261.88
406.66	174.88
406.883	99.88
407.107	101.88
407.331	95.88
407.555	117.88
407.778	109.88
408.002	86.88
408.226	97.88
408.449	97.88
408.673	87.88
408.896	97.88
409.12	95.88
409.344	101.88
409.567	79.88
409.791	88.88
410.014	92.88
410.238	86.88
410.461	103.88
410.685	67.88
410.908	93.88
411.132	114.88
411.355	106.88
411.578	97.88
411.802	101.88
412.025	97.88
412.249	105.88
412.472	102.88
412.695	131.88
412.919	93.88
413.142	96.88
413.365	72.88
413.589	80.88
413.812	71.88
414.035	92.88
414.258	94.88
414.482	92.88
414.705	82.88
414.928	95.88
415.151	95.88
415.374	97.88
415.597	88.88
415.821	93.88
416.044	94.88
416.267	92.88
416.49	80.88
416.713	73.88
416.936	87.88
417.159	91.88
417.382	95.88
417.605	116.88
417.828	96.88
418.051	81.88
418.274	94.88
418.497	76.88
418.72	97.88
418.943	87.88
419.166	96.88
419.389	100.88
419.611	110.88
419.834	78.88
420.057	106.88
420.28	102.88
420.503	99.88
420.726	81.88
420.948	96.88
421.171	103.88
421.394	95.88
421.617	92.88
421.839	91.88
422.062	93.88
422.285	92.88
422.507	99.88
422.73	106.88
422.953	89.88
423.175	100.88
423.398	86.88
423.621	101.88
423.843	98.88
424.066	92.88
424.288	94.88
424.511	91.88
424.733	91.88
424.956	109.88
425.178	113.88
425.401	103.88
425.623	97.88
425.846	89.88
426.068	99.88
426.291	100.88
426.513	91.88
426.735	92.88
426.958	119.88
427.18	110.88
427.402	159.88
427.625	201.88
427.847	165.88
428.069	168.88
428.292	108.88
428.514	87.88
428.736	99.88
428.958	90.88
429.181	78.88
429.403	83.88
429.625	97.88
429.847	90.88
430.069	106.88
430.292	94.88
430.514	96.88
430.736	87.88
430.958	94.88
431.18	81.88
431.402	78.88
431.624	88.88
431.846	85.88
432.068	84.88
432.29	90.88
432.512	100.88
432.734	69.88
432.956	86.88
433.178	101.88
433.4	98.88
433.622	92.88
433.844	82.88
434.066	81.88
434.287	91.88
434.509	85.88
434.731	92.88
434.953	93.88
435.175	91.88
435.397	95.88
435.618	88.88
435.84	115.88
436.062	131.88
436.284	120.88
436.505	113.88
436.727	91.88
436.949	75.88
437.17	93.88
437.392	102.88
437.614	86.88
437.835	115.88
438.057	123.88
438.278	113.88
438.5	104.88
438.721	134.88
438.943	95.88
439.165	92.88
439.386	92.88
439.608	91.88
439.829	107.88
440.05	127.88
440.272	158.88
440.493	110.88
440.715	100.88
440.936	81.88
441.158	89.88
441.379	86.88
441.6	83.88
441.822	90.88
442.043	102.88
442.264	102.88
442.486	94.88
442.707	102.88
442.928	111.88
443.149	138.88
443.371	149.88
443.592	111.88
443.813	108.88
444.034	109.88
444.255	108.88
444.476	86.88
444.698	88.88
444.919	87.88
445.14	141.88
445.361	140.88
445.582	126.88
445.803	147.88
446.024	161.88
446.245	169.88
446.466	111.88
446.687	94.88
446.908	104.88
447.129	85.88
447.35	78.88
447.571	97.88
447.792	84.88
448.013	98.88
448.234	107.88
448.455	108.88
448.675	132.88
448.896	132.88
449.117	102.88
449.338	100.88
449.559	144.88
449.779	146.88
450	97.88
450.221	85.88
450.442	84.88
450.662	83.88
450.883	89.88
451.104	105.88
451.324	101.88
451.545	108.88
451.766	73.88
451.986	84.88
452.207	102.88
452.428	109.88
452.648	94.88
452.869	102.88
453.089	115.88
453.31	132.88
453.53	100.88
453.751	88.88
453.971	105.88
454.192	110.88
454.412	90.88
454.633	89.88
454.853	84.88
455.073	89.88
455.294	94.88
455.514	106.88
455.734	95.88
455.955	93.88
456.175	99.88
456.395	82.88
456.616	84.88
456.836	85.88
457.056	91.88
457.276	91.88
457.497	77.88
457.717	91.88
457.937	87.88
458.157	82.88
458.377	93.88
458.598	117.88
458.818	166.88
459.038	172.88
459.258	118.88
459.478	85.88
459.698	83.88
459.918	90.88
460.138	87.88
460.358	93.88
460.578	88.88
460.798	95.88
461.018	98.88
461.238	101.88
461.458	86.88
461.678	90.88
461.898	88.88
462.118	91.88
462.338	87.88
462.558	75.88
462.777	83.88
462.997	83.88
463.217	102.88
463.437	96.88
463.657	85.88
463.876	89.88
464.096	92.88
464.316	90.88
464.536	105.88
464.755	99.88
464.975	107.88
465.195	177.88
465.414	176.88
465.634	97.88
465.854	87.88
466.073	92.88
466.293	92.88
466.512	103.88
466.732	86.88
466.951	89.88
467.171	97.88
467.391	106.88
467.61	131.88
467.829	124.88
468.049	296.88
468.268	406.88
468.488	143.88
468.707	83.88
468.927	97.88
469.146	90.88
469.365	77.88
469.585	90.88
469.804	89.88
470.023	98.88
470.243	101.88
470.462	99.88
470.681	122.88
470.901	99.88
471.12	100.88
471.339	87.88
471.558	110.88
471.777	129.88
471.997	197.88
472.216	566.88
472.435	1183.88
472.654	311.88
472.873	129.88
473.092	85.88
473.311	97.88
473.53	92.88
473.749	79.88
473.968	90.88
474.187	113.88
474.406	97.88
474.625	91.88
474.844	88.88
475.063	101.88
475.282	99.88
475.501	81.88
475.72	91.88
475.939	81.88
476.158	101.88
476.377	94.88
476.596	86.88
476.814	102.88
477.033	94.88
477.252	92.88
477.471	97.88
477.69	84.88
477.908	81.88
478.127	90.88
478.346	90.88
478.564	83.88
478.783	96.88
479.002	93.88
479.22	103.88
479.439	101.88
479.658	127.88
479.876	103.88
480.095	103.88
480.313	112.88
480.532	113.88
480.751	186.88
480.969	522.88
481.188	2018.88
481.406	1203.88
481.624	230.88
481.843	107.88
482.061	90.88
482.28	87.88
482.498	96.88
482.717	93.88
482.935	93.88
483.153	103.88
483.372	93.88
483.59	101.88
483.808	87.88
484.027	95.88
484.245	108.88
484.463	91.88
484.681	89.88
484.9	92.88
485.118	100.88
485.336	86.88
485.554	100.88
485.772	90.88
485.99	115.88
486.209	89.88
486.427	99.88
486.645	131.88
486.863	121.88
487.081	94.88
487.299	91.88
487.517	93.88
487.735	91.88
487.953	102.88
488.171	97.88
488.389	90.88
488.607	102.88
488.825	102.88
489.043	104.88
489.261	102.88
489.479	90.88
489.696	100.88
489.914	102.88
490.132	95.88
490.35	93.88
490.568	101.88
490.786	83.88
491.003	105.88
491.221	101.88
491.439	94.88
491.657	89.88
491.874	103.88
492.092	96.88
492.31	91.88
492.527	94.88
492.745	94.88
492.963	85.88
493.18	84.88
493.398	77.88
493.615	83.88
493.833	85.88
494.05	94.88
494.268	90.88
494.485	82.88
494.703	83.88
494.92	87.88
495.138	93.88
495.355	92.88
495.573	99.88
495.79	84.88
496.008	95.88
496.225	98.88
496.442	86.88
496.66	78.88
496.877	84.88
497.094	104.88
497.312	93.88
497.529	99.88
497.746	87.88
497.963	99.88
498.181	87.88
498.398	92.88
498.615	101.88
498.832	99.88
499.049	109.88
499.267	91.88
499.484	93.88
499.701	102.88
499.918	78.88
500.135	88.88
500.352	89.88
500.569	98.88
500.786	97.88
501.003	103.88
501.22	102.88
501.437	110.88
501.654	98.88
501.871	111.88
502.088	84.88
502.305	88.88
502.522	91.88
502.739	103.88
502.956	102.88
503.172	93.88
503.389	94.88
503.606	105.88
503.823	98.88
504.04	103.88
504.256	93.88
504.473	87.88
504.69	90.88
504.907	113.88
505.123	90.88
505.34	85.88
505.557	85.88
505.773	83.88
505.99	93.88
506.207	83.88
506.423	87.88
506.64	86.88
506.856	84.88
507.073	106.88
507.289	100.88
507.506	95.88
507.722	107.88
507.939	106.88
508.155	100.88
508.372	96.88
508.588	102.88
508.805	106.88
509.021	94.88
509.238	88.88
509.454	91.88
509.67	94.88
509.887	110.88
510.103	134.88
510.319	217.88
510.536	747.88
510.752	2589.88
510.968	682.88
511.184	149.88
511.401	102.88
511.617	101.88
511.833	102.88
512.049	98.88
512.265	92.88
512.481	93.88
512.698	99.88
512.914	88.88
513.13	101.88
513.346	107.88
513.562	99.88
513.778	93.88
513.994	93.88
514.21	110.88
