Data from Circ_2000_H10_HRD10591_00087.txt Node
Date: Wed Jan 03 10:49:51 EST 2024
User: Yrep
Spectrometer: HR+D1059
Trigger mode: 1
Integration Time (sec): 1.000000E-1
Scans to average: 1
Electric dark correction enabled: true
Nonlinearity correction enabled: false
Boxcar width: 0
XAxis mode: Wavelengths
Number of Pixels in Spectrum: 2048
>>>>>Begin Spectral Data<<<<<
223.165	-13.12
223.4	-13.12
223.635	-13.12
223.869	-10.12
224.104	-18.12
224.338	-4.12
224.573	-5.12
224.808	-12.12
225.042	-17.12
225.277	-12.12
225.511	-14.12
225.746	5.88
225.98	8.88
226.215	9.88
226.449	21.88
226.683	6.88
226.918	24.88
227.152	27.88
227.387	25.88
227.621	27.88
227.856	39.88
228.09	51.88
228.324	39.88
228.559	50.88
228.793	54.88
229.027	61.88
229.262	68.88
229.496	82.88
229.73	92.88
229.964	98.88
230.199	81.88
230.433	74.88
230.667	79.88
230.901	87.88
231.136	83.88
231.37	69.88
231.604	75.88
231.838	96.88
232.072	85.88
232.306	88.88
232.541	79.88
232.775	77.88
233.009	81.88
233.243	75.88
233.477	69.88
233.711	88.88
233.945	85.88
234.179	85.88
234.413	87.88
234.647	68.88
234.881	76.88
235.115	67.88
235.349	73.88
235.583	86.88
235.817	80.88
236.051	84.88
236.285	67.88
236.519	85.88
236.753	67.88
236.987	74.88
237.221	82.88
237.455	104.88
237.689	85.88
237.922	72.88
238.156	67.88
238.39	63.88
238.624	73.88
238.858	74.88
239.091	64.88
239.325	83.88
239.559	88.88
239.793	78.88
240.027	76.88
240.26	82.88
240.494	68.88
240.728	81.88
240.961	79.88
241.195	70.88
241.429	80.88
241.662	86.88
241.896	74.88
242.13	83.88
242.363	81.88
242.597	74.88
242.83	80.88
243.064	72.88
243.298	77.88
243.531	74.88
243.765	90.88
243.998	84.88
244.232	87.88
244.465	78.88
244.699	72.88
244.932	85.88
245.166	77.88
245.399	81.88
245.633	74.88
245.866	87.88
246.099	72.88
246.333	83.88
246.566	90.88
246.8	76.88
247.033	76.88
247.266	71.88
247.5	77.88
247.733	76.88
247.966	81.88
248.2	88.88
248.433	79.88
248.666	90.88
248.899	97.88
249.133	87.88
249.366	106.88
249.599	104.88
249.832	84.88
250.066	86.88
250.299	70.88
250.532	85.88
250.765	72.88
250.998	65.88
251.231	67.88
251.465	81.88
251.698	76.88
251.931	84.88
252.164	76.88
252.397	67.88
252.63	80.88
252.863	84.88
253.096	77.88
253.329	71.88
253.562	70.88
253.795	85.88
254.028	75.88
254.261	84.88
254.494	78.88
254.727	91.88
254.96	79.88
255.193	67.88
255.426	74.88
255.659	88.88
255.892	96.88
256.124	98.88
256.357	83.88
256.59	94.88
256.823	64.88
257.056	100.88
257.289	76.88
257.521	94.88
257.754	87.88
257.987	97.88
258.22	85.88
258.452	82.88
258.685	88.88
258.918	81.88
259.151	82.88
259.383	76.88
259.616	81.88
259.849	99.88
260.081	96.88
260.314	84.88
260.547	92.88
260.779	97.88
261.012	108.88
261.244	106.88
261.477	97.88
261.71	110.88
261.942	130.88
262.175	149.88
262.407	106.88
262.64	97.88
262.872	86.88
263.105	85.88
263.337	93.88
263.57	77.88
263.802	97.88
264.035	84.88
264.267	79.88
264.499	84.88
264.732	76.88
264.964	94.88
265.197	84.88
265.429	88.88
265.661	78.88
265.894	92.88
266.126	82.88
266.358	90.88
266.591	92.88
266.823	72.88
267.055	71.88
267.287	73.88
267.52	88.88
267.752	93.88
267.984	91.88
268.216	88.88
268.448	81.88
268.681	76.88
268.913	85.88
269.145	86.88
269.377	77.88
269.609	81.88
269.841	88.88
270.073	82.88
270.306	85.88
270.538	80.88
270.77	88.88
271.002	84.88
271.234	97.88
271.466	85.88
271.698	91.88
271.93	73.88
272.162	80.88
272.394	93.88
272.626	83.88
272.858	87.88
273.09	73.88
273.322	80.88
273.553	73.88
273.785	93.88
274.017	73.88
274.249	100.88
274.481	79.88
274.713	79.88
274.945	92.88
275.176	109.88
275.408	99.88
275.64	105.88
275.872	105.88
276.104	109.88
276.335	96.88
276.567	113.88
276.799	126.88
277.031	154.88
277.262	166.88
277.494	126.88
277.726	110.88
277.957	91.88
278.189	92.88
278.421	86.88
278.652	80.88
278.884	99.88
279.115	105.88
279.347	90.88
279.579	101.88
279.81	114.88
280.042	184.88
280.273	219.88
280.505	171.88
280.736	97.88
280.968	85.88
281.199	74.88
281.431	92.88
281.662	91.88
281.894	106.88
282.125	113.88
282.356	145.88
282.588	170.88
282.819	132.88
283.051	78.88
283.282	75.88
283.513	86.88
283.745	87.88
283.976	91.88
284.207	92.88
284.439	83.88
284.67	74.88
284.901	85.88
285.132	77.88
285.364	85.88
285.595	88.88
285.826	83.88
286.057	84.88
286.288	100.88
286.52	109.88
286.751	81.88
286.982	85.88
287.213	82.88
287.444	89.88
287.675	87.88
287.906	86.88
288.138	93.88
288.369	96.88
288.6	88.88
288.831	88.88
289.062	92.88
289.293	76.88
289.524	84.88
289.755	81.88
289.986	88.88
290.217	77.88
290.448	70.88
290.679	70.88
290.91	90.88
291.141	89.88
291.371	99.88
291.602	76.88
291.833	68.88
292.064	85.88
292.295	96.88
292.526	87.88
292.757	100.88
292.987	87.88
293.218	84.88
293.449	88.88
293.68	102.88
293.91	81.88
294.141	91.88
294.372	82.88
294.603	98.88
294.833	88.88
295.064	89.88
295.295	92.88
295.525	91.88
295.756	100.88
295.987	120.88
296.217	176.88
296.448	144.88
296.679	100.88
296.909	79.88
297.14	89.88
297.37	93.88
297.601	84.88
297.831	79.88
298.062	85.88
298.292	94.88
298.523	91.88
298.753	92.88
298.984	83.88
299.214	85.88
299.445	90.88
299.675	91.88
299.905	87.88
300.136	99.88
300.366	106.88
300.597	107.88
300.827	97.88
301.057	109.88
301.288	121.88
301.518	96.88
301.748	95.88
301.979	110.88
302.209	97.88
302.439	96.88
302.669	96.88
302.9	88.88
303.13	99.88
303.36	118.88
303.59	116.88
303.82	137.88
304.051	105.88
304.281	93.88
304.511	92.88
304.741	94.88
304.971	97.88
305.201	100.88
305.431	91.88
305.661	91.88
305.891	93.88
306.121	108.88
306.352	110.88
306.582	109.88
306.812	109.88
307.042	119.88
307.272	134.88
307.502	145.88
307.731	123.88
307.961	109.88
308.191	100.88
308.421	80.88
308.651	92.88
308.881	99.88
309.111	76.88
309.341	92.88
309.571	97.88
309.8	100.88
310.03	104.88
310.26	108.88
310.49	116.88
310.72	99.88
310.949	127.88
311.179	109.88
311.409	100.88
311.639	110.88
311.868	116.88
312.098	96.88
312.328	104.88
312.557	100.88
312.787	115.88
313.017	121.88
313.246	105.88
313.476	93.88
313.706	92.88
313.935	103.88
314.165	102.88
314.394	124.88
314.624	111.88
314.853	100.88
315.083	92.88
315.312	95.88
315.542	88.88
315.771	101.88
316.001	112.88
316.23	81.88
316.46	84.88
316.689	81.88
316.919	67.88
317.148	97.88
317.377	100.88
317.607	93.88
317.836	91.88
318.065	96.88
318.295	93.88
318.524	90.88
318.753	87.88
318.983	105.88
319.212	117.88
319.441	115.88
319.67	103.88
319.9	108.88
320.129	86.88
320.358	97.88
320.587	105.88
320.816	94.88
321.046	114.88
321.275	100.88
321.504	96.88
321.733	122.88
321.962	105.88
322.191	111.88
322.42	111.88
322.649	117.88
322.878	118.88
323.108	135.88
323.337	150.88
323.566	169.88
323.795	194.88
324.024	273.88
324.253	546.88
324.482	1210.88
324.71	2441.88
324.939	3317.88
325.168	1161.88
325.397	327.88
325.626	184.88
325.855	149.88
326.084	138.88
326.313	160.88
326.542	180.88
326.77	297.88
326.999	604.88
327.228	1325.88
327.457	2449.88
327.686	1956.88
327.914	605.88
328.143	505.88
328.372	611.88
328.6	342.88
328.829	177.88
329.058	184.88
329.287	205.88
329.515	181.88
329.744	251.88
329.972	418.88
330.201	819.88
330.43	1229.88
330.658	585.88
330.887	282.88
331.115	197.88
331.344	122.88
331.572	132.88
331.801	147.88
332.03	140.88
332.258	111.88
332.486	92.88
332.715	102.88
332.943	118.88
333.172	103.88
333.4	121.88
333.629	168.88
333.857	231.88
334.085	381.88
334.314	817.88
334.542	1558.88
334.771	1517.88
334.999	385.88
335.227	169.88
335.455	120.88
335.684	104.88
335.912	102.88
336.14	117.88
336.369	99.88
336.597	114.88
336.825	117.88
337.053	101.88
337.281	90.88
337.51	103.88
337.738	82.88
337.966	95.88
338.194	115.88
338.422	88.88
338.65	87.88
338.878	91.88
339.106	81.88
339.334	103.88
339.562	107.88
339.79	113.88
340.018	79.88
340.246	92.88
340.474	108.88
340.702	105.88
340.93	99.88
341.158	92.88
341.386	103.88
341.614	109.88
341.842	90.88
342.07	104.88
342.298	106.88
342.526	92.88
342.754	91.88
342.981	92.88
343.209	87.88
343.437	84.88
343.665	86.88
343.893	91.88
344.12	89.88
344.348	99.88
344.576	81.88
344.804	99.88
345.031	102.88
345.259	106.88
345.487	103.88
345.714	107.88
345.942	101.88
346.17	91.88
346.397	100.88
346.625	111.88
346.853	99.88
347.08	86.88
347.308	121.88
347.535	109.88
347.763	115.88
347.99	103.88
348.218	111.88
348.445	131.88
348.673	105.88
348.9	90.88
349.128	97.88
349.355	84.88
349.583	94.88
349.81	97.88
350.037	100.88
350.265	82.88
350.492	93.88
350.72	99.88
350.947	110.88
351.174	127.88
351.402	132.88
351.629	98.88
351.856	108.88
352.083	129.88
352.311	128.88
352.538	112.88
352.765	103.88
352.992	111.88
353.22	103.88
353.447	108.88
353.674	95.88
353.901	87.88
354.128	91.88
354.355	92.88
354.583	96.88
354.81	90.88
355.037	91.88
355.264	97.88
355.491	99.88
355.718	87.88
355.945	90.88
356.172	96.88
356.399	106.88
356.626	99.88
356.853	81.88
357.08	85.88
357.307	99.88
357.534	82.88
357.761	85.88
357.988	87.88
358.215	93.88
358.441	84.88
358.668	80.88
358.895	101.88
359.122	93.88
359.349	96.88
359.576	94.88
359.802	116.88
360.029	149.88
360.256	138.88
360.483	111.88
360.709	87.88
360.936	94.88
361.163	93.88
361.39	97.88
361.616	100.88
361.843	88.88
362.07	100.88
362.296	108.88
362.523	111.88
362.749	99.88
362.976	97.88
363.203	89.88
363.429	96.88
363.656	94.88
363.882	84.88
364.109	94.88
364.335	93.88
364.562	93.88
364.788	89.88
365.015	107.88
365.241	113.88
365.468	104.88
365.694	127.88
365.92	101.88
366.147	94.88
366.373	85.88
366.599	88.88
366.826	84.88
367.052	95.88
367.278	82.88
367.505	96.88
367.731	101.88
367.957	105.88
368.184	109.88
368.41	104.88
368.636	142.88
368.862	124.88
369.089	109.88
369.315	101.88
369.541	94.88
369.767	91.88
369.993	87.88
370.219	95.88
370.445	98.88
370.672	83.88
370.898	96.88
371.124	84.88
371.35	89.88
371.576	92.88
371.802	98.88
372.028	95.88
372.254	91.88
372.48	70.88
372.706	80.88
372.932	84.88
373.158	88.88
373.384	67.88
373.61	94.88
373.835	87.88
374.061	89.88
374.287	88.88
374.513	90.88
374.739	85.88
374.965	84.88
375.191	96.88
375.416	95.88
375.642	87.88
375.868	101.88
376.094	101.88
376.319	107.88
376.545	100.88
376.771	83.88
376.997	86.88
377.222	95.88
377.448	107.88
377.674	109.88
377.899	93.88
378.125	99.88
378.35	91.88
378.576	77.88
378.802	93.88
379.027	99.88
379.253	102.88
379.478	92.88
379.704	85.88
379.929	84.88
380.155	99.88
380.38	91.88
380.606	93.88
380.831	98.88
381.057	98.88
381.282	106.88
381.507	111.88
381.733	87.88
381.958	96.88
382.184	100.88
382.409	111.88
382.634	105.88
382.86	101.88
383.085	99.88
383.31	107.88
383.535	90.88
383.761	101.88
383.986	92.88
384.211	79.88
384.436	93.88
384.662	100.88
384.887	88.88
385.112	96.88
385.337	101.88
385.562	98.88
385.787	111.88
386.013	105.88
386.238	110.88
386.463	115.88
386.688	99.88
386.913	95.88
387.138	103.88
387.363	87.88
387.588	93.88
387.813	94.88
388.038	103.88
388.263	117.88
388.488	105.88
388.713	101.88
388.938	94.88
389.163	91.88
389.387	85.88
389.612	88.88
389.837	96.88
390.062	99.88
390.287	90.88
390.512	93.88
390.736	84.88
390.961	97.88
391.186	101.88
391.411	108.88
391.636	81.88
391.86	91.88
392.085	100.88
392.31	87.88
392.534	77.88
392.759	91.88
392.984	84.88
393.208	88.88
393.433	98.88
393.658	88.88
393.882	75.88
394.107	81.88
394.331	94.88
394.556	84.88
394.78	91.88
395.005	98.88
395.229	76.88
395.454	85.88
395.678	87.88
395.903	87.88
396.127	97.88
396.352	84.88
396.576	90.88
396.801	91.88
397.025	93.88
397.249	81.88
397.474	88.88
397.698	90.88
397.922	83.88
398.147	82.88
398.371	86.88
398.595	85.88
398.82	91.88
399.044	91.88
399.268	101.88
399.492	82.88
399.717	90.88
399.941	83.88
400.165	101.88
400.389	94.88
400.613	100.88
400.837	91.88
401.062	96.88
401.286	98.88
401.51	98.88
401.734	97.88
401.958	113.88
402.182	148.88
402.406	185.88
402.63	157.88
402.854	105.88
403.078	100.88
403.302	75.88
403.526	87.88
403.75	104.88
403.974	74.88
404.198	83.88
404.422	91.88
404.645	99.88
404.869	111.88
405.093	120.88
405.317	145.88
405.541	130.88
405.765	128.88
405.988	147.88
406.212	223.88
406.436	307.88
406.66	211.88
406.883	119.88
407.107	110.88
407.331	105.88
407.555	125.88
407.778	112.88
408.002	95.88
408.226	89.88
408.449	90.88
408.673	88.88
408.896	84.88
409.12	118.88
409.344	78.88
409.567	71.88
409.791	98.88
410.014	90.88
410.238	101.88
410.461	100.88
410.685	90.88
410.908	96.88
411.132	103.88
411.355	104.88
411.578	86.88
411.802	86.88
412.025	81.88
412.249	111.88
412.472	115.88
412.695	140.88
412.919	110.88
413.142	88.88
413.365	93.88
413.589	85.88
413.812	90.88
414.035	101.88
414.258	86.88
414.482	90.88
414.705	109.88
414.928	97.88
415.151	99.88
415.374	98.88
415.597	95.88
415.821	85.88
416.044	80.88
416.267	85.88
416.49	93.88
416.713	88.88
416.936	87.88
417.159	83.88
417.382	75.88
417.605	94.88
417.828	117.88
418.051	102.88
418.274	83.88
418.497	88.88
418.72	94.88
418.943	72.88
419.166	86.88
419.389	92.88
419.611	100.88
419.834	92.88
420.057	96.88
420.28	91.88
420.503	101.88
420.726	102.88
420.948	99.88
421.171	96.88
421.394	98.88
421.617	108.88
421.839	88.88
422.062	93.88
422.285	97.88
422.507	95.88
422.73	114.88
422.953	111.88
423.175	91.88
423.398	84.88
423.621	97.88
423.843	102.88
424.066	90.88
424.288	88.88
424.511	99.88
424.733	121.88
424.956	132.88
425.178	97.88
425.401	111.88
425.623	109.88
425.846	106.88
426.068	109.88
426.291	107.88
426.513	108.88
426.735	102.88
426.958	103.88
427.18	123.88
427.402	185.88
427.625	258.88
427.847	249.88
428.069	204.88
428.292	138.88
428.514	84.88
428.736	93.88
428.958	93.88
429.181	98.88
429.403	97.88
429.625	90.88
429.847	93.88
430.069	103.88
430.292	112.88
430.514	93.88
430.736	81.88
430.958	92.88
431.18	84.88
431.402	86.88
431.624	83.88
431.846	93.88
432.068	82.88
432.29	94.88
432.512	90.88
432.734	81.88
432.956	94.88
433.178	97.88
433.4	97.88
433.622	100.88
433.844	80.88
434.066	90.88
434.287	112.88
434.509	108.88
434.731	109.88
434.953	90.88
435.175	76.88
435.397	92.88
435.618	97.88
435.84	117.88
436.062	152.88
436.284	130.88
436.505	115.88
436.727	102.88
436.949	102.88
437.17	99.88
437.392	97.88
437.614	99.88
437.835	113.88
438.057	145.88
438.278	129.88
438.5	140.88
438.721	160.88
438.943	127.88
439.165	84.88
439.386	86.88
439.608	100.88
439.829	120.88
440.05	148.88
440.272	191.88
440.493	117.88
440.715	104.88
440.936	93.88
441.158	83.88
441.379	97.88
441.6	104.88
441.822	104.88
442.043	94.88
442.264	134.88
442.486	122.88
442.707	108.88
442.928	121.88
443.149	180.88
443.371	165.88
443.592	143.88
443.813	130.88
444.034	121.88
444.255	89.88
444.476	86.88
444.698	70.88
444.919	96.88
445.14	128.88
445.361	131.88
445.582	155.88
445.803	209.88
446.024	197.88
446.245	181.88
446.466	127.88
446.687	100.88
446.908	100.88
447.129	92.88
447.35	103.88
447.571	93.88
447.792	102.88
448.013	111.88
448.234	120.88
448.455	130.88
448.675	135.88
448.896	147.88
449.117	121.88
449.338	117.88
449.559	141.88
449.779	166.88
450	109.88
450.221	80.88
450.442	96.88
450.662	94.88
450.883	123.88
451.104	120.88
451.324	109.88
451.545	95.88
451.766	92.88
451.986	96.88
452.207	77.88
452.428	97.88
452.648	105.88
452.869	129.88
453.089	135.88
453.31	157.88
453.53	119.88
453.751	100.88
453.971	135.88
454.192	139.88
454.412	103.88
454.633	84.88
454.853	99.88
455.073	88.88
455.294	94.88
455.514	122.88
455.734	95.88
455.955	83.88
456.175	64.88
456.395	84.88
456.616	103.88
456.836	81.88
457.056	88.88
457.276	85.88
457.497	89.88
457.717	89.88
457.937	86.88
458.157	89.88
458.377	95.88
458.598	141.88
458.818	212.88
459.038	235.88
459.258	151.88
459.478	97.88
459.698	88.88
459.918	79.88
460.138	89.88
460.358	71.88
460.578	91.88
460.798	120.88
461.018	91.88
461.238	88.88
461.458	90.88
461.678	92.88
461.898	81.88
462.118	86.88
462.338	84.88
462.558	77.88
462.777	95.88
462.997	79.88
463.217	104.88
463.437	95.88
463.657	87.88
463.876	84.88
464.096	94.88
464.316	104.88
464.536	107.88
464.755	96.88
464.975	120.88
465.195	232.88
465.414	228.88
465.634	112.88
465.854	93.88
466.073	85.88
466.293	85.88
466.512	101.88
466.732	88.88
466.951	87.88
467.171	99.88
467.391	117.88
467.61	123.88
467.829	189.88
468.049	473.88
468.268	678.88
468.488	188.88
468.707	105.88
468.927	87.88
469.146	83.88
469.365	97.88
469.585	77.88
469.804	99.88
470.023	112.88
470.243	97.88
470.462	112.88
470.681	151.88
470.901	107.88
471.12	94.88
471.339	106.88
471.558	115.88
471.777	143.88
471.997	273.88
472.216	922.88
472.435	2031.88
472.654	507.88
472.873	134.88
473.092	111.88
473.311	96.88
473.53	114.88
473.749	75.88
473.968	112.88
474.187	127.88
474.406	101.88
474.625	94.88
474.844	89.88
475.063	83.88
475.282	91.88
475.501	91.88
475.72	89.88
475.939	96.88
476.158	98.88
476.377	91.88
476.596	93.88
476.814	86.88
477.033	98.88
477.252	93.88
477.471	97.88
477.69	102.88
477.908	86.88
478.127	90.88
478.346	109.88
478.564	99.88
478.783	107.88
479.002	112.88
479.22	99.88
479.439	130.88
479.658	148.88
479.876	119.88
480.095	107.88
480.313	113.88
480.532	151.88
480.751	249.88
480.969	851.88
481.188	3535.88
481.406	2035.88
481.624	322.88
481.843	127.88
482.061	103.88
482.28	98.88
482.498	96.88
482.717	97.88
482.935	104.88
483.153	105.88
483.372	84.88
483.59	90.88
483.808	102.88
484.027	92.88
484.245	91.88
484.463	91.88
484.681	103.88
484.9	83.88
485.118	88.88
485.336	105.88
485.554	114.88
485.772	89.88
485.99	95.88
486.209	103.88
486.427	97.88
486.645	131.88
486.863	124.88
487.081	99.88
487.299	93.88
487.517	103.88
487.735	84.88
487.953	98.88
488.171	99.88
488.389	95.88
488.607	100.88
488.825	90.88
489.043	99.88
489.261	100.88
489.479	87.88
489.696	93.88
489.914	92.88
490.132	92.88
490.35	91.88
490.568	90.88
490.786	89.88
491.003	91.88
491.221	86.88
491.439	94.88
491.657	95.88
491.874	95.88
492.092	99.88
492.31	92.88
492.527	105.88
492.745	106.88
492.963	98.88
493.18	109.88
493.398	89.88
493.615	85.88
493.833	90.88
494.05	96.88
494.268	92.88
494.485	99.88
494.703	90.88
494.92	89.88
495.138	94.88
495.355	87.88
495.573	92.88
495.79	81.88
496.008	91.88
496.225	80.88
496.442	98.88
496.66	100.88
496.877	79.88
497.094	95.88
497.312	103.88
497.529	83.88
497.746	91.88
497.963	90.88
498.181	98.88
498.398	100.88
498.615	112.88
498.832	117.88
499.049	105.88
499.267	98.88
499.484	96.88
499.701	91.88
499.918	85.88
500.135	99.88
500.352	84.88
500.569	87.88
500.786	98.88
501.003	83.88
501.22	76.88
501.437	88.88
501.654	112.88
501.871	116.88
502.088	102.88
502.305	90.88
502.522	87.88
502.739	75.88
502.956	89.88
503.172	101.88
503.389	109.88
503.606	124.88
503.823	94.88
504.04	92.88
504.256	86.88
504.473	86.88
504.69	83.88
504.907	87.88
505.123	90.88
505.34	88.88
505.557	73.88
505.773	105.88
505.99	95.88
506.207	91.88
506.423	88.88
506.64	80.88
506.856	84.88
507.073	88.88
507.289	107.88
507.506	92.88
507.722	137.88
507.939	124.88
508.155	95.88
508.372	90.88
508.588	98.88
508.805	88.88
509.021	81.88
509.238	85.88
509.454	87.88
509.67	110.88
509.887	123.88
510.103	148.88
510.319	251.88
510.536	890.88
510.752	3238.88
510.968	847.88
511.184	183.88
511.401	125.88
511.617	102.88
511.833	113.88
512.049	99.88
512.265	99.88
512.481	97.88
512.698	108.88
512.914	84.88
513.13	107.88
