Data from Circ_2000_H10_HRD10591_00062.txt Node
Date: Wed Jan 03 10:49:46 EST 2024
User: Yrep
Spectrometer: HR+D1059
Trigger mode: 1
Integration Time (sec): 1.000000E-1
Scans to average: 1
Electric dark correction enabled: true
Nonlinearity correction enabled: false
Boxcar width: 0
XAxis mode: Wavelengths
Number of Pixels in Spectrum: 2048
>>>>>Begin Spectral Data<<<<<
223.165	-25.75
223.4	-25.75
223.635	-25.75
223.869	-13.75
224.104	-21.75
224.338	-26.75
224.573	-11.75
224.808	-15.75
225.042	-17.75
225.277	-3.75
225.511	-0.75
225.746	13.25
225.98	12.25
226.215	11.25
226.449	22.25
226.683	14.25
226.918	28.25
227.152	36.25
227.387	38.25
227.621	53.25
227.856	42.25
228.09	34.25
228.324	57.25
228.559	52.25
228.793	52.25
229.027	68.25
229.262	66.25
229.496	80.25
229.73	88.25
229.964	71.25
230.199	69.25
230.433	60.25
230.667	80.25
230.901	76.25
231.136	73.25
231.37	71.25
231.604	83.25
231.838	70.25
232.072	77.25
232.306	89.25
232.541	80.25
232.775	66.25
233.009	81.25
233.243	81.25
233.477	78.25
233.711	81.25
233.945	70.25
234.179	75.25
234.413	76.25
234.647	80.25
234.881	82.25
235.115	72.25
235.349	69.25
235.583	78.25
235.817	78.25
236.051	88.25
236.285	77.25
236.519	79.25
236.753	88.25
236.987	87.25
237.221	89.25
237.455	85.25
237.689	77.25
237.922	78.25
238.156	68.25
238.39	80.25
238.624	82.25
238.858	76.25
239.091	72.25
239.325	66.25
239.559	80.25
239.793	87.25
240.027	93.25
240.26	89.25
240.494	86.25
240.728	80.25
240.961	92.25
241.195	68.25
241.429	84.25
241.662	80.25
241.896	73.25
242.13	78.25
242.363	75.25
242.597	82.25
242.83	81.25
243.064	79.25
243.298	77.25
243.531	74.25
243.765	76.25
243.998	75.25
244.232	79.25
244.465	95.25
244.699	86.25
244.932	89.25
245.166	80.25
245.399	74.25
245.633	94.25
245.866	82.25
246.099	85.25
246.333	88.25
246.566	83.25
246.8	93.25
247.033	81.25
247.266	72.25
247.5	78.25
247.733	82.25
247.966	96.25
248.2	70.25
248.433	88.25
248.666	76.25
248.899	90.25
249.133	84.25
249.366	110.25
249.599	101.25
249.832	88.25
250.066	99.25
250.299	76.25
250.532	87.25
250.765	78.25
250.998	76.25
251.231	72.25
251.465	83.25
251.698	72.25
251.931	91.25
252.164	83.25
252.397	67.25
252.63	83.25
252.863	67.25
253.096	72.25
253.329	78.25
253.562	77.25
253.795	82.25
254.028	78.25
254.261	90.25
254.494	86.25
254.727	77.25
254.96	72.25
255.193	98.25
255.426	80.25
255.659	85.25
255.892	82.25
256.124	94.25
256.357	74.25
256.59	81.25
256.823	92.25
257.056	90.25
257.289	90.25
257.521	93.25
257.754	84.25
257.987	75.25
258.22	85.25
258.452	96.25
258.685	85.25
258.918	78.25
259.151	81.25
259.383	81.25
259.616	76.25
259.849	103.25
260.081	93.25
260.314	77.25
260.547	78.25
260.779	80.25
261.012	84.25
261.244	90.25
261.477	105.25
261.71	90.25
261.942	123.25
262.175	134.25
262.407	103.25
262.64	80.25
262.872	86.25
263.105	74.25
263.337	95.25
263.57	89.25
263.802	92.25
264.035	78.25
264.267	70.25
264.499	82.25
264.732	83.25
264.964	77.25
265.197	94.25
265.429	77.25
265.661	92.25
265.894	98.25
266.126	80.25
266.358	78.25
266.591	85.25
266.823	83.25
267.055	88.25
267.287	75.25
267.52	89.25
267.752	89.25
267.984	82.25
268.216	69.25
268.448	73.25
268.681	96.25
268.913	84.25
269.145	94.25
269.377	93.25
269.609	89.25
269.841	88.25
270.073	100.25
270.306	81.25
270.538	96.25
270.77	84.25
271.002	83.25
271.234	83.25
271.466	94.25
271.698	100.25
271.93	90.25
272.162	100.25
272.394	68.25
272.626	87.25
272.858	64.25
273.09	88.25
273.322	101.25
273.553	87.25
273.785	94.25
274.017	68.25
274.249	86.25
274.481	85.25
274.713	83.25
274.945	90.25
275.176	85.25
275.408	91.25
275.64	103.25
275.872	106.25
276.104	94.25
276.335	98.25
276.567	111.25
276.799	149.25
277.031	154.25
277.262	157.25
277.494	115.25
277.726	86.25
277.957	86.25
278.189	91.25
278.421	92.25
278.652	88.25
278.884	81.25
279.115	86.25
279.347	92.25
279.579	100.25
279.81	120.25
280.042	162.25
280.273	197.25
280.505	147.25
280.736	112.25
280.968	96.25
281.199	108.25
281.431	91.25
281.662	101.25
281.894	93.25
282.125	97.25
282.356	134.25
282.588	163.25
282.819	137.25
283.051	99.25
283.282	80.25
283.513	105.25
283.745	104.25
283.976	87.25
284.207	97.25
284.439	85.25
284.67	80.25
284.901	87.25
285.132	83.25
285.364	94.25
285.595	95.25
285.826	96.25
286.057	92.25
286.288	99.25
286.52	87.25
286.751	84.25
286.982	79.25
287.213	90.25
287.444	81.25
287.675	88.25
287.906	94.25
288.138	93.25
288.369	77.25
288.6	91.25
288.831	76.25
289.062	87.25
289.293	93.25
289.524	97.25
289.755	93.25
289.986	94.25
290.217	92.25
290.448	93.25
290.679	85.25
290.91	85.25
291.141	94.25
291.371	88.25
291.602	81.25
291.833	83.25
292.064	92.25
292.295	96.25
292.526	94.25
292.757	90.25
292.987	81.25
293.218	100.25
293.449	97.25
293.68	79.25
293.91	93.25
294.141	84.25
294.372	101.25
294.603	81.25
294.833	80.25
295.064	102.25
295.295	88.25
295.525	89.25
295.756	93.25
295.987	120.25
296.217	173.25
296.448	148.25
296.679	108.25
296.909	83.25
297.14	83.25
297.37	104.25
297.601	102.25
297.831	101.25
298.062	100.25
298.292	99.25
298.523	94.25
298.753	81.25
298.984	101.25
299.214	93.25
299.445	87.25
299.675	101.25
299.905	103.25
300.136	98.25
300.366	102.25
300.597	84.25
300.827	86.25
301.057	104.25
301.288	121.25
301.518	103.25
301.748	95.25
301.979	115.25
302.209	101.25
302.439	90.25
302.669	97.25
302.9	94.25
303.13	103.25
303.36	112.25
303.59	124.25
303.82	140.25
304.051	100.25
304.281	83.25
304.511	103.25
304.741	100.25
304.971	92.25
305.201	90.25
305.431	98.25
305.661	85.25
305.891	104.25
306.121	114.25
306.352	117.25
306.582	129.25
306.812	102.25
307.042	112.25
307.272	161.25
307.502	158.25
307.731	138.25
307.961	107.25
308.191	100.25
308.421	79.25
308.651	100.25
308.881	91.25
309.111	100.25
309.341	106.25
309.571	110.25
309.8	98.25
310.03	99.25
310.26	109.25
310.49	102.25
310.72	100.25
310.949	107.25
311.179	121.25
311.409	102.25
311.639	97.25
311.868	109.25
312.098	104.25
312.328	103.25
312.557	95.25
312.787	97.25
313.017	124.25
313.246	96.25
313.476	79.25
313.706	97.25
313.935	87.25
314.165	104.25
314.394	120.25
314.624	96.25
314.853	103.25
315.083	79.25
315.312	88.25
315.542	82.25
315.771	94.25
316.001	105.25
316.23	90.25
316.46	90.25
316.689	97.25
316.919	85.25
317.148	109.25
317.377	91.25
317.607	99.25
317.836	99.25
318.065	95.25
318.295	80.25
318.524	92.25
318.753	104.25
318.983	84.25
319.212	103.25
319.441	120.25
319.67	124.25
319.9	96.25
320.129	104.25
320.358	107.25
320.587	94.25
320.816	117.25
321.046	114.25
321.275	91.25
321.504	107.25
321.733	99.25
321.962	98.25
322.191	116.25
322.42	112.25
322.649	112.25
322.878	110.25
323.108	137.25
323.337	158.25
323.566	151.25
323.795	208.25
324.024	258.25
324.253	537.25
324.482	1184.25
324.71	2441.25
324.939	3260.25
325.168	1170.25
325.397	321.25
325.626	189.25
325.855	168.25
326.084	156.25
326.313	153.25
326.542	200.25
326.77	278.25
326.999	613.25
327.228	1279.25
327.457	2374.25
327.686	1870.25
327.914	560.25
328.143	456.25
328.372	504.25
328.6	315.25
328.829	169.25
329.058	192.25
329.287	194.25
329.515	176.25
329.744	235.25
329.972	343.25
330.201	695.25
330.43	1053.25
330.658	493.25
330.887	278.25
331.115	190.25
331.344	135.25
331.572	122.25
331.801	132.25
332.03	137.25
332.258	112.25
332.486	103.25
332.715	110.25
332.943	108.25
333.172	114.25
333.4	114.25
333.629	164.25
333.857	218.25
334.085	340.25
334.314	646.25
334.542	1269.25
334.771	1244.25
334.999	345.25
335.227	165.25
335.455	122.25
335.684	125.25
335.912	98.25
336.14	115.25
336.369	120.25
336.597	118.25
336.825	106.25
337.053	89.25
337.281	91.25
337.51	101.25
337.738	95.25
337.966	88.25
338.194	101.25
338.422	106.25
338.65	105.25
338.878	93.25
339.106	86.25
339.334	104.25
339.562	72.25
339.79	98.25
340.018	98.25
340.246	104.25
340.474	105.25
340.702	104.25
340.93	96.25
341.158	92.25
341.386	100.25
341.614	102.25
341.842	92.25
342.07	109.25
342.298	101.25
342.526	81.25
342.754	88.25
342.981	75.25
343.209	92.25
343.437	102.25
343.665	83.25
343.893	94.25
344.12	86.25
344.348	86.25
344.576	82.25
344.804	94.25
345.031	108.25
345.259	121.25
345.487	106.25
345.714	101.25
345.942	97.25
346.17	90.25
346.397	80.25
346.625	90.25
346.853	86.25
347.08	94.25
347.308	104.25
347.535	107.25
347.763	118.25
347.99	118.25
348.218	121.25
348.445	126.25
348.673	116.25
348.9	96.25
349.128	89.25
349.355	92.25
349.583	89.25
349.81	95.25
350.037	97.25
350.265	94.25
350.492	96.25
350.72	91.25
350.947	112.25
351.174	141.25
351.402	130.25
351.629	117.25
351.856	124.25
352.083	109.25
352.311	117.25
352.538	125.25
352.765	114.25
352.992	123.25
353.22	122.25
353.447	115.25
353.674	123.25
353.901	107.25
354.128	101.25
354.355	99.25
354.583	97.25
354.81	100.25
355.037	98.25
355.264	88.25
355.491	93.25
355.718	91.25
355.945	89.25
356.172	98.25
356.399	97.25
356.626	92.25
356.853	107.25
357.08	89.25
357.307	98.25
357.534	91.25
357.761	91.25
357.988	97.25
358.215	98.25
358.441	90.25
358.668	103.25
358.895	86.25
359.122	97.25
359.349	95.25
359.576	83.25
359.802	110.25
360.029	146.25
360.256	154.25
360.483	112.25
360.709	90.25
360.936	105.25
361.163	105.25
361.39	101.25
361.616	100.25
361.843	94.25
362.07	115.25
362.296	104.25
362.523	116.25
362.749	102.25
362.976	114.25
363.203	106.25
363.429	104.25
363.656	100.25
363.882	93.25
364.109	101.25
364.335	85.25
364.562	90.25
364.788	103.25
365.015	96.25
365.241	115.25
365.468	131.25
365.694	123.25
365.92	106.25
366.147	100.25
366.373	90.25
366.599	100.25
366.826	90.25
367.052	86.25
367.278	79.25
367.505	103.25
367.731	107.25
367.957	113.25
368.184	91.25
368.41	104.25
368.636	118.25
368.862	142.25
369.089	116.25
369.315	96.25
369.541	92.25
369.767	104.25
369.993	77.25
370.219	100.25
370.445	104.25
370.672	89.25
370.898	95.25
371.124	86.25
371.35	94.25
371.576	91.25
371.802	79.25
372.028	81.25
372.254	104.25
372.48	92.25
372.706	77.25
372.932	88.25
373.158	103.25
373.384	91.25
373.61	112.25
373.835	87.25
374.061	92.25
374.287	106.25
374.513	82.25
374.739	83.25
374.965	91.25
375.191	89.25
375.416	82.25
375.642	102.25
375.868	100.25
376.094	93.25
376.319	89.25
376.545	109.25
376.771	84.25
376.997	89.25
377.222	83.25
377.448	88.25
377.674	87.25
377.899	96.25
378.125	75.25
378.35	95.25
378.576	84.25
378.802	81.25
379.027	78.25
379.253	91.25
379.478	77.25
379.704	94.25
379.929	85.25
380.155	99.25
380.38	92.25
380.606	105.25
380.831	94.25
381.057	102.25
381.282	99.25
381.507	93.25
381.733	101.25
381.958	69.25
382.184	91.25
382.409	94.25
382.634	99.25
382.86	101.25
383.085	97.25
383.31	83.25
383.535	99.25
383.761	86.25
383.986	113.25
384.211	91.25
384.436	104.25
384.662	85.25
384.887	91.25
385.112	114.25
385.337	110.25
385.562	92.25
385.787	105.25
386.013	120.25
386.238	132.25
386.463	107.25
386.688	129.25
386.913	101.25
387.138	106.25
387.363	115.25
387.588	87.25
387.813	98.25
388.038	101.25
388.263	97.25
388.488	113.25
388.713	101.25
388.938	94.25
389.163	91.25
389.387	97.25
389.612	88.25
389.837	92.25
390.062	97.25
390.287	100.25
390.512	98.25
390.736	82.25
390.961	100.25
391.186	103.25
391.411	84.25
391.636	88.25
391.86	76.25
392.085	87.25
392.31	85.25
392.534	97.25
392.759	92.25
392.984	94.25
393.208	100.25
393.433	96.25
393.658	97.25
393.882	84.25
394.107	84.25
394.331	92.25
394.556	83.25
394.78	94.25
395.005	100.25
395.229	94.25
395.454	86.25
395.678	90.25
395.903	96.25
396.127	107.25
396.352	89.25
396.576	97.25
396.801	85.25
397.025	73.25
397.249	84.25
397.474	93.25
397.698	83.25
397.922	92.25
398.147	84.25
398.371	91.25
398.595	77.25
398.82	83.25
399.044	84.25
399.268	84.25
399.492	82.25
399.717	85.25
399.941	73.25
400.165	89.25
400.389	99.25
400.613	88.25
400.837	98.25
401.062	105.25
401.286	76.25
401.51	97.25
401.734	90.25
401.958	113.25
402.182	156.25
402.406	219.25
402.63	174.25
402.854	113.25
403.078	101.25
403.302	96.25
403.526	85.25
403.75	86.25
403.974	98.25
404.198	103.25
404.422	87.25
404.645	90.25
404.869	98.25
405.093	118.25
405.317	113.25
405.541	147.25
405.765	115.25
405.988	136.25
406.212	234.25
406.436	339.25
406.66	214.25
406.883	125.25
407.107	94.25
407.331	97.25
407.555	111.25
407.778	109.25
408.002	95.25
408.226	93.25
408.449	89.25
408.673	93.25
408.896	96.25
409.12	88.25
409.344	96.25
409.567	90.25
409.791	85.25
410.014	89.25
410.238	105.25
410.461	93.25
410.685	96.25
410.908	101.25
411.132	106.25
411.355	100.25
411.578	94.25
411.802	83.25
412.025	89.25
412.249	98.25
412.472	119.25
412.695	129.25
412.919	104.25
413.142	111.25
413.365	82.25
413.589	89.25
413.812	89.25
414.035	96.25
414.258	93.25
414.482	96.25
414.705	91.25
414.928	87.25
415.151	84.25
415.374	92.25
415.597	94.25
415.821	87.25
416.044	97.25
416.267	93.25
416.49	88.25
416.713	98.25
416.936	78.25
417.159	98.25
417.382	84.25
417.605	100.25
417.828	101.25
418.051	93.25
418.274	92.25
418.497	83.25
418.72	81.25
418.943	88.25
419.166	92.25
419.389	81.25
419.611	98.25
419.834	85.25
420.057	84.25
420.28	110.25
420.503	101.25
420.726	79.25
420.948	95.25
421.171	98.25
421.394	95.25
421.617	98.25
421.839	91.25
422.062	76.25
422.285	91.25
422.507	92.25
422.73	109.25
422.953	88.25
423.175	86.25
423.398	101.25
423.621	91.25
423.843	90.25
424.066	89.25
424.288	92.25
424.511	78.25
424.733	96.25
424.956	117.25
425.178	100.25
425.401	112.25
425.623	116.25
425.846	96.25
426.068	91.25
426.291	90.25
426.513	95.25
426.735	102.25
426.958	89.25
427.18	125.25
427.402	181.25
427.625	272.25
427.847	251.25
428.069	206.25
428.292	116.25
428.514	92.25
428.736	66.25
428.958	86.25
429.181	92.25
429.403	83.25
429.625	85.25
429.847	94.25
430.069	118.25
430.292	87.25
430.514	90.25
430.736	80.25
430.958	82.25
431.18	83.25
431.402	89.25
431.624	78.25
431.846	83.25
432.068	88.25
432.29	83.25
432.512	91.25
432.734	83.25
432.956	98.25
433.178	116.25
433.4	114.25
433.622	91.25
433.844	99.25
434.066	83.25
434.287	104.25
434.509	106.25
434.731	78.25
434.953	86.25
435.175	75.25
435.397	110.25
435.618	99.25
435.84	107.25
436.062	137.25
436.284	130.25
436.505	107.25
436.727	110.25
436.949	101.25
437.17	101.25
437.392	100.25
437.614	106.25
437.835	130.25
438.057	157.25
438.278	140.25
438.5	110.25
438.721	124.25
438.943	115.25
439.165	91.25
439.386	85.25
439.608	90.25
439.829	118.25
440.05	148.25
440.272	192.25
440.493	111.25
440.715	85.25
440.936	92.25
441.158	93.25
441.379	84.25
441.6	93.25
441.822	95.25
442.043	101.25
442.264	104.25
442.486	106.25
442.707	105.25
442.928	120.25
443.149	184.25
443.371	173.25
443.592	122.25
443.813	134.25
444.034	113.25
444.255	87.25
444.476	80.25
444.698	91.25
444.919	83.25
445.14	131.25
445.361	140.25
445.582	144.25
445.803	180.25
446.024	176.25
446.245	150.25
446.466	122.25
446.687	105.25
446.908	84.25
447.129	93.25
447.35	101.25
447.571	95.25
447.792	93.25
448.013	127.25
448.234	126.25
448.455	115.25
448.675	131.25
448.896	124.25
449.117	102.25
449.338	112.25
449.559	147.25
449.779	159.25
450	106.25
450.221	100.25
450.442	88.25
450.662	107.25
450.883	131.25
451.104	139.25
451.324	105.25
451.545	107.25
451.766	96.25
451.986	104.25
452.207	103.25
452.428	106.25
452.648	109.25
452.869	125.25
453.089	122.25
453.31	153.25
453.53	105.25
453.751	102.25
453.971	113.25
454.192	129.25
454.412	111.25
454.633	84.25
454.853	86.25
455.073	92.25
455.294	100.25
455.514	104.25
455.734	78.25
455.955	89.25
456.175	82.25
456.395	80.25
456.616	80.25
456.836	89.25
457.056	84.25
457.276	78.25
457.497	69.25
457.717	88.25
457.937	76.25
458.157	71.25
458.377	99.25
458.598	140.25
458.818	201.25
459.038	235.25
459.258	154.25
459.478	94.25
459.698	86.25
459.918	103.25
460.138	79.25
460.358	83.25
460.578	90.25
460.798	95.25
461.018	101.25
461.238	85.25
461.458	86.25
461.678	78.25
461.898	83.25
462.118	85.25
462.338	90.25
462.558	95.25
462.777	86.25
462.997	91.25
463.217	110.25
463.437	100.25
463.657	83.25
463.876	93.25
464.096	105.25
464.316	98.25
464.536	104.25
464.755	88.25
464.975	111.25
465.195	252.25
465.414	257.25
465.634	118.25
465.854	108.25
466.073	68.25
466.293	76.25
466.512	86.25
466.732	99.25
466.951	96.25
467.171	98.25
467.391	105.25
467.61	156.25
467.829	173.25
468.049	420.25
468.268	604.25
468.488	180.25
468.707	105.25
468.927	90.25
469.146	76.25
469.365	93.25
469.585	87.25
469.804	100.25
470.023	132.25
470.243	93.25
470.462	111.25
470.681	134.25
470.901	110.25
471.12	90.25
471.339	93.25
471.558	108.25
471.777	120.25
471.997	234.25
472.216	788.25
472.435	1785.25
472.654	452.25
472.873	146.25
473.092	85.25
473.311	96.25
473.53	78.25
473.749	85.25
473.968	107.25
474.187	121.25
474.406	111.25
474.625	89.25
474.844	90.25
475.063	97.25
475.282	96.25
475.501	94.25
475.72	86.25
475.939	92.25
476.158	80.25
476.377	93.25
476.596	82.25
476.814	89.25
477.033	93.25
477.252	90.25
477.471	97.25
477.69	103.25
477.908	111.25
478.127	92.25
478.346	101.25
478.564	98.25
478.783	111.25
479.002	108.25
479.22	94.25
479.439	116.25
479.658	122.25
479.876	107.25
480.095	113.25
480.313	117.25
480.532	137.25
480.751	235.25
480.969	690.25
481.188	2969.25
481.406	1811.25
481.624	274.25
481.843	126.25
482.061	101.25
482.28	92.25
482.498	96.25
482.717	88.25
482.935	93.25
483.153	90.25
483.372	89.25
483.59	99.25
483.808	81.25
484.027	89.25
484.245	94.25
484.463	96.25
484.681	102.25
484.9	106.25
485.118	94.25
485.336	96.25
485.554	97.25
485.772	103.25
485.99	100.25
486.209	110.25
486.427	104.25
486.645	122.25
486.863	120.25
487.081	118.25
487.299	99.25
487.517	110.25
487.735	89.25
487.953	101.25
488.171	100.25
488.389	88.25
488.607	113.25
488.825	95.25
489.043	84.25
489.261	86.25
489.479	80.25
489.696	90.25
489.914	93.25
490.132	97.25
490.35	93.25
490.568	99.25
490.786	90.25
491.003	102.25
491.221	99.25
491.439	106.25
491.657	96.25
491.874	88.25
492.092	94.25
492.31	96.25
492.527	104.25
492.745	94.25
492.963	82.25
493.18	92.25
493.398	90.25
493.615	79.25
493.833	86.25
494.05	90.25
494.268	100.25
494.485	91.25
494.703	99.25
494.92	91.25
495.138	88.25
495.355	86.25
495.573	85.25
495.79	85.25
496.008	97.25
496.225	103.25
496.442	101.25
496.66	97.25
496.877	93.25
497.094	80.25
497.312	67.25
497.529	97.25
497.746	88.25
497.963	106.25
498.181	90.25
498.398	97.25
498.615	105.25
498.832	105.25
499.049	101.25
499.267	99.25
499.484	84.25
499.701	94.25
499.918	89.25
500.135	82.25
500.352	116.25
500.569	98.25
500.786	88.25
501.003	98.25
501.22	89.25
501.437	89.25
501.654	101.25
501.871	116.25
502.088	107.25
502.305	98.25
502.522	102.25
502.739	78.25
502.956	95.25
503.172	104.25
503.389	116.25
503.606	122.25
503.823	97.25
504.04	90.25
504.256	80.25
504.473	87.25
504.69	96.25
504.907	101.25
505.123	84.25
505.34	84.25
505.557	76.25
505.773	92.25
505.99	99.25
506.207	88.25
506.423	82.25
506.64	87.25
506.856	96.25
507.073	90.25
507.289	99.25
507.506	91.25
507.722	129.25
507.939	134.25
508.155	108.25
508.372	105.25
508.588	75.25
508.805	100.25
509.021	100.25
509.238	100.25
509.454	103.25
509.67	129.25
509.887	109.25
510.103	145.25
510.319	278.25
510.536	1018.25
510.752	3580.25
510.968	960.25
511.184	192.25
511.401	144.25
511.617	94.25
511.833	93.25
512.049	104.25
512.265	98.25
512.481	81.25
512.698	91.25
512.914	93.25
