Data from Circ_2000_H10_HRD10591_00038.txt Node
Date: Wed Jan 03 10:49:41 EST 2024
User: Yrep
Spectrometer: HR+D1059
Trigger mode: 1
Integration Time (sec): 1.000000E-1
Scans to average: 1
Electric dark correction enabled: true
Nonlinearity correction enabled: false
Boxcar width: 0
XAxis mode: Wavelengths
Number of Pixels in Spectrum: 2048
>>>>>Begin Spectral Data<<<<<
223.165	-17.62
223.4	-17.62
223.635	-17.62
223.869	-25.62
224.104	-16.62
224.338	-0.62
224.573	-13.62
224.808	-11.62
225.042	-16.62
225.277	-12.62
225.511	5.38
225.746	6.38
225.98	-2.62
226.215	8.38
226.449	10.38
226.683	25.38
226.918	35.38
227.152	26.38
227.387	37.38
227.621	40.38
227.856	35.38
228.09	43.38
228.324	43.38
228.559	55.38
228.793	56.38
229.027	61.38
229.262	73.38
229.496	85.38
229.73	90.38
229.964	93.38
230.199	81.38
230.433	82.38
230.667	86.38
230.901	71.38
231.136	82.38
231.37	84.38
231.604	83.38
231.838	74.38
232.072	82.38
232.306	82.38
232.541	83.38
232.775	72.38
233.009	77.38
233.243	85.38
233.477	67.38
233.711	83.38
233.945	82.38
234.179	80.38
234.413	67.38
234.647	83.38
234.881	75.38
235.115	90.38
235.349	87.38
235.583	64.38
235.817	75.38
236.051	91.38
236.285	85.38
236.519	75.38
236.753	87.38
236.987	81.38
237.221	106.38
237.455	79.38
237.689	94.38
237.922	72.38
238.156	74.38
238.39	78.38
238.624	90.38
238.858	78.38
239.091	80.38
239.325	82.38
239.559	77.38
239.793	79.38
240.027	86.38
240.26	80.38
240.494	89.38
240.728	74.38
240.961	83.38
241.195	72.38
241.429	65.38
241.662	88.38
241.896	75.38
242.13	67.38
242.363	82.38
242.597	86.38
242.83	73.38
243.064	66.38
243.298	75.38
243.531	89.38
243.765	85.38
243.998	85.38
244.232	91.38
244.465	75.38
244.699	95.38
244.932	59.38
245.166	86.38
245.399	96.38
245.633	78.38
245.866	74.38
246.099	82.38
246.333	88.38
246.566	64.38
246.8	93.38
247.033	86.38
247.266	84.38
247.5	85.38
247.733	93.38
247.966	88.38
248.2	80.38
248.433	81.38
248.666	76.38
248.899	81.38
249.133	81.38
249.366	101.38
249.599	105.38
249.832	83.38
250.066	71.38
250.299	84.38
250.532	86.38
250.765	64.38
250.998	77.38
251.231	84.38
251.465	78.38
251.698	89.38
251.931	92.38
252.164	66.38
252.397	89.38
252.63	71.38
252.863	89.38
253.096	89.38
253.329	84.38
253.562	79.38
253.795	93.38
254.028	89.38
254.261	84.38
254.494	71.38
254.727	87.38
254.96	84.38
255.193	86.38
255.426	78.38
255.659	74.38
255.892	83.38
256.124	89.38
256.357	94.38
256.59	95.38
256.823	88.38
257.056	86.38
257.289	92.38
257.521	77.38
257.754	78.38
257.987	73.38
258.22	72.38
258.452	83.38
258.685	92.38
258.918	77.38
259.151	77.38
259.383	88.38
259.616	84.38
259.849	73.38
260.081	84.38
260.314	86.38
260.547	83.38
260.779	85.38
261.012	97.38
261.244	92.38
261.477	89.38
261.71	103.38
261.942	135.38
262.175	141.38
262.407	95.38
262.64	80.38
262.872	101.38
263.105	107.38
263.337	87.38
263.57	86.38
263.802	96.38
264.035	73.38
264.267	72.38
264.499	76.38
264.732	83.38
264.964	75.38
265.197	86.38
265.429	93.38
265.661	80.38
265.894	67.38
266.126	81.38
266.358	85.38
266.591	77.38
266.823	88.38
267.055	71.38
267.287	93.38
267.52	80.38
267.752	81.38
267.984	94.38
268.216	76.38
268.448	90.38
268.681	86.38
268.913	80.38
269.145	81.38
269.377	86.38
269.609	83.38
269.841	83.38
270.073	94.38
270.306	76.38
270.538	85.38
270.77	81.38
271.002	85.38
271.234	99.38
271.466	85.38
271.698	107.38
271.93	84.38
272.162	96.38
272.394	83.38
272.626	91.38
272.858	90.38
273.09	78.38
273.322	84.38
273.553	87.38
273.785	81.38
274.017	87.38
274.249	86.38
274.481	87.38
274.713	95.38
274.945	82.38
275.176	86.38
275.408	96.38
275.64	97.38
275.872	110.38
276.104	90.38
276.335	110.38
276.567	105.38
276.799	137.38
277.031	155.38
277.262	137.38
277.494	119.38
277.726	88.38
277.957	97.38
278.189	100.38
278.421	99.38
278.652	96.38
278.884	80.38
279.115	76.38
279.347	92.38
279.579	99.38
279.81	113.38
280.042	147.38
280.273	169.38
280.505	135.38
280.736	93.38
280.968	86.38
281.199	93.38
281.431	92.38
281.662	86.38
281.894	87.38
282.125	105.38
282.356	131.38
282.588	171.38
282.819	132.38
283.051	96.38
283.282	88.38
283.513	88.38
283.745	84.38
283.976	77.38
284.207	94.38
284.439	95.38
284.67	88.38
284.901	88.38
285.132	80.38
285.364	86.38
285.595	93.38
285.826	81.38
286.057	71.38
286.288	84.38
286.52	77.38
286.751	88.38
286.982	84.38
287.213	87.38
287.444	77.38
287.675	75.38
287.906	82.38
288.138	90.38
288.369	100.38
288.6	102.38
288.831	97.38
289.062	105.38
289.293	98.38
289.524	93.38
289.755	100.38
289.986	77.38
290.217	92.38
290.448	95.38
290.679	91.38
290.91	91.38
291.141	83.38
291.371	84.38
291.602	94.38
291.833	86.38
292.064	88.38
292.295	82.38
292.526	84.38
292.757	97.38
292.987	93.38
293.218	82.38
293.449	96.38
293.68	97.38
293.91	93.38
294.141	89.38
294.372	105.38
294.603	78.38
294.833	92.38
295.064	97.38
295.295	84.38
295.525	94.38
295.756	106.38
295.987	128.38
296.217	164.38
296.448	152.38
296.679	96.38
296.909	89.38
297.14	98.38
297.37	89.38
297.601	89.38
297.831	82.38
298.062	89.38
298.292	97.38
298.523	80.38
298.753	97.38
298.984	86.38
299.214	77.38
299.445	94.38
299.675	86.38
299.905	104.38
300.136	80.38
300.366	91.38
300.597	101.38
300.827	104.38
301.057	123.38
301.288	112.38
301.518	104.38
301.748	90.38
301.979	100.38
302.209	96.38
302.439	92.38
302.669	84.38
302.9	86.38
303.13	98.38
303.36	113.38
303.59	130.38
303.82	132.38
304.051	109.38
304.281	93.38
304.511	84.38
304.741	99.38
304.971	89.38
305.201	120.38
305.431	100.38
305.661	92.38
305.891	79.38
306.121	102.38
306.352	117.38
306.582	110.38
306.812	112.38
307.042	114.38
307.272	134.38
307.502	122.38
307.731	118.38
307.961	110.38
308.191	107.38
308.421	100.38
308.651	93.38
308.881	103.38
309.111	98.38
309.341	97.38
309.571	105.38
309.8	91.38
310.03	101.38
310.26	110.38
310.49	90.38
310.72	102.38
310.949	129.38
311.179	109.38
311.409	85.38
311.639	106.38
311.868	87.38
312.098	70.38
312.328	105.38
312.557	110.38
312.787	138.38
313.017	111.38
313.246	94.38
313.476	92.38
313.706	93.38
313.935	97.38
314.165	94.38
314.394	121.38
314.624	108.38
314.853	105.38
315.083	110.38
315.312	87.38
315.542	95.38
315.771	96.38
316.001	97.38
316.23	88.38
316.46	86.38
316.689	84.38
316.919	98.38
317.148	113.38
317.377	99.38
317.607	106.38
317.836	102.38
318.065	101.38
318.295	102.38
318.524	100.38
318.753	94.38
318.983	104.38
319.212	111.38
319.441	121.38
319.67	117.38
319.9	92.38
320.129	89.38
320.358	103.38
320.587	103.38
320.816	100.38
321.046	102.38
321.275	99.38
321.504	88.38
321.733	120.38
321.962	107.38
322.191	98.38
322.42	121.38
322.649	100.38
322.878	110.38
323.108	134.38
323.337	144.38
323.566	161.38
323.795	184.38
324.024	253.38
324.253	519.38
324.482	1075.38
324.71	2247.38
324.939	2976.38
325.168	1028.38
325.397	294.38
325.626	183.38
325.855	163.38
326.084	153.38
326.313	154.38
326.542	184.38
326.77	266.38
326.999	569.38
327.228	1168.38
327.457	2101.38
327.686	1723.38
327.914	523.38
328.143	415.38
328.372	444.38
328.6	260.38
328.829	168.38
329.058	173.38
329.287	175.38
329.515	146.38
329.744	181.38
329.972	302.38
330.201	583.38
330.43	860.38
330.658	420.38
330.887	241.38
331.115	184.38
331.344	124.38
331.572	119.38
331.801	134.38
332.03	114.38
332.258	99.38
332.486	98.38
332.715	102.38
332.943	108.38
333.172	129.38
333.4	121.38
333.629	128.38
333.857	182.38
334.085	284.38
334.314	566.38
334.542	1021.38
334.771	976.38
334.999	301.38
335.227	151.38
335.455	134.38
335.684	97.38
335.912	105.38
336.14	93.38
336.369	112.38
336.597	108.38
336.825	112.38
337.053	96.38
337.281	104.38
337.51	90.38
337.738	115.38
337.966	89.38
338.194	105.38
338.422	100.38
338.65	100.38
338.878	94.38
339.106	92.38
339.334	78.38
339.562	89.38
339.79	97.38
340.018	101.38
340.246	93.38
340.474	95.38
340.702	111.38
340.93	87.38
341.158	95.38
341.386	92.38
341.614	104.38
341.842	109.38
342.07	96.38
342.298	99.38
342.526	98.38
342.754	100.38
342.981	95.38
343.209	89.38
343.437	108.38
343.665	88.38
343.893	110.38
344.12	107.38
344.348	96.38
344.576	84.38
344.804	100.38
345.031	109.38
345.259	118.38
345.487	108.38
345.714	95.38
345.942	98.38
346.17	109.38
346.397	81.38
346.625	85.38
346.853	107.38
347.08	95.38
347.308	100.38
347.535	109.38
347.763	113.38
347.99	104.38
348.218	97.38
348.445	109.38
348.673	107.38
348.9	92.38
349.128	101.38
349.355	98.38
349.583	112.38
349.81	78.38
350.037	101.38
350.265	100.38
350.492	85.38
350.72	91.38
350.947	100.38
351.174	116.38
351.402	106.38
351.629	103.38
351.856	80.38
352.083	113.38
352.311	101.38
352.538	121.38
352.765	115.38
352.992	121.38
353.22	120.38
353.447	104.38
353.674	112.38
353.901	94.38
354.128	95.38
354.355	100.38
354.583	100.38
354.81	93.38
355.037	105.38
355.264	85.38
355.491	82.38
355.718	78.38
355.945	93.38
356.172	93.38
356.399	96.38
356.626	88.38
356.853	90.38
357.08	86.38
357.307	97.38
357.534	82.38
357.761	92.38
357.988	104.38
358.215	93.38
358.441	102.38
358.668	88.38
358.895	90.38
359.122	107.38
359.349	90.38
359.576	86.38
359.802	110.38
360.029	133.38
360.256	132.38
360.483	127.38
360.709	92.38
360.936	93.38
361.163	113.38
361.39	89.38
361.616	106.38
361.843	89.38
362.07	91.38
362.296	116.38
362.523	90.38
362.749	118.38
362.976	91.38
363.203	93.38
363.429	87.38
363.656	95.38
363.882	88.38
364.109	85.38
364.335	80.38
364.562	83.38
364.788	93.38
365.015	93.38
365.241	94.38
365.468	112.38
365.694	121.38
365.92	107.38
366.147	97.38
366.373	90.38
366.599	90.38
366.826	96.38
367.052	70.38
367.278	90.38
367.505	100.38
367.731	86.38
367.957	84.38
368.184	122.38
368.41	115.38
368.636	138.38
368.862	121.38
369.089	122.38
369.315	100.38
369.541	92.38
369.767	81.38
369.993	90.38
370.219	101.38
370.445	89.38
370.672	91.38
370.898	84.38
371.124	81.38
371.35	89.38
371.576	93.38
371.802	81.38
372.028	84.38
372.254	75.38
372.48	100.38
372.706	81.38
372.932	86.38
373.158	94.38
373.384	86.38
373.61	94.38
373.835	89.38
374.061	99.38
374.287	88.38
374.513	85.38
374.739	84.38
374.965	94.38
375.191	92.38
375.416	77.38
375.642	81.38
375.868	80.38
376.094	96.38
376.319	82.38
376.545	85.38
376.771	81.38
376.997	93.38
377.222	99.38
377.448	98.38
377.674	82.38
377.899	86.38
378.125	84.38
378.35	102.38
378.576	98.38
378.802	84.38
379.027	92.38
379.253	85.38
379.478	85.38
379.704	82.38
379.929	92.38
380.155	102.38
380.38	104.38
380.606	93.38
380.831	98.38
381.057	104.38
381.282	98.38
381.507	101.38
381.733	107.38
381.958	96.38
382.184	91.38
382.409	109.38
382.634	95.38
382.86	105.38
383.085	100.38
383.31	111.38
383.535	97.38
383.761	100.38
383.986	102.38
384.211	99.38
384.436	95.38
384.662	97.38
384.887	108.38
385.112	102.38
385.337	106.38
385.562	108.38
385.787	95.38
386.013	116.38
386.238	121.38
386.463	111.38
386.688	124.38
386.913	110.38
387.138	115.38
387.363	107.38
387.588	103.38
387.813	102.38
388.038	98.38
388.263	121.38
388.488	105.38
388.713	91.38
388.938	92.38
389.163	88.38
389.387	96.38
389.612	70.38
389.837	86.38
390.062	93.38
390.287	87.38
390.512	92.38
390.736	85.38
390.961	86.38
391.186	86.38
391.411	92.38
391.636	79.38
391.86	73.38
392.085	93.38
392.31	87.38
392.534	85.38
392.759	87.38
392.984	82.38
393.208	90.38
393.433	93.38
393.658	86.38
393.882	100.38
394.107	101.38
394.331	85.38
394.556	89.38
394.78	89.38
395.005	75.38
395.229	83.38
395.454	74.38
395.678	88.38
395.903	90.38
396.127	86.38
396.352	96.38
396.576	95.38
396.801	82.38
397.025	86.38
397.249	92.38
397.474	93.38
397.698	86.38
397.922	81.38
398.147	81.38
398.371	86.38
398.595	80.38
398.82	83.38
399.044	86.38
399.268	77.38
399.492	66.38
399.717	87.38
399.941	92.38
400.165	95.38
400.389	98.38
400.613	94.38
400.837	84.38
401.062	85.38
401.286	91.38
401.51	111.38
401.734	95.38
401.958	118.38
402.182	151.38
402.406	203.38
402.63	137.38
402.854	96.38
403.078	98.38
403.302	89.38
403.526	95.38
403.75	88.38
403.974	87.38
404.198	82.38
404.422	97.38
404.645	93.38
404.869	85.38
405.093	107.38
405.317	119.38
405.541	128.38
405.765	114.38
405.988	141.38
406.212	199.38
406.436	312.38
406.66	202.38
406.883	121.38
407.107	102.38
407.331	120.38
407.555	122.38
407.778	107.38
408.002	101.38
408.226	95.38
408.449	87.38
408.673	89.38
408.896	94.38
409.12	90.38
409.344	98.38
409.567	89.38
409.791	77.38
410.014	84.38
410.238	98.38
410.461	92.38
410.685	96.38
410.908	96.38
411.132	93.38
411.355	91.38
411.578	89.38
411.802	98.38
412.025	80.38
412.249	94.38
412.472	103.38
412.695	113.38
412.919	104.38
413.142	84.38
413.365	95.38
413.589	89.38
413.812	92.38
414.035	85.38
414.258	90.38
414.482	92.38
414.705	82.38
414.928	86.38
415.151	86.38
415.374	87.38
415.597	85.38
415.821	95.38
416.044	90.38
416.267	85.38
416.49	70.38
416.713	88.38
416.936	93.38
417.159	88.38
417.382	90.38
417.605	99.38
417.828	116.38
418.051	98.38
418.274	96.38
418.497	81.38
418.72	100.38
418.943	86.38
419.166	81.38
419.389	78.38
419.611	89.38
419.834	74.38
420.057	87.38
420.28	81.38
420.503	104.38
420.726	77.38
420.948	91.38
421.171	102.38
421.394	103.38
421.617	92.38
421.839	83.38
422.062	84.38
422.285	96.38
422.507	100.38
422.73	105.38
422.953	97.38
423.175	101.38
423.398	107.38
423.621	88.38
423.843	95.38
424.066	69.38
424.288	96.38
424.511	91.38
424.733	105.38
424.956	105.38
425.178	110.38
425.401	113.38
425.623	115.38
425.846	91.38
426.068	88.38
426.291	88.38
426.513	85.38
426.735	89.38
426.958	100.38
427.18	130.38
427.402	170.38
427.625	242.38
427.847	206.38
428.069	172.38
428.292	100.38
428.514	106.38
428.736	82.38
428.958	100.38
429.181	102.38
429.403	84.38
429.625	90.38
429.847	116.38
430.069	100.38
430.292	104.38
430.514	78.38
430.736	96.38
430.958	89.38
431.18	90.38
431.402	84.38
431.624	90.38
431.846	91.38
432.068	98.38
432.29	81.38
432.512	95.38
432.734	91.38
432.956	98.38
433.178	114.38
433.4	97.38
433.622	84.38
433.844	101.38
434.066	90.38
434.287	92.38
434.509	87.38
434.731	92.38
434.953	78.38
435.175	94.38
435.397	90.38
435.618	92.38
435.84	99.38
436.062	140.38
436.284	140.38
436.505	119.38
436.727	98.38
436.949	100.38
437.17	92.38
437.392	85.38
437.614	97.38
437.835	116.38
438.057	126.38
438.278	126.38
438.5	118.38
438.721	151.38
438.943	122.38
439.165	106.38
439.386	87.38
439.608	93.38
439.829	119.38
440.05	143.38
440.272	174.38
440.493	102.38
440.715	113.38
440.936	92.38
441.158	100.38
441.379	99.38
441.6	102.38
441.822	94.38
442.043	88.38
442.264	113.38
442.486	124.38
442.707	105.38
442.928	117.38
443.149	168.38
443.371	168.38
443.592	122.38
443.813	129.38
444.034	107.38
444.255	85.38
444.476	94.38
444.698	80.38
444.919	85.38
445.14	128.38
445.361	142.38
445.582	141.38
445.803	176.38
446.024	160.38
446.245	157.38
446.466	122.38
446.687	107.38
446.908	96.38
447.129	90.38
447.35	91.38
447.571	122.38
447.792	88.38
448.013	107.38
448.234	121.38
448.455	97.38
448.675	127.38
448.896	127.38
449.117	107.38
449.338	100.38
449.559	141.38
449.779	156.38
450	114.38
450.221	76.38
450.442	89.38
450.662	112.38
450.883	123.38
451.104	142.38
451.324	109.38
451.545	75.38
451.766	103.38
451.986	91.38
452.207	100.38
452.428	97.38
452.648	101.38
452.869	141.38
453.089	117.38
453.31	134.38
453.53	101.38
453.751	94.38
453.971	128.38
454.192	144.38
454.412	105.38
454.633	88.38
454.853	81.38
455.073	84.38
455.294	91.38
455.514	111.38
455.734	84.38
455.955	76.38
456.175	97.38
456.395	91.38
456.616	92.38
456.836	89.38
457.056	82.38
457.276	80.38
457.497	81.38
457.717	88.38
457.937	88.38
458.157	90.38
458.377	86.38
458.598	123.38
458.818	212.38
459.038	232.38
459.258	149.38
459.478	101.38
459.698	103.38
459.918	88.38
460.138	79.38
460.358	93.38
460.578	101.38
460.798	87.38
461.018	85.38
461.238	87.38
461.458	76.38
461.678	85.38
461.898	81.38
462.118	90.38
462.338	76.38
462.558	87.38
462.777	86.38
462.997	90.38
463.217	95.38
463.437	80.38
463.657	88.38
463.876	89.38
464.096	75.38
464.316	104.38
464.536	103.38
464.755	100.38
464.975	133.38
465.195	236.38
465.414	248.38
465.634	112.38
465.854	91.38
466.073	81.38
466.293	96.38
466.512	93.38
466.732	90.38
466.951	72.38
467.171	95.38
467.391	104.38
467.61	142.38
467.829	156.38
468.049	322.38
468.268	471.38
468.488	176.38
468.707	100.38
468.927	98.38
469.146	88.38
469.365	93.38
469.585	85.38
469.804	106.38
470.023	106.38
470.243	112.38
470.462	119.38
470.681	142.38
470.901	100.38
471.12	93.38
471.339	96.38
471.558	101.38
471.777	113.38
471.997	216.38
472.216	638.38
472.435	1405.38
472.654	358.38
472.873	136.38
473.092	86.38
473.311	104.38
473.53	93.38
473.749	98.38
473.968	102.38
474.187	136.38
474.406	100.38
474.625	84.38
474.844	92.38
475.063	89.38
475.282	85.38
475.501	98.38
475.72	75.38
475.939	88.38
476.158	84.38
476.377	98.38
476.596	77.38
476.814	112.38
477.033	113.38
477.252	93.38
477.471	89.38
477.69	94.38
477.908	89.38
478.127	85.38
478.346	102.38
478.564	84.38
478.783	122.38
479.002	100.38
479.22	109.38
479.439	121.38
479.658	126.38
479.876	105.38
480.095	124.38
480.313	113.38
480.532	138.38
480.751	188.38
480.969	580.38
481.188	2358.38
481.406	1432.38
481.624	255.38
481.843	126.38
482.061	104.38
482.28	95.38
482.498	95.38
482.717	93.38
482.935	104.38
483.153	96.38
483.372	90.38
483.59	93.38
483.808	92.38
484.027	98.38
484.245	85.38
484.463	79.38
484.681	107.38
484.9	91.38
485.118	103.38
485.336	98.38
485.554	101.38
485.772	92.38
485.99	94.38
486.209	107.38
486.427	102.38
486.645	113.38
486.863	129.38
487.081	108.38
487.299	99.38
487.517	93.38
487.735	77.38
487.953	98.38
488.171	109.38
488.389	101.38
488.607	113.38
488.825	92.38
489.043	88.38
489.261	81.38
489.479	99.38
489.696	96.38
489.914	80.38
490.132	107.38
490.35	97.38
490.568	94.38
490.786	106.38
491.003	89.38
491.221	87.38
491.439	104.38
491.657	101.38
491.874	89.38
492.092	76.38
492.31	98.38
492.527	108.38
492.745	100.38
492.963	100.38
493.18	85.38
493.398	96.38
493.615	76.38
493.833	87.38
494.05	98.38
494.268	101.38
494.485	98.38
494.703	68.38
494.92	89.38
495.138	86.38
495.355	97.38
495.573	94.38
495.79	90.38
496.008	87.38
496.225	102.38
496.442	96.38
496.66	93.38
496.877	91.38
497.094	89.38
497.312	79.38
497.529	99.38
497.746	100.38
497.963	97.38
498.181	100.38
498.398	86.38
498.615	115.38
498.832	90.38
499.049	83.38
499.267	100.38
499.484	99.38
499.701	84.38
499.918	88.38
500.135	105.38
500.352	89.38
500.569	94.38
500.786	93.38
501.003	91.38
501.22	100.38
501.437	96.38
501.654	107.38
501.871	143.38
502.088	86.38
502.305	90.38
502.522	94.38
502.739	96.38
502.956	92.38
503.172	102.38
503.389	102.38
503.606	110.38
503.823	93.38
504.04	97.38
504.256	100.38
504.473	84.38
504.69	101.38
504.907	99.38
505.123	94.38
505.34	73.38
505.557	76.38
505.773	83.38
505.99	81.38
506.207	92.38
506.423	83.38
506.64	103.38
506.856	86.38
507.073	93.38
507.289	112.38
507.506	105.38
507.722	137.38
507.939	131.38
508.155	110.38
508.372	94.38
508.588	99.38
508.805	80.38
509.021	101.38
509.238	89.38
509.454	108.38
509.67	94.38
509.887	119.38
510.103	155.38
510.319	249.38
510.536	956.38
510.752	3422.38
510.968	907.38
511.184	196.38
511.401	129.38
511.617	96.38
511.833	102.38
512.049	98.38
512.265	93.38
512.481	100.38
512.698	98.38
512.914	94.38
513.13	99.38
513.346	105.38
