Data from Circ_2000_H10_HRD10591_00099.txt Node
Date: Wed Jan 03 10:49:53 EST 2024
User: Yrep
Spectrometer: HR+D1059
Trigger mode: 1
Integration Time (sec): 1.000000E-1
Scans to average: 1
Electric dark correction enabled: true
Nonlinearity correction enabled: false
Boxcar width: 0
XAxis mode: Wavelengths
Number of Pixels in Spectrum: 2048
>>>>>Begin Spectral Data<<<<<
223.165	-17.75
223.4	-17.75
223.635	-17.75
223.869	-9.75
224.104	-23.75
224.338	-8.75
224.573	-3.75
224.808	-19.75
225.042	-8.75
225.277	-16.75
225.511	-6.75
225.746	2.25
225.98	5.25
226.215	8.25
226.449	6.25
226.683	27.25
226.918	33.25
227.152	33.25
227.387	49.25
227.621	38.25
227.856	51.25
228.09	37.25
228.324	52.25
228.559	50.25
228.793	53.25
229.027	54.25
229.262	72.25
229.496	66.25
229.73	105.25
229.964	87.25
230.199	84.25
230.433	74.25
230.667	74.25
230.901	90.25
231.136	72.25
231.37	70.25
231.604	76.25
231.838	89.25
232.072	90.25
232.306	71.25
232.541	98.25
232.775	85.25
233.009	80.25
233.243	77.25
233.477	80.25
233.711	94.25
233.945	84.25
234.179	92.25
234.413	84.25
234.647	76.25
234.881	87.25
235.115	91.25
235.349	71.25
235.583	80.25
235.817	74.25
236.051	78.25
236.285	93.25
236.519	88.25
236.753	82.25
236.987	90.25
237.221	97.25
237.455	98.25
237.689	83.25
237.922	71.25
238.156	75.25
238.39	66.25
238.624	65.25
238.858	86.25
239.091	71.25
239.325	82.25
239.559	89.25
239.793	93.25
240.027	75.25
240.26	86.25
240.494	75.25
240.728	74.25
240.961	91.25
241.195	80.25
241.429	72.25
241.662	59.25
241.896	74.25
242.13	81.25
242.363	55.25
242.597	73.25
242.83	70.25
243.064	65.25
243.298	82.25
243.531	89.25
243.765	76.25
243.998	89.25
244.232	78.25
244.465	91.25
244.699	81.25
244.932	72.25
245.166	69.25
245.399	79.25
245.633	86.25
245.866	87.25
246.099	83.25
246.333	86.25
246.566	71.25
246.8	84.25
247.033	86.25
247.266	76.25
247.5	78.25
247.733	78.25
247.966	77.25
248.2	81.25
248.433	89.25
248.666	86.25
248.899	84.25
249.133	93.25
249.366	100.25
249.599	123.25
249.832	89.25
250.066	91.25
250.299	92.25
250.532	104.25
250.765	80.25
250.998	80.25
251.231	95.25
251.465	78.25
251.698	90.25
251.931	87.25
252.164	91.25
252.397	80.25
252.63	80.25
252.863	71.25
253.096	85.25
253.329	78.25
253.562	76.25
253.795	65.25
254.028	76.25
254.261	90.25
254.494	74.25
254.727	96.25
254.96	90.25
255.193	81.25
255.426	86.25
255.659	86.25
255.892	97.25
256.124	87.25
256.357	109.25
256.59	65.25
256.823	81.25
257.056	79.25
257.289	80.25
257.521	94.25
257.754	89.25
257.987	94.25
258.22	87.25
258.452	112.25
258.685	95.25
258.918	78.25
259.151	96.25
259.383	88.25
259.616	66.25
259.849	99.25
260.081	85.25
260.314	89.25
260.547	103.25
260.779	113.25
261.012	115.25
261.244	113.25
261.477	103.25
261.71	118.25
261.942	160.25
262.175	154.25
262.407	105.25
262.64	75.25
262.872	75.25
263.105	93.25
263.337	95.25
263.57	87.25
263.802	92.25
264.035	82.25
264.267	90.25
264.499	80.25
264.732	77.25
264.964	74.25
265.197	92.25
265.429	67.25
265.661	78.25
265.894	93.25
266.126	99.25
266.358	89.25
266.591	84.25
266.823	76.25
267.055	80.25
267.287	97.25
267.52	78.25
267.752	88.25
267.984	98.25
268.216	78.25
268.448	85.25
268.681	99.25
268.913	96.25
269.145	88.25
269.377	91.25
269.609	77.25
269.841	84.25
270.073	88.25
270.306	90.25
270.538	76.25
270.77	79.25
271.002	84.25
271.234	92.25
271.466	99.25
271.698	102.25
271.93	81.25
272.162	93.25
272.394	101.25
272.626	84.25
272.858	92.25
273.09	93.25
273.322	78.25
273.553	95.25
273.785	74.25
274.017	101.25
274.249	75.25
274.481	86.25
274.713	77.25
274.945	85.25
275.176	87.25
275.408	107.25
275.64	116.25
275.872	146.25
276.104	125.25
276.335	100.25
276.567	127.25
276.799	158.25
277.031	176.25
277.262	210.25
277.494	162.25
277.726	109.25
277.957	93.25
278.189	87.25
278.421	105.25
278.652	104.25
278.884	97.25
279.115	97.25
279.347	87.25
279.579	101.25
279.81	131.25
280.042	201.25
280.273	272.25
280.505	198.25
280.736	115.25
280.968	89.25
281.199	95.25
281.431	92.25
281.662	94.25
281.894	112.25
282.125	108.25
282.356	140.25
282.588	178.25
282.819	146.25
283.051	100.25
283.282	93.25
283.513	79.25
283.745	79.25
283.976	93.25
284.207	94.25
284.439	77.25
284.67	85.25
284.901	95.25
285.132	97.25
285.364	65.25
285.595	87.25
285.826	97.25
286.057	103.25
286.288	84.25
286.52	92.25
286.751	89.25
286.982	102.25
287.213	96.25
287.444	94.25
287.675	96.25
287.906	89.25
288.138	94.25
288.369	97.25
288.6	102.25
288.831	95.25
289.062	92.25
289.293	78.25
289.524	93.25
289.755	81.25
289.986	82.25
290.217	90.25
290.448	81.25
290.679	80.25
290.91	88.25
291.141	97.25
291.371	84.25
291.602	91.25
291.833	78.25
292.064	92.25
292.295	77.25
292.526	80.25
292.757	88.25
292.987	98.25
293.218	103.25
293.449	100.25
293.68	87.25
293.91	88.25
294.141	93.25
294.372	98.25
294.603	87.25
294.833	94.25
295.064	107.25
295.295	87.25
295.525	89.25
295.756	104.25
295.987	136.25
296.217	187.25
296.448	178.25
296.679	108.25
296.909	90.25
297.14	88.25
297.37	76.25
297.601	97.25
297.831	94.25
298.062	106.25
298.292	98.25
298.523	95.25
298.753	85.25
298.984	85.25
299.214	95.25
299.445	89.25
299.675	106.25
299.905	107.25
300.136	90.25
300.366	100.25
300.597	94.25
300.827	111.25
301.057	108.25
301.288	115.25
301.518	112.25
301.748	95.25
301.979	114.25
302.209	108.25
302.439	93.25
302.669	97.25
302.9	92.25
303.13	100.25
303.36	115.25
303.59	148.25
303.82	155.25
304.051	137.25
304.281	99.25
304.511	93.25
304.741	103.25
304.971	89.25
305.201	92.25
305.431	90.25
305.661	97.25
305.891	101.25
306.121	100.25
306.352	134.25
306.582	133.25
306.812	124.25
307.042	124.25
307.272	181.25
307.502	185.25
307.731	180.25
307.961	121.25
308.191	92.25
308.421	98.25
308.651	108.25
308.881	96.25
309.111	110.25
309.341	88.25
309.571	99.25
309.8	115.25
310.03	93.25
310.26	120.25
310.49	104.25
310.72	120.25
310.949	120.25
311.179	134.25
311.409	122.25
311.639	110.25
311.868	89.25
312.098	102.25
312.328	111.25
312.557	123.25
312.787	128.25
313.017	112.25
313.246	83.25
313.476	93.25
313.706	89.25
313.935	112.25
314.165	117.25
314.394	119.25
314.624	101.25
314.853	111.25
315.083	98.25
315.312	100.25
315.542	93.25
315.771	92.25
316.001	93.25
316.23	100.25
316.46	97.25
316.689	99.25
316.919	104.25
317.148	96.25
317.377	94.25
317.607	105.25
317.836	116.25
318.065	96.25
318.295	103.25
318.524	90.25
318.753	96.25
318.983	109.25
319.212	123.25
319.441	139.25
319.67	106.25
319.9	107.25
320.129	105.25
320.358	109.25
320.587	102.25
320.816	111.25
321.046	118.25
321.275	102.25
321.504	109.25
321.733	109.25
321.962	103.25
322.191	113.25
322.42	121.25
322.649	132.25
322.878	136.25
323.108	141.25
323.337	165.25
323.566	170.25
323.795	200.25
324.024	314.25
324.253	598.25
324.482	1333.25
324.71	2760.25
324.939	3654.25
325.168	1301.25
325.397	355.25
325.626	199.25
325.855	164.25
326.084	144.25
326.313	154.25
326.542	203.25
326.77	307.25
326.999	650.25
327.228	1420.25
327.457	2599.25
327.686	2088.25
327.914	688.25
328.143	629.25
328.372	718.25
328.6	423.25
328.829	212.25
329.058	220.25
329.287	242.25
329.515	189.25
329.744	277.25
329.972	535.25
330.201	1097.25
330.43	1604.25
330.658	700.25
330.887	341.25
331.115	222.25
331.344	146.25
331.572	128.25
331.801	129.25
332.03	153.25
332.258	126.25
332.486	114.25
332.715	107.25
332.943	121.25
333.172	130.25
333.4	148.25
333.629	172.25
333.857	261.25
334.085	489.25
334.314	1024.25
334.542	2000.25
334.771	1873.25
334.999	483.25
335.227	190.25
335.455	133.25
335.684	149.25
335.912	115.25
336.14	117.25
336.369	113.25
336.597	112.25
336.825	121.25
337.053	104.25
337.281	102.25
337.51	101.25
337.738	99.25
337.966	104.25
338.194	107.25
338.422	116.25
338.65	97.25
338.878	104.25
339.106	107.25
339.334	94.25
339.562	101.25
339.79	95.25
340.018	94.25
340.246	106.25
340.474	121.25
340.702	119.25
340.93	108.25
341.158	91.25
341.386	113.25
341.614	111.25
341.842	112.25
342.07	112.25
342.298	103.25
342.526	89.25
342.754	87.25
342.981	86.25
343.209	98.25
343.437	93.25
343.665	87.25
343.893	88.25
344.12	86.25
344.348	75.25
344.576	83.25
344.804	98.25
345.031	112.25
345.259	120.25
345.487	100.25
345.714	97.25
345.942	102.25
346.17	88.25
346.397	113.25
346.625	92.25
346.853	112.25
347.08	103.25
347.308	101.25
347.535	112.25
347.763	113.25
347.99	121.25
348.218	136.25
348.445	123.25
348.673	113.25
348.9	109.25
349.128	107.25
349.355	101.25
349.583	100.25
349.81	97.25
350.037	105.25
350.265	95.25
350.492	89.25
350.72	105.25
350.947	111.25
351.174	127.25
351.402	130.25
351.629	114.25
351.856	111.25
352.083	110.25
352.311	121.25
352.538	128.25
352.765	125.25
352.992	120.25
353.22	129.25
353.447	131.25
353.674	102.25
353.901	107.25
354.128	102.25
354.355	99.25
354.583	110.25
354.81	107.25
355.037	86.25
355.264	85.25
355.491	103.25
355.718	98.25
355.945	90.25
356.172	92.25
356.399	84.25
356.626	92.25
356.853	85.25
357.08	89.25
357.307	99.25
357.534	90.25
357.761	87.25
357.988	101.25
358.215	108.25
358.441	93.25
358.668	99.25
358.895	86.25
359.122	94.25
359.349	94.25
359.576	92.25
359.802	158.25
360.029	161.25
360.256	170.25
360.483	122.25
360.709	96.25
360.936	108.25
361.163	116.25
361.39	113.25
361.616	99.25
361.843	120.25
362.07	114.25
362.296	101.25
362.523	104.25
362.749	105.25
362.976	99.25
363.203	85.25
363.429	94.25
363.656	104.25
363.882	103.25
364.109	92.25
364.335	95.25
364.562	98.25
364.788	100.25
365.015	111.25
365.241	124.25
365.468	126.25
365.694	125.25
365.92	109.25
366.147	92.25
366.373	100.25
366.599	93.25
366.826	98.25
367.052	93.25
367.278	99.25
367.505	109.25
367.731	102.25
367.957	99.25
368.184	101.25
368.41	133.25
368.636	146.25
368.862	144.25
369.089	149.25
369.315	112.25
369.541	106.25
369.767	110.25
369.993	95.25
370.219	103.25
370.445	96.25
370.672	93.25
370.898	89.25
371.124	98.25
371.35	92.25
371.576	88.25
371.802	85.25
372.028	88.25
372.254	81.25
372.48	84.25
372.706	89.25
372.932	85.25
373.158	90.25
373.384	108.25
373.61	94.25
373.835	93.25
374.061	98.25
374.287	108.25
374.513	98.25
374.739	91.25
374.965	93.25
375.191	80.25
375.416	88.25
375.642	82.25
375.868	91.25
376.094	87.25
376.319	90.25
376.545	100.25
376.771	82.25
376.997	81.25
377.222	94.25
377.448	89.25
377.674	75.25
377.899	83.25
378.125	88.25
378.35	89.25
378.576	75.25
378.802	89.25
379.027	95.25
379.253	97.25
379.478	97.25
379.704	85.25
379.929	106.25
380.155	98.25
380.38	101.25
380.606	83.25
380.831	102.25
381.057	98.25
381.282	93.25
381.507	106.25
381.733	104.25
381.958	91.25
382.184	116.25
382.409	105.25
382.634	107.25
382.86	102.25
383.085	86.25
383.31	96.25
383.535	92.25
383.761	98.25
383.986	102.25
384.211	115.25
384.436	100.25
384.662	88.25
384.887	97.25
385.112	98.25
385.337	99.25
385.562	100.25
385.787	96.25
386.013	105.25
386.238	123.25
386.463	104.25
386.688	100.25
386.913	117.25
387.138	106.25
387.363	99.25
387.588	111.25
387.813	101.25
388.038	99.25
388.263	108.25
388.488	92.25
388.713	102.25
388.938	98.25
389.163	85.25
389.387	98.25
389.612	103.25
389.837	91.25
390.062	91.25
390.287	91.25
390.512	92.25
390.736	89.25
390.961	87.25
391.186	82.25
391.411	98.25
391.636	92.25
391.86	93.25
392.085	87.25
392.31	87.25
392.534	76.25
392.759	83.25
392.984	98.25
393.208	100.25
393.433	78.25
393.658	94.25
393.882	77.25
394.107	80.25
394.331	90.25
394.556	84.25
394.78	89.25
395.005	88.25
395.229	90.25
395.454	97.25
395.678	89.25
395.903	90.25
396.127	96.25
396.352	91.25
396.576	92.25
396.801	104.25
397.025	104.25
397.249	90.25
397.474	93.25
397.698	104.25
397.922	94.25
398.147	88.25
398.371	97.25
398.595	83.25
398.82	84.25
399.044	92.25
399.268	98.25
399.492	84.25
399.717	74.25
399.941	91.25
400.165	94.25
400.389	92.25
400.613	93.25
400.837	96.25
401.062	95.25
401.286	90.25
401.51	89.25
401.734	94.25
401.958	124.25
402.182	165.25
402.406	228.25
402.63	181.25
402.854	115.25
403.078	97.25
403.302	80.25
403.526	93.25
403.75	83.25
403.974	106.25
404.198	106.25
404.422	107.25
404.645	88.25
404.869	99.25
405.093	119.25
405.317	159.25
405.541	148.25
405.765	123.25
405.988	158.25
406.212	258.25
406.436	390.25
406.66	249.25
406.883	122.25
407.107	101.25
407.331	107.25
407.555	122.25
407.778	105.25
408.002	95.25
408.226	84.25
408.449	93.25
408.673	78.25
408.896	116.25
409.12	113.25
409.344	88.25
409.567	102.25
409.791	94.25
410.014	96.25
410.238	93.25
410.461	86.25
410.685	96.25
410.908	102.25
411.132	98.25
411.355	97.25
411.578	105.25
411.802	84.25
412.025	97.25
412.249	96.25
412.472	122.25
412.695	149.25
412.919	133.25
413.142	97.25
413.365	86.25
413.589	77.25
413.812	91.25
414.035	91.25
414.258	93.25
414.482	99.25
414.705	86.25
414.928	93.25
415.151	100.25
415.374	100.25
415.597	94.25
415.821	90.25
416.044	98.25
416.267	101.25
416.49	81.25
416.713	83.25
416.936	98.25
417.159	88.25
417.382	104.25
417.605	104.25
417.828	122.25
418.051	109.25
418.274	99.25
418.497	78.25
418.72	81.25
418.943	77.25
419.166	96.25
419.389	94.25
419.611	94.25
419.834	87.25
420.057	84.25
420.28	113.25
420.503	92.25
420.726	93.25
420.948	85.25
421.171	110.25
421.394	101.25
421.617	92.25
421.839	88.25
422.062	84.25
422.285	93.25
422.507	108.25
422.73	123.25
422.953	92.25
423.175	100.25
423.398	110.25
423.621	88.25
423.843	104.25
424.066	91.25
424.288	92.25
424.511	95.25
424.733	109.25
424.956	125.25
425.178	120.25
425.401	131.25
425.623	116.25
425.846	114.25
426.068	99.25
426.291	90.25
426.513	100.25
426.735	96.25
426.958	97.25
427.18	134.25
427.402	198.25
427.625	315.25
427.847	280.25
428.069	244.25
428.292	144.25
428.514	98.25
428.736	103.25
428.958	76.25
429.181	94.25
429.403	91.25
429.625	84.25
429.847	101.25
430.069	125.25
430.292	95.25
430.514	82.25
430.736	98.25
430.958	80.25
431.18	96.25
431.402	90.25
431.624	68.25
431.846	82.25
432.068	80.25
432.29	98.25
432.512	84.25
432.734	94.25
432.956	97.25
433.178	102.25
433.4	118.25
433.622	84.25
433.844	100.25
434.066	104.25
434.287	93.25
434.509	101.25
434.731	90.25
434.953	84.25
435.175	92.25
435.397	99.25
435.618	94.25
435.84	109.25
436.062	149.25
436.284	136.25
436.505	108.25
436.727	119.25
436.949	102.25
437.17	76.25
437.392	109.25
437.614	105.25
437.835	154.25
438.057	188.25
438.278	130.25
438.5	132.25
438.721	140.25
438.943	106.25
439.165	100.25
439.386	95.25
439.608	106.25
439.829	130.25
440.05	188.25
440.272	218.25
440.493	116.25
440.715	110.25
440.936	97.25
441.158	102.25
441.379	106.25
441.6	119.25
441.822	108.25
442.043	101.25
442.264	133.25
442.486	113.25
442.707	99.25
442.928	133.25
443.149	196.25
443.371	205.25
443.592	161.25
443.813	131.25
444.034	148.25
444.255	99.25
444.476	92.25
444.698	104.25
444.919	88.25
445.14	142.25
445.361	132.25
445.582	167.25
445.803	210.25
446.024	206.25
446.245	188.25
446.466	134.25
446.687	87.25
446.908	103.25
447.129	108.25
447.35	88.25
447.571	95.25
447.792	110.25
448.013	131.25
448.234	130.25
448.455	138.25
448.675	149.25
448.896	149.25
449.117	112.25
449.338	106.25
449.559	165.25
449.779	173.25
450	100.25
450.221	101.25
450.442	107.25
450.662	113.25
450.883	151.25
451.104	160.25
451.324	116.25
451.545	97.25
451.766	99.25
451.986	92.25
452.207	99.25
452.428	113.25
452.648	117.25
452.869	127.25
453.089	146.25
453.31	172.25
453.53	93.25
453.751	97.25
453.971	143.25
454.192	162.25
454.412	104.25
454.633	88.25
454.853	90.25
455.073	85.25
455.294	99.25
455.514	113.25
455.734	98.25
455.955	88.25
456.175	95.25
456.395	74.25
456.616	87.25
456.836	99.25
457.056	103.25
457.276	80.25
457.497	94.25
457.717	86.25
457.937	82.25
458.157	103.25
458.377	98.25
458.598	128.25
458.818	243.25
459.038	290.25
459.258	170.25
459.478	116.25
459.698	101.25
459.918	99.25
460.138	91.25
460.358	84.25
460.578	83.25
460.798	92.25
461.018	104.25
461.238	82.25
461.458	81.25
461.678	85.25
461.898	85.25
462.118	80.25
462.338	86.25
462.558	83.25
462.777	85.25
462.997	94.25
463.217	114.25
463.437	98.25
463.657	98.25
463.876	90.25
464.096	95.25
464.316	100.25
464.536	92.25
464.755	106.25
464.975	137.25
465.195	288.25
465.414	301.25
465.634	110.25
465.854	93.25
466.073	82.25
466.293	81.25
466.512	100.25
466.732	103.25
466.951	80.25
467.171	104.25
467.391	116.25
467.61	181.25
467.829	232.25
468.049	608.25
468.268	884.25
468.488	235.25
468.707	113.25
468.927	98.25
469.146	92.25
469.365	83.25
469.585	96.25
469.804	107.25
470.023	118.25
470.243	103.25
470.462	144.25
470.681	162.25
470.901	106.25
471.12	102.25
471.339	93.25
471.558	108.25
471.777	154.25
471.997	309.25
472.216	1145.25
472.435	2672.25
472.654	632.25
472.873	195.25
473.092	119.25
473.311	96.25
473.53	91.25
473.749	95.25
473.968	114.25
474.187	132.25
474.406	128.25
474.625	91.25
474.844	96.25
475.063	106.25
475.282	98.25
475.501	102.25
475.72	98.25
475.939	97.25
476.158	91.25
476.377	111.25
476.596	102.25
476.814	108.25
477.033	108.25
477.252	91.25
477.471	95.25
477.69	91.25
477.908	96.25
478.127	94.25
478.346	104.25
478.564	104.25
478.783	100.25
479.002	128.25
479.22	109.25
479.439	148.25
479.658	159.25
479.876	138.25
480.095	121.25
480.313	141.25
480.532	174.25
480.751	313.25
480.969	1060.25
481.188	4605.25
481.406	2630.25
481.624	375.25
481.843	151.25
482.061	112.25
482.28	98.25
482.498	100.25
482.717	93.25
482.935	89.25
483.153	84.25
483.372	84.25
483.59	104.25
483.808	92.25
484.027	108.25
484.245	113.25
484.463	92.25
484.681	98.25
484.9	100.25
485.118	105.25
485.336	97.25
485.554	101.25
485.772	118.25
485.99	102.25
486.209	119.25
486.427	91.25
486.645	132.25
486.863	148.25
487.081	111.25
487.299	101.25
487.517	99.25
487.735	100.25
487.953	109.25
488.171	90.25
488.389	98.25
488.607	104.25
488.825	96.25
489.043	99.25
489.261	80.25
489.479	92.25
489.696	100.25
489.914	88.25
490.132	89.25
490.35	86.25
490.568	89.25
490.786	84.25
491.003	82.25
491.221	97.25
491.439	104.25
491.657	106.25
491.874	87.25
492.092	88.25
492.31	93.25
492.527	100.25
492.745	107.25
492.963	95.25
493.18	105.25
493.398	106.25
493.615	100.25
493.833	96.25
494.05	98.25
494.268	91.25
494.485	102.25
494.703	88.25
494.92	106.25
495.138	93.25
495.355	89.25
495.573	97.25
495.79	99.25
496.008	93.25
496.225	90.25
496.442	94.25
496.66	92.25
496.877	105.25
497.094	102.25
497.312	86.25
497.529	103.25
497.746	100.25
497.963	102.25
498.181	99.25
498.398	104.25
498.615	130.25
498.832	123.25
499.049	107.25
499.267	100.25
499.484	84.25
499.701	93.25
499.918	99.25
500.135	97.25
500.352	102.25
500.569	97.25
500.786	84.25
501.003	103.25
501.22	97.25
501.437	98.25
501.654	117.25
501.871	145.25
502.088	108.25
502.305	89.25
502.522	93.25
502.739	96.25
502.956	98.25
503.172	84.25
503.389	100.25
503.606	153.25
503.823	112.25
504.04	108.25
504.256	106.25
504.473	94.25
504.69	90.25
504.907	111.25
505.123	90.25
505.34	95.25
505.557	94.25
505.773	96.25
505.99	96.25
506.207	104.25
506.423	96.25
506.64	89.25
506.856	92.25
507.073	90.25
507.289	106.25
507.506	112.25
507.722	147.25
507.939	156.25
508.155	112.25
508.372	89.25
508.588	96.25
508.805	92.25
509.021	105.25
509.238	90.25
509.454	108.25
509.67	105.25
509.887	127.25
510.103	165.25
510.319	273.25
510.536	1129.25
510.752	4037.25
510.968	1058.25
511.184	209.25
511.401	149.25
511.617	106.25
