Data from Circ_2000_H10_HRD10591_00100.txt Node
Date: Wed Jan 03 10:49:53 EST 2024
User: Yrep
Spectrometer: HR+D1059
Trigger mode: 1
Integration Time (sec): 1.000000E-1
Scans to average: 1
Electric dark correction enabled: true
Nonlinearity correction enabled: false
Boxcar width: 0
XAxis mode: Wavelengths
Number of Pixels in Spectrum: 2048
>>>>>Begin Spectral Data<<<<<
223.165	-5.06
223.4	-5.06
223.635	-5.06
223.869	-21.06
224.104	-21.06
224.338	-21.06
224.573	-14.06
224.808	-11.06
225.042	-6.06
225.277	-1.06
225.511	2.94
225.746	2.94
225.98	7.94
226.215	1.94
226.449	8.94
226.683	11.94
226.918	25.94
227.152	37.94
227.387	41.94
227.621	33.94
227.856	36.94
228.09	45.94
228.324	55.94
228.559	53.94
228.793	52.94
229.027	62.94
229.262	74.94
229.496	71.94
229.73	100.94
229.964	90.94
230.199	77.94
230.433	77.94
230.667	75.94
230.901	78.94
231.136	77.94
231.37	61.94
231.604	60.94
231.838	82.94
232.072	77.94
232.306	78.94
232.541	75.94
232.775	88.94
233.009	71.94
233.243	81.94
233.477	76.94
233.711	67.94
233.945	84.94
234.179	87.94
234.413	72.94
234.647	75.94
234.881	76.94
235.115	73.94
235.349	79.94
235.583	80.94
235.817	74.94
236.051	86.94
236.285	69.94
236.519	74.94
236.753	87.94
236.987	79.94
237.221	84.94
237.455	89.94
237.689	94.94
237.922	92.94
238.156	91.94
238.39	69.94
238.624	61.94
238.858	77.94
239.091	68.94
239.325	82.94
239.559	81.94
239.793	77.94
240.027	68.94
240.26	73.94
240.494	77.94
240.728	77.94
240.961	72.94
241.195	83.94
241.429	80.94
241.662	92.94
241.896	69.94
242.13	76.94
242.363	78.94
242.597	64.94
242.83	91.94
243.064	74.94
243.298	68.94
243.531	85.94
243.765	73.94
243.998	75.94
244.232	76.94
244.465	91.94
244.699	102.94
244.932	101.94
245.166	80.94
245.399	77.94
245.633	81.94
245.866	73.94
246.099	77.94
246.333	65.94
246.566	87.94
246.8	98.94
247.033	72.94
247.266	85.94
247.5	72.94
247.733	76.94
247.966	86.94
248.2	87.94
248.433	83.94
248.666	73.94
248.899	85.94
249.133	81.94
249.366	94.94
249.599	101.94
249.832	84.94
250.066	84.94
250.299	89.94
250.532	78.94
250.765	88.94
250.998	78.94
251.231	92.94
251.465	79.94
251.698	64.94
251.931	93.94
252.164	96.94
252.397	77.94
252.63	82.94
252.863	79.94
253.096	73.94
253.329	69.94
253.562	77.94
253.795	76.94
254.028	78.94
254.261	89.94
254.494	81.94
254.727	85.94
254.96	69.94
255.193	97.94
255.426	75.94
255.659	73.94
255.892	91.94
256.124	93.94
256.357	76.94
256.59	87.94
256.823	91.94
257.056	97.94
257.289	71.94
257.521	85.94
257.754	87.94
257.987	83.94
258.22	106.94
258.452	114.94
258.685	96.94
258.918	86.94
259.151	70.94
259.383	76.94
259.616	83.94
259.849	94.94
260.081	80.94
260.314	74.94
260.547	87.94
260.779	90.94
261.012	96.94
261.244	104.94
261.477	99.94
261.71	110.94
261.942	148.94
262.175	138.94
262.407	96.94
262.64	82.94
262.872	90.94
263.105	92.94
263.337	81.94
263.57	92.94
263.802	76.94
264.035	68.94
264.267	85.94
264.499	90.94
264.732	87.94
264.964	81.94
265.197	83.94
265.429	89.94
265.661	72.94
265.894	70.94
266.126	90.94
266.358	75.94
266.591	70.94
266.823	90.94
267.055	104.94
267.287	87.94
267.52	84.94
267.752	99.94
267.984	83.94
268.216	85.94
268.448	103.94
268.681	85.94
268.913	86.94
269.145	95.94
269.377	92.94
269.609	90.94
269.841	91.94
270.073	80.94
270.306	82.94
270.538	89.94
270.77	80.94
271.002	93.94
271.234	95.94
271.466	96.94
271.698	91.94
271.93	98.94
272.162	100.94
272.394	88.94
272.626	78.94
272.858	80.94
273.09	65.94
273.322	90.94
273.553	90.94
273.785	83.94
274.017	80.94
274.249	87.94
274.481	75.94
274.713	73.94
274.945	86.94
275.176	96.94
275.408	100.94
275.64	104.94
275.872	101.94
276.104	94.94
276.335	95.94
276.567	114.94
276.799	143.94
277.031	175.94
277.262	158.94
277.494	126.94
277.726	98.94
277.957	94.94
278.189	92.94
278.421	83.94
278.652	85.94
278.884	109.94
279.115	81.94
279.347	101.94
279.579	93.94
279.81	123.94
280.042	172.94
280.273	221.94
280.505	148.94
280.736	93.94
280.968	93.94
281.199	88.94
281.431	67.94
281.662	92.94
281.894	91.94
282.125	101.94
282.356	154.94
282.588	176.94
282.819	142.94
283.051	96.94
283.282	72.94
283.513	88.94
283.745	104.94
283.976	91.94
284.207	88.94
284.439	80.94
284.67	80.94
284.901	83.94
285.132	88.94
285.364	90.94
285.595	84.94
285.826	99.94
286.057	98.94
286.288	91.94
286.52	97.94
286.751	99.94
286.982	84.94
287.213	92.94
287.444	86.94
287.675	96.94
287.906	103.94
288.138	93.94
288.369	93.94
288.6	102.94
288.831	93.94
289.062	109.94
289.293	88.94
289.524	94.94
289.755	82.94
289.986	84.94
290.217	102.94
290.448	99.94
290.679	100.94
290.91	89.94
291.141	85.94
291.371	88.94
291.602	84.94
291.833	85.94
292.064	84.94
292.295	90.94
292.526	97.94
292.757	93.94
292.987	86.94
293.218	82.94
293.449	83.94
293.68	82.94
293.91	94.94
294.141	70.94
294.372	92.94
294.603	104.94
294.833	94.94
295.064	89.94
295.295	91.94
295.525	76.94
295.756	106.94
295.987	130.94
296.217	168.94
296.448	165.94
296.679	102.94
296.909	90.94
297.14	90.94
297.37	99.94
297.601	83.94
297.831	109.94
298.062	98.94
298.292	102.94
298.523	89.94
298.753	88.94
298.984	91.94
299.214	91.94
299.445	90.94
299.675	92.94
299.905	110.94
300.136	98.94
300.366	88.94
300.597	91.94
300.827	90.94
301.057	109.94
301.288	107.94
301.518	90.94
301.748	90.94
301.979	111.94
302.209	99.94
302.439	88.94
302.669	91.94
302.9	104.94
303.13	105.94
303.36	115.94
303.59	136.94
303.82	134.94
304.051	116.94
304.281	99.94
304.511	82.94
304.741	94.94
304.971	82.94
305.201	101.94
305.431	100.94
305.661	99.94
305.891	85.94
306.121	97.94
306.352	115.94
306.582	125.94
306.812	108.94
307.042	129.94
307.272	155.94
307.502	148.94
307.731	148.94
307.961	104.94
308.191	96.94
308.421	91.94
308.651	96.94
308.881	96.94
309.111	99.94
309.341	99.94
309.571	96.94
309.8	116.94
310.03	102.94
310.26	98.94
310.49	98.94
310.72	105.94
310.949	121.94
311.179	119.94
311.409	107.94
311.639	103.94
311.868	96.94
312.098	92.94
312.328	102.94
312.557	113.94
312.787	123.94
313.017	107.94
313.246	92.94
313.476	88.94
313.706	99.94
313.935	111.94
314.165	113.94
314.394	114.94
314.624	105.94
314.853	112.94
315.083	94.94
315.312	93.94
315.542	73.94
315.771	95.94
316.001	86.94
316.23	96.94
316.46	78.94
316.689	82.94
316.919	97.94
317.148	114.94
317.377	90.94
317.607	110.94
317.836	94.94
318.065	96.94
318.295	97.94
318.524	87.94
318.753	102.94
318.983	100.94
319.212	117.94
319.441	108.94
319.67	128.94
319.9	101.94
320.129	91.94
320.358	103.94
320.587	111.94
320.816	120.94
321.046	122.94
321.275	101.94
321.504	97.94
321.733	104.94
321.962	102.94
322.191	96.94
322.42	100.94
322.649	134.94
322.878	133.94
323.108	131.94
323.337	142.94
323.566	151.94
323.795	159.94
324.024	241.94
324.253	426.94
324.482	925.94
324.71	1878.94
324.939	2531.94
325.168	988.94
325.397	284.94
325.626	156.94
325.855	142.94
326.084	141.94
326.313	134.94
326.542	171.94
326.77	239.94
326.999	492.94
327.228	978.94
327.457	1730.94
327.686	1436.94
327.914	519.94
328.143	443.94
328.372	568.94
328.6	335.94
328.829	187.94
329.058	183.94
329.287	192.94
329.515	165.94
329.744	221.94
329.972	367.94
330.201	803.94
330.43	1158.94
330.658	552.94
330.887	271.94
331.115	198.94
331.344	103.94
331.572	113.94
331.801	130.94
332.03	127.94
332.258	128.94
332.486	118.94
332.715	98.94
332.943	108.94
333.172	123.94
333.4	117.94
333.629	162.94
333.857	208.94
334.085	369.94
334.314	726.94
334.542	1428.94
334.771	1358.94
334.999	372.94
335.227	164.94
335.455	109.94
335.684	108.94
335.912	115.94
336.14	116.94
336.369	105.94
336.597	102.94
336.825	98.94
337.053	101.94
337.281	87.94
337.51	90.94
337.738	110.94
337.966	114.94
338.194	112.94
338.422	116.94
338.65	103.94
338.878	86.94
339.106	74.94
339.334	105.94
339.562	88.94
339.79	86.94
340.018	94.94
340.246	90.94
340.474	116.94
340.702	101.94
340.93	104.94
341.158	99.94
341.386	117.94
341.614	113.94
341.842	103.94
342.07	85.94
342.298	105.94
342.526	101.94
342.754	107.94
342.981	100.94
343.209	92.94
343.437	92.94
343.665	95.94
343.893	92.94
344.12	94.94
344.348	83.94
344.576	99.94
344.804	100.94
345.031	104.94
345.259	115.94
345.487	113.94
345.714	93.94
345.942	96.94
346.17	96.94
346.397	93.94
346.625	94.94
346.853	97.94
347.08	98.94
347.308	89.94
347.535	99.94
347.763	113.94
347.99	104.94
348.218	120.94
348.445	113.94
348.673	105.94
348.9	103.94
349.128	87.94
349.355	83.94
349.583	90.94
349.81	107.94
350.037	106.94
350.265	104.94
350.492	96.94
350.72	104.94
350.947	117.94
351.174	115.94
351.402	128.94
351.629	114.94
351.856	112.94
352.083	115.94
352.311	128.94
352.538	114.94
352.765	108.94
352.992	140.94
353.22	128.94
353.447	107.94
353.674	102.94
353.901	95.94
354.128	99.94
354.355	107.94
354.583	101.94
354.81	97.94
355.037	100.94
355.264	93.94
355.491	75.94
355.718	92.94
355.945	96.94
356.172	100.94
356.399	98.94
356.626	100.94
356.853	99.94
357.08	84.94
357.307	91.94
357.534	87.94
357.761	83.94
357.988	93.94
358.215	114.94
358.441	91.94
358.668	92.94
358.895	99.94
359.122	96.94
359.349	93.94
359.576	99.94
359.802	111.94
360.029	139.94
360.256	135.94
360.483	123.94
360.709	81.94
360.936	90.94
361.163	103.94
361.39	125.94
361.616	108.94
361.843	97.94
362.07	102.94
362.296	115.94
362.523	97.94
362.749	104.94
362.976	101.94
363.203	98.94
363.429	98.94
363.656	92.94
363.882	88.94
364.109	101.94
364.335	99.94
364.562	101.94
364.788	92.94
365.015	104.94
365.241	127.94
365.468	116.94
365.694	121.94
365.92	98.94
366.147	94.94
366.373	100.94
366.599	90.94
366.826	89.94
367.052	89.94
367.278	81.94
367.505	96.94
367.731	92.94
367.957	106.94
368.184	109.94
368.41	129.94
368.636	134.94
368.862	147.94
369.089	130.94
369.315	112.94
369.541	88.94
369.767	113.94
369.993	92.94
370.219	96.94
370.445	96.94
370.672	88.94
370.898	91.94
371.124	84.94
371.35	101.94
371.576	97.94
371.802	93.94
372.028	90.94
372.254	97.94
372.48	94.94
372.706	88.94
372.932	93.94
373.158	85.94
373.384	95.94
373.61	89.94
373.835	100.94
374.061	99.94
374.287	92.94
374.513	91.94
374.739	104.94
374.965	88.94
375.191	89.94
375.416	81.94
375.642	74.94
375.868	84.94
376.094	94.94
376.319	93.94
376.545	104.94
376.771	90.94
376.997	72.94
377.222	93.94
377.448	89.94
377.674	88.94
377.899	99.94
378.125	94.94
378.35	98.94
378.576	87.94
378.802	88.94
379.027	81.94
379.253	91.94
379.478	76.94
379.704	83.94
379.929	92.94
380.155	110.94
380.38	101.94
380.606	93.94
380.831	102.94
381.057	91.94
381.282	93.94
381.507	111.94
381.733	97.94
381.958	92.94
382.184	88.94
382.409	94.94
382.634	110.94
382.86	102.94
383.085	107.94
383.31	103.94
383.535	107.94
383.761	91.94
383.986	89.94
384.211	100.94
384.436	105.94
384.662	79.94
384.887	99.94
385.112	102.94
385.337	99.94
385.562	100.94
385.787	117.94
386.013	110.94
386.238	120.94
386.463	98.94
386.688	93.94
386.913	102.94
387.138	86.94
387.363	93.94
387.588	89.94
387.813	96.94
388.038	104.94
388.263	110.94
388.488	95.94
388.713	101.94
388.938	93.94
389.163	101.94
389.387	87.94
389.612	100.94
389.837	95.94
390.062	80.94
390.287	98.94
390.512	94.94
390.736	85.94
390.961	67.94
391.186	86.94
391.411	80.94
391.636	95.94
391.86	92.94
392.085	96.94
392.31	82.94
392.534	93.94
392.759	86.94
392.984	72.94
393.208	81.94
393.433	108.94
393.658	92.94
393.882	79.94
394.107	88.94
394.331	84.94
394.556	85.94
394.78	84.94
395.005	99.94
395.229	86.94
395.454	82.94
395.678	82.94
395.903	90.94
396.127	85.94
396.352	100.94
396.576	87.94
396.801	87.94
397.025	97.94
397.249	82.94
397.474	88.94
397.698	90.94
397.922	87.94
398.147	90.94
398.371	88.94
398.595	89.94
398.82	79.94
399.044	88.94
399.268	85.94
399.492	88.94
399.717	75.94
399.941	90.94
400.165	92.94
400.389	91.94
400.613	85.94
400.837	88.94
401.062	92.94
401.286	86.94
401.51	114.94
401.734	98.94
401.958	112.94
402.182	170.94
402.406	206.94
402.63	168.94
402.854	112.94
403.078	94.94
403.302	93.94
403.526	101.94
403.75	100.94
403.974	80.94
404.198	92.94
404.422	92.94
404.645	93.94
404.869	105.94
405.093	116.94
405.317	141.94
405.541	134.94
405.765	131.94
405.988	159.94
406.212	238.94
406.436	355.94
406.66	214.94
406.883	131.94
407.107	112.94
407.331	107.94
407.555	117.94
407.778	107.94
408.002	99.94
408.226	86.94
408.449	93.94
408.673	97.94
408.896	78.94
409.12	109.94
409.344	87.94
409.567	97.94
409.791	109.94
410.014	88.94
410.238	100.94
410.461	94.94
410.685	77.94
410.908	90.94
411.132	100.94
411.355	107.94
411.578	93.94
411.802	92.94
412.025	78.94
412.249	102.94
412.472	109.94
412.695	131.94
412.919	101.94
413.142	90.94
413.365	87.94
413.589	82.94
413.812	84.94
414.035	100.94
414.258	91.94
414.482	98.94
414.705	102.94
414.928	90.94
415.151	94.94
415.374	101.94
415.597	100.94
415.821	89.94
416.044	75.94
416.267	89.94
416.49	97.94
416.713	75.94
416.936	89.94
417.159	86.94
417.382	105.94
417.605	96.94
417.828	98.94
418.051	92.94
418.274	81.94
418.497	92.94
418.72	87.94
418.943	93.94
419.166	100.94
419.389	78.94
419.611	93.94
419.834	99.94
420.057	99.94
420.28	87.94
420.503	100.94
420.726	91.94
420.948	105.94
421.171	105.94
421.394	103.94
421.617	91.94
421.839	101.94
422.062	93.94
422.285	104.94
422.507	113.94
422.73	109.94
422.953	100.94
423.175	89.94
423.398	90.94
423.621	79.94
423.843	89.94
424.066	96.94
424.288	101.94
424.511	105.94
424.733	99.94
424.956	114.94
425.178	110.94
425.401	124.94
425.623	99.94
425.846	100.94
426.068	101.94
426.291	99.94
426.513	96.94
426.735	87.94
426.958	104.94
427.18	110.94
427.402	167.94
427.625	241.94
427.847	238.94
428.069	188.94
428.292	125.94
428.514	102.94
428.736	79.94
428.958	96.94
429.181	89.94
429.403	90.94
429.625	91.94
429.847	102.94
430.069	120.94
430.292	105.94
430.514	91.94
430.736	84.94
430.958	99.94
431.18	88.94
431.402	80.94
431.624	90.94
431.846	88.94
432.068	97.94
432.29	82.94
432.512	80.94
432.734	92.94
432.956	96.94
433.178	98.94
433.4	108.94
433.622	83.94
433.844	98.94
434.066	98.94
434.287	98.94
434.509	100.94
434.731	93.94
434.953	76.94
435.175	90.94
435.397	97.94
435.618	90.94
435.84	112.94
436.062	134.94
436.284	128.94
436.505	97.94
436.727	104.94
436.949	85.94
437.17	103.94
437.392	101.94
437.614	113.94
437.835	126.94
438.057	150.94
438.278	134.94
438.5	105.94
438.721	118.94
438.943	117.94
439.165	97.94
439.386	80.94
439.608	92.94
439.829	106.94
440.05	142.94
440.272	169.94
440.493	107.94
440.715	90.94
440.936	88.94
441.158	75.94
441.379	97.94
441.6	98.94
441.822	92.94
442.043	91.94
442.264	125.94
442.486	106.94
442.707	97.94
442.928	124.94
443.149	164.94
443.371	166.94
443.592	130.94
443.813	136.94
444.034	118.94
444.255	116.94
444.476	99.94
444.698	98.94
444.919	84.94
445.14	125.94
445.361	118.94
445.582	140.94
445.803	190.94
446.024	162.94
446.245	150.94
446.466	126.94
446.687	86.94
446.908	77.94
447.129	94.94
447.35	90.94
447.571	109.94
447.792	105.94
448.013	105.94
448.234	142.94
448.455	105.94
448.675	130.94
448.896	141.94
449.117	92.94
449.338	96.94
449.559	136.94
449.779	165.94
450	116.94
450.221	86.94
450.442	102.94
450.662	85.94
450.883	129.94
451.104	152.94
451.324	114.94
451.545	85.94
451.766	93.94
451.986	89.94
452.207	87.94
452.428	112.94
452.648	93.94
452.869	121.94
453.089	140.94
453.31	146.94
453.53	104.94
453.751	110.94
453.971	117.94
454.192	137.94
454.412	95.94
454.633	87.94
454.853	84.94
455.073	88.94
455.294	88.94
455.514	102.94
455.734	88.94
455.955	86.94
456.175	86.94
456.395	84.94
456.616	105.94
456.836	93.94
457.056	99.94
457.276	88.94
457.497	89.94
457.717	97.94
457.937	82.94
458.157	92.94
458.377	107.94
458.598	131.94
458.818	203.94
459.038	237.94
459.258	151.94
459.478	100.94
459.698	106.94
459.918	74.94
460.138	83.94
460.358	75.94
460.578	89.94
460.798	93.94
461.018	90.94
461.238	85.94
461.458	89.94
461.678	90.94
461.898	91.94
462.118	95.94
462.338	84.94
462.558	93.94
462.777	93.94
462.997	91.94
463.217	110.94
463.437	98.94
463.657	99.94
463.876	95.94
464.096	102.94
464.316	98.94
464.536	103.94
464.755	103.94
464.975	126.94
465.195	249.94
465.414	277.94
465.634	106.94
465.854	94.94
466.073	97.94
466.293	93.94
466.512	81.94
466.732	90.94
466.951	86.94
467.171	101.94
467.391	119.94
467.61	154.94
467.829	197.94
468.049	461.94
468.268	715.94
468.488	201.94
468.707	116.94
468.927	91.94
469.146	101.94
469.365	80.94
469.585	80.94
469.804	107.94
470.023	108.94
470.243	100.94
470.462	120.94
470.681	160.94
470.901	105.94
471.12	106.94
471.339	108.94
471.558	123.94
471.777	135.94
471.997	247.94
472.216	896.94
472.435	2083.94
472.654	521.94
472.873	150.94
473.092	123.94
473.311	99.94
473.53	92.94
473.749	95.94
473.968	108.94
474.187	114.94
474.406	113.94
474.625	104.94
474.844	98.94
475.063	105.94
475.282	102.94
475.501	90.94
475.72	96.94
475.939	79.94
476.158	104.94
476.377	99.94
476.596	85.94
476.814	108.94
477.033	110.94
477.252	99.94
477.471	91.94
477.69	88.94
477.908	98.94
478.127	115.94
478.346	74.94
478.564	92.94
478.783	112.94
479.002	95.94
479.22	105.94
479.439	126.94
479.658	138.94
479.876	123.94
480.095	106.94
480.313	135.94
480.532	162.94
480.751	238.94
480.969	851.94
481.188	3520.94
481.406	2075.94
481.624	324.94
481.843	121.94
482.061	115.94
482.28	111.94
482.498	109.94
482.717	92.94
482.935	105.94
483.153	104.94
483.372	88.94
483.59	103.94
483.808	89.94
484.027	90.94
484.245	97.94
484.463	98.94
484.681	97.94
484.9	94.94
485.118	104.94
485.336	90.94
485.554	96.94
485.772	97.94
485.99	107.94
486.209	110.94
486.427	113.94
486.645	133.94
486.863	152.94
487.081	105.94
487.299	97.94
487.517	98.94
487.735	97.94
487.953	96.94
488.171	91.94
488.389	98.94
488.607	113.94
488.825	87.94
489.043	83.94
489.261	92.94
489.479	103.94
489.696	92.94
489.914	86.94
490.132	98.94
490.35	100.94
490.568	82.94
490.786	98.94
491.003	97.94
491.221	107.94
491.439	83.94
491.657	93.94
491.874	102.94
492.092	100.94
492.31	102.94
492.527	97.94
492.745	90.94
492.963	102.94
493.18	99.94
493.398	90.94
493.615	94.94
493.833	99.94
494.05	82.94
494.268	87.94
494.485	101.94
494.703	78.94
494.92	99.94
495.138	86.94
495.355	100.94
495.573	98.94
495.79	98.94
496.008	92.94
496.225	93.94
496.442	92.94
496.66	94.94
496.877	94.94
497.094	99.94
497.312	96.94
497.529	77.94
497.746	97.94
497.963	100.94
498.181	89.94
498.398	106.94
498.615	123.94
498.832	100.94
499.049	102.94
499.267	97.94
499.484	100.94
499.701	92.94
499.918	113.94
500.135	87.94
500.352	98.94
500.569	83.94
500.786	98.94
501.003	87.94
501.22	102.94
501.437	89.94
501.654	97.94
501.871	130.94
502.088	84.94
502.305	101.94
502.522	88.94
502.739	84.94
502.956	108.94
503.172	99.94
503.389	102.94
503.606	130.94
503.823	105.94
504.04	93.94
504.256	85.94
504.473	99.94
504.69	96.94
504.907	97.94
505.123	87.94
505.34	83.94
505.557	88.94
505.773	98.94
505.99	78.94
506.207	107.94
506.423	83.94
506.64	95.94
506.856	113.94
507.073	107.94
507.289	94.94
507.506	106.94
507.722	132.94
507.939	131.94
508.155	102.94
508.372	103.94
508.588	104.94
508.805	101.94
509.021	110.94
509.238	106.94
509.454	102.94
509.67	112.94
509.887	115.94
510.103	159.94
510.319	267.94
510.536	1036.94
510.752	3659.94
510.968	991.94
511.184	196.94
511.401	128.94
511.617	113.94
511.833	122.94
512.049	100.94
512.265	86.94
512.481	86.94
512.698	99.94
