Data from Circ_2000_H10_HRD10591_00080.txt Node
Date: Wed Jan 03 10:49:49 EST 2024
User: Yrep
Spectrometer: HR+D1059
Trigger mode: 1
Integration Time (sec): 1.000000E-1
Scans to average: 1
Electric dark correction enabled: true
Nonlinearity correction enabled: false
Boxcar width: 0
XAxis mode: Wavelengths
Number of Pixels in Spectrum: 2048
>>>>>Begin Spectral Data<<<<<
223.165	-20.06
223.4	-20.06
223.635	-20.06
223.869	-20.06
224.104	-2.06
224.338	-18.06
224.573	-7.06
224.808	-21.06
225.042	-32.06
225.277	-5.06
225.511	-9.06
225.746	6.94
225.98	20.94
226.215	15.94
226.449	16.94
226.683	11.94
226.918	23.94
227.152	37.94
227.387	33.94
227.621	36.94
227.856	47.94
228.09	51.94
228.324	50.94
228.559	65.94
228.793	62.94
229.027	60.94
229.262	62.94
229.496	86.94
229.73	90.94
229.964	95.94
230.199	80.94
230.433	84.94
230.667	83.94
230.901	87.94
231.136	80.94
231.37	78.94
231.604	74.94
231.838	75.94
232.072	85.94
232.306	77.94
232.541	89.94
232.775	83.94
233.009	99.94
233.243	82.94
233.477	84.94
233.711	79.94
233.945	82.94
234.179	82.94
234.413	85.94
234.647	77.94
234.881	74.94
235.115	79.94
235.349	82.94
235.583	94.94
235.817	87.94
236.051	80.94
236.285	75.94
236.519	91.94
236.753	82.94
236.987	97.94
237.221	95.94
237.455	96.94
237.689	80.94
237.922	79.94
238.156	75.94
238.39	76.94
238.624	68.94
238.858	85.94
239.091	87.94
239.325	85.94
239.559	82.94
239.793	77.94
240.027	87.94
240.26	71.94
240.494	70.94
240.728	78.94
240.961	84.94
241.195	74.94
241.429	75.94
241.662	84.94
241.896	76.94
242.13	79.94
242.363	75.94
242.597	82.94
242.83	80.94
243.064	68.94
243.298	73.94
243.531	90.94
243.765	79.94
243.998	91.94
244.232	91.94
244.465	92.94
244.699	73.94
244.932	71.94
245.166	73.94
245.399	91.94
245.633	70.94
245.866	81.94
246.099	91.94
246.333	89.94
246.566	84.94
246.8	74.94
247.033	78.94
247.266	80.94
247.5	79.94
247.733	78.94
247.966	96.94
248.2	82.94
248.433	74.94
248.666	79.94
248.899	88.94
249.133	92.94
249.366	111.94
249.599	102.94
249.832	95.94
250.066	88.94
250.299	98.94
250.532	92.94
250.765	72.94
250.998	83.94
251.231	94.94
251.465	86.94
251.698	89.94
251.931	82.94
252.164	101.94
252.397	70.94
252.63	95.94
252.863	82.94
253.096	74.94
253.329	83.94
253.562	77.94
253.795	80.94
254.028	82.94
254.261	88.94
254.494	95.94
254.727	90.94
254.96	79.94
255.193	68.94
255.426	84.94
255.659	87.94
255.892	97.94
256.124	90.94
256.357	77.94
256.59	96.94
256.823	78.94
257.056	93.94
257.289	76.94
257.521	83.94
257.754	78.94
257.987	84.94
258.22	101.94
258.452	100.94
258.685	88.94
258.918	96.94
259.151	90.94
259.383	79.94
259.616	83.94
259.849	98.94
260.081	92.94
260.314	90.94
260.547	101.94
260.779	104.94
261.012	108.94
261.244	105.94
261.477	98.94
261.71	99.94
261.942	137.94
262.175	151.94
262.407	106.94
262.64	95.94
262.872	107.94
263.105	88.94
263.337	113.94
263.57	92.94
263.802	87.94
264.035	84.94
264.267	88.94
264.499	85.94
264.732	90.94
264.964	86.94
265.197	93.94
265.429	90.94
265.661	87.94
265.894	81.94
266.126	93.94
266.358	91.94
266.591	94.94
266.823	101.94
267.055	81.94
267.287	102.94
267.52	92.94
267.752	88.94
267.984	79.94
268.216	103.94
268.448	94.94
268.681	90.94
268.913	89.94
269.145	81.94
269.377	91.94
269.609	83.94
269.841	84.94
270.073	85.94
270.306	91.94
270.538	94.94
270.77	87.94
271.002	95.94
271.234	99.94
271.466	87.94
271.698	87.94
271.93	93.94
272.162	90.94
272.394	106.94
272.626	93.94
272.858	80.94
273.09	90.94
273.322	85.94
273.553	84.94
273.785	79.94
274.017	83.94
274.249	99.94
274.481	87.94
274.713	91.94
274.945	94.94
275.176	101.94
275.408	100.94
275.64	103.94
275.872	124.94
276.104	98.94
276.335	94.94
276.567	87.94
276.799	131.94
277.031	149.94
277.262	165.94
277.494	122.94
277.726	92.94
277.957	89.94
278.189	96.94
278.421	74.94
278.652	104.94
278.884	95.94
279.115	90.94
279.347	103.94
279.579	92.94
279.81	120.94
280.042	151.94
280.273	188.94
280.505	160.94
280.736	106.94
280.968	87.94
281.199	107.94
281.431	107.94
281.662	71.94
281.894	104.94
282.125	100.94
282.356	128.94
282.588	172.94
282.819	124.94
283.051	90.94
283.282	94.94
283.513	87.94
283.745	93.94
283.976	84.94
284.207	97.94
284.439	85.94
284.67	85.94
284.901	87.94
285.132	84.94
285.364	74.94
285.595	96.94
285.826	87.94
286.057	96.94
286.288	86.94
286.52	86.94
286.751	93.94
286.982	85.94
287.213	98.94
287.444	97.94
287.675	72.94
287.906	79.94
288.138	103.94
288.369	100.94
288.6	93.94
288.831	100.94
289.062	88.94
289.293	89.94
289.524	99.94
289.755	89.94
289.986	90.94
290.217	90.94
290.448	76.94
290.679	78.94
290.91	94.94
291.141	110.94
291.371	106.94
291.602	86.94
291.833	104.94
292.064	94.94
292.295	94.94
292.526	92.94
292.757	89.94
292.987	92.94
293.218	92.94
293.449	108.94
293.68	98.94
293.91	87.94
294.141	87.94
294.372	94.94
294.603	89.94
294.833	96.94
295.064	92.94
295.295	99.94
295.525	99.94
295.756	95.94
295.987	133.94
296.217	159.94
296.448	137.94
296.679	105.94
296.909	92.94
297.14	98.94
297.37	93.94
297.601	89.94
297.831	81.94
298.062	104.94
298.292	96.94
298.523	110.94
298.753	84.94
298.984	93.94
299.214	84.94
299.445	101.94
299.675	104.94
299.905	109.94
300.136	112.94
300.366	92.94
300.597	95.94
300.827	104.94
301.057	105.94
301.288	107.94
301.518	109.94
301.748	91.94
301.979	107.94
302.209	107.94
302.439	106.94
302.669	91.94
302.9	98.94
303.13	90.94
303.36	115.94
303.59	117.94
303.82	115.94
304.051	110.94
304.281	93.94
304.511	98.94
304.741	86.94
304.971	92.94
305.201	96.94
305.431	80.94
305.661	101.94
305.891	105.94
306.121	107.94
306.352	129.94
306.582	114.94
306.812	98.94
307.042	115.94
307.272	135.94
307.502	156.94
307.731	144.94
307.961	117.94
308.191	110.94
308.421	92.94
308.651	100.94
308.881	92.94
309.111	106.94
309.341	94.94
309.571	118.94
309.8	112.94
310.03	111.94
310.26	95.94
310.49	103.94
310.72	131.94
310.949	114.94
311.179	115.94
311.409	100.94
311.639	110.94
311.868	86.94
312.098	99.94
312.328	114.94
312.557	118.94
312.787	124.94
313.017	113.94
313.246	93.94
313.476	100.94
313.706	104.94
313.935	103.94
314.165	121.94
314.394	117.94
314.624	101.94
314.853	101.94
315.083	101.94
315.312	87.94
315.542	87.94
315.771	101.94
316.001	108.94
316.23	105.94
316.46	97.94
316.689	95.94
316.919	113.94
317.148	104.94
317.377	106.94
317.607	94.94
317.836	101.94
318.065	96.94
318.295	104.94
318.524	77.94
318.753	102.94
318.983	106.94
319.212	112.94
319.441	112.94
319.67	109.94
319.9	92.94
320.129	96.94
320.358	94.94
320.587	105.94
320.816	122.94
321.046	111.94
321.275	102.94
321.504	93.94
321.733	103.94
321.962	88.94
322.191	118.94
322.42	123.94
322.649	134.94
322.878	133.94
323.108	146.94
323.337	154.94
323.566	140.94
323.795	184.94
324.024	260.94
324.253	510.94
324.482	1150.94
324.71	2390.94
324.939	3134.94
325.168	1127.94
325.397	332.94
325.626	194.94
325.855	148.94
326.084	159.94
326.313	149.94
326.542	190.94
326.77	285.94
326.999	614.94
327.228	1250.94
327.457	2350.94
327.686	1816.94
327.914	558.94
328.143	456.94
328.372	530.94
328.6	312.94
328.829	160.94
329.058	181.94
329.287	203.94
329.515	156.94
329.744	203.94
329.972	351.94
330.201	734.94
330.43	1061.94
330.658	514.94
330.887	255.94
331.115	191.94
331.344	119.94
331.572	122.94
331.801	117.94
332.03	127.94
332.258	118.94
332.486	86.94
332.715	111.94
332.943	118.94
333.172	115.94
333.4	126.94
333.629	155.94
333.857	205.94
334.085	338.94
334.314	693.94
334.542	1289.94
334.771	1247.94
334.999	356.94
335.227	158.94
335.455	118.94
335.684	106.94
335.912	108.94
336.14	103.94
336.369	107.94
336.597	111.94
336.825	112.94
337.053	94.94
337.281	98.94
337.51	82.94
337.738	107.94
337.966	109.94
338.194	107.94
338.422	116.94
338.65	109.94
338.878	96.94
339.106	120.94
339.334	92.94
339.562	79.94
339.79	83.94
340.018	92.94
340.246	93.94
340.474	104.94
340.702	96.94
340.93	105.94
341.158	102.94
341.386	128.94
341.614	96.94
341.842	119.94
342.07	98.94
342.298	94.94
342.526	107.94
342.754	92.94
342.981	87.94
343.209	85.94
343.437	107.94
343.665	86.94
343.893	86.94
344.12	100.94
344.348	103.94
344.576	97.94
344.804	103.94
345.031	103.94
345.259	87.94
345.487	112.94
345.714	88.94
345.942	91.94
346.17	99.94
346.397	101.94
346.625	92.94
346.853	97.94
347.08	114.94
347.308	115.94
347.535	118.94
347.763	103.94
347.99	115.94
348.218	112.94
348.445	113.94
348.673	116.94
348.9	101.94
349.128	99.94
349.355	84.94
349.583	85.94
349.81	94.94
350.037	90.94
350.265	110.94
350.492	100.94
350.72	85.94
350.947	111.94
351.174	134.94
351.402	115.94
351.629	106.94
351.856	106.94
352.083	111.94
352.311	111.94
352.538	119.94
352.765	127.94
352.992	112.94
353.22	124.94
353.447	93.94
353.674	111.94
353.901	112.94
354.128	99.94
354.355	103.94
354.583	109.94
354.81	100.94
355.037	93.94
355.264	110.94
355.491	89.94
355.718	98.94
355.945	91.94
356.172	99.94
356.399	84.94
356.626	97.94
356.853	103.94
357.08	81.94
357.307	90.94
357.534	92.94
357.761	105.94
357.988	110.94
358.215	93.94
358.441	98.94
358.668	93.94
358.895	105.94
359.122	82.94
359.349	91.94
359.576	91.94
359.802	126.94
360.029	151.94
360.256	124.94
360.483	112.94
360.709	107.94
360.936	104.94
361.163	100.94
361.39	103.94
361.616	113.94
361.843	88.94
362.07	107.94
362.296	108.94
362.523	108.94
362.749	97.94
362.976	114.94
363.203	73.94
363.429	94.94
363.656	95.94
363.882	89.94
364.109	101.94
364.335	102.94
364.562	99.94
364.788	100.94
365.015	106.94
365.241	118.94
365.468	116.94
365.694	123.94
365.92	109.94
366.147	95.94
366.373	100.94
366.599	95.94
366.826	97.94
367.052	97.94
367.278	78.94
367.505	99.94
367.731	108.94
367.957	96.94
368.184	102.94
368.41	122.94
368.636	132.94
368.862	141.94
369.089	122.94
369.315	104.94
369.541	82.94
369.767	98.94
369.993	97.94
370.219	90.94
370.445	93.94
370.672	94.94
370.898	101.94
371.124	98.94
371.35	84.94
371.576	93.94
371.802	87.94
372.028	91.94
372.254	107.94
372.48	79.94
372.706	91.94
372.932	79.94
373.158	94.94
373.384	90.94
373.61	90.94
373.835	92.94
374.061	93.94
374.287	86.94
374.513	104.94
374.739	98.94
374.965	92.94
375.191	84.94
375.416	76.94
375.642	94.94
375.868	101.94
376.094	102.94
376.319	106.94
376.545	83.94
376.771	102.94
376.997	75.94
377.222	94.94
377.448	92.94
377.674	90.94
377.899	95.94
378.125	103.94
378.35	74.94
378.576	102.94
378.802	90.94
379.027	86.94
379.253	96.94
379.478	87.94
379.704	89.94
379.929	95.94
380.155	100.94
380.38	106.94
380.606	106.94
380.831	91.94
381.057	102.94
381.282	100.94
381.507	115.94
381.733	103.94
381.958	108.94
382.184	110.94
382.409	99.94
382.634	91.94
382.86	113.94
383.085	97.94
383.31	101.94
383.535	90.94
383.761	98.94
383.986	94.94
384.211	82.94
384.436	90.94
384.662	101.94
384.887	94.94
385.112	108.94
385.337	114.94
385.562	103.94
385.787	102.94
386.013	119.94
386.238	106.94
386.463	100.94
386.688	115.94
386.913	103.94
387.138	94.94
387.363	102.94
387.588	104.94
387.813	100.94
388.038	112.94
388.263	106.94
388.488	95.94
388.713	91.94
388.938	94.94
389.163	81.94
389.387	87.94
389.612	102.94
389.837	112.94
390.062	94.94
390.287	93.94
390.512	95.94
390.736	92.94
390.961	91.94
391.186	93.94
391.411	88.94
391.636	89.94
391.86	86.94
392.085	87.94
392.31	92.94
392.534	91.94
392.759	91.94
392.984	101.94
393.208	85.94
393.433	82.94
393.658	79.94
393.882	85.94
394.107	99.94
394.331	90.94
394.556	81.94
394.78	75.94
395.005	101.94
395.229	85.94
395.454	88.94
395.678	92.94
395.903	74.94
396.127	98.94
396.352	87.94
396.576	88.94
396.801	96.94
397.025	94.94
397.249	73.94
397.474	86.94
397.698	88.94
397.922	105.94
398.147	91.94
398.371	107.94
398.595	87.94
398.82	91.94
399.044	88.94
399.268	96.94
399.492	90.94
399.717	93.94
399.941	99.94
400.165	88.94
400.389	95.94
400.613	88.94
400.837	98.94
401.062	106.94
401.286	91.94
401.51	96.94
401.734	78.94
401.958	113.94
402.182	143.94
402.406	211.94
402.63	145.94
402.854	105.94
403.078	96.94
403.302	92.94
403.526	100.94
403.75	106.94
403.974	86.94
404.198	101.94
404.422	79.94
404.645	104.94
404.869	107.94
405.093	118.94
405.317	128.94
405.541	152.94
405.765	117.94
405.988	148.94
406.212	208.94
406.436	319.94
406.66	206.94
406.883	126.94
407.107	115.94
407.331	103.94
407.555	122.94
407.778	109.94
408.002	95.94
408.226	94.94
408.449	78.94
408.673	87.94
408.896	91.94
409.12	110.94
409.344	96.94
409.567	87.94
409.791	90.94
410.014	90.94
410.238	88.94
410.461	100.94
410.685	106.94
410.908	91.94
411.132	98.94
411.355	103.94
411.578	116.94
411.802	88.94
412.025	97.94
412.249	109.94
412.472	116.94
412.695	134.94
412.919	108.94
413.142	108.94
413.365	99.94
413.589	98.94
413.812	95.94
414.035	91.94
414.258	86.94
414.482	100.94
414.705	87.94
414.928	93.94
415.151	106.94
415.374	100.94
415.597	92.94
415.821	97.94
416.044	98.94
416.267	96.94
416.49	95.94
416.713	81.94
416.936	85.94
417.159	102.94
417.382	107.94
417.605	106.94
417.828	112.94
418.051	90.94
418.274	92.94
418.497	92.94
418.72	92.94
418.943	84.94
419.166	101.94
419.389	82.94
419.611	96.94
419.834	88.94
420.057	102.94
420.28	96.94
420.503	93.94
420.726	92.94
420.948	95.94
421.171	90.94
421.394	95.94
421.617	82.94
421.839	85.94
422.062	88.94
422.285	96.94
422.507	104.94
422.73	109.94
422.953	87.94
423.175	92.94
423.398	95.94
423.621	89.94
423.843	88.94
424.066	99.94
424.288	105.94
424.511	98.94
424.733	118.94
424.956	120.94
425.178	123.94
425.401	108.94
425.623	101.94
425.846	86.94
426.068	107.94
426.291	109.94
426.513	101.94
426.735	99.94
426.958	117.94
427.18	132.94
427.402	166.94
427.625	253.94
427.847	222.94
428.069	204.94
428.292	128.94
428.514	109.94
428.736	72.94
428.958	86.94
429.181	107.94
429.403	90.94
429.625	101.94
429.847	100.94
430.069	115.94
430.292	106.94
430.514	88.94
430.736	100.94
430.958	89.94
431.18	78.94
431.402	79.94
431.624	84.94
431.846	89.94
432.068	82.94
432.29	97.94
432.512	93.94
432.734	75.94
432.956	84.94
433.178	107.94
433.4	100.94
433.622	92.94
433.844	97.94
434.066	87.94
434.287	92.94
434.509	85.94
434.731	91.94
434.953	96.94
435.175	100.94
435.397	99.94
435.618	100.94
435.84	104.94
436.062	131.94
436.284	141.94
436.505	111.94
436.727	108.94
436.949	96.94
437.17	114.94
437.392	88.94
437.614	110.94
437.835	136.94
438.057	158.94
438.278	130.94
438.5	109.94
438.721	150.94
438.943	107.94
439.165	86.94
439.386	104.94
439.608	91.94
439.829	121.94
440.05	150.94
440.272	174.94
440.493	127.94
440.715	106.94
440.936	100.94
441.158	90.94
441.379	101.94
441.6	103.94
441.822	112.94
442.043	104.94
442.264	111.94
442.486	107.94
442.707	96.94
442.928	120.94
443.149	158.94
443.371	179.94
443.592	120.94
443.813	122.94
444.034	103.94
444.255	84.94
444.476	104.94
444.698	100.94
444.919	94.94
445.14	129.94
445.361	123.94
445.582	139.94
445.803	171.94
446.024	186.94
446.245	160.94
446.466	127.94
446.687	102.94
446.908	87.94
447.129	89.94
447.35	85.94
447.571	99.94
447.792	115.94
448.013	111.94
448.234	121.94
448.455	116.94
448.675	122.94
448.896	151.94
449.117	104.94
449.338	111.94
449.559	154.94
449.779	150.94
450	111.94
450.221	92.94
450.442	102.94
450.662	107.94
450.883	119.94
451.104	148.94
451.324	113.94
451.545	90.94
451.766	76.94
451.986	91.94
452.207	93.94
452.428	94.94
452.648	99.94
452.869	126.94
453.089	135.94
453.31	139.94
453.53	112.94
453.751	106.94
453.971	114.94
454.192	144.94
454.412	108.94
454.633	73.94
454.853	82.94
455.073	90.94
455.294	96.94
455.514	108.94
455.734	87.94
455.955	78.94
456.175	87.94
456.395	89.94
456.616	96.94
456.836	95.94
457.056	82.94
457.276	86.94
457.497	99.94
457.717	79.94
457.937	103.94
458.157	79.94
458.377	92.94
458.598	113.94
458.818	206.94
459.038	235.94
459.258	141.94
459.478	92.94
459.698	103.94
459.918	96.94
460.138	86.94
460.358	82.94
460.578	99.94
460.798	77.94
461.018	100.94
461.238	94.94
461.458	90.94
461.678	93.94
461.898	94.94
462.118	82.94
462.338	72.94
462.558	72.94
462.777	87.94
462.997	86.94
463.217	89.94
463.437	99.94
463.657	77.94
463.876	100.94
464.096	94.94
464.316	102.94
464.536	95.94
464.755	102.94
464.975	134.94
465.195	233.94
465.414	222.94
465.634	109.94
465.854	85.94
466.073	80.94
466.293	83.94
466.512	79.94
466.732	79.94
466.951	86.94
467.171	86.94
467.391	93.94
467.61	142.94
467.829	181.94
468.049	406.94
468.268	624.94
468.488	185.94
468.707	104.94
468.927	95.94
469.146	91.94
469.365	103.94
469.585	102.94
469.804	104.94
470.023	87.94
470.243	94.94
470.462	108.94
470.681	146.94
470.901	110.94
471.12	91.94
471.339	114.94
471.558	120.94
471.777	137.94
471.997	232.94
472.216	818.94
472.435	1825.94
472.654	461.94
472.873	155.94
473.092	103.94
473.311	101.94
473.53	101.94
473.749	103.94
473.968	116.94
474.187	116.94
474.406	119.94
474.625	101.94
474.844	95.94
475.063	82.94
475.282	112.94
475.501	98.94
475.72	99.94
475.939	75.94
476.158	87.94
476.377	92.94
476.596	95.94
476.814	106.94
477.033	96.94
477.252	96.94
477.471	83.94
477.69	87.94
477.908	85.94
478.127	95.94
478.346	94.94
478.564	100.94
478.783	95.94
479.002	105.94
479.22	109.94
479.439	116.94
479.658	124.94
479.876	118.94
480.095	110.94
480.313	129.94
480.532	152.94
480.751	230.94
480.969	749.94
481.188	3110.94
481.406	1845.94
481.624	288.94
481.843	134.94
482.061	112.94
482.28	102.94
482.498	97.94
482.717	91.94
482.935	101.94
483.153	81.94
483.372	100.94
483.59	88.94
483.808	91.94
484.027	95.94
484.245	93.94
484.463	109.94
484.681	100.94
484.9	90.94
485.118	110.94
485.336	92.94
485.554	101.94
485.772	107.94
485.99	115.94
486.209	117.94
486.427	118.94
486.645	121.94
486.863	122.94
487.081	109.94
487.299	99.94
487.517	95.94
487.735	94.94
487.953	96.94
488.171	98.94
488.389	119.94
488.607	106.94
488.825	102.94
489.043	91.94
489.261	89.94
489.479	72.94
489.696	102.94
489.914	107.94
490.132	85.94
490.35	94.94
490.568	93.94
490.786	92.94
491.003	97.94
491.221	102.94
491.439	104.94
491.657	108.94
491.874	94.94
492.092	106.94
492.31	108.94
492.527	109.94
492.745	91.94
492.963	98.94
493.18	96.94
493.398	82.94
493.615	98.94
493.833	97.94
494.05	100.94
494.268	96.94
494.485	86.94
494.703	87.94
494.92	76.94
495.138	92.94
495.355	84.94
495.573	88.94
495.79	99.94
496.008	85.94
496.225	108.94
496.442	89.94
496.66	96.94
496.877	87.94
497.094	91.94
497.312	95.94
497.529	88.94
497.746	94.94
497.963	95.94
498.181	104.94
498.398	102.94
498.615	118.94
498.832	123.94
499.049	97.94
499.267	98.94
499.484	87.94
499.701	93.94
499.918	101.94
500.135	88.94
500.352	89.94
500.569	110.94
500.786	100.94
501.003	91.94
501.22	100.94
501.437	81.94
501.654	99.94
501.871	118.94
502.088	92.94
502.305	106.94
502.522	98.94
502.739	87.94
502.956	96.94
503.172	97.94
503.389	100.94
503.606	110.94
503.823	98.94
504.04	82.94
504.256	102.94
504.473	94.94
504.69	91.94
504.907	97.94
505.123	95.94
505.34	87.94
505.557	93.94
505.773	93.94
505.99	85.94
506.207	98.94
506.423	87.94
506.64	99.94
506.856	93.94
507.073	96.94
507.289	112.94
507.506	110.94
507.722	118.94
507.939	105.94
508.155	100.94
508.372	90.94
508.588	105.94
508.805	102.94
509.021	102.94
509.238	92.94
509.454	105.94
509.67	93.94
509.887	119.94
510.103	142.94
510.319	240.94
510.536	939.94
510.752	3223.94
510.968	896.94
511.184	181.94
511.401	130.94
511.617	106.94
511.833	110.94
