Data from Circ_2000_H10_HRD10591_00059.txt Node
Date: Wed Jan 03 10:49:45 EST 2024
User: Yrep
Spectrometer: HR+D1059
Trigger mode: 1
Integration Time (sec): 1.000000E-1
Scans to average: 1
Electric dark correction enabled: true
Nonlinearity correction enabled: false
Boxcar width: 0
XAxis mode: Wavelengths
Number of Pixels in Spectrum: 2048
>>>>>Begin Spectral Data<<<<<
223.165	-17.56
223.4	-17.56
223.635	-17.56
223.869	-4.56
224.104	-25.56
224.338	-7.56
224.573	-8.56
224.808	-14.56
225.042	-16.56
225.277	-11.56
225.511	-8.56
225.746	4.44
225.98	-2.56
226.215	12.44
226.449	24.44
226.683	27.44
226.918	15.44
227.152	33.44
227.387	30.44
227.621	44.44
227.856	48.44
228.09	47.44
228.324	48.44
228.559	59.44
228.793	57.44
229.027	61.44
229.262	65.44
229.496	74.44
229.73	91.44
229.964	89.44
230.199	74.44
230.433	79.44
230.667	85.44
230.901	80.44
231.136	74.44
231.37	76.44
231.604	74.44
231.838	69.44
232.072	67.44
232.306	83.44
232.541	82.44
232.775	75.44
233.009	68.44
233.243	79.44
233.477	81.44
233.711	75.44
233.945	78.44
234.179	85.44
234.413	84.44
234.647	60.44
234.881	74.44
235.115	85.44
235.349	57.44
235.583	76.44
235.817	71.44
236.051	81.44
236.285	88.44
236.519	83.44
236.753	88.44
236.987	81.44
237.221	87.44
237.455	84.44
237.689	91.44
237.922	79.44
238.156	72.44
238.39	64.44
238.624	67.44
238.858	67.44
239.091	85.44
239.325	77.44
239.559	76.44
239.793	86.44
240.027	96.44
240.26	81.44
240.494	84.44
240.728	93.44
240.961	83.44
241.195	67.44
241.429	84.44
241.662	79.44
241.896	75.44
242.13	71.44
242.363	85.44
242.597	84.44
242.83	76.44
243.064	79.44
243.298	81.44
243.531	71.44
243.765	81.44
243.998	88.44
244.232	92.44
244.465	84.44
244.699	80.44
244.932	68.44
245.166	93.44
245.399	88.44
245.633	77.44
245.866	87.44
246.099	79.44
246.333	67.44
246.566	76.44
246.8	77.44
247.033	82.44
247.266	66.44
247.5	78.44
247.733	57.44
247.966	64.44
248.2	72.44
248.433	93.44
248.666	83.44
248.899	68.44
249.133	81.44
249.366	104.44
249.599	105.44
249.832	76.44
250.066	73.44
250.299	81.44
250.532	73.44
250.765	67.44
250.998	76.44
251.231	85.44
251.465	81.44
251.698	80.44
251.931	89.44
252.164	78.44
252.397	91.44
252.63	74.44
252.863	77.44
253.096	76.44
253.329	79.44
253.562	71.44
253.795	86.44
254.028	83.44
254.261	85.44
254.494	84.44
254.727	96.44
254.96	87.44
255.193	76.44
255.426	80.44
255.659	72.44
255.892	93.44
256.124	79.44
256.357	74.44
256.59	85.44
256.823	84.44
257.056	79.44
257.289	71.44
257.521	80.44
257.754	77.44
257.987	86.44
258.22	83.44
258.452	94.44
258.685	101.44
258.918	78.44
259.151	82.44
259.383	97.44
259.616	75.44
259.849	80.44
260.081	76.44
260.314	78.44
260.547	86.44
260.779	104.44
261.012	80.44
261.244	92.44
261.477	92.44
261.71	91.44
261.942	117.44
262.175	120.44
262.407	85.44
262.64	92.44
262.872	76.44
263.105	91.44
263.337	91.44
263.57	93.44
263.802	86.44
264.035	83.44
264.267	67.44
264.499	78.44
264.732	87.44
264.964	88.44
265.197	71.44
265.429	95.44
265.661	75.44
265.894	85.44
266.126	82.44
266.358	63.44
266.591	104.44
266.823	93.44
267.055	85.44
267.287	81.44
267.52	68.44
267.752	91.44
267.984	81.44
268.216	80.44
268.448	79.44
268.681	102.44
268.913	72.44
269.145	84.44
269.377	80.44
269.609	85.44
269.841	80.44
270.073	82.44
270.306	82.44
270.538	83.44
270.77	92.44
271.002	73.44
271.234	105.44
271.466	88.44
271.698	99.44
271.93	82.44
272.162	79.44
272.394	94.44
272.626	88.44
272.858	82.44
273.09	88.44
273.322	101.44
273.553	82.44
273.785	88.44
274.017	96.44
274.249	92.44
274.481	89.44
274.713	80.44
274.945	89.44
275.176	84.44
275.408	89.44
275.64	101.44
275.872	104.44
276.104	93.44
276.335	90.44
276.567	120.44
276.799	127.44
277.031	130.44
277.262	147.44
277.494	129.44
277.726	93.44
277.957	81.44
278.189	101.44
278.421	96.44
278.652	78.44
278.884	99.44
279.115	96.44
279.347	83.44
279.579	97.44
279.81	113.44
280.042	145.44
280.273	177.44
280.505	133.44
280.736	104.44
280.968	84.44
281.199	95.44
281.431	91.44
281.662	92.44
281.894	93.44
282.125	122.44
282.356	124.44
282.588	167.44
282.819	121.44
283.051	93.44
283.282	89.44
283.513	81.44
283.745	91.44
283.976	84.44
284.207	84.44
284.439	79.44
284.67	83.44
284.901	87.44
285.132	89.44
285.364	72.44
285.595	85.44
285.826	96.44
286.057	100.44
286.288	85.44
286.52	86.44
286.751	79.44
286.982	88.44
287.213	94.44
287.444	79.44
287.675	87.44
287.906	90.44
288.138	101.44
288.369	94.44
288.6	88.44
288.831	94.44
289.062	103.44
289.293	85.44
289.524	86.44
289.755	90.44
289.986	86.44
290.217	78.44
290.448	80.44
290.679	82.44
290.91	96.44
291.141	93.44
291.371	100.44
291.602	100.44
291.833	95.44
292.064	79.44
292.295	79.44
292.526	87.44
292.757	90.44
292.987	94.44
293.218	87.44
293.449	103.44
293.68	86.44
293.91	87.44
294.141	103.44
294.372	79.44
294.603	86.44
294.833	99.44
295.064	100.44
295.295	86.44
295.525	87.44
295.756	105.44
295.987	127.44
296.217	159.44
296.448	138.44
296.679	98.44
296.909	87.44
297.14	104.44
297.37	94.44
297.601	100.44
297.831	98.44
298.062	95.44
298.292	74.44
298.523	84.44
298.753	81.44
298.984	89.44
299.214	91.44
299.445	92.44
299.675	93.44
299.905	93.44
300.136	101.44
300.366	92.44
300.597	103.44
300.827	92.44
301.057	90.44
301.288	110.44
301.518	93.44
301.748	88.44
301.979	113.44
302.209	101.44
302.439	90.44
302.669	79.44
302.9	89.44
303.13	95.44
303.36	112.44
303.59	128.44
303.82	132.44
304.051	93.44
304.281	92.44
304.511	86.44
304.741	94.44
304.971	97.44
305.201	104.44
305.431	84.44
305.661	95.44
305.891	90.44
306.121	102.44
306.352	106.44
306.582	109.44
306.812	104.44
307.042	106.44
307.272	143.44
307.502	135.44
307.731	135.44
307.961	123.44
308.191	91.44
308.421	88.44
308.651	75.44
308.881	95.44
309.111	107.44
309.341	77.44
309.571	103.44
309.8	96.44
310.03	106.44
310.26	115.44
310.49	101.44
310.72	102.44
310.949	100.44
311.179	100.44
311.409	83.44
311.639	80.44
311.868	103.44
312.098	116.44
312.328	74.44
312.557	104.44
312.787	96.44
313.017	99.44
313.246	94.44
313.476	103.44
313.706	91.44
313.935	106.44
314.165	112.44
314.394	91.44
314.624	99.44
314.853	98.44
315.083	96.44
315.312	94.44
315.542	90.44
315.771	100.44
316.001	85.44
316.23	112.44
316.46	86.44
316.689	93.44
316.919	85.44
317.148	93.44
317.377	106.44
317.607	100.44
317.836	93.44
318.065	83.44
318.295	84.44
318.524	69.44
318.753	94.44
318.983	98.44
319.212	99.44
319.441	118.44
319.67	123.44
319.9	104.44
320.129	83.44
320.358	117.44
320.587	111.44
320.816	100.44
321.046	101.44
321.275	107.44
321.504	93.44
321.733	110.44
321.962	88.44
322.191	91.44
322.42	109.44
322.649	134.44
322.878	132.44
323.108	119.44
323.337	138.44
323.566	152.44
323.795	173.44
324.024	244.44
324.253	469.44
324.482	1030.44
324.71	2139.44
324.939	2843.44
325.168	1019.44
325.397	291.44
325.626	169.44
325.855	134.44
326.084	149.44
326.313	152.44
326.542	177.44
326.77	278.44
326.999	528.44
327.228	1154.44
327.457	2120.44
327.686	1733.44
327.914	535.44
328.143	397.44
328.372	421.44
328.6	261.44
328.829	165.44
329.058	189.44
329.287	181.44
329.515	152.44
329.744	180.44
329.972	326.44
330.201	615.44
330.43	853.44
330.658	407.44
330.887	234.44
331.115	161.44
331.344	114.44
331.572	115.44
331.801	124.44
332.03	124.44
332.258	102.44
332.486	93.44
332.715	104.44
332.943	95.44
333.172	92.44
333.4	101.44
333.629	142.44
333.857	184.44
334.085	309.44
334.314	566.44
334.542	1074.44
334.771	1029.44
334.999	310.44
335.227	131.44
335.455	127.44
335.684	108.44
335.912	102.44
336.14	103.44
336.369	102.44
336.597	107.44
336.825	108.44
337.053	98.44
337.281	99.44
337.51	87.44
337.738	93.44
337.966	88.44
338.194	100.44
338.422	99.44
338.65	86.44
338.878	88.44
339.106	91.44
339.334	93.44
339.562	99.44
339.79	102.44
340.018	98.44
340.246	84.44
340.474	111.44
340.702	100.44
340.93	95.44
341.158	98.44
341.386	113.44
341.614	95.44
341.842	94.44
342.07	96.44
342.298	92.44
342.526	83.44
342.754	91.44
342.981	100.44
343.209	108.44
343.437	91.44
343.665	100.44
343.893	100.44
344.12	86.44
344.348	87.44
344.576	96.44
344.804	81.44
345.031	100.44
345.259	99.44
345.487	97.44
345.714	90.44
345.942	92.44
346.17	84.44
346.397	99.44
346.625	89.44
346.853	103.44
347.08	85.44
347.308	92.44
347.535	111.44
347.763	103.44
347.99	109.44
348.218	115.44
348.445	103.44
348.673	105.44
348.9	109.44
349.128	101.44
349.355	103.44
349.583	104.44
349.81	102.44
350.037	81.44
350.265	119.44
350.492	97.44
350.72	104.44
350.947	111.44
351.174	105.44
351.402	110.44
351.629	114.44
351.856	113.44
352.083	107.44
352.311	110.44
352.538	121.44
352.765	122.44
352.992	113.44
353.22	115.44
353.447	121.44
353.674	104.44
353.901	89.44
354.128	97.44
354.355	85.44
354.583	105.44
354.81	98.44
355.037	101.44
355.264	100.44
355.491	84.44
355.718	105.44
355.945	100.44
356.172	92.44
356.399	98.44
356.626	100.44
356.853	94.44
357.08	89.44
357.307	97.44
357.534	87.44
357.761	87.44
357.988	95.44
358.215	90.44
358.441	99.44
358.668	92.44
358.895	79.44
359.122	91.44
359.349	96.44
359.576	100.44
359.802	104.44
360.029	124.44
360.256	129.44
360.483	120.44
360.709	101.44
360.936	85.44
361.163	109.44
361.39	101.44
361.616	102.44
361.843	104.44
362.07	93.44
362.296	108.44
362.523	93.44
362.749	99.44
362.976	99.44
363.203	92.44
363.429	88.44
363.656	81.44
363.882	93.44
364.109	90.44
364.335	110.44
364.562	85.44
364.788	85.44
365.015	114.44
365.241	102.44
365.468	108.44
365.694	110.44
365.92	99.44
366.147	98.44
366.373	92.44
366.599	94.44
366.826	96.44
367.052	112.44
367.278	89.44
367.505	91.44
367.731	85.44
367.957	88.44
368.184	89.44
368.41	103.44
368.636	115.44
368.862	131.44
369.089	109.44
369.315	97.44
369.541	94.44
369.767	88.44
369.993	96.44
370.219	108.44
370.445	88.44
370.672	82.44
370.898	90.44
371.124	90.44
371.35	92.44
371.576	92.44
371.802	78.44
372.028	82.44
372.254	77.44
372.48	85.44
372.706	86.44
372.932	84.44
373.158	90.44
373.384	93.44
373.61	95.44
373.835	87.44
374.061	101.44
374.287	86.44
374.513	82.44
374.739	106.44
374.965	83.44
375.191	83.44
375.416	83.44
375.642	94.44
375.868	97.44
376.094	96.44
376.319	78.44
376.545	73.44
376.771	89.44
376.997	105.44
377.222	89.44
377.448	87.44
377.674	88.44
377.899	79.44
378.125	90.44
378.35	84.44
378.576	88.44
378.802	95.44
379.027	89.44
379.253	85.44
379.478	98.44
379.704	89.44
379.929	102.44
380.155	96.44
380.38	84.44
380.606	93.44
380.831	89.44
381.057	87.44
381.282	67.44
381.507	100.44
381.733	85.44
381.958	84.44
382.184	99.44
382.409	96.44
382.634	101.44
382.86	99.44
383.085	77.44
383.31	96.44
383.535	91.44
383.761	97.44
383.986	110.44
384.211	109.44
384.436	103.44
384.662	100.44
384.887	100.44
385.112	108.44
385.337	101.44
385.562	98.44
385.787	102.44
386.013	113.44
386.238	128.44
386.463	94.44
386.688	95.44
386.913	99.44
387.138	89.44
387.363	101.44
387.588	96.44
387.813	82.44
388.038	109.44
388.263	115.44
388.488	123.44
388.713	103.44
388.938	97.44
389.163	88.44
389.387	91.44
389.612	93.44
389.837	95.44
390.062	94.44
390.287	106.44
390.512	103.44
390.736	86.44
390.961	79.44
391.186	82.44
391.411	100.44
391.636	102.44
391.86	93.44
392.085	87.44
392.31	86.44
392.534	98.44
392.759	82.44
392.984	86.44
393.208	96.44
393.433	93.44
393.658	89.44
393.882	92.44
394.107	85.44
394.331	79.44
394.556	77.44
394.78	80.44
395.005	72.44
395.229	85.44
395.454	87.44
395.678	89.44
395.903	93.44
396.127	80.44
396.352	85.44
396.576	92.44
396.801	83.44
397.025	80.44
397.249	91.44
397.474	88.44
397.698	79.44
397.922	89.44
398.147	94.44
398.371	104.44
398.595	85.44
398.82	87.44
399.044	81.44
399.268	86.44
399.492	85.44
399.717	90.44
399.941	83.44
400.165	92.44
400.389	93.44
400.613	105.44
400.837	104.44
401.062	91.44
401.286	105.44
401.51	82.44
401.734	92.44
401.958	106.44
402.182	131.44
402.406	190.44
402.63	120.44
402.854	107.44
403.078	96.44
403.302	87.44
403.526	98.44
403.75	89.44
403.974	94.44
404.198	86.44
404.422	93.44
404.645	100.44
404.869	102.44
405.093	96.44
405.317	138.44
405.541	118.44
405.765	106.44
405.988	124.44
406.212	212.44
406.436	286.44
406.66	208.44
406.883	111.44
407.107	97.44
407.331	112.44
407.555	124.44
407.778	105.44
408.002	91.44
408.226	94.44
408.449	92.44
408.673	86.44
408.896	97.44
409.12	85.44
409.344	81.44
409.567	87.44
409.791	87.44
410.014	105.44
410.238	94.44
410.461	96.44
410.685	89.44
410.908	85.44
411.132	93.44
411.355	94.44
411.578	105.44
411.802	76.44
412.025	95.44
412.249	107.44
412.472	119.44
412.695	123.44
412.919	109.44
413.142	93.44
413.365	71.44
413.589	87.44
413.812	83.44
414.035	101.44
414.258	88.44
414.482	87.44
414.705	75.44
414.928	89.44
415.151	98.44
415.374	88.44
415.597	88.44
415.821	102.44
416.044	84.44
416.267	95.44
416.49	91.44
416.713	71.44
416.936	84.44
417.159	97.44
417.382	92.44
417.605	95.44
417.828	108.44
418.051	110.44
418.274	96.44
418.497	80.44
418.72	71.44
418.943	93.44
419.166	86.44
419.389	109.44
419.611	89.44
419.834	100.44
420.057	92.44
420.28	85.44
420.503	95.44
420.726	84.44
420.948	85.44
421.171	111.44
421.394	90.44
421.617	79.44
421.839	75.44
422.062	87.44
422.285	95.44
422.507	113.44
422.73	99.44
422.953	92.44
423.175	82.44
423.398	89.44
423.621	92.44
423.843	89.44
424.066	93.44
424.288	92.44
424.511	90.44
424.733	92.44
424.956	113.44
425.178	105.44
425.401	111.44
425.623	120.44
425.846	93.44
426.068	98.44
426.291	96.44
426.513	96.44
426.735	95.44
426.958	93.44
427.18	113.44
427.402	177.44
427.625	224.44
427.847	205.44
428.069	193.44
428.292	111.44
428.514	83.44
428.736	84.44
428.958	100.44
429.181	92.44
429.403	85.44
429.625	86.44
429.847	86.44
430.069	114.44
430.292	90.44
430.514	76.44
430.736	76.44
430.958	89.44
431.18	90.44
431.402	80.44
431.624	83.44
431.846	86.44
432.068	90.44
432.29	80.44
432.512	97.44
432.734	89.44
432.956	97.44
433.178	100.44
433.4	109.44
433.622	92.44
433.844	77.44
434.066	82.44
434.287	73.44
434.509	73.44
434.731	92.44
434.953	93.44
435.175	93.44
435.397	95.44
435.618	102.44
435.84	118.44
436.062	138.44
436.284	126.44
436.505	90.44
436.727	103.44
436.949	80.44
437.17	102.44
437.392	94.44
437.614	98.44
437.835	112.44
438.057	139.44
438.278	113.44
438.5	116.44
438.721	130.44
438.943	105.44
439.165	86.44
439.386	98.44
439.608	96.44
439.829	105.44
440.05	135.44
440.272	176.44
440.493	111.44
440.715	80.44
440.936	95.44
441.158	100.44
441.379	83.44
441.6	92.44
441.822	97.44
442.043	94.44
442.264	131.44
442.486	109.44
442.707	83.44
442.928	118.44
443.149	154.44
443.371	177.44
443.592	114.44
443.813	123.44
444.034	131.44
444.255	93.44
444.476	83.44
444.698	92.44
444.919	82.44
445.14	130.44
445.361	141.44
445.582	148.44
445.803	170.44
446.024	167.44
446.245	175.44
446.466	130.44
446.687	99.44
446.908	76.44
447.129	89.44
447.35	99.44
447.571	108.44
447.792	98.44
448.013	99.44
448.234	119.44
448.455	102.44
448.675	133.44
448.896	124.44
449.117	112.44
449.338	100.44
449.559	143.44
449.779	139.44
450	88.44
450.221	84.44
450.442	90.44
450.662	101.44
450.883	116.44
451.104	136.44
451.324	129.44
451.545	91.44
451.766	79.44
451.986	99.44
452.207	97.44
452.428	105.44
452.648	115.44
452.869	117.44
453.089	130.44
453.31	139.44
453.53	86.44
453.751	95.44
453.971	116.44
454.192	123.44
454.412	95.44
454.633	83.44
454.853	92.44
455.073	96.44
455.294	99.44
455.514	92.44
455.734	95.44
455.955	96.44
456.175	110.44
456.395	75.44
456.616	82.44
456.836	95.44
457.056	87.44
457.276	71.44
457.497	108.44
457.717	90.44
457.937	80.44
458.157	81.44
458.377	93.44
458.598	111.44
458.818	182.44
459.038	221.44
459.258	127.44
459.478	100.44
459.698	87.44
459.918	76.44
460.138	83.44
460.358	85.44
460.578	91.44
460.798	84.44
461.018	93.44
461.238	80.44
461.458	98.44
461.678	85.44
461.898	84.44
462.118	81.44
462.338	90.44
462.558	76.44
462.777	83.44
462.997	100.44
463.217	99.44
463.437	91.44
463.657	83.44
463.876	85.44
464.096	93.44
464.316	97.44
464.536	86.44
464.755	90.44
464.975	120.44
465.195	219.44
465.414	224.44
465.634	113.44
465.854	92.44
466.073	93.44
466.293	90.44
466.512	73.44
466.732	83.44
466.951	88.44
467.171	89.44
467.391	93.44
467.61	123.44
467.829	153.44
468.049	347.44
468.268	485.44
468.488	163.44
468.707	87.44
468.927	83.44
469.146	95.44
469.365	96.44
469.585	92.44
469.804	95.44
470.023	94.44
470.243	103.44
470.462	102.44
470.681	139.44
470.901	95.44
471.12	92.44
471.339	100.44
471.558	110.44
471.777	130.44
471.997	196.44
472.216	654.44
472.435	1443.44
472.654	349.44
472.873	119.44
473.092	91.44
473.311	92.44
473.53	90.44
473.749	72.44
473.968	92.44
474.187	104.44
474.406	117.44
474.625	97.44
474.844	97.44
475.063	93.44
475.282	91.44
475.501	79.44
475.72	98.44
475.939	89.44
476.158	86.44
476.377	89.44
476.596	93.44
476.814	103.44
477.033	99.44
477.252	85.44
477.471	88.44
477.69	92.44
477.908	84.44
478.127	105.44
478.346	92.44
478.564	105.44
478.783	108.44
479.002	116.44
479.22	90.44
479.439	133.44
479.658	130.44
479.876	102.44
480.095	102.44
480.313	108.44
480.532	128.44
480.751	205.44
480.969	605.44
481.188	2555.44
481.406	1473.44
481.624	249.44
481.843	120.44
482.061	108.44
482.28	83.44
482.498	85.44
482.717	87.44
482.935	89.44
483.153	99.44
483.372	85.44
483.59	92.44
483.808	90.44
484.027	89.44
484.245	94.44
484.463	99.44
484.681	92.44
484.9	93.44
485.118	93.44
485.336	96.44
485.554	102.44
485.772	107.44
485.99	85.44
486.209	104.44
486.427	101.44
486.645	128.44
486.863	139.44
487.081	107.44
487.299	100.44
487.517	94.44
487.735	99.44
487.953	79.44
488.171	99.44
488.389	106.44
488.607	113.44
488.825	93.44
489.043	109.44
489.261	91.44
489.479	85.44
489.696	94.44
489.914	88.44
490.132	82.44
490.35	97.44
490.568	91.44
490.786	92.44
491.003	89.44
491.221	85.44
491.439	104.44
491.657	90.44
491.874	90.44
492.092	94.44
492.31	92.44
492.527	89.44
492.745	97.44
492.963	91.44
493.18	99.44
493.398	99.44
493.615	91.44
493.833	88.44
494.05	86.44
494.268	89.44
494.485	93.44
494.703	91.44
494.92	100.44
495.138	97.44
495.355	96.44
495.573	99.44
495.79	91.44
496.008	80.44
496.225	87.44
496.442	82.44
496.66	96.44
496.877	91.44
497.094	95.44
497.312	82.44
497.529	90.44
497.746	100.44
497.963	118.44
498.181	96.44
498.398	99.44
498.615	116.44
498.832	111.44
499.049	91.44
499.267	84.44
499.484	83.44
499.701	86.44
499.918	95.44
500.135	92.44
500.352	79.44
500.569	94.44
500.786	94.44
501.003	95.44
501.22	97.44
501.437	100.44
501.654	87.44
501.871	123.44
502.088	106.44
502.305	93.44
502.522	89.44
502.739	98.44
502.956	101.44
503.172	101.44
503.389	98.44
503.606	116.44
503.823	106.44
504.04	89.44
504.256	81.44
504.473	87.44
504.69	98.44
504.907	87.44
505.123	79.44
505.34	77.44
505.557	89.44
505.773	94.44
505.99	84.44
506.207	93.44
506.423	92.44
506.64	87.44
506.856	102.44
507.073	80.44
507.289	101.44
507.506	106.44
507.722	118.44
507.939	123.44
508.155	106.44
508.372	106.44
508.588	81.44
508.805	83.44
509.021	96.44
509.238	105.44
509.454	95.44
509.67	89.44
509.887	104.44
510.103	132.44
510.319	240.44
510.536	860.44
510.752	3007.44
510.968	844.44
511.184	185.44
511.401	130.44
511.617	91.44
511.833	105.44
512.049	80.44
512.265	89.44
512.481	97.44
512.698	92.44
512.914	93.44
513.13	74.44
513.346	97.44
513.562	101.44
513.778	107.44
