Data from Circ_2000_H10_HRD10591_00069.txt Node
Date: Wed Jan 03 10:49:47 EST 2024
User: Yrep
Spectrometer: HR+D1059
Trigger mode: 1
Integration Time (sec): 1.000000E-1
Scans to average: 1
Electric dark correction enabled: true
Nonlinearity correction enabled: false
Boxcar width: 0
XAxis mode: Wavelengths
Number of Pixels in Spectrum: 2048
>>>>>Begin Spectral Data<<<<<
223.165	-0.19
223.4	-0.19
223.635	-0.19
223.869	-21.19
224.104	-24.19
224.338	-14.19
224.573	-29.19
224.808	-3.19
225.042	-5.19
225.277	0.81
225.511	5.81
225.746	2.81
225.98	0.81
226.215	13.81
226.449	14.81
226.683	18.81
226.918	19.81
227.152	19.81
227.387	35.81
227.621	38.81
227.856	42.81
228.09	46.81
228.324	42.81
228.559	47.81
228.793	57.81
229.027	67.81
229.262	67.81
229.496	89.81
229.73	101.81
229.964	98.81
230.199	83.81
230.433	65.81
230.667	72.81
230.901	83.81
231.136	90.81
231.37	78.81
231.604	74.81
231.838	76.81
232.072	79.81
232.306	75.81
232.541	75.81
232.775	68.81
233.009	65.81
233.243	71.81
233.477	74.81
233.711	93.81
233.945	75.81
234.179	73.81
234.413	86.81
234.647	77.81
234.881	72.81
235.115	71.81
235.349	79.81
235.583	81.81
235.817	91.81
236.051	83.81
236.285	76.81
236.519	76.81
236.753	81.81
236.987	80.81
237.221	85.81
237.455	83.81
237.689	83.81
237.922	84.81
238.156	68.81
238.39	73.81
238.624	75.81
238.858	77.81
239.091	60.81
239.325	76.81
239.559	87.81
239.793	86.81
240.027	84.81
240.26	75.81
240.494	76.81
240.728	73.81
240.961	68.81
241.195	76.81
241.429	74.81
241.662	85.81
241.896	74.81
242.13	85.81
242.363	82.81
242.597	64.81
242.83	74.81
243.064	75.81
243.298	69.81
243.531	84.81
243.765	79.81
243.998	84.81
244.232	67.81
244.465	83.81
244.699	88.81
244.932	78.81
245.166	67.81
245.399	66.81
245.633	79.81
245.866	84.81
246.099	71.81
246.333	79.81
246.566	78.81
246.8	74.81
247.033	72.81
247.266	91.81
247.5	90.81
247.733	80.81
247.966	77.81
248.2	74.81
248.433	85.81
248.666	81.81
248.899	91.81
249.133	88.81
249.366	89.81
249.599	105.81
249.832	94.81
250.066	99.81
250.299	85.81
250.532	80.81
250.765	78.81
250.998	77.81
251.231	76.81
251.465	78.81
251.698	78.81
251.931	96.81
252.164	90.81
252.397	79.81
252.63	68.81
252.863	82.81
253.096	78.81
253.329	84.81
253.562	91.81
253.795	77.81
254.028	83.81
254.261	92.81
254.494	75.81
254.727	88.81
254.96	67.81
255.193	82.81
255.426	80.81
255.659	79.81
255.892	95.81
256.124	77.81
256.357	80.81
256.59	90.81
256.823	70.81
257.056	85.81
257.289	91.81
257.521	91.81
257.754	73.81
257.987	91.81
258.22	88.81
258.452	100.81
258.685	95.81
258.918	66.81
259.151	91.81
259.383	73.81
259.616	81.81
259.849	81.81
260.081	83.81
260.314	83.81
260.547	91.81
260.779	88.81
261.012	96.81
261.244	106.81
261.477	93.81
261.71	97.81
261.942	138.81
262.175	155.81
262.407	95.81
262.64	80.81
262.872	88.81
263.105	78.81
263.337	87.81
263.57	80.81
263.802	78.81
264.035	79.81
264.267	79.81
264.499	76.81
264.732	81.81
264.964	84.81
265.197	81.81
265.429	79.81
265.661	82.81
265.894	84.81
266.126	87.81
266.358	72.81
266.591	74.81
266.823	87.81
267.055	82.81
267.287	68.81
267.52	72.81
267.752	98.81
267.984	85.81
268.216	84.81
268.448	81.81
268.681	76.81
268.913	89.81
269.145	94.81
269.377	85.81
269.609	71.81
269.841	85.81
270.073	79.81
270.306	82.81
270.538	77.81
270.77	80.81
271.002	64.81
271.234	81.81
271.466	88.81
271.698	82.81
271.93	94.81
272.162	79.81
272.394	80.81
272.626	93.81
272.858	88.81
273.09	82.81
273.322	108.81
273.553	74.81
273.785	91.81
274.017	72.81
274.249	88.81
274.481	90.81
274.713	92.81
274.945	80.81
275.176	86.81
275.408	92.81
275.64	111.81
275.872	106.81
276.104	105.81
276.335	103.81
276.567	105.81
276.799	134.81
277.031	145.81
277.262	154.81
277.494	131.81
277.726	102.81
277.957	92.81
278.189	90.81
278.421	99.81
278.652	92.81
278.884	79.81
279.115	78.81
279.347	94.81
279.579	90.81
279.81	110.81
280.042	164.81
280.273	203.81
280.505	150.81
280.736	93.81
280.968	75.81
281.199	70.81
281.431	90.81
281.662	88.81
281.894	92.81
282.125	108.81
282.356	134.81
282.588	167.81
282.819	129.81
283.051	97.81
283.282	87.81
283.513	92.81
283.745	96.81
283.976	70.81
284.207	79.81
284.439	90.81
284.67	74.81
284.901	82.81
285.132	63.81
285.364	83.81
285.595	82.81
285.826	79.81
286.057	96.81
286.288	101.81
286.52	82.81
286.751	91.81
286.982	82.81
287.213	83.81
287.444	78.81
287.675	91.81
287.906	88.81
288.138	89.81
288.369	90.81
288.6	95.81
288.831	81.81
289.062	87.81
289.293	82.81
289.524	89.81
289.755	79.81
289.986	92.81
290.217	89.81
290.448	79.81
290.679	71.81
290.91	89.81
291.141	80.81
291.371	80.81
291.602	79.81
291.833	71.81
292.064	81.81
292.295	84.81
292.526	90.81
292.757	91.81
292.987	86.81
293.218	95.81
293.449	86.81
293.68	96.81
293.91	103.81
294.141	103.81
294.372	97.81
294.603	90.81
294.833	84.81
295.064	77.81
295.295	90.81
295.525	84.81
295.756	90.81
295.987	130.81
296.217	172.81
296.448	139.81
296.679	94.81
296.909	80.81
297.14	96.81
297.37	81.81
297.601	83.81
297.831	91.81
298.062	85.81
298.292	109.81
298.523	90.81
298.753	82.81
298.984	91.81
299.214	80.81
299.445	100.81
299.675	94.81
299.905	93.81
300.136	99.81
300.366	104.81
300.597	95.81
300.827	89.81
301.057	106.81
301.288	105.81
301.518	113.81
301.748	97.81
301.979	107.81
302.209	96.81
302.439	96.81
302.669	83.81
302.9	76.81
303.13	84.81
303.36	98.81
303.59	128.81
303.82	135.81
304.051	115.81
304.281	99.81
304.511	90.81
304.741	104.81
304.971	83.81
305.201	87.81
305.431	72.81
305.661	85.81
305.891	79.81
306.121	113.81
306.352	110.81
306.582	108.81
306.812	97.81
307.042	109.81
307.272	123.81
307.502	165.81
307.731	152.81
307.961	120.81
308.191	107.81
308.421	95.81
308.651	87.81
308.881	82.81
309.111	95.81
309.341	88.81
309.571	105.81
309.8	106.81
310.03	107.81
310.26	98.81
310.49	107.81
310.72	98.81
310.949	120.81
311.179	104.81
311.409	91.81
311.639	94.81
311.868	109.81
312.098	91.81
312.328	98.81
312.557	116.81
312.787	136.81
313.017	118.81
313.246	109.81
313.476	99.81
313.706	89.81
313.935	111.81
314.165	110.81
314.394	121.81
314.624	111.81
314.853	96.81
315.083	100.81
315.312	89.81
315.542	88.81
315.771	83.81
316.001	96.81
316.23	80.81
316.46	83.81
316.689	101.81
316.919	109.81
317.148	98.81
317.377	88.81
317.607	88.81
317.836	96.81
318.065	81.81
318.295	88.81
318.524	106.81
318.753	99.81
318.983	85.81
319.212	117.81
319.441	107.81
319.67	111.81
319.9	101.81
320.129	90.81
320.358	102.81
320.587	107.81
320.816	104.81
321.046	110.81
321.275	114.81
321.504	114.81
321.733	104.81
321.962	113.81
322.191	92.81
322.42	120.81
322.649	122.81
322.878	129.81
323.108	129.81
323.337	147.81
323.566	167.81
323.795	183.81
324.024	263.81
324.253	497.81
324.482	1117.81
324.71	2277.81
324.939	3002.81
325.168	1074.81
325.397	304.81
325.626	181.81
325.855	148.81
326.084	144.81
326.313	153.81
326.542	181.81
326.77	295.81
326.999	558.81
327.228	1161.81
327.457	2140.81
327.686	1702.81
327.914	563.81
328.143	476.81
328.372	532.81
328.6	322.81
328.829	183.81
329.058	194.81
329.287	215.81
329.515	186.81
329.744	226.81
329.972	408.81
330.201	761.81
330.43	1096.81
330.658	518.81
330.887	278.81
331.115	197.81
331.344	119.81
331.572	116.81
331.801	112.81
332.03	141.81
332.258	113.81
332.486	95.81
332.715	91.81
332.943	109.81
333.172	119.81
333.4	130.81
333.629	154.81
333.857	222.81
334.085	347.81
334.314	741.81
334.542	1381.81
334.771	1273.81
334.999	344.81
335.227	180.81
335.455	106.81
335.684	111.81
335.912	98.81
336.14	109.81
336.369	113.81
336.597	116.81
336.825	116.81
337.053	98.81
337.281	89.81
337.51	101.81
337.738	110.81
337.966	100.81
338.194	109.81
338.422	92.81
338.65	93.81
338.878	88.81
339.106	86.81
339.334	100.81
339.562	89.81
339.79	88.81
340.018	91.81
340.246	109.81
340.474	99.81
340.702	92.81
340.93	94.81
341.158	96.81
341.386	109.81
341.614	92.81
341.842	98.81
342.07	92.81
342.298	99.81
342.526	100.81
342.754	98.81
342.981	89.81
343.209	87.81
343.437	99.81
343.665	92.81
343.893	104.81
344.12	82.81
344.348	90.81
344.576	85.81
344.804	97.81
345.031	110.81
345.259	122.81
345.487	107.81
345.714	98.81
345.942	86.81
346.17	86.81
346.397	98.81
346.625	85.81
346.853	84.81
347.08	90.81
347.308	93.81
347.535	91.81
347.763	115.81
347.99	106.81
348.218	109.81
348.445	133.81
348.673	110.81
348.9	97.81
349.128	98.81
349.355	93.81
349.583	86.81
349.81	95.81
350.037	97.81
350.265	89.81
350.492	92.81
350.72	90.81
350.947	92.81
351.174	115.81
351.402	128.81
351.629	125.81
351.856	116.81
352.083	113.81
352.311	113.81
352.538	137.81
352.765	133.81
352.992	105.81
353.22	126.81
353.447	101.81
353.674	97.81
353.901	91.81
354.128	98.81
354.355	84.81
354.583	90.81
354.81	87.81
355.037	89.81
355.264	88.81
355.491	94.81
355.718	96.81
355.945	81.81
356.172	76.81
356.399	91.81
356.626	104.81
356.853	93.81
357.08	79.81
357.307	92.81
357.534	91.81
357.761	103.81
357.988	89.81
358.215	84.81
358.441	89.81
358.668	79.81
358.895	90.81
359.122	73.81
359.349	89.81
359.576	110.81
359.802	120.81
360.029	139.81
360.256	152.81
360.483	121.81
360.709	82.81
360.936	104.81
361.163	92.81
361.39	102.81
361.616	109.81
361.843	111.81
362.07	96.81
362.296	123.81
362.523	98.81
362.749	103.81
362.976	102.81
363.203	84.81
363.429	80.81
363.656	89.81
363.882	92.81
364.109	99.81
364.335	102.81
364.562	96.81
364.788	103.81
365.015	104.81
365.241	117.81
365.468	129.81
365.694	114.81
365.92	108.81
366.147	83.81
366.373	88.81
366.599	90.81
366.826	92.81
367.052	72.81
367.278	105.81
367.505	104.81
367.731	95.81
367.957	90.81
368.184	98.81
368.41	110.81
368.636	144.81
368.862	142.81
369.089	121.81
369.315	104.81
369.541	94.81
369.767	96.81
369.993	101.81
370.219	102.81
370.445	82.81
370.672	71.81
370.898	83.81
371.124	80.81
371.35	96.81
371.576	84.81
371.802	80.81
372.028	97.81
372.254	92.81
372.48	90.81
372.706	74.81
372.932	89.81
373.158	81.81
373.384	97.81
373.61	111.81
373.835	90.81
374.061	98.81
374.287	83.81
374.513	64.81
374.739	79.81
374.965	77.81
375.191	99.81
375.416	96.81
375.642	93.81
375.868	90.81
376.094	93.81
376.319	106.81
376.545	82.81
376.771	80.81
376.997	99.81
377.222	89.81
377.448	89.81
377.674	81.81
377.899	82.81
378.125	85.81
378.35	83.81
378.576	93.81
378.802	89.81
379.027	90.81
379.253	90.81
379.478	74.81
379.704	100.81
379.929	91.81
380.155	93.81
380.38	96.81
380.606	99.81
380.831	91.81
381.057	102.81
381.282	89.81
381.507	89.81
381.733	97.81
381.958	103.81
382.184	95.81
382.409	96.81
382.634	100.81
382.86	104.81
383.085	99.81
383.31	93.81
383.535	97.81
383.761	101.81
383.986	96.81
384.211	102.81
384.436	72.81
384.662	99.81
384.887	87.81
385.112	96.81
385.337	92.81
385.562	95.81
385.787	91.81
386.013	115.81
386.238	126.81
386.463	96.81
386.688	112.81
386.913	98.81
387.138	105.81
387.363	112.81
387.588	106.81
387.813	105.81
388.038	106.81
388.263	106.81
388.488	104.81
388.713	99.81
388.938	95.81
389.163	95.81
389.387	85.81
389.612	96.81
389.837	88.81
390.062	87.81
390.287	91.81
390.512	87.81
390.736	83.81
390.961	89.81
391.186	81.81
391.411	83.81
391.636	91.81
391.86	79.81
392.085	91.81
392.31	88.81
392.534	97.81
392.759	90.81
392.984	91.81
393.208	96.81
393.433	108.81
393.658	83.81
393.882	85.81
394.107	99.81
394.331	82.81
394.556	76.81
394.78	95.81
395.005	85.81
395.229	82.81
395.454	101.81
395.678	85.81
395.903	81.81
396.127	89.81
396.352	102.81
396.576	78.81
396.801	79.81
397.025	94.81
397.249	84.81
397.474	95.81
397.698	91.81
397.922	96.81
398.147	78.81
398.371	97.81
398.595	94.81
398.82	86.81
399.044	91.81
399.268	87.81
399.492	89.81
399.717	90.81
399.941	91.81
400.165	101.81
400.389	99.81
400.613	84.81
400.837	95.81
401.062	104.81
401.286	96.81
401.51	100.81
401.734	94.81
401.958	116.81
402.182	163.81
402.406	221.81
402.63	155.81
402.854	109.81
403.078	101.81
403.302	101.81
403.526	96.81
403.75	96.81
403.974	80.81
404.198	78.81
404.422	108.81
404.645	94.81
404.869	103.81
405.093	121.81
405.317	132.81
405.541	148.81
405.765	124.81
405.988	154.81
406.212	219.81
406.436	376.81
406.66	230.81
406.883	104.81
407.107	104.81
407.331	97.81
407.555	118.81
407.778	112.81
408.002	96.81
408.226	87.81
408.449	97.81
408.673	95.81
408.896	101.81
409.12	100.81
409.344	84.81
409.567	90.81
409.791	98.81
410.014	99.81
410.238	92.81
410.461	79.81
410.685	103.81
410.908	99.81
411.132	111.81
411.355	111.81
411.578	99.81
411.802	89.81
412.025	90.81
412.249	98.81
412.472	97.81
412.695	136.81
412.919	112.81
413.142	96.81
413.365	102.81
413.589	98.81
413.812	95.81
414.035	95.81
414.258	89.81
414.482	98.81
414.705	90.81
414.928	75.81
415.151	83.81
415.374	106.81
415.597	70.81
415.821	78.81
416.044	102.81
416.267	91.81
416.49	92.81
416.713	97.81
416.936	83.81
417.159	98.81
417.382	104.81
417.605	111.81
417.828	98.81
418.051	112.81
418.274	109.81
418.497	79.81
418.72	91.81
418.943	75.81
419.166	90.81
419.389	76.81
419.611	93.81
419.834	87.81
420.057	87.81
420.28	92.81
420.503	96.81
420.726	90.81
420.948	95.81
421.171	99.81
421.394	105.81
421.617	90.81
421.839	90.81
422.062	110.81
422.285	81.81
422.507	107.81
422.73	104.81
422.953	87.81
423.175	100.81
423.398	88.81
423.621	91.81
423.843	90.81
424.066	88.81
424.288	91.81
424.511	99.81
424.733	104.81
424.956	117.81
425.178	108.81
425.401	101.81
425.623	107.81
425.846	102.81
426.068	105.81
426.291	96.81
426.513	107.81
426.735	94.81
426.958	98.81
427.18	114.81
427.402	182.81
427.625	274.81
427.847	238.81
428.069	192.81
428.292	111.81
428.514	102.81
428.736	97.81
428.958	80.81
429.181	79.81
429.403	87.81
429.625	86.81
429.847	95.81
430.069	108.81
430.292	106.81
430.514	77.81
430.736	90.81
430.958	91.81
431.18	95.81
431.402	90.81
431.624	89.81
431.846	81.81
432.068	90.81
432.29	84.81
432.512	85.81
432.734	88.81
432.956	85.81
433.178	100.81
433.4	106.81
433.622	96.81
433.844	86.81
434.066	86.81
434.287	92.81
434.509	84.81
434.731	91.81
434.953	85.81
435.175	88.81
435.397	92.81
435.618	90.81
435.84	104.81
436.062	139.81
436.284	128.81
436.505	106.81
436.727	94.81
436.949	96.81
437.17	90.81
437.392	86.81
437.614	107.81
437.835	128.81
438.057	164.81
438.278	135.81
438.5	118.81
438.721	136.81
438.943	100.81
439.165	81.81
439.386	102.81
439.608	97.81
439.829	107.81
440.05	162.81
440.272	177.81
440.493	111.81
440.715	101.81
440.936	85.81
441.158	91.81
441.379	92.81
441.6	97.81
441.822	105.81
442.043	88.81
442.264	107.81
442.486	131.81
442.707	102.81
442.928	131.81
443.149	175.81
443.371	191.81
443.592	126.81
443.813	126.81
444.034	136.81
444.255	104.81
444.476	86.81
444.698	92.81
444.919	96.81
445.14	129.81
445.361	126.81
445.582	149.81
445.803	203.81
446.024	180.81
446.245	177.81
446.466	127.81
446.687	96.81
446.908	97.81
447.129	91.81
447.35	97.81
447.571	92.81
447.792	106.81
448.013	121.81
448.234	121.81
448.455	123.81
448.675	129.81
448.896	137.81
449.117	106.81
449.338	110.81
449.559	157.81
449.779	170.81
450	111.81
450.221	91.81
450.442	101.81
450.662	100.81
450.883	126.81
451.104	141.81
451.324	107.81
451.545	85.81
451.766	88.81
451.986	99.81
452.207	99.81
452.428	103.81
452.648	109.81
452.869	124.81
453.089	138.81
453.31	144.81
453.53	97.81
453.751	103.81
453.971	120.81
454.192	135.81
454.412	106.81
454.633	91.81
454.853	95.81
455.073	82.81
455.294	103.81
455.514	103.81
455.734	83.81
455.955	79.81
456.175	72.81
456.395	82.81
456.616	86.81
456.836	91.81
457.056	89.81
457.276	92.81
457.497	88.81
457.717	87.81
457.937	98.81
458.157	90.81
458.377	110.81
458.598	132.81
458.818	224.81
459.038	243.81
459.258	146.81
459.478	99.81
459.698	91.81
459.918	83.81
460.138	88.81
460.358	87.81
460.578	89.81
460.798	91.81
461.018	90.81
461.238	71.81
461.458	92.81
461.678	73.81
461.898	87.81
462.118	82.81
462.338	86.81
462.558	76.81
462.777	92.81
462.997	92.81
463.217	102.81
463.437	92.81
463.657	96.81
463.876	91.81
464.096	77.81
464.316	98.81
464.536	101.81
464.755	108.81
464.975	120.81
465.195	250.81
465.414	239.81
465.634	104.81
465.854	88.81
466.073	92.81
466.293	80.81
466.512	87.81
466.732	98.81
466.951	95.81
467.171	86.81
467.391	104.81
467.61	144.81
467.829	195.81
468.049	441.81
468.268	639.81
468.488	179.81
468.707	103.81
468.927	94.81
469.146	92.81
469.365	103.81
469.585	86.81
469.804	113.81
470.023	122.81
470.243	92.81
470.462	122.81
470.681	139.81
470.901	104.81
471.12	84.81
471.339	99.81
471.558	112.81
471.777	142.81
471.997	255.81
472.216	887.81
472.435	1881.81
472.654	470.81
472.873	147.81
473.092	104.81
473.311	86.81
473.53	99.81
473.749	104.81
473.968	102.81
474.187	130.81
474.406	127.81
474.625	98.81
474.844	86.81
475.063	74.81
475.282	86.81
475.501	87.81
475.72	88.81
475.939	88.81
476.158	98.81
476.377	85.81
476.596	102.81
476.814	101.81
477.033	101.81
477.252	103.81
477.471	83.81
477.69	91.81
477.908	95.81
478.127	85.81
478.346	87.81
478.564	106.81
478.783	114.81
479.002	100.81
479.22	106.81
479.439	126.81
479.658	138.81
479.876	112.81
480.095	116.81
480.313	111.81
480.532	137.81
480.751	235.81
480.969	827.81
481.188	3361.81
481.406	1880.81
481.624	311.81
481.843	123.81
482.061	112.81
482.28	85.81
482.498	91.81
482.717	96.81
482.935	98.81
483.153	81.81
483.372	97.81
483.59	89.81
483.808	100.81
484.027	92.81
484.245	96.81
484.463	96.81
484.681	89.81
484.9	82.81
485.118	71.81
485.336	94.81
485.554	93.81
485.772	104.81
485.99	106.81
486.209	103.81
486.427	123.81
486.645	121.81
486.863	128.81
487.081	105.81
487.299	96.81
487.517	99.81
487.735	103.81
487.953	78.81
488.171	100.81
488.389	99.81
488.607	111.81
488.825	82.81
489.043	89.81
489.261	92.81
489.479	80.81
489.696	79.81
489.914	97.81
490.132	92.81
490.35	90.81
490.568	86.81
490.786	87.81
491.003	100.81
491.221	87.81
491.439	94.81
491.657	90.81
491.874	101.81
492.092	100.81
492.31	91.81
492.527	94.81
492.745	96.81
492.963	86.81
493.18	98.81
493.398	90.81
493.615	109.81
493.833	75.81
494.05	89.81
494.268	82.81
494.485	86.81
494.703	89.81
494.92	80.81
495.138	75.81
495.355	92.81
495.573	68.81
495.79	79.81
496.008	89.81
496.225	90.81
496.442	83.81
496.66	82.81
496.877	98.81
497.094	91.81
497.312	99.81
497.529	96.81
497.746	98.81
497.963	88.81
498.181	95.81
498.398	105.81
498.615	114.81
498.832	101.81
499.049	81.81
499.267	106.81
499.484	86.81
499.701	89.81
499.918	98.81
500.135	75.81
500.352	85.81
500.569	103.81
500.786	103.81
501.003	85.81
501.22	87.81
501.437	84.81
501.654	82.81
501.871	124.81
502.088	96.81
502.305	95.81
502.522	76.81
502.739	99.81
502.956	93.81
503.172	93.81
503.389	109.81
503.606	123.81
503.823	107.81
504.04	89.81
504.256	83.81
504.473	95.81
504.69	89.81
504.907	88.81
505.123	81.81
505.34	100.81
505.557	91.81
505.773	90.81
505.99	78.81
506.207	82.81
506.423	91.81
506.64	93.81
506.856	99.81
507.073	92.81
507.289	105.81
507.506	90.81
507.722	145.81
507.939	130.81
508.155	100.81
508.372	86.81
508.588	89.81
508.805	83.81
509.021	114.81
509.238	101.81
509.454	97.81
509.67	100.81
509.887	122.81
510.103	162.81
510.319	278.81
510.536	1106.81
510.752	3741.81
510.968	998.81
511.184	173.81
511.401	126.81
511.617	118.81
511.833	116.81
512.049	107.81
512.265	91.81
512.481	86.81
512.698	98.81
512.914	107.81
513.13	98.81
513.346	96.81
513.562	110.81
