Data from Circ_2000_H10_HRD10591_00036.txt Node
Date: Wed Jan 03 10:49:41 EST 2024
User: Yrep
Spectrometer: HR+D1059
Trigger mode: 1
Integration Time (sec): 1.000000E-1
Scans to average: 1
Electric dark correction enabled: true
Nonlinearity correction enabled: false
Boxcar width: 0
XAxis mode: Wavelengths
Number of Pixels in Spectrum: 2048
>>>>>Begin Spectral Data<<<<<
223.165	-12.19
223.4	-12.19
223.635	-12.19
223.869	-30.19
224.104	-29.19
224.338	-7.19
224.573	-0.19
224.808	-3.19
225.042	4.81
225.277	-1.19
225.511	-15.19
225.746	-10.19
225.98	9.81
226.215	9.81
226.449	11.81
226.683	25.81
226.918	14.81
227.152	31.81
227.387	18.81
227.621	37.81
227.856	43.81
228.09	41.81
228.324	53.81
228.559	51.81
228.793	34.81
229.027	52.81
229.262	85.81
229.496	78.81
229.73	81.81
229.964	84.81
230.199	68.81
230.433	75.81
230.667	81.81
230.901	79.81
231.136	82.81
231.37	85.81
231.604	79.81
231.838	68.81
232.072	80.81
232.306	80.81
232.541	95.81
232.775	83.81
233.009	84.81
233.243	75.81
233.477	75.81
233.711	89.81
233.945	75.81
234.179	68.81
234.413	76.81
234.647	66.81
234.881	63.81
235.115	72.81
235.349	81.81
235.583	82.81
235.817	82.81
236.051	79.81
236.285	70.81
236.519	84.81
236.753	76.81
236.987	71.81
237.221	81.81
237.455	91.81
237.689	80.81
237.922	78.81
238.156	81.81
238.39	75.81
238.624	59.81
238.858	85.81
239.091	74.81
239.325	79.81
239.559	74.81
239.793	88.81
240.027	81.81
240.26	71.81
240.494	98.81
240.728	74.81
240.961	72.81
241.195	73.81
241.429	72.81
241.662	80.81
241.896	68.81
242.13	89.81
242.363	72.81
242.597	77.81
242.83	88.81
243.064	90.81
243.298	88.81
243.531	82.81
243.765	72.81
243.998	95.81
244.232	83.81
244.465	88.81
244.699	83.81
244.932	83.81
245.166	74.81
245.399	73.81
245.633	76.81
245.866	76.81
246.099	72.81
246.333	80.81
246.566	95.81
246.8	82.81
247.033	72.81
247.266	69.81
247.5	76.81
247.733	86.81
247.966	84.81
248.2	79.81
248.433	76.81
248.666	69.81
248.899	74.81
249.133	83.81
249.366	97.81
249.599	96.81
249.832	97.81
250.066	70.81
250.299	80.81
250.532	95.81
250.765	78.81
250.998	71.81
251.231	78.81
251.465	79.81
251.698	90.81
251.931	82.81
252.164	79.81
252.397	81.81
252.63	88.81
252.863	88.81
253.096	84.81
253.329	92.81
253.562	92.81
253.795	81.81
254.028	76.81
254.261	83.81
254.494	82.81
254.727	85.81
254.96	85.81
255.193	85.81
255.426	82.81
255.659	78.81
255.892	103.81
256.124	87.81
256.357	86.81
256.59	81.81
256.823	80.81
257.056	84.81
257.289	83.81
257.521	79.81
257.754	86.81
257.987	75.81
258.22	62.81
258.452	89.81
258.685	98.81
258.918	70.81
259.151	80.81
259.383	94.81
259.616	89.81
259.849	82.81
260.081	83.81
260.314	87.81
260.547	80.81
260.779	85.81
261.012	84.81
261.244	89.81
261.477	99.81
261.71	111.81
261.942	142.81
262.175	121.81
262.407	91.81
262.64	82.81
262.872	81.81
263.105	72.81
263.337	85.81
263.57	76.81
263.802	98.81
264.035	71.81
264.267	82.81
264.499	81.81
264.732	81.81
264.964	86.81
265.197	76.81
265.429	85.81
265.661	83.81
265.894	87.81
266.126	97.81
266.358	77.81
266.591	78.81
266.823	81.81
267.055	78.81
267.287	90.81
267.52	78.81
267.752	91.81
267.984	88.81
268.216	73.81
268.448	70.81
268.681	78.81
268.913	85.81
269.145	86.81
269.377	91.81
269.609	81.81
269.841	84.81
270.073	70.81
270.306	96.81
270.538	86.81
270.77	97.81
271.002	86.81
271.234	84.81
271.466	82.81
271.698	83.81
271.93	87.81
272.162	97.81
272.394	85.81
272.626	74.81
272.858	65.81
273.09	96.81
273.322	76.81
273.553	90.81
273.785	86.81
274.017	70.81
274.249	80.81
274.481	87.81
274.713	98.81
274.945	96.81
275.176	89.81
275.408	93.81
275.64	97.81
275.872	92.81
276.104	91.81
276.335	104.81
276.567	87.81
276.799	108.81
277.031	120.81
277.262	123.81
277.494	102.81
277.726	89.81
277.957	88.81
278.189	84.81
278.421	84.81
278.652	87.81
278.884	85.81
279.115	90.81
279.347	75.81
279.579	100.81
279.81	115.81
280.042	112.81
280.273	147.81
280.505	119.81
280.736	87.81
280.968	84.81
281.199	100.81
281.431	85.81
281.662	92.81
281.894	101.81
282.125	110.81
282.356	127.81
282.588	154.81
282.819	113.81
283.051	87.81
283.282	83.81
283.513	89.81
283.745	82.81
283.976	80.81
284.207	81.81
284.439	89.81
284.67	79.81
284.901	88.81
285.132	81.81
285.364	95.81
285.595	102.81
285.826	82.81
286.057	92.81
286.288	86.81
286.52	105.81
286.751	84.81
286.982	97.81
287.213	80.81
287.444	80.81
287.675	85.81
287.906	83.81
288.138	81.81
288.369	104.81
288.6	100.81
288.831	93.81
289.062	98.81
289.293	81.81
289.524	83.81
289.755	79.81
289.986	87.81
290.217	86.81
290.448	97.81
290.679	96.81
290.91	85.81
291.141	84.81
291.371	76.81
291.602	104.81
291.833	84.81
292.064	73.81
292.295	87.81
292.526	91.81
292.757	81.81
292.987	78.81
293.218	93.81
293.449	99.81
293.68	81.81
293.91	93.81
294.141	101.81
294.372	76.81
294.603	93.81
294.833	84.81
295.064	84.81
295.295	90.81
295.525	80.81
295.756	103.81
295.987	117.81
296.217	159.81
296.448	127.81
296.679	97.81
296.909	93.81
297.14	86.81
297.37	91.81
297.601	81.81
297.831	80.81
298.062	96.81
298.292	92.81
298.523	78.81
298.753	91.81
298.984	85.81
299.214	88.81
299.445	89.81
299.675	90.81
299.905	103.81
300.136	106.81
300.366	97.81
300.597	82.81
300.827	92.81
301.057	90.81
301.288	102.81
301.518	95.81
301.748	90.81
301.979	109.81
302.209	104.81
302.439	103.81
302.669	84.81
302.9	87.81
303.13	90.81
303.36	91.81
303.59	121.81
303.82	120.81
304.051	114.81
304.281	82.81
304.511	86.81
304.741	73.81
304.971	86.81
305.201	87.81
305.431	76.81
305.661	103.81
305.891	103.81
306.121	110.81
306.352	99.81
306.582	103.81
306.812	86.81
307.042	108.81
307.272	123.81
307.502	107.81
307.731	132.81
307.961	106.81
308.191	97.81
308.421	90.81
308.651	95.81
308.881	84.81
309.111	92.81
309.341	98.81
309.571	99.81
309.8	101.81
310.03	102.81
310.26	96.81
310.49	92.81
310.72	91.81
310.949	115.81
311.179	100.81
311.409	94.81
311.639	104.81
311.868	94.81
312.098	92.81
312.328	104.81
312.557	111.81
312.787	98.81
313.017	105.81
313.246	95.81
313.476	85.81
313.706	97.81
313.935	91.81
314.165	90.81
314.394	108.81
314.624	98.81
314.853	99.81
315.083	104.81
315.312	97.81
315.542	99.81
315.771	87.81
316.001	89.81
316.23	96.81
316.46	95.81
316.689	109.81
316.919	91.81
317.148	96.81
317.377	109.81
317.607	91.81
317.836	90.81
318.065	93.81
318.295	96.81
318.524	91.81
318.753	84.81
318.983	101.81
319.212	106.81
319.441	121.81
319.67	108.81
319.9	94.81
320.129	94.81
320.358	73.81
320.587	99.81
320.816	98.81
321.046	100.81
321.275	90.81
321.504	102.81
321.733	96.81
321.962	112.81
322.191	112.81
322.42	117.81
322.649	114.81
322.878	117.81
323.108	111.81
323.337	146.81
323.566	148.81
323.795	166.81
324.024	240.81
324.253	502.81
324.482	1015.81
324.71	2178.81
324.939	2842.81
325.168	1021.81
325.397	267.81
325.626	172.81
325.855	144.81
326.084	137.81
326.313	144.81
326.542	165.81
326.77	266.81
326.999	556.81
327.228	1172.81
327.457	2193.81
327.686	1737.81
327.914	513.81
328.143	349.81
328.372	388.81
328.6	226.81
328.829	146.81
329.058	169.81
329.287	184.81
329.515	155.81
329.744	178.81
329.972	285.81
330.201	524.81
330.43	720.81
330.658	356.81
330.887	234.81
331.115	172.81
331.344	122.81
331.572	113.81
331.801	129.81
332.03	110.81
332.258	100.81
332.486	94.81
332.715	96.81
332.943	104.81
333.172	108.81
333.4	112.81
333.629	141.81
333.857	172.81
334.085	278.81
334.314	501.81
334.542	954.81
334.771	841.81
334.999	259.81
335.227	136.81
335.455	110.81
335.684	88.81
335.912	90.81
336.14	95.81
336.369	86.81
336.597	99.81
336.825	104.81
337.053	96.81
337.281	86.81
337.51	89.81
337.738	84.81
337.966	101.81
338.194	83.81
338.422	83.81
338.65	90.81
338.878	92.81
339.106	98.81
339.334	95.81
339.562	97.81
339.79	96.81
340.018	106.81
340.246	97.81
340.474	92.81
340.702	94.81
340.93	86.81
341.158	74.81
341.386	106.81
341.614	106.81
341.842	113.81
342.07	94.81
342.298	89.81
342.526	77.81
342.754	84.81
342.981	90.81
343.209	84.81
343.437	90.81
343.665	84.81
343.893	92.81
344.12	84.81
344.348	96.81
344.576	86.81
344.804	79.81
345.031	104.81
345.259	90.81
345.487	98.81
345.714	93.81
345.942	95.81
346.17	91.81
346.397	84.81
346.625	97.81
346.853	91.81
347.08	89.81
347.308	98.81
347.535	106.81
347.763	112.81
347.99	94.81
348.218	112.81
348.445	119.81
348.673	95.81
348.9	85.81
349.128	94.81
349.355	86.81
349.583	97.81
349.81	100.81
350.037	92.81
350.265	98.81
350.492	107.81
350.72	108.81
350.947	107.81
351.174	116.81
351.402	126.81
351.629	111.81
351.856	100.81
352.083	104.81
352.311	109.81
352.538	118.81
352.765	113.81
352.992	108.81
353.22	117.81
353.447	107.81
353.674	102.81
353.901	84.81
354.128	98.81
354.355	99.81
354.583	88.81
354.81	82.81
355.037	84.81
355.264	82.81
355.491	93.81
355.718	105.81
355.945	79.81
356.172	95.81
356.399	86.81
356.626	85.81
356.853	100.81
357.08	89.81
357.307	87.81
357.534	92.81
357.761	89.81
357.988	103.81
358.215	100.81
358.441	103.81
358.668	104.81
358.895	86.81
359.122	86.81
359.349	84.81
359.576	101.81
359.802	90.81
360.029	133.81
360.256	130.81
360.483	104.81
360.709	89.81
360.936	103.81
361.163	101.81
361.39	96.81
361.616	106.81
361.843	99.81
362.07	93.81
362.296	101.81
362.523	92.81
362.749	88.81
362.976	86.81
363.203	83.81
363.429	91.81
363.656	83.81
363.882	84.81
364.109	98.81
364.335	107.81
364.562	109.81
364.788	74.81
365.015	99.81
365.241	108.81
365.468	119.81
365.694	110.81
365.92	104.81
366.147	88.81
366.373	72.81
366.599	99.81
366.826	81.81
367.052	80.81
367.278	108.81
367.505	72.81
367.731	83.81
367.957	100.81
368.184	89.81
368.41	109.81
368.636	120.81
368.862	113.81
369.089	116.81
369.315	92.81
369.541	89.81
369.767	79.81
369.993	76.81
370.219	93.81
370.445	83.81
370.672	84.81
370.898	88.81
371.124	72.81
371.35	84.81
371.576	96.81
371.802	80.81
372.028	90.81
372.254	85.81
372.48	69.81
372.706	92.81
372.932	91.81
373.158	91.81
373.384	106.81
373.61	91.81
373.835	80.81
374.061	89.81
374.287	99.81
374.513	81.81
374.739	90.81
374.965	95.81
375.191	89.81
375.416	81.81
375.642	94.81
375.868	87.81
376.094	90.81
376.319	78.81
376.545	79.81
376.771	85.81
376.997	92.81
377.222	82.81
377.448	82.81
377.674	72.81
377.899	98.81
378.125	97.81
378.35	84.81
378.576	86.81
378.802	89.81
379.027	90.81
379.253	90.81
379.478	96.81
379.704	86.81
379.929	82.81
380.155	84.81
380.38	86.81
380.606	93.81
380.831	90.81
381.057	108.81
381.282	90.81
381.507	96.81
381.733	110.81
381.958	106.81
382.184	96.81
382.409	111.81
382.634	107.81
382.86	89.81
383.085	93.81
383.31	90.81
383.535	94.81
383.761	98.81
383.986	96.81
384.211	84.81
384.436	97.81
384.662	114.81
384.887	106.81
385.112	111.81
385.337	98.81
385.562	98.81
385.787	111.81
386.013	124.81
386.238	121.81
386.463	129.81
386.688	112.81
386.913	101.81
387.138	94.81
387.363	104.81
387.588	103.81
387.813	91.81
388.038	111.81
388.263	120.81
388.488	108.81
388.713	101.81
388.938	89.81
389.163	99.81
389.387	70.81
389.612	83.81
389.837	90.81
390.062	75.81
390.287	97.81
390.512	81.81
390.736	84.81
390.961	86.81
391.186	97.81
391.411	94.81
391.636	91.81
391.86	87.81
392.085	77.81
392.31	78.81
392.534	85.81
392.759	98.81
392.984	84.81
393.208	90.81
393.433	99.81
393.658	80.81
393.882	88.81
394.107	75.81
394.331	76.81
394.556	86.81
394.78	88.81
395.005	77.81
395.229	88.81
395.454	88.81
395.678	78.81
395.903	83.81
396.127	88.81
396.352	92.81
396.576	71.81
396.801	83.81
397.025	92.81
397.249	103.81
397.474	94.81
397.698	80.81
397.922	83.81
398.147	90.81
398.371	79.81
398.595	86.81
398.82	88.81
399.044	82.81
399.268	85.81
399.492	96.81
399.717	90.81
399.941	90.81
400.165	100.81
400.389	90.81
400.613	78.81
400.837	98.81
401.062	96.81
401.286	79.81
401.51	76.81
401.734	73.81
401.958	99.81
402.182	146.81
402.406	175.81
402.63	132.81
402.854	106.81
403.078	96.81
403.302	81.81
403.526	92.81
403.75	86.81
403.974	82.81
404.198	101.81
404.422	90.81
404.645	89.81
404.869	82.81
405.093	111.81
405.317	136.81
405.541	133.81
405.765	124.81
405.988	128.81
406.212	185.81
406.436	277.81
406.66	180.81
406.883	116.81
407.107	105.81
407.331	102.81
407.555	104.81
407.778	94.81
408.002	93.81
408.226	98.81
408.449	97.81
408.673	99.81
408.896	86.81
409.12	117.81
409.344	80.81
409.567	90.81
409.791	87.81
410.014	87.81
410.238	87.81
410.461	85.81
410.685	105.81
410.908	94.81
411.132	99.81
411.355	89.81
411.578	107.81
411.802	89.81
412.025	89.81
412.249	112.81
412.472	119.81
412.695	127.81
412.919	96.81
413.142	110.81
413.365	89.81
413.589	79.81
413.812	96.81
414.035	103.81
414.258	96.81
414.482	96.81
414.705	92.81
414.928	86.81
415.151	83.81
415.374	89.81
415.597	89.81
415.821	108.81
416.044	87.81
416.267	75.81
416.49	89.81
416.713	90.81
416.936	75.81
417.159	84.81
417.382	93.81
417.605	99.81
417.828	97.81
418.051	104.81
418.274	74.81
418.497	84.81
418.72	87.81
418.943	100.81
419.166	102.81
419.389	87.81
419.611	78.81
419.834	91.81
420.057	87.81
420.28	89.81
420.503	80.81
420.726	104.81
420.948	82.81
421.171	98.81
421.394	93.81
421.617	90.81
421.839	86.81
422.062	86.81
422.285	87.81
422.507	99.81
422.73	116.81
422.953	92.81
423.175	91.81
423.398	86.81
423.621	84.81
423.843	91.81
424.066	81.81
424.288	88.81
424.511	87.81
424.733	98.81
424.956	124.81
425.178	96.81
425.401	107.81
425.623	103.81
425.846	91.81
426.068	92.81
426.291	87.81
426.513	91.81
426.735	104.81
426.958	91.81
427.18	114.81
427.402	168.81
427.625	239.81
427.847	205.81
428.069	188.81
428.292	102.81
428.514	85.81
428.736	94.81
428.958	95.81
429.181	87.81
429.403	93.81
429.625	92.81
429.847	95.81
430.069	101.81
430.292	84.81
430.514	81.81
430.736	78.81
430.958	91.81
431.18	83.81
431.402	74.81
431.624	91.81
431.846	85.81
432.068	82.81
432.29	70.81
432.512	83.81
432.734	84.81
432.956	95.81
433.178	108.81
433.4	97.81
433.622	105.81
433.844	89.81
434.066	84.81
434.287	94.81
434.509	80.81
434.731	83.81
434.953	99.81
435.175	82.81
435.397	78.81
435.618	103.81
435.84	103.81
436.062	150.81
436.284	142.81
436.505	110.81
436.727	106.81
436.949	84.81
437.17	92.81
437.392	105.81
437.614	99.81
437.835	124.81
438.057	151.81
438.278	136.81
438.5	119.81
438.721	142.81
438.943	118.81
439.165	85.81
439.386	97.81
439.608	105.81
439.829	112.81
440.05	149.81
440.272	182.81
440.493	112.81
440.715	89.81
440.936	92.81
441.158	85.81
441.379	91.81
441.6	103.81
441.822	99.81
442.043	109.81
442.264	118.81
442.486	103.81
442.707	91.81
442.928	113.81
443.149	165.81
443.371	158.81
443.592	118.81
443.813	124.81
444.034	102.81
444.255	106.81
444.476	82.81
444.698	85.81
444.919	84.81
445.14	138.81
445.361	124.81
445.582	136.81
445.803	177.81
446.024	176.81
446.245	161.81
446.466	128.81
446.687	99.81
446.908	82.81
447.129	105.81
447.35	85.81
447.571	101.81
447.792	103.81
448.013	103.81
448.234	134.81
448.455	110.81
448.675	147.81
448.896	142.81
449.117	104.81
449.338	134.81
449.559	155.81
449.779	161.81
450	101.81
450.221	80.81
450.442	93.81
450.662	111.81
450.883	120.81
451.104	112.81
451.324	107.81
451.545	69.81
451.766	91.81
451.986	90.81
452.207	88.81
452.428	101.81
452.648	107.81
452.869	126.81
453.089	129.81
453.31	135.81
453.53	98.81
453.751	90.81
453.971	90.81
454.192	112.81
454.412	96.81
454.633	94.81
454.853	92.81
455.073	89.81
455.294	101.81
455.514	106.81
455.734	106.81
455.955	87.81
456.175	86.81
456.395	82.81
456.616	84.81
456.836	80.81
457.056	90.81
457.276	84.81
457.497	84.81
457.717	80.81
457.937	92.81
458.157	80.81
458.377	91.81
458.598	116.81
458.818	199.81
459.038	216.81
459.258	143.81
459.478	91.81
459.698	88.81
459.918	91.81
460.138	75.81
460.358	79.81
460.578	91.81
460.798	92.81
461.018	88.81
461.238	91.81
461.458	85.81
461.678	93.81
461.898	89.81
462.118	76.81
462.338	86.81
462.558	100.81
462.777	81.81
462.997	82.81
463.217	92.81
463.437	102.81
463.657	80.81
463.876	90.81
464.096	86.81
464.316	97.81
464.536	88.81
464.755	96.81
464.975	126.81
465.195	207.81
465.414	192.81
465.634	106.81
465.854	97.81
466.073	78.81
466.293	73.81
466.512	87.81
466.732	82.81
466.951	84.81
467.171	105.81
467.391	96.81
467.61	129.81
467.829	169.81
468.049	318.81
468.268	396.81
468.488	137.81
468.707	97.81
468.927	90.81
469.146	92.81
469.365	92.81
469.585	81.81
469.804	105.81
470.023	103.81
470.243	106.81
470.462	126.81
470.681	120.81
470.901	100.81
471.12	94.81
471.339	98.81
471.558	98.81
471.777	119.81
471.997	203.81
472.216	584.81
472.435	1147.81
472.654	303.81
472.873	120.81
473.092	91.81
473.311	108.81
473.53	93.81
473.749	84.81
473.968	101.81
474.187	136.81
474.406	99.81
474.625	91.81
474.844	89.81
475.063	95.81
475.282	77.81
475.501	73.81
475.72	92.81
475.939	91.81
476.158	88.81
476.377	99.81
476.596	92.81
476.814	93.81
477.033	102.81
477.252	95.81
477.471	80.81
477.69	95.81
477.908	81.81
478.127	104.81
478.346	85.81
478.564	104.81
478.783	90.81
479.002	93.81
479.22	98.81
479.439	103.81
479.658	119.81
479.876	109.81
480.095	110.81
480.313	92.81
480.532	127.81
480.751	177.81
480.969	537.81
481.188	2056.81
481.406	1203.81
481.624	219.81
481.843	111.81
482.061	100.81
482.28	90.81
482.498	88.81
482.717	83.81
482.935	90.81
483.153	96.81
483.372	95.81
483.59	81.81
483.808	86.81
484.027	100.81
484.245	95.81
484.463	85.81
484.681	97.81
484.9	92.81
485.118	93.81
485.336	88.81
485.554	105.81
485.772	104.81
485.99	93.81
486.209	102.81
486.427	109.81
486.645	103.81
486.863	132.81
487.081	109.81
487.299	103.81
487.517	107.81
487.735	94.81
487.953	87.81
488.171	91.81
488.389	75.81
488.607	112.81
488.825	95.81
489.043	92.81
489.261	96.81
489.479	80.81
489.696	80.81
489.914	84.81
490.132	82.81
490.35	100.81
490.568	92.81
490.786	96.81
491.003	80.81
491.221	96.81
491.439	68.81
491.657	96.81
491.874	90.81
492.092	89.81
492.31	88.81
492.527	94.81
492.745	100.81
492.963	89.81
493.18	84.81
493.398	103.81
493.615	83.81
493.833	85.81
494.05	82.81
494.268	87.81
494.485	97.81
494.703	94.81
494.92	87.81
495.138	83.81
495.355	80.81
495.573	81.81
495.79	82.81
496.008	85.81
496.225	82.81
496.442	85.81
496.66	88.81
496.877	99.81
497.094	84.81
497.312	95.81
497.529	101.81
497.746	87.81
497.963	82.81
498.181	85.81
498.398	83.81
498.615	116.81
498.832	114.81
499.049	92.81
499.267	91.81
499.484	96.81
499.701	94.81
499.918	76.81
500.135	91.81
500.352	72.81
500.569	86.81
500.786	102.81
501.003	78.81
501.22	92.81
501.437	101.81
501.654	89.81
501.871	119.81
502.088	103.81
502.305	97.81
502.522	91.81
502.739	81.81
502.956	86.81
503.172	82.81
503.389	102.81
503.606	112.81
503.823	99.81
504.04	95.81
504.256	90.81
504.473	98.81
504.69	80.81
504.907	83.81
505.123	89.81
505.34	79.81
505.557	86.81
505.773	86.81
505.99	78.81
506.207	98.81
506.423	88.81
506.64	94.81
506.856	73.81
507.073	82.81
507.289	99.81
507.506	89.81
507.722	117.81
507.939	132.81
508.155	102.81
508.372	85.81
508.588	102.81
508.805	99.81
509.021	85.81
509.238	89.81
509.454	100.81
509.67	108.81
509.887	113.81
510.103	142.81
510.319	224.81
510.536	816.81
510.752	2816.81
510.968	747.81
511.184	178.81
511.401	114.81
511.617	103.81
511.833	98.81
512.049	101.81
512.265	80.81
512.481	87.81
512.698	93.81
512.914	110.81
513.13	92.81
513.346	100.81
513.562	79.81
513.778	110.81
513.994	110.81
514.21	111.81
514.426	110.81
