Data from Circ_2000_H10_HRD10591_00092.txt Node
Date: Wed Jan 03 10:49:52 EST 2024
User: Yrep
Spectrometer: HR+D1059
Trigger mode: 1
Integration Time (sec): 1.000000E-1
Scans to average: 1
Electric dark correction enabled: true
Nonlinearity correction enabled: false
Boxcar width: 0
XAxis mode: Wavelengths
Number of Pixels in Spectrum: 2048
>>>>>Begin Spectral Data<<<<<
223.165	-27.44
223.4	-27.44
223.635	-27.44
223.869	-15.44
224.104	-14.44
224.338	-15.44
224.573	-10.44
224.808	-9.44
225.042	-19.44
225.277	-8.44
225.511	-12.44
225.746	-2.44
225.98	11.56
226.215	18.56
226.449	14.56
226.683	24.56
226.918	33.56
227.152	32.56
227.387	35.56
227.621	37.56
227.856	55.56
228.09	67.56
228.324	54.56
228.559	49.56
228.793	46.56
229.027	62.56
229.262	76.56
229.496	71.56
229.73	95.56
229.964	96.56
230.199	54.56
230.433	76.56
230.667	86.56
230.901	79.56
231.136	79.56
231.37	95.56
231.604	80.56
231.838	84.56
232.072	85.56
232.306	73.56
232.541	87.56
232.775	79.56
233.009	73.56
233.243	71.56
233.477	82.56
233.711	77.56
233.945	91.56
234.179	85.56
234.413	63.56
234.647	94.56
234.881	79.56
235.115	76.56
235.349	84.56
235.583	78.56
235.817	73.56
236.051	79.56
236.285	69.56
236.519	82.56
236.753	86.56
236.987	86.56
237.221	88.56
237.455	102.56
237.689	70.56
237.922	80.56
238.156	79.56
238.39	70.56
238.624	74.56
238.858	78.56
239.091	74.56
239.325	68.56
239.559	102.56
239.793	82.56
240.027	80.56
240.26	68.56
240.494	79.56
240.728	82.56
240.961	79.56
241.195	83.56
241.429	69.56
241.662	74.56
241.896	72.56
242.13	94.56
242.363	81.56
242.597	87.56
242.83	79.56
243.064	84.56
243.298	74.56
243.531	64.56
243.765	82.56
243.998	93.56
244.232	88.56
244.465	78.56
244.699	82.56
244.932	77.56
245.166	86.56
245.399	79.56
245.633	75.56
245.866	82.56
246.099	79.56
246.333	90.56
246.566	83.56
246.8	84.56
247.033	67.56
247.266	65.56
247.5	80.56
247.733	82.56
247.966	91.56
248.2	83.56
248.433	77.56
248.666	81.56
248.899	73.56
249.133	85.56
249.366	94.56
249.599	110.56
249.832	88.56
250.066	77.56
250.299	90.56
250.532	86.56
250.765	87.56
250.998	88.56
251.231	76.56
251.465	96.56
251.698	77.56
251.931	86.56
252.164	90.56
252.397	76.56
252.63	85.56
252.863	78.56
253.096	96.56
253.329	84.56
253.562	83.56
253.795	79.56
254.028	87.56
254.261	76.56
254.494	69.56
254.727	90.56
254.96	91.56
255.193	76.56
255.426	80.56
255.659	101.56
255.892	78.56
256.124	88.56
256.357	76.56
256.59	91.56
256.823	95.56
257.056	93.56
257.289	68.56
257.521	82.56
257.754	99.56
257.987	77.56
258.22	88.56
258.452	92.56
258.685	92.56
258.918	86.56
259.151	69.56
259.383	67.56
259.616	85.56
259.849	82.56
260.081	89.56
260.314	95.56
260.547	86.56
260.779	93.56
261.012	97.56
261.244	98.56
261.477	111.56
261.71	104.56
261.942	117.56
262.175	130.56
262.407	101.56
262.64	79.56
262.872	99.56
263.105	85.56
263.337	75.56
263.57	91.56
263.802	96.56
264.035	93.56
264.267	78.56
264.499	88.56
264.732	75.56
264.964	89.56
265.197	90.56
265.429	86.56
265.661	74.56
265.894	82.56
266.126	85.56
266.358	91.56
266.591	68.56
266.823	81.56
267.055	83.56
267.287	81.56
267.52	76.56
267.752	91.56
267.984	80.56
268.216	74.56
268.448	76.56
268.681	89.56
268.913	91.56
269.145	89.56
269.377	90.56
269.609	85.56
269.841	75.56
270.073	86.56
270.306	96.56
270.538	74.56
270.77	82.56
271.002	83.56
271.234	91.56
271.466	96.56
271.698	96.56
271.93	83.56
272.162	93.56
272.394	83.56
272.626	87.56
272.858	87.56
273.09	99.56
273.322	83.56
273.553	74.56
273.785	78.56
274.017	74.56
274.249	82.56
274.481	86.56
274.713	83.56
274.945	79.56
275.176	99.56
275.408	95.56
275.64	107.56
275.872	119.56
276.104	109.56
276.335	102.56
276.567	118.56
276.799	139.56
277.031	157.56
277.262	163.56
277.494	123.56
277.726	105.56
277.957	81.56
278.189	76.56
278.421	87.56
278.652	97.56
278.884	95.56
279.115	100.56
279.347	99.56
279.579	103.56
279.81	119.56
280.042	168.56
280.273	200.56
280.505	163.56
280.736	103.56
280.968	90.56
281.199	76.56
281.431	88.56
281.662	86.56
281.894	86.56
282.125	95.56
282.356	123.56
282.588	149.56
282.819	138.56
283.051	102.56
283.282	96.56
283.513	96.56
283.745	88.56
283.976	89.56
284.207	87.56
284.439	98.56
284.67	85.56
284.901	91.56
285.132	95.56
285.364	83.56
285.595	95.56
285.826	96.56
286.057	87.56
286.288	68.56
286.52	84.56
286.751	86.56
286.982	102.56
287.213	90.56
287.444	97.56
287.675	84.56
287.906	93.56
288.138	109.56
288.369	99.56
288.6	95.56
288.831	89.56
289.062	113.56
289.293	85.56
289.524	81.56
289.755	83.56
289.986	92.56
290.217	79.56
290.448	95.56
290.679	91.56
290.91	87.56
291.141	84.56
291.371	93.56
291.602	88.56
291.833	101.56
292.064	82.56
292.295	91.56
292.526	98.56
292.757	100.56
292.987	79.56
293.218	84.56
293.449	71.56
293.68	88.56
293.91	76.56
294.141	94.56
294.372	82.56
294.603	86.56
294.833	92.56
295.064	96.56
295.295	79.56
295.525	90.56
295.756	96.56
295.987	116.56
296.217	154.56
296.448	158.56
296.679	104.56
296.909	97.56
297.14	85.56
297.37	92.56
297.601	95.56
297.831	87.56
298.062	84.56
298.292	87.56
298.523	80.56
298.753	94.56
298.984	74.56
299.214	100.56
299.445	92.56
299.675	91.56
299.905	112.56
300.136	91.56
300.366	83.56
300.597	70.56
300.827	82.56
301.057	99.56
301.288	116.56
301.518	100.56
301.748	100.56
301.979	105.56
302.209	101.56
302.439	94.56
302.669	90.56
302.9	83.56
303.13	99.56
303.36	110.56
303.59	123.56
303.82	122.56
304.051	95.56
304.281	91.56
304.511	91.56
304.741	93.56
304.971	93.56
305.201	103.56
305.431	98.56
305.661	101.56
305.891	87.56
306.121	104.56
306.352	103.56
306.582	125.56
306.812	104.56
307.042	117.56
307.272	144.56
307.502	156.56
307.731	159.56
307.961	108.56
308.191	92.56
308.421	99.56
308.651	100.56
308.881	105.56
309.111	90.56
309.341	101.56
309.571	94.56
309.8	97.56
310.03	94.56
310.26	112.56
310.49	111.56
310.72	106.56
310.949	118.56
311.179	131.56
311.409	104.56
311.639	100.56
311.868	114.56
312.098	102.56
312.328	90.56
312.557	105.56
312.787	115.56
313.017	116.56
313.246	100.56
313.476	108.56
313.706	78.56
313.935	90.56
314.165	102.56
314.394	120.56
314.624	108.56
314.853	101.56
315.083	82.56
315.312	100.56
315.542	87.56
315.771	95.56
316.001	87.56
316.23	100.56
316.46	84.56
316.689	107.56
316.919	106.56
317.148	98.56
317.377	115.56
317.607	103.56
317.836	102.56
318.065	93.56
318.295	83.56
318.524	93.56
318.753	92.56
318.983	105.56
319.212	83.56
319.441	114.56
319.67	115.56
319.9	107.56
320.129	105.56
320.358	82.56
320.587	107.56
320.816	119.56
321.046	128.56
321.275	101.56
321.504	105.56
321.733	111.56
321.962	119.56
322.191	109.56
322.42	116.56
322.649	116.56
322.878	105.56
323.108	132.56
323.337	157.56
323.566	166.56
323.795	176.56
324.024	266.56
324.253	526.56
324.482	1132.56
324.71	2348.56
324.939	3142.56
325.168	1090.56
325.397	303.56
325.626	170.56
325.855	158.56
326.084	159.56
326.313	148.56
326.542	184.56
326.77	283.56
326.999	588.56
327.228	1280.56
327.457	2359.56
327.686	1852.56
327.914	549.56
328.143	442.56
328.372	509.56
328.6	301.56
328.829	166.56
329.058	166.56
329.287	172.56
329.515	162.56
329.744	220.56
329.972	400.56
330.201	758.56
330.43	1064.56
330.658	510.56
330.887	258.56
331.115	189.56
331.344	119.56
331.572	104.56
331.801	113.56
332.03	113.56
332.258	111.56
332.486	108.56
332.715	103.56
332.943	118.56
333.172	118.56
333.4	119.56
333.629	141.56
333.857	205.56
334.085	356.56
334.314	735.56
334.542	1410.56
334.771	1286.56
334.999	356.56
335.227	158.56
335.455	116.56
335.684	121.56
335.912	102.56
336.14	109.56
336.369	102.56
336.597	115.56
336.825	111.56
337.053	91.56
337.281	105.56
337.51	90.56
337.738	97.56
337.966	108.56
338.194	101.56
338.422	112.56
338.65	89.56
338.878	96.56
339.106	115.56
339.334	95.56
339.562	94.56
339.79	98.56
340.018	94.56
340.246	99.56
340.474	96.56
340.702	83.56
340.93	98.56
341.158	97.56
341.386	102.56
341.614	101.56
341.842	107.56
342.07	105.56
342.298	90.56
342.526	88.56
342.754	88.56
342.981	91.56
343.209	88.56
343.437	107.56
343.665	95.56
343.893	99.56
344.12	84.56
344.348	100.56
344.576	102.56
344.804	95.56
345.031	97.56
345.259	95.56
345.487	100.56
345.714	90.56
345.942	104.56
346.17	95.56
346.397	104.56
346.625	95.56
346.853	104.56
347.08	88.56
347.308	103.56
347.535	92.56
347.763	114.56
347.99	109.56
348.218	110.56
348.445	123.56
348.673	106.56
348.9	106.56
349.128	107.56
349.355	101.56
349.583	93.56
349.81	82.56
350.037	87.56
350.265	96.56
350.492	90.56
350.72	107.56
350.947	120.56
351.174	121.56
351.402	127.56
351.629	114.56
351.856	110.56
352.083	119.56
352.311	102.56
352.538	128.56
352.765	118.56
352.992	132.56
353.22	111.56
353.447	115.56
353.674	107.56
353.901	96.56
354.128	91.56
354.355	101.56
354.583	115.56
354.81	118.56
355.037	96.56
355.264	100.56
355.491	100.56
355.718	106.56
355.945	98.56
356.172	94.56
356.399	95.56
356.626	92.56
356.853	92.56
357.08	101.56
357.307	106.56
357.534	95.56
357.761	86.56
357.988	106.56
358.215	100.56
358.441	103.56
358.668	84.56
358.895	92.56
359.122	97.56
359.349	89.56
359.576	110.56
359.802	118.56
360.029	147.56
360.256	131.56
360.483	112.56
360.709	90.56
360.936	93.56
361.163	91.56
361.39	110.56
361.616	111.56
361.843	99.56
362.07	97.56
362.296	96.56
362.523	101.56
362.749	111.56
362.976	106.56
363.203	93.56
363.429	95.56
363.656	95.56
363.882	108.56
364.109	100.56
364.335	87.56
364.562	87.56
364.788	96.56
365.015	106.56
365.241	111.56
365.468	117.56
365.694	103.56
365.92	104.56
366.147	87.56
366.373	95.56
366.599	83.56
366.826	89.56
367.052	94.56
367.278	89.56
367.505	98.56
367.731	90.56
367.957	108.56
368.184	108.56
368.41	111.56
368.636	106.56
368.862	135.56
369.089	107.56
369.315	84.56
369.541	98.56
369.767	89.56
369.993	105.56
370.219	87.56
370.445	95.56
370.672	93.56
370.898	92.56
371.124	91.56
371.35	93.56
371.576	92.56
371.802	93.56
372.028	103.56
372.254	85.56
372.48	92.56
372.706	94.56
372.932	100.56
373.158	92.56
373.384	76.56
373.61	85.56
373.835	73.56
374.061	94.56
374.287	105.56
374.513	98.56
374.739	99.56
374.965	91.56
375.191	83.56
375.416	87.56
375.642	97.56
375.868	104.56
376.094	98.56
376.319	100.56
376.545	91.56
376.771	83.56
376.997	93.56
377.222	88.56
377.448	84.56
377.674	73.56
377.899	96.56
378.125	93.56
378.35	87.56
378.576	80.56
378.802	86.56
379.027	94.56
379.253	88.56
379.478	106.56
379.704	95.56
379.929	93.56
380.155	104.56
380.38	106.56
380.606	100.56
380.831	112.56
381.057	93.56
381.282	88.56
381.507	85.56
381.733	90.56
381.958	85.56
382.184	91.56
382.409	100.56
382.634	99.56
382.86	99.56
383.085	102.56
383.31	106.56
383.535	107.56
383.761	100.56
383.986	99.56
384.211	114.56
384.436	101.56
384.662	99.56
384.887	104.56
385.112	104.56
385.337	115.56
385.562	97.56
385.787	102.56
386.013	110.56
386.238	120.56
386.463	114.56
386.688	107.56
386.913	111.56
387.138	87.56
387.363	102.56
387.588	96.56
387.813	104.56
388.038	110.56
388.263	118.56
388.488	109.56
388.713	103.56
388.938	98.56
389.163	104.56
389.387	96.56
389.612	90.56
389.837	95.56
390.062	96.56
390.287	97.56
390.512	99.56
390.736	78.56
390.961	86.56
391.186	114.56
391.411	89.56
391.636	90.56
391.86	95.56
392.085	75.56
392.31	81.56
392.534	89.56
392.759	101.56
392.984	79.56
393.208	96.56
393.433	91.56
393.658	80.56
393.882	90.56
394.107	85.56
394.331	99.56
394.556	93.56
394.78	102.56
395.005	95.56
395.229	84.56
395.454	90.56
395.678	77.56
395.903	102.56
396.127	85.56
396.352	78.56
396.576	93.56
396.801	85.56
397.025	95.56
397.249	81.56
397.474	79.56
397.698	87.56
397.922	95.56
398.147	93.56
398.371	89.56
398.595	83.56
398.82	74.56
399.044	107.56
399.268	86.56
399.492	80.56
399.717	74.56
399.941	95.56
400.165	89.56
400.389	107.56
400.613	94.56
400.837	93.56
401.062	102.56
401.286	102.56
401.51	99.56
401.734	85.56
401.958	109.56
402.182	139.56
402.406	186.56
402.63	142.56
402.854	89.56
403.078	89.56
403.302	91.56
403.526	104.56
403.75	86.56
403.974	89.56
404.198	88.56
404.422	81.56
404.645	87.56
404.869	110.56
405.093	119.56
405.317	135.56
405.541	141.56
405.765	122.56
405.988	132.56
406.212	229.56
406.436	286.56
406.66	192.56
406.883	111.56
407.107	112.56
407.331	108.56
407.555	106.56
407.778	110.56
408.002	102.56
408.226	93.56
408.449	92.56
408.673	103.56
408.896	99.56
409.12	90.56
409.344	99.56
409.567	86.56
409.791	100.56
410.014	104.56
410.238	101.56
410.461	96.56
410.685	87.56
410.908	104.56
411.132	112.56
411.355	99.56
411.578	102.56
411.802	80.56
412.025	99.56
412.249	95.56
412.472	123.56
412.695	131.56
412.919	109.56
413.142	115.56
413.365	91.56
413.589	89.56
413.812	91.56
414.035	98.56
414.258	95.56
414.482	85.56
414.705	96.56
414.928	91.56
415.151	96.56
415.374	86.56
415.597	92.56
415.821	100.56
416.044	103.56
416.267	100.56
416.49	82.56
416.713	86.56
416.936	97.56
417.159	98.56
417.382	95.56
417.605	100.56
417.828	114.56
418.051	97.56
418.274	106.56
418.497	88.56
418.72	93.56
418.943	83.56
419.166	84.56
419.389	101.56
419.611	103.56
419.834	98.56
420.057	93.56
420.28	95.56
420.503	104.56
420.726	96.56
420.948	107.56
421.171	116.56
421.394	99.56
421.617	103.56
421.839	89.56
422.062	88.56
422.285	98.56
422.507	110.56
422.73	116.56
422.953	100.56
423.175	93.56
423.398	99.56
423.621	93.56
423.843	90.56
424.066	97.56
424.288	97.56
424.511	102.56
424.733	119.56
424.956	120.56
425.178	110.56
425.401	121.56
425.623	125.56
425.846	99.56
426.068	106.56
426.291	94.56
426.513	82.56
426.735	78.56
426.958	101.56
427.18	120.56
427.402	168.56
427.625	244.56
427.847	240.56
428.069	204.56
428.292	124.56
428.514	119.56
428.736	89.56
428.958	94.56
429.181	78.56
429.403	81.56
429.625	91.56
429.847	96.56
430.069	116.56
430.292	102.56
430.514	84.56
430.736	83.56
430.958	91.56
431.18	89.56
431.402	106.56
431.624	98.56
431.846	89.56
432.068	82.56
432.29	96.56
432.512	98.56
432.734	98.56
432.956	92.56
433.178	94.56
433.4	106.56
433.622	94.56
433.844	95.56
434.066	88.56
434.287	108.56
434.509	92.56
434.731	93.56
434.953	93.56
435.175	101.56
435.397	100.56
435.618	107.56
435.84	108.56
436.062	152.56
436.284	154.56
436.505	121.56
436.727	109.56
436.949	102.56
437.17	94.56
437.392	94.56
437.614	94.56
437.835	126.56
438.057	165.56
438.278	140.56
438.5	128.56
438.721	158.56
438.943	123.56
439.165	95.56
439.386	95.56
439.608	109.56
439.829	111.56
440.05	151.56
440.272	205.56
440.493	118.56
440.715	111.56
440.936	102.56
441.158	94.56
441.379	94.56
441.6	106.56
441.822	117.56
442.043	108.56
442.264	130.56
442.486	118.56
442.707	108.56
442.928	123.56
443.149	158.56
443.371	171.56
443.592	143.56
443.813	148.56
444.034	122.56
444.255	110.56
444.476	94.56
444.698	99.56
444.919	101.56
445.14	147.56
445.361	130.56
445.582	156.56
445.803	185.56
446.024	194.56
446.245	187.56
446.466	136.56
446.687	102.56
446.908	97.56
447.129	119.56
447.35	101.56
447.571	107.56
447.792	106.56
448.013	102.56
448.234	107.56
448.455	109.56
448.675	141.56
448.896	150.56
449.117	117.56
449.338	123.56
449.559	157.56
449.779	177.56
450	115.56
450.221	92.56
450.442	86.56
450.662	109.56
450.883	134.56
451.104	122.56
451.324	103.56
451.545	106.56
451.766	103.56
451.986	109.56
452.207	94.56
452.428	109.56
452.648	108.56
452.869	111.56
453.089	139.56
453.31	135.56
453.53	107.56
453.751	107.56
453.971	124.56
454.192	125.56
454.412	104.56
454.633	83.56
454.853	87.56
455.073	88.56
455.294	93.56
455.514	101.56
455.734	95.56
455.955	108.56
456.175	96.56
456.395	83.56
456.616	94.56
456.836	88.56
457.056	70.56
457.276	71.56
457.497	98.56
457.717	88.56
457.937	103.56
458.157	105.56
458.377	105.56
458.598	114.56
458.818	215.56
459.038	230.56
459.258	148.56
459.478	106.56
459.698	95.56
459.918	85.56
460.138	86.56
460.358	85.56
460.578	84.56
460.798	104.56
461.018	86.56
461.238	95.56
461.458	90.56
461.678	92.56
461.898	85.56
462.118	99.56
462.338	79.56
462.558	68.56
462.777	84.56
462.997	89.56
463.217	109.56
463.437	95.56
463.657	92.56
463.876	93.56
464.096	99.56
464.316	101.56
464.536	98.56
464.755	108.56
464.975	123.56
465.195	230.56
465.414	220.56
465.634	119.56
465.854	102.56
466.073	95.56
466.293	95.56
466.512	91.56
466.732	94.56
466.951	90.56
467.171	90.56
467.391	111.56
467.61	140.56
467.829	183.56
468.049	411.56
468.268	598.56
468.488	178.56
468.707	104.56
468.927	86.56
469.146	98.56
469.365	105.56
469.585	92.56
469.804	100.56
470.023	111.56
470.243	110.56
470.462	129.56
470.681	140.56
470.901	89.56
471.12	95.56
471.339	97.56
471.558	109.56
471.777	150.56
471.997	244.56
472.216	814.56
472.435	1806.56
472.654	480.56
472.873	150.56
473.092	105.56
473.311	102.56
473.53	100.56
473.749	92.56
473.968	107.56
474.187	127.56
474.406	117.56
474.625	88.56
474.844	93.56
475.063	94.56
475.282	99.56
475.501	109.56
475.72	83.56
475.939	84.56
476.158	102.56
476.377	91.56
476.596	106.56
476.814	100.56
477.033	91.56
477.252	102.56
477.471	94.56
477.69	103.56
477.908	97.56
478.127	107.56
478.346	97.56
478.564	110.56
478.783	108.56
479.002	106.56
479.22	104.56
479.439	131.56
479.658	130.56
479.876	104.56
480.095	104.56
480.313	125.56
480.532	151.56
480.751	247.56
480.969	765.56
481.188	3171.56
481.406	1862.56
481.624	292.56
481.843	134.56
482.061	104.56
482.28	104.56
482.498	102.56
482.717	93.56
482.935	98.56
483.153	84.56
483.372	96.56
483.59	99.56
483.808	81.56
484.027	90.56
484.245	94.56
484.463	110.56
484.681	99.56
484.9	103.56
485.118	102.56
485.336	80.56
485.554	106.56
485.772	119.56
485.99	116.56
486.209	100.56
486.427	126.56
486.645	115.56
486.863	124.56
487.081	105.56
487.299	102.56
487.517	91.56
487.735	90.56
487.953	96.56
488.171	97.56
488.389	92.56
488.607	96.56
488.825	97.56
489.043	92.56
489.261	102.56
489.479	94.56
489.696	93.56
489.914	71.56
490.132	81.56
490.35	94.56
490.568	86.56
490.786	87.56
491.003	94.56
491.221	75.56
491.439	108.56
491.657	105.56
491.874	91.56
492.092	91.56
492.31	107.56
492.527	106.56
492.745	102.56
492.963	100.56
493.18	82.56
493.398	103.56
493.615	89.56
493.833	104.56
494.05	84.56
494.268	89.56
494.485	102.56
494.703	82.56
494.92	76.56
495.138	93.56
495.355	103.56
495.573	105.56
495.79	106.56
496.008	102.56
496.225	99.56
496.442	81.56
496.66	94.56
496.877	84.56
497.094	95.56
497.312	91.56
497.529	97.56
497.746	109.56
497.963	99.56
498.181	102.56
498.398	107.56
498.615	119.56
498.832	115.56
499.049	95.56
499.267	91.56
499.484	91.56
499.701	81.56
499.918	93.56
500.135	103.56
500.352	92.56
500.569	94.56
500.786	90.56
501.003	80.56
501.22	88.56
501.437	87.56
501.654	109.56
501.871	118.56
502.088	99.56
502.305	92.56
502.522	84.56
502.739	96.56
502.956	102.56
503.172	91.56
503.389	98.56
503.606	104.56
503.823	111.56
504.04	97.56
504.256	100.56
504.473	90.56
504.69	98.56
504.907	96.56
505.123	86.56
505.34	101.56
505.557	93.56
505.773	86.56
505.99	87.56
506.207	98.56
506.423	90.56
506.64	81.56
506.856	90.56
507.073	86.56
507.289	100.56
507.506	98.56
507.722	130.56
507.939	135.56
508.155	99.56
508.372	96.56
508.588	97.56
508.805	97.56
509.021	95.56
509.238	93.56
509.454	102.56
509.67	105.56
509.887	116.56
510.103	135.56
510.319	205.56
510.536	834.56
510.752	2816.56
510.968	779.56
511.184	180.56
511.401	130.56
511.617	112.56
511.833	111.56
512.049	101.56
