Data from Circ_2000_H10_HRD10591_00086.txt Node
Date: Wed Jan 03 10:49:51 EST 2024
User: Yrep
Spectrometer: HR+D1059
Trigger mode: 1
Integration Time (sec): 1.000000E-1
Scans to average: 1
Electric dark correction enabled: true
Nonlinearity correction enabled: false
Boxcar width: 0
XAxis mode: Wavelengths
Number of Pixels in Spectrum: 2048
>>>>>Begin Spectral Data<<<<<
223.165	-13.94
223.4	-13.94
223.635	-13.94
223.869	-18.94
224.104	-20.94
224.338	-16.94
224.573	-12.94
224.808	-6.94
225.042	5.06
225.277	-17.94
225.511	6.06
225.746	-1.94
225.98	-5.94
226.215	10.06
226.449	7.06
226.683	32.06
226.918	20.06
227.152	36.06
227.387	41.06
227.621	36.06
227.856	49.06
228.09	45.06
228.324	61.06
228.559	62.06
228.793	55.06
229.027	79.06
229.262	61.06
229.496	66.06
229.73	89.06
229.964	94.06
230.199	74.06
230.433	83.06
230.667	76.06
230.901	76.06
231.136	74.06
231.37	94.06
231.604	71.06
231.838	84.06
232.072	85.06
232.306	82.06
232.541	87.06
232.775	76.06
233.009	83.06
233.243	100.06
233.477	88.06
233.711	68.06
233.945	84.06
234.179	96.06
234.413	81.06
234.647	72.06
234.881	70.06
235.115	77.06
235.349	78.06
235.583	74.06
235.817	71.06
236.051	84.06
236.285	73.06
236.519	70.06
236.753	80.06
236.987	76.06
237.221	92.06
237.455	96.06
237.689	81.06
237.922	64.06
238.156	69.06
238.39	86.06
238.624	77.06
238.858	65.06
239.091	82.06
239.325	88.06
239.559	84.06
239.793	65.06
240.027	77.06
240.26	77.06
240.494	77.06
240.728	80.06
240.961	67.06
241.195	91.06
241.429	80.06
241.662	79.06
241.896	74.06
242.13	72.06
242.363	88.06
242.597	76.06
242.83	72.06
243.064	88.06
243.298	80.06
243.531	85.06
243.765	77.06
243.998	81.06
244.232	96.06
244.465	88.06
244.699	82.06
244.932	86.06
245.166	75.06
245.399	79.06
245.633	83.06
245.866	80.06
246.099	70.06
246.333	73.06
246.566	78.06
246.8	76.06
247.033	84.06
247.266	69.06
247.5	73.06
247.733	72.06
247.966	80.06
248.2	79.06
248.433	90.06
248.666	84.06
248.899	76.06
249.133	100.06
249.366	99.06
249.599	93.06
249.832	82.06
250.066	69.06
250.299	82.06
250.532	85.06
250.765	74.06
250.998	82.06
251.231	83.06
251.465	84.06
251.698	75.06
251.931	80.06
252.164	77.06
252.397	76.06
252.63	81.06
252.863	72.06
253.096	77.06
253.329	82.06
253.562	91.06
253.795	92.06
254.028	84.06
254.261	86.06
254.494	76.06
254.727	87.06
254.96	81.06
255.193	81.06
255.426	88.06
255.659	80.06
255.892	90.06
256.124	76.06
256.357	88.06
256.59	82.06
256.823	93.06
257.056	74.06
257.289	89.06
257.521	93.06
257.754	64.06
257.987	86.06
258.22	89.06
258.452	84.06
258.685	98.06
258.918	94.06
259.151	82.06
259.383	95.06
259.616	82.06
259.849	88.06
260.081	80.06
260.314	96.06
260.547	91.06
260.779	91.06
261.012	105.06
261.244	88.06
261.477	93.06
261.71	99.06
261.942	140.06
262.175	150.06
262.407	89.06
262.64	88.06
262.872	93.06
263.105	91.06
263.337	85.06
263.57	70.06
263.802	96.06
264.035	94.06
264.267	62.06
264.499	82.06
264.732	98.06
264.964	79.06
265.197	85.06
265.429	81.06
265.661	75.06
265.894	81.06
266.126	81.06
266.358	67.06
266.591	87.06
266.823	89.06
267.055	88.06
267.287	81.06
267.52	84.06
267.752	93.06
267.984	85.06
268.216	83.06
268.448	81.06
268.681	88.06
268.913	93.06
269.145	75.06
269.377	74.06
269.609	92.06
269.841	77.06
270.073	78.06
270.306	83.06
270.538	83.06
270.77	99.06
271.002	91.06
271.234	96.06
271.466	96.06
271.698	96.06
271.93	87.06
272.162	89.06
272.394	88.06
272.626	85.06
272.858	88.06
273.09	84.06
273.322	82.06
273.553	89.06
273.785	86.06
274.017	100.06
274.249	75.06
274.481	78.06
274.713	73.06
274.945	77.06
275.176	93.06
275.408	96.06
275.64	101.06
275.872	103.06
276.104	97.06
276.335	107.06
276.567	118.06
276.799	134.06
277.031	149.06
277.262	158.06
277.494	124.06
277.726	102.06
277.957	92.06
278.189	94.06
278.421	78.06
278.652	89.06
278.884	100.06
279.115	89.06
279.347	98.06
279.579	87.06
279.81	104.06
280.042	163.06
280.273	188.06
280.505	142.06
280.736	92.06
280.968	89.06
281.199	95.06
281.431	106.06
281.662	90.06
281.894	107.06
282.125	101.06
282.356	139.06
282.588	160.06
282.819	132.06
283.051	99.06
283.282	83.06
283.513	88.06
283.745	87.06
283.976	100.06
284.207	88.06
284.439	86.06
284.67	80.06
284.901	94.06
285.132	98.06
285.364	90.06
285.595	97.06
285.826	102.06
286.057	96.06
286.288	82.06
286.52	68.06
286.751	92.06
286.982	88.06
287.213	101.06
287.444	87.06
287.675	88.06
287.906	93.06
288.138	101.06
288.369	103.06
288.6	85.06
288.831	88.06
289.062	79.06
289.293	94.06
289.524	86.06
289.755	76.06
289.986	92.06
290.217	92.06
290.448	86.06
290.679	93.06
290.91	101.06
291.141	79.06
291.371	86.06
291.602	85.06
291.833	88.06
292.064	86.06
292.295	89.06
292.526	76.06
292.757	95.06
292.987	85.06
293.218	81.06
293.449	93.06
293.68	82.06
293.91	79.06
294.141	86.06
294.372	81.06
294.603	74.06
294.833	94.06
295.064	78.06
295.295	85.06
295.525	110.06
295.756	108.06
295.987	121.06
296.217	162.06
296.448	158.06
296.679	100.06
296.909	97.06
297.14	95.06
297.37	93.06
297.601	91.06
297.831	101.06
298.062	90.06
298.292	85.06
298.523	98.06
298.753	77.06
298.984	102.06
299.214	94.06
299.445	94.06
299.675	93.06
299.905	107.06
300.136	99.06
300.366	91.06
300.597	93.06
300.827	105.06
301.057	104.06
301.288	109.06
301.518	92.06
301.748	101.06
301.979	88.06
302.209	96.06
302.439	95.06
302.669	83.06
302.9	89.06
303.13	91.06
303.36	103.06
303.59	118.06
303.82	126.06
304.051	91.06
304.281	94.06
304.511	90.06
304.741	94.06
304.971	82.06
305.201	77.06
305.431	85.06
305.661	106.06
305.891	110.06
306.121	102.06
306.352	105.06
306.582	114.06
306.812	95.06
307.042	109.06
307.272	140.06
307.502	163.06
307.731	144.06
307.961	123.06
308.191	91.06
308.421	85.06
308.651	109.06
308.881	95.06
309.111	83.06
309.341	106.06
309.571	111.06
309.8	108.06
310.03	98.06
310.26	101.06
310.49	108.06
310.72	114.06
310.949	129.06
311.179	106.06
311.409	110.06
311.639	98.06
311.868	107.06
312.098	95.06
312.328	96.06
312.557	109.06
312.787	117.06
313.017	116.06
313.246	105.06
313.476	86.06
313.706	82.06
313.935	98.06
314.165	102.06
314.394	100.06
314.624	99.06
314.853	100.06
315.083	93.06
315.312	83.06
315.542	93.06
315.771	86.06
316.001	101.06
316.23	88.06
316.46	84.06
316.689	93.06
316.919	105.06
317.148	94.06
317.377	88.06
317.607	114.06
317.836	104.06
318.065	98.06
318.295	93.06
318.524	86.06
318.753	96.06
318.983	96.06
319.212	95.06
319.441	106.06
319.67	108.06
319.9	92.06
320.129	91.06
320.358	99.06
320.587	94.06
320.816	102.06
321.046	114.06
321.275	98.06
321.504	87.06
321.733	109.06
321.962	97.06
322.191	103.06
322.42	104.06
322.649	118.06
322.878	119.06
323.108	121.06
323.337	138.06
323.566	160.06
323.795	181.06
324.024	227.06
324.253	452.06
324.482	955.06
324.71	1966.06
324.939	2548.06
325.168	966.06
325.397	286.06
325.626	155.06
325.855	140.06
326.084	139.06
326.313	125.06
326.542	165.06
326.77	263.06
326.999	498.06
327.228	1005.06
327.457	1840.06
327.686	1506.06
327.914	504.06
328.143	432.06
328.372	502.06
328.6	309.06
328.829	176.06
329.058	169.06
329.287	181.06
329.515	147.06
329.744	211.06
329.972	346.06
330.201	716.06
330.43	1011.06
330.658	464.06
330.887	253.06
331.115	176.06
331.344	139.06
331.572	116.06
331.801	112.06
332.03	124.06
332.258	108.06
332.486	101.06
332.715	113.06
332.943	128.06
333.172	112.06
333.4	111.06
333.629	147.06
333.857	195.06
334.085	327.06
334.314	669.06
334.542	1218.06
334.771	1209.06
334.999	328.06
335.227	156.06
335.455	123.06
335.684	104.06
335.912	112.06
336.14	121.06
336.369	129.06
336.597	98.06
336.825	118.06
337.053	102.06
337.281	97.06
337.51	88.06
337.738	92.06
337.966	90.06
338.194	117.06
338.422	93.06
338.65	110.06
338.878	99.06
339.106	101.06
339.334	103.06
339.562	97.06
339.79	96.06
340.018	86.06
340.246	75.06
340.474	92.06
340.702	86.06
340.93	97.06
341.158	95.06
341.386	99.06
341.614	116.06
341.842	98.06
342.07	80.06
342.298	87.06
342.526	95.06
342.754	101.06
342.981	88.06
343.209	88.06
343.437	91.06
343.665	92.06
343.893	100.06
344.12	97.06
344.348	87.06
344.576	91.06
344.804	90.06
345.031	105.06
345.259	120.06
345.487	116.06
345.714	99.06
345.942	98.06
346.17	98.06
346.397	98.06
346.625	97.06
346.853	100.06
347.08	68.06
347.308	86.06
347.535	102.06
347.763	108.06
347.99	107.06
348.218	105.06
348.445	112.06
348.673	113.06
348.9	97.06
349.128	112.06
349.355	95.06
349.583	98.06
349.81	84.06
350.037	86.06
350.265	97.06
350.492	92.06
350.72	89.06
350.947	99.06
351.174	117.06
351.402	129.06
351.629	112.06
351.856	119.06
352.083	110.06
352.311	126.06
352.538	137.06
352.765	130.06
352.992	130.06
353.22	121.06
353.447	112.06
353.674	100.06
353.901	95.06
354.128	89.06
354.355	97.06
354.583	100.06
354.81	96.06
355.037	89.06
355.264	105.06
355.491	91.06
355.718	91.06
355.945	90.06
356.172	94.06
356.399	86.06
356.626	87.06
356.853	90.06
357.08	89.06
357.307	95.06
357.534	100.06
357.761	90.06
357.988	91.06
358.215	86.06
358.441	87.06
358.668	91.06
358.895	98.06
359.122	91.06
359.349	102.06
359.576	85.06
359.802	107.06
360.029	136.06
360.256	117.06
360.483	102.06
360.709	88.06
360.936	85.06
361.163	92.06
361.39	108.06
361.616	104.06
361.843	98.06
362.07	92.06
362.296	99.06
362.523	93.06
362.749	105.06
362.976	93.06
363.203	108.06
363.429	82.06
363.656	90.06
363.882	91.06
364.109	89.06
364.335	94.06
364.562	96.06
364.788	91.06
365.015	97.06
365.241	102.06
365.468	109.06
365.694	108.06
365.92	97.06
366.147	86.06
366.373	96.06
366.599	97.06
366.826	86.06
367.052	92.06
367.278	86.06
367.505	91.06
367.731	112.06
367.957	84.06
368.184	93.06
368.41	109.06
368.636	136.06
368.862	140.06
369.089	114.06
369.315	88.06
369.541	94.06
369.767	88.06
369.993	88.06
370.219	95.06
370.445	91.06
370.672	92.06
370.898	87.06
371.124	89.06
371.35	89.06
371.576	93.06
371.802	80.06
372.028	57.06
372.254	83.06
372.48	83.06
372.706	94.06
372.932	102.06
373.158	84.06
373.384	85.06
373.61	94.06
373.835	98.06
374.061	85.06
374.287	96.06
374.513	99.06
374.739	90.06
374.965	99.06
375.191	95.06
375.416	90.06
375.642	94.06
375.868	91.06
376.094	94.06
376.319	88.06
376.545	82.06
376.771	86.06
376.997	83.06
377.222	84.06
377.448	82.06
377.674	82.06
377.899	88.06
378.125	78.06
378.35	78.06
378.576	98.06
378.802	78.06
379.027	94.06
379.253	99.06
379.478	86.06
379.704	85.06
379.929	105.06
380.155	101.06
380.38	83.06
380.606	104.06
380.831	98.06
381.057	94.06
381.282	106.06
381.507	101.06
381.733	83.06
381.958	92.06
382.184	81.06
382.409	93.06
382.634	105.06
382.86	97.06
383.085	95.06
383.31	100.06
383.535	101.06
383.761	91.06
383.986	102.06
384.211	80.06
384.436	89.06
384.662	97.06
384.887	96.06
385.112	93.06
385.337	92.06
385.562	97.06
385.787	102.06
386.013	101.06
386.238	109.06
386.463	126.06
386.688	102.06
386.913	100.06
387.138	113.06
387.363	97.06
387.588	111.06
387.813	90.06
388.038	104.06
388.263	104.06
388.488	109.06
388.713	99.06
388.938	97.06
389.163	110.06
389.387	88.06
389.612	98.06
389.837	74.06
390.062	91.06
390.287	88.06
390.512	101.06
390.736	91.06
390.961	105.06
391.186	83.06
391.411	79.06
391.636	83.06
391.86	88.06
392.085	94.06
392.31	89.06
392.534	70.06
392.759	80.06
392.984	90.06
393.208	85.06
393.433	73.06
393.658	87.06
393.882	85.06
394.107	78.06
394.331	90.06
394.556	101.06
394.78	102.06
395.005	85.06
395.229	81.06
395.454	81.06
395.678	75.06
395.903	77.06
396.127	93.06
396.352	87.06
396.576	89.06
396.801	92.06
397.025	79.06
397.249	90.06
397.474	96.06
397.698	89.06
397.922	72.06
398.147	97.06
398.371	79.06
398.595	82.06
398.82	86.06
399.044	81.06
399.268	95.06
399.492	93.06
399.717	75.06
399.941	93.06
400.165	80.06
400.389	100.06
400.613	101.06
400.837	83.06
401.062	91.06
401.286	84.06
401.51	93.06
401.734	97.06
401.958	104.06
402.182	142.06
402.406	198.06
402.63	142.06
402.854	109.06
403.078	103.06
403.302	87.06
403.526	94.06
403.75	90.06
403.974	90.06
404.198	77.06
404.422	104.06
404.645	101.06
404.869	101.06
405.093	101.06
405.317	130.06
405.541	126.06
405.765	110.06
405.988	117.06
406.212	221.06
406.436	300.06
406.66	205.06
406.883	122.06
407.107	93.06
407.331	98.06
407.555	101.06
407.778	115.06
408.002	101.06
408.226	94.06
408.449	104.06
408.673	92.06
408.896	106.06
409.12	87.06
409.344	104.06
409.567	79.06
409.791	93.06
410.014	95.06
410.238	93.06
410.461	105.06
410.685	101.06
410.908	86.06
411.132	108.06
411.355	105.06
411.578	98.06
411.802	95.06
412.025	86.06
412.249	94.06
412.472	105.06
412.695	139.06
412.919	101.06
413.142	71.06
413.365	89.06
413.589	83.06
413.812	100.06
414.035	81.06
414.258	90.06
414.482	102.06
414.705	86.06
414.928	87.06
415.151	92.06
415.374	91.06
415.597	100.06
415.821	77.06
416.044	96.06
416.267	93.06
416.49	77.06
416.713	90.06
416.936	97.06
417.159	90.06
417.382	100.06
417.605	99.06
417.828	93.06
418.051	97.06
418.274	99.06
418.497	85.06
418.72	92.06
418.943	78.06
419.166	90.06
419.389	82.06
419.611	87.06
419.834	82.06
420.057	83.06
420.28	100.06
420.503	89.06
420.726	89.06
420.948	96.06
421.171	101.06
421.394	93.06
421.617	98.06
421.839	88.06
422.062	94.06
422.285	91.06
422.507	70.06
422.73	94.06
422.953	72.06
423.175	88.06
423.398	98.06
423.621	80.06
423.843	85.06
424.066	83.06
424.288	96.06
424.511	91.06
424.733	94.06
424.956	119.06
425.178	99.06
425.401	102.06
425.623	107.06
425.846	100.06
426.068	101.06
426.291	99.06
426.513	93.06
426.735	97.06
426.958	99.06
427.18	121.06
427.402	178.06
427.625	237.06
427.847	212.06
428.069	178.06
428.292	106.06
428.514	96.06
428.736	89.06
428.958	104.06
429.181	60.06
429.403	78.06
429.625	94.06
429.847	104.06
430.069	95.06
430.292	104.06
430.514	80.06
430.736	90.06
430.958	91.06
431.18	87.06
431.402	78.06
431.624	98.06
431.846	90.06
432.068	87.06
432.29	93.06
432.512	99.06
432.734	88.06
432.956	92.06
433.178	85.06
433.4	103.06
433.622	85.06
433.844	93.06
434.066	92.06
434.287	104.06
434.509	100.06
434.731	88.06
434.953	81.06
435.175	89.06
435.397	94.06
435.618	112.06
435.84	98.06
436.062	116.06
436.284	129.06
436.505	111.06
436.727	103.06
436.949	105.06
437.17	92.06
437.392	94.06
437.614	108.06
437.835	108.06
438.057	147.06
438.278	116.06
438.5	107.06
438.721	123.06
438.943	106.06
439.165	85.06
439.386	96.06
439.608	93.06
439.829	105.06
440.05	135.06
440.272	172.06
440.493	118.06
440.715	94.06
440.936	81.06
441.158	100.06
441.379	89.06
441.6	84.06
441.822	98.06
442.043	108.06
442.264	116.06
442.486	105.06
442.707	93.06
442.928	121.06
443.149	150.06
443.371	160.06
443.592	120.06
443.813	112.06
444.034	109.06
444.255	96.06
444.476	92.06
444.698	73.06
444.919	98.06
445.14	136.06
445.361	140.06
445.582	137.06
445.803	164.06
446.024	165.06
446.245	157.06
446.466	114.06
446.687	85.06
446.908	94.06
447.129	86.06
447.35	93.06
447.571	84.06
447.792	93.06
448.013	105.06
448.234	122.06
448.455	107.06
448.675	116.06
448.896	133.06
449.117	93.06
449.338	111.06
449.559	124.06
449.779	146.06
450	100.06
450.221	96.06
450.442	75.06
450.662	109.06
450.883	116.06
451.104	135.06
451.324	100.06
451.545	88.06
451.766	88.06
451.986	81.06
452.207	102.06
452.428	94.06
452.648	109.06
452.869	135.06
453.089	140.06
453.31	135.06
453.53	106.06
453.751	84.06
453.971	115.06
454.192	136.06
454.412	92.06
454.633	85.06
454.853	85.06
455.073	85.06
455.294	108.06
455.514	109.06
455.734	87.06
455.955	85.06
456.175	72.06
456.395	86.06
456.616	88.06
456.836	85.06
457.056	94.06
457.276	87.06
457.497	88.06
457.717	82.06
457.937	83.06
458.157	92.06
458.377	106.06
458.598	121.06
458.818	196.06
459.038	210.06
459.258	128.06
459.478	108.06
459.698	91.06
459.918	94.06
460.138	81.06
460.358	93.06
460.578	96.06
460.798	71.06
461.018	82.06
461.238	83.06
461.458	97.06
461.678	95.06
461.898	82.06
462.118	88.06
462.338	93.06
462.558	91.06
462.777	91.06
462.997	85.06
463.217	80.06
463.437	74.06
463.657	84.06
463.876	96.06
464.096	95.06
464.316	111.06
464.536	97.06
464.755	98.06
464.975	114.06
465.195	218.06
465.414	227.06
465.634	105.06
465.854	88.06
466.073	76.06
466.293	94.06
466.512	85.06
466.732	91.06
466.951	107.06
467.171	97.06
467.391	99.06
467.61	130.06
467.829	178.06
468.049	403.06
468.268	586.06
468.488	170.06
468.707	113.06
468.927	87.06
469.146	82.06
469.365	84.06
469.585	90.06
469.804	111.06
470.023	116.06
470.243	118.06
470.462	116.06
470.681	141.06
470.901	105.06
471.12	102.06
471.339	99.06
471.558	113.06
471.777	144.06
471.997	234.06
472.216	845.06
472.435	1775.06
472.654	426.06
472.873	142.06
473.092	103.06
473.311	95.06
473.53	92.06
473.749	90.06
473.968	104.06
474.187	107.06
474.406	102.06
474.625	84.06
474.844	95.06
475.063	96.06
475.282	88.06
475.501	98.06
475.72	76.06
475.939	73.06
476.158	77.06
476.377	104.06
476.596	79.06
476.814	101.06
477.033	93.06
477.252	83.06
477.471	89.06
477.69	78.06
477.908	85.06
478.127	93.06
478.346	88.06
478.564	89.06
478.783	103.06
479.002	107.06
479.22	96.06
479.439	117.06
479.658	141.06
479.876	116.06
480.095	112.06
480.313	129.06
480.532	142.06
480.751	241.06
480.969	752.06
481.188	3013.06
481.406	1816.06
481.624	296.06
481.843	141.06
482.061	84.06
482.28	93.06
482.498	97.06
482.717	85.06
482.935	87.06
483.153	85.06
483.372	89.06
483.59	93.06
483.808	88.06
484.027	94.06
484.245	83.06
484.463	88.06
484.681	96.06
484.9	105.06
485.118	104.06
485.336	103.06
485.554	90.06
485.772	96.06
485.99	106.06
486.209	108.06
486.427	107.06
486.645	136.06
486.863	125.06
487.081	98.06
487.299	96.06
487.517	100.06
487.735	94.06
487.953	101.06
488.171	102.06
488.389	93.06
488.607	110.06
488.825	107.06
489.043	88.06
489.261	92.06
489.479	88.06
489.696	83.06
489.914	90.06
490.132	89.06
490.35	91.06
490.568	92.06
490.786	92.06
491.003	83.06
491.221	83.06
491.439	93.06
491.657	103.06
491.874	85.06
492.092	93.06
492.31	105.06
492.527	83.06
492.745	94.06
492.963	109.06
493.18	111.06
493.398	93.06
493.615	102.06
493.833	97.06
494.05	78.06
494.268	96.06
494.485	95.06
494.703	104.06
494.92	85.06
495.138	103.06
495.355	86.06
495.573	94.06
495.79	102.06
496.008	111.06
496.225	86.06
496.442	97.06
496.66	81.06
496.877	95.06
497.094	94.06
497.312	86.06
497.529	83.06
497.746	86.06
497.963	75.06
498.181	99.06
498.398	89.06
498.615	111.06
498.832	107.06
499.049	97.06
499.267	82.06
499.484	85.06
499.701	97.06
499.918	93.06
500.135	95.06
500.352	93.06
500.569	99.06
500.786	95.06
501.003	96.06
501.22	100.06
501.437	91.06
501.654	103.06
501.871	134.06
502.088	100.06
502.305	95.06
502.522	91.06
502.739	88.06
502.956	88.06
503.172	75.06
503.389	89.06
503.606	107.06
503.823	108.06
504.04	105.06
504.256	106.06
504.473	82.06
504.69	99.06
504.907	97.06
505.123	106.06
505.34	102.06
505.557	98.06
505.773	76.06
505.99	96.06
506.207	88.06
506.423	85.06
506.64	96.06
506.856	93.06
507.073	93.06
507.289	93.06
507.506	88.06
507.722	130.06
507.939	143.06
508.155	104.06
508.372	96.06
508.588	92.06
508.805	80.06
509.021	88.06
509.238	95.06
509.454	107.06
509.67	118.06
509.887	121.06
510.103	140.06
510.319	248.06
510.536	901.06
510.752	3175.06
510.968	868.06
511.184	181.06
511.401	135.06
511.617	105.06
511.833	109.06
512.049	104.06
512.265	91.06
512.481	77.06
512.698	100.06
512.914	98.06
513.13	97.06
513.346	87.06
513.562	94.06
