Data from Circ_2000_H10_HRD10591_00078.txt Node
Date: Wed Jan 03 10:49:49 EST 2024
User: Yrep
Spectrometer: HR+D1059
Trigger mode: 1
Integration Time (sec): 1.000000E-1
Scans to average: 1
Electric dark correction enabled: true
Nonlinearity correction enabled: false
Boxcar width: 0
XAxis mode: Wavelengths
Number of Pixels in Spectrum: 2048
>>>>>Begin Spectral Data<<<<<
223.165	-10.94
223.4	-10.94
223.635	-10.94
223.869	-8.94
224.104	-14.94
224.338	-22.94
224.573	-18.94
224.808	-10.94
225.042	-2.94
225.277	-7.94
225.511	1.06
225.746	-0.94
225.98	14.06
226.215	12.06
226.449	15.06
226.683	6.06
226.918	18.06
227.152	33.06
227.387	37.06
227.621	34.06
227.856	32.06
228.09	59.06
228.324	56.06
228.559	57.06
228.793	56.06
229.027	62.06
229.262	71.06
229.496	100.06
229.73	115.06
229.964	104.06
230.199	71.06
230.433	79.06
230.667	84.06
230.901	94.06
231.136	79.06
231.37	74.06
231.604	83.06
231.838	90.06
232.072	93.06
232.306	84.06
232.541	71.06
232.775	72.06
233.009	102.06
233.243	81.06
233.477	102.06
233.711	97.06
233.945	70.06
234.179	90.06
234.413	89.06
234.647	82.06
234.881	76.06
235.115	75.06
235.349	76.06
235.583	82.06
235.817	82.06
236.051	74.06
236.285	85.06
236.519	89.06
236.753	76.06
236.987	90.06
237.221	97.06
237.455	97.06
237.689	80.06
237.922	81.06
238.156	80.06
238.39	73.06
238.624	80.06
238.858	82.06
239.091	90.06
239.325	81.06
239.559	89.06
239.793	86.06
240.027	69.06
240.26	91.06
240.494	84.06
240.728	79.06
240.961	79.06
241.195	81.06
241.429	80.06
241.662	76.06
241.896	90.06
242.13	93.06
242.363	81.06
242.597	88.06
242.83	84.06
243.064	82.06
243.298	87.06
243.531	86.06
243.765	72.06
243.998	92.06
244.232	87.06
244.465	62.06
244.699	93.06
244.932	94.06
245.166	84.06
245.399	77.06
245.633	84.06
245.866	77.06
246.099	82.06
246.333	88.06
246.566	76.06
246.8	71.06
247.033	81.06
247.266	83.06
247.5	95.06
247.733	87.06
247.966	98.06
248.2	76.06
248.433	78.06
248.666	83.06
248.899	100.06
249.133	96.06
249.366	108.06
249.599	111.06
249.832	79.06
250.066	70.06
250.299	79.06
250.532	79.06
250.765	87.06
250.998	69.06
251.231	72.06
251.465	78.06
251.698	86.06
251.931	74.06
252.164	91.06
252.397	78.06
252.63	91.06
252.863	95.06
253.096	84.06
253.329	86.06
253.562	84.06
253.795	98.06
254.028	89.06
254.261	85.06
254.494	88.06
254.727	98.06
254.96	84.06
255.193	85.06
255.426	86.06
255.659	83.06
255.892	92.06
256.124	94.06
256.357	76.06
256.59	88.06
256.823	93.06
257.056	97.06
257.289	79.06
257.521	77.06
257.754	94.06
257.987	88.06
258.22	100.06
258.452	101.06
258.685	67.06
258.918	84.06
259.151	89.06
259.383	72.06
259.616	90.06
259.849	83.06
260.081	89.06
260.314	80.06
260.547	105.06
260.779	105.06
261.012	93.06
261.244	119.06
261.477	112.06
261.71	101.06
261.942	139.06
262.175	164.06
262.407	105.06
262.64	97.06
262.872	85.06
263.105	78.06
263.337	90.06
263.57	101.06
263.802	88.06
264.035	95.06
264.267	96.06
264.499	102.06
264.732	99.06
264.964	75.06
265.197	95.06
265.429	89.06
265.661	74.06
265.894	82.06
266.126	86.06
266.358	91.06
266.591	94.06
266.823	87.06
267.055	81.06
267.287	81.06
267.52	82.06
267.752	76.06
267.984	74.06
268.216	80.06
268.448	89.06
268.681	90.06
268.913	97.06
269.145	86.06
269.377	86.06
269.609	83.06
269.841	97.06
270.073	89.06
270.306	101.06
270.538	89.06
270.77	87.06
271.002	103.06
271.234	90.06
271.466	86.06
271.698	98.06
271.93	77.06
272.162	91.06
272.394	93.06
272.626	91.06
272.858	83.06
273.09	88.06
273.322	85.06
273.553	78.06
273.785	94.06
274.017	86.06
274.249	92.06
274.481	93.06
274.713	95.06
274.945	98.06
275.176	92.06
275.408	109.06
275.64	118.06
275.872	110.06
276.104	110.06
276.335	108.06
276.567	110.06
276.799	173.06
277.031	180.06
277.262	174.06
277.494	144.06
277.726	116.06
277.957	96.06
278.189	94.06
278.421	98.06
278.652	86.06
278.884	92.06
279.115	94.06
279.347	88.06
279.579	91.06
279.81	111.06
280.042	187.06
280.273	247.06
280.505	178.06
280.736	118.06
280.968	98.06
281.199	88.06
281.431	93.06
281.662	100.06
281.894	112.06
282.125	108.06
282.356	148.06
282.588	184.06
282.819	147.06
283.051	114.06
283.282	99.06
283.513	97.06
283.745	89.06
283.976	92.06
284.207	98.06
284.439	112.06
284.67	94.06
284.901	88.06
285.132	82.06
285.364	85.06
285.595	103.06
285.826	87.06
286.057	88.06
286.288	90.06
286.52	99.06
286.751	88.06
286.982	78.06
287.213	90.06
287.444	81.06
287.675	84.06
287.906	101.06
288.138	95.06
288.369	101.06
288.6	98.06
288.831	93.06
289.062	96.06
289.293	84.06
289.524	96.06
289.755	93.06
289.986	77.06
290.217	94.06
290.448	103.06
290.679	74.06
290.91	104.06
291.141	90.06
291.371	86.06
291.602	96.06
291.833	89.06
292.064	79.06
292.295	81.06
292.526	94.06
292.757	88.06
292.987	93.06
293.218	72.06
293.449	87.06
293.68	95.06
293.91	94.06
294.141	96.06
294.372	92.06
294.603	98.06
294.833	98.06
295.064	98.06
295.295	86.06
295.525	90.06
295.756	114.06
295.987	140.06
296.217	187.06
296.448	159.06
296.679	97.06
296.909	90.06
297.14	103.06
297.37	102.06
297.601	101.06
297.831	97.06
298.062	109.06
298.292	98.06
298.523	105.06
298.753	117.06
298.984	95.06
299.214	88.06
299.445	102.06
299.675	99.06
299.905	106.06
300.136	104.06
300.366	95.06
300.597	80.06
300.827	94.06
301.057	98.06
301.288	118.06
301.518	117.06
301.748	99.06
301.979	108.06
302.209	113.06
302.439	102.06
302.669	108.06
302.9	116.06
303.13	108.06
303.36	95.06
303.59	137.06
303.82	140.06
304.051	109.06
304.281	109.06
304.511	107.06
304.741	101.06
304.971	93.06
305.201	105.06
305.431	94.06
305.661	97.06
305.891	93.06
306.121	107.06
306.352	112.06
306.582	112.06
306.812	114.06
307.042	127.06
307.272	145.06
307.502	168.06
307.731	162.06
307.961	126.06
308.191	116.06
308.421	89.06
308.651	113.06
308.881	106.06
309.111	105.06
309.341	114.06
309.571	108.06
309.8	102.06
310.03	97.06
310.26	112.06
310.49	112.06
310.72	118.06
310.949	114.06
311.179	122.06
311.409	106.06
311.639	105.06
311.868	117.06
312.098	104.06
312.328	107.06
312.557	117.06
312.787	128.06
313.017	113.06
313.246	94.06
313.476	104.06
313.706	105.06
313.935	106.06
314.165	128.06
314.394	114.06
314.624	113.06
314.853	103.06
315.083	112.06
315.312	99.06
315.542	92.06
315.771	100.06
316.001	101.06
316.23	104.06
316.46	102.06
316.689	105.06
316.919	91.06
317.148	113.06
317.377	107.06
317.607	107.06
317.836	94.06
318.065	93.06
318.295	111.06
318.524	117.06
318.753	100.06
318.983	104.06
319.212	108.06
319.441	118.06
319.67	126.06
319.9	88.06
320.129	96.06
320.358	99.06
320.587	105.06
320.816	111.06
321.046	117.06
321.275	102.06
321.504	112.06
321.733	111.06
321.962	113.06
322.191	119.06
322.42	118.06
322.649	134.06
322.878	127.06
323.108	132.06
323.337	151.06
323.566	182.06
323.795	208.06
324.024	283.06
324.253	596.06
324.482	1282.06
324.71	2635.06
324.939	3453.06
325.168	1217.06
325.397	328.06
325.626	206.06
325.855	160.06
326.084	165.06
326.313	168.06
326.542	210.06
326.77	309.06
326.999	664.06
327.228	1300.06
327.457	2511.06
327.686	2022.06
327.914	630.06
328.143	527.06
328.372	612.06
328.6	346.06
328.829	193.06
329.058	210.06
329.287	208.06
329.515	184.06
329.744	262.06
329.972	435.06
330.201	858.06
330.43	1228.06
330.658	586.06
330.887	286.06
331.115	188.06
331.344	127.06
331.572	135.06
331.801	129.06
332.03	137.06
332.258	116.06
332.486	115.06
332.715	121.06
332.943	115.06
333.172	124.06
333.4	126.06
333.629	163.06
333.857	229.06
334.085	398.06
334.314	812.06
334.542	1541.06
334.771	1467.06
334.999	384.06
335.227	171.06
335.455	118.06
335.684	119.06
335.912	109.06
336.14	135.06
336.369	115.06
336.597	124.06
336.825	123.06
337.053	98.06
337.281	100.06
337.51	97.06
337.738	101.06
337.966	106.06
338.194	103.06
338.422	104.06
338.65	95.06
338.878	98.06
339.106	88.06
339.334	85.06
339.562	103.06
339.79	93.06
340.018	110.06
340.246	111.06
340.474	117.06
340.702	108.06
340.93	98.06
341.158	97.06
341.386	119.06
341.614	114.06
341.842	113.06
342.07	111.06
342.298	85.06
342.526	96.06
342.754	116.06
342.981	105.06
343.209	82.06
343.437	98.06
343.665	104.06
343.893	108.06
344.12	91.06
344.348	95.06
344.576	93.06
344.804	99.06
345.031	122.06
345.259	118.06
345.487	104.06
345.714	98.06
345.942	97.06
346.17	83.06
346.397	98.06
346.625	112.06
346.853	104.06
347.08	93.06
347.308	107.06
347.535	124.06
347.763	124.06
347.99	106.06
348.218	119.06
348.445	137.06
348.673	129.06
348.9	108.06
349.128	102.06
349.355	96.06
349.583	88.06
349.81	108.06
350.037	102.06
350.265	79.06
350.492	100.06
350.72	100.06
350.947	105.06
351.174	136.06
351.402	117.06
351.629	109.06
351.856	117.06
352.083	103.06
352.311	119.06
352.538	128.06
352.765	135.06
352.992	131.06
353.22	141.06
353.447	124.06
353.674	121.06
353.901	111.06
354.128	101.06
354.355	89.06
354.583	113.06
354.81	91.06
355.037	104.06
355.264	103.06
355.491	96.06
355.718	101.06
355.945	102.06
356.172	106.06
356.399	85.06
356.626	92.06
356.853	98.06
357.08	102.06
357.307	85.06
357.534	101.06
357.761	89.06
357.988	94.06
358.215	111.06
358.441	116.06
358.668	93.06
358.895	92.06
359.122	88.06
359.349	118.06
359.576	114.06
359.802	123.06
360.029	152.06
360.256	172.06
360.483	141.06
360.709	87.06
360.936	100.06
361.163	100.06
361.39	116.06
361.616	112.06
361.843	91.06
362.07	121.06
362.296	113.06
362.523	106.06
362.749	113.06
362.976	107.06
363.203	101.06
363.429	92.06
363.656	100.06
363.882	103.06
364.109	93.06
364.335	109.06
364.562	118.06
364.788	97.06
365.015	96.06
365.241	117.06
365.468	141.06
365.694	122.06
365.92	119.06
366.147	89.06
366.373	108.06
366.599	96.06
366.826	89.06
367.052	100.06
367.278	94.06
367.505	109.06
367.731	116.06
367.957	108.06
368.184	117.06
368.41	132.06
368.636	118.06
368.862	141.06
369.089	126.06
369.315	102.06
369.541	106.06
369.767	109.06
369.993	88.06
370.219	104.06
370.445	97.06
370.672	97.06
370.898	86.06
371.124	78.06
371.35	102.06
371.576	94.06
371.802	81.06
372.028	93.06
372.254	86.06
372.48	88.06
372.706	91.06
372.932	91.06
373.158	95.06
373.384	88.06
373.61	78.06
373.835	86.06
374.061	99.06
374.287	99.06
374.513	82.06
374.739	103.06
374.965	98.06
375.191	101.06
375.416	87.06
375.642	97.06
375.868	76.06
376.094	104.06
376.319	104.06
376.545	95.06
376.771	93.06
376.997	98.06
377.222	106.06
377.448	89.06
377.674	93.06
377.899	89.06
378.125	98.06
378.35	98.06
378.576	80.06
378.802	103.06
379.027	100.06
379.253	111.06
379.478	97.06
379.704	97.06
379.929	112.06
380.155	105.06
380.38	113.06
380.606	88.06
380.831	113.06
381.057	104.06
381.282	103.06
381.507	105.06
381.733	100.06
381.958	104.06
382.184	112.06
382.409	103.06
382.634	119.06
382.86	101.06
383.085	97.06
383.31	102.06
383.535	117.06
383.761	108.06
383.986	102.06
384.211	90.06
384.436	108.06
384.662	102.06
384.887	103.06
385.112	118.06
385.337	112.06
385.562	123.06
385.787	114.06
386.013	110.06
386.238	133.06
386.463	129.06
386.688	110.06
386.913	114.06
387.138	104.06
387.363	107.06
387.588	102.06
387.813	105.06
388.038	107.06
388.263	103.06
388.488	106.06
388.713	107.06
388.938	96.06
389.163	102.06
389.387	103.06
389.612	112.06
389.837	89.06
390.062	82.06
390.287	92.06
390.512	102.06
390.736	90.06
390.961	94.06
391.186	100.06
391.411	100.06
391.636	104.06
391.86	107.06
392.085	89.06
392.31	86.06
392.534	88.06
392.759	93.06
392.984	86.06
393.208	84.06
393.433	95.06
393.658	98.06
393.882	97.06
394.107	97.06
394.331	90.06
394.556	90.06
394.78	82.06
395.005	100.06
395.229	114.06
395.454	77.06
395.678	102.06
395.903	90.06
396.127	89.06
396.352	97.06
396.576	84.06
396.801	86.06
397.025	73.06
397.249	86.06
397.474	96.06
397.698	89.06
397.922	92.06
398.147	103.06
398.371	85.06
398.595	93.06
398.82	88.06
399.044	101.06
399.268	81.06
399.492	103.06
399.717	96.06
399.941	93.06
400.165	86.06
400.389	93.06
400.613	80.06
400.837	85.06
401.062	88.06
401.286	97.06
401.51	108.06
401.734	97.06
401.958	118.06
402.182	161.06
402.406	208.06
402.63	150.06
402.854	121.06
403.078	107.06
403.302	81.06
403.526	108.06
403.75	101.06
403.974	95.06
404.198	104.06
404.422	91.06
404.645	97.06
404.869	110.06
405.093	110.06
405.317	158.06
405.541	136.06
405.765	122.06
405.988	148.06
406.212	235.06
406.436	346.06
406.66	232.06
406.883	141.06
407.107	98.06
407.331	118.06
407.555	121.06
407.778	119.06
408.002	95.06
408.226	88.06
408.449	95.06
408.673	109.06
408.896	110.06
409.12	125.06
409.344	98.06
409.567	97.06
409.791	83.06
410.014	85.06
410.238	93.06
410.461	94.06
410.685	110.06
410.908	110.06
411.132	113.06
411.355	106.06
411.578	101.06
411.802	95.06
412.025	89.06
412.249	107.06
412.472	115.06
412.695	152.06
412.919	126.06
413.142	105.06
413.365	85.06
413.589	96.06
413.812	92.06
414.035	83.06
414.258	96.06
414.482	103.06
414.705	93.06
414.928	88.06
415.151	94.06
415.374	107.06
415.597	102.06
415.821	82.06
416.044	96.06
416.267	93.06
416.49	95.06
416.713	94.06
416.936	92.06
417.159	105.06
417.382	97.06
417.605	105.06
417.828	109.06
418.051	95.06
418.274	104.06
418.497	87.06
418.72	101.06
418.943	102.06
419.166	84.06
419.389	85.06
419.611	97.06
419.834	79.06
420.057	86.06
420.28	87.06
420.503	88.06
420.726	91.06
420.948	84.06
421.171	105.06
421.394	108.06
421.617	100.06
421.839	82.06
422.062	111.06
422.285	95.06
422.507	107.06
422.73	117.06
422.953	108.06
423.175	95.06
423.398	83.06
423.621	80.06
423.843	96.06
424.066	102.06
424.288	92.06
424.511	93.06
424.733	116.06
424.956	126.06
425.178	124.06
425.401	116.06
425.623	105.06
425.846	92.06
426.068	101.06
426.291	98.06
426.513	96.06
426.735	110.06
426.958	99.06
427.18	130.06
427.402	200.06
427.625	294.06
427.847	243.06
428.069	227.06
428.292	134.06
428.514	92.06
428.736	91.06
428.958	85.06
429.181	87.06
429.403	102.06
429.625	90.06
429.847	120.06
430.069	112.06
430.292	123.06
430.514	91.06
430.736	107.06
430.958	94.06
431.18	77.06
431.402	92.06
431.624	96.06
431.846	97.06
432.068	90.06
432.29	93.06
432.512	75.06
432.734	95.06
432.956	81.06
433.178	96.06
433.4	111.06
433.622	88.06
433.844	119.06
434.066	100.06
434.287	101.06
434.509	93.06
434.731	85.06
434.953	108.06
435.175	94.06
435.397	96.06
435.618	105.06
435.84	123.06
436.062	152.06
436.284	150.06
436.505	114.06
436.727	114.06
436.949	98.06
437.17	93.06
437.392	90.06
437.614	99.06
437.835	130.06
438.057	170.06
438.278	141.06
438.5	123.06
438.721	154.06
438.943	106.06
439.165	81.06
439.386	88.06
439.608	74.06
439.829	116.06
440.05	182.06
440.272	199.06
440.493	129.06
440.715	100.06
440.936	96.06
441.158	92.06
441.379	96.06
441.6	103.06
441.822	109.06
442.043	109.06
442.264	137.06
442.486	119.06
442.707	104.06
442.928	142.06
443.149	184.06
443.371	179.06
443.592	149.06
443.813	143.06
444.034	123.06
444.255	101.06
444.476	95.06
444.698	91.06
444.919	92.06
445.14	126.06
445.361	144.06
445.582	158.06
445.803	210.06
446.024	203.06
446.245	187.06
446.466	133.06
446.687	96.06
446.908	91.06
447.129	89.06
447.35	102.06
447.571	103.06
447.792	110.06
448.013	109.06
448.234	125.06
448.455	120.06
448.675	118.06
448.896	129.06
449.117	119.06
449.338	125.06
449.559	164.06
449.779	164.06
450	115.06
450.221	106.06
450.442	79.06
450.662	116.06
450.883	127.06
451.104	142.06
451.324	120.06
451.545	100.06
451.766	107.06
451.986	93.06
452.207	84.06
452.428	102.06
452.648	102.06
452.869	154.06
453.089	154.06
453.31	157.06
453.53	114.06
453.751	105.06
453.971	118.06
454.192	137.06
454.412	117.06
454.633	78.06
454.853	82.06
455.073	102.06
455.294	93.06
455.514	109.06
455.734	95.06
455.955	83.06
456.175	85.06
456.395	82.06
456.616	86.06
456.836	94.06
457.056	101.06
457.276	96.06
457.497	88.06
457.717	83.06
457.937	97.06
458.157	80.06
458.377	98.06
458.598	150.06
458.818	240.06
459.038	247.06
459.258	182.06
459.478	106.06
459.698	97.06
459.918	86.06
460.138	82.06
460.358	105.06
460.578	92.06
460.798	108.06
461.018	91.06
461.238	97.06
461.458	100.06
461.678	86.06
461.898	89.06
462.118	91.06
462.338	101.06
462.558	100.06
462.777	90.06
462.997	96.06
463.217	105.06
463.437	104.06
463.657	93.06
463.876	96.06
464.096	90.06
464.316	97.06
464.536	108.06
464.755	101.06
464.975	146.06
465.195	270.06
465.414	272.06
465.634	111.06
465.854	88.06
466.073	89.06
466.293	100.06
466.512	97.06
466.732	84.06
466.951	89.06
467.171	113.06
467.391	118.06
467.61	152.06
467.829	196.06
468.049	472.06
468.268	696.06
468.488	192.06
468.707	96.06
468.927	86.06
469.146	93.06
469.365	92.06
469.585	85.06
469.804	116.06
470.023	120.06
470.243	110.06
470.462	128.06
470.681	153.06
470.901	112.06
471.12	115.06
471.339	105.06
471.558	102.06
471.777	124.06
471.997	272.06
472.216	904.06
472.435	2114.06
472.654	544.06
472.873	164.06
473.092	99.06
473.311	105.06
473.53	91.06
473.749	105.06
473.968	100.06
474.187	126.06
474.406	118.06
474.625	98.06
474.844	103.06
475.063	108.06
475.282	77.06
475.501	90.06
475.72	93.06
475.939	95.06
476.158	94.06
476.377	85.06
476.596	113.06
476.814	114.06
477.033	106.06
477.252	106.06
477.471	92.06
477.69	85.06
477.908	86.06
478.127	96.06
478.346	88.06
478.564	110.06
478.783	112.06
479.002	107.06
479.22	120.06
479.439	143.06
479.658	153.06
479.876	131.06
480.095	115.06
480.313	145.06
480.532	154.06
480.751	252.06
480.969	840.06
481.188	3578.06
481.406	2094.06
481.624	351.06
481.843	135.06
482.061	112.06
482.28	104.06
482.498	101.06
482.717	102.06
482.935	87.06
483.153	95.06
483.372	98.06
483.59	89.06
483.808	109.06
484.027	95.06
484.245	97.06
484.463	97.06
484.681	88.06
484.9	97.06
485.118	93.06
485.336	96.06
485.554	95.06
485.772	121.06
485.99	118.06
486.209	110.06
486.427	112.06
486.645	117.06
486.863	138.06
487.081	114.06
487.299	102.06
487.517	100.06
487.735	99.06
487.953	87.06
488.171	97.06
488.389	101.06
488.607	89.06
488.825	84.06
489.043	96.06
489.261	96.06
489.479	85.06
489.696	94.06
489.914	93.06
490.132	95.06
490.35	93.06
490.568	93.06
490.786	90.06
491.003	83.06
491.221	82.06
491.439	97.06
491.657	101.06
491.874	96.06
492.092	95.06
492.31	86.06
492.527	117.06
492.745	105.06
492.963	105.06
493.18	105.06
493.398	98.06
493.615	95.06
493.833	93.06
494.05	95.06
494.268	99.06
494.485	97.06
494.703	95.06
494.92	89.06
495.138	90.06
495.355	105.06
495.573	92.06
495.79	111.06
496.008	98.06
496.225	98.06
496.442	89.06
496.66	93.06
496.877	88.06
497.094	87.06
497.312	88.06
497.529	100.06
497.746	108.06
497.963	94.06
498.181	98.06
498.398	85.06
498.615	124.06
498.832	115.06
499.049	112.06
499.267	82.06
499.484	80.06
499.701	109.06
499.918	98.06
500.135	98.06
500.352	90.06
500.569	88.06
500.786	98.06
501.003	95.06
501.22	104.06
501.437	94.06
501.654	112.06
501.871	127.06
502.088	101.06
502.305	102.06
502.522	93.06
502.739	102.06
502.956	88.06
503.172	106.06
503.389	98.06
503.606	129.06
503.823	94.06
504.04	101.06
504.256	111.06
504.473	88.06
504.69	101.06
504.907	101.06
505.123	101.06
505.34	107.06
505.557	86.06
505.773	96.06
505.99	92.06
506.207	97.06
506.423	97.06
506.64	103.06
506.856	97.06
507.073	100.06
507.289	104.06
507.506	92.06
507.722	137.06
507.939	148.06
508.155	121.06
508.372	90.06
508.588	96.06
508.805	102.06
509.021	93.06
509.238	98.06
509.454	105.06
509.67	106.06
509.887	120.06
510.103	135.06
510.319	273.06
510.536	1033.06
510.752	3644.06
