Data from Circ_2000_H10_HRD10591_00037.txt Node
Date: Wed Jan 03 10:49:41 EST 2024
User: Yrep
Spectrometer: HR+D1059
Trigger mode: 1
Integration Time (sec): 1.000000E-1
Scans to average: 1
Electric dark correction enabled: true
Nonlinearity correction enabled: false
Boxcar width: 0
XAxis mode: Wavelengths
Number of Pixels in Spectrum: 2048
>>>>>Begin Spectral Data<<<<<
223.165	-21.19
223.4	-21.19
223.635	-21.19
223.869	-15.19
224.104	-22.19
224.338	-25.19
224.573	-1.19
224.808	-11.19
225.042	-11.19
225.277	-9.19
225.511	18.81
225.746	-3.19
225.98	13.81
226.215	4.81
226.449	8.81
226.683	12.81
226.918	31.81
227.152	28.81
227.387	42.81
227.621	57.81
227.856	53.81
228.09	50.81
228.324	52.81
228.559	64.81
228.793	52.81
229.027	66.81
229.262	62.81
229.496	71.81
229.73	74.81
229.964	74.81
230.199	55.81
230.433	84.81
230.667	84.81
230.901	81.81
231.136	80.81
231.37	87.81
231.604	81.81
231.838	83.81
232.072	78.81
232.306	75.81
232.541	78.81
232.775	73.81
233.009	65.81
233.243	77.81
233.477	86.81
233.711	61.81
233.945	86.81
234.179	68.81
234.413	73.81
234.647	92.81
234.881	93.81
235.115	83.81
235.349	82.81
235.583	72.81
235.817	82.81
236.051	77.81
236.285	83.81
236.519	91.81
236.753	80.81
236.987	82.81
237.221	88.81
237.455	96.81
237.689	83.81
237.922	75.81
238.156	77.81
238.39	94.81
238.624	69.81
238.858	76.81
239.091	70.81
239.325	85.81
239.559	82.81
239.793	79.81
240.027	81.81
240.26	78.81
240.494	74.81
240.728	75.81
240.961	78.81
241.195	68.81
241.429	72.81
241.662	75.81
241.896	87.81
242.13	70.81
242.363	76.81
242.597	62.81
242.83	79.81
243.064	80.81
243.298	71.81
243.531	85.81
243.765	71.81
243.998	93.81
244.232	87.81
244.465	98.81
244.699	93.81
244.932	87.81
245.166	78.81
245.399	67.81
245.633	75.81
245.866	89.81
246.099	76.81
246.333	74.81
246.566	74.81
246.8	78.81
247.033	67.81
247.266	80.81
247.5	76.81
247.733	82.81
247.966	74.81
248.2	82.81
248.433	64.81
248.666	82.81
248.899	85.81
249.133	81.81
249.366	85.81
249.599	114.81
249.832	96.81
250.066	84.81
250.299	96.81
250.532	81.81
250.765	86.81
250.998	96.81
251.231	73.81
251.465	74.81
251.698	74.81
251.931	84.81
252.164	90.81
252.397	76.81
252.63	77.81
252.863	80.81
253.096	81.81
253.329	70.81
253.562	83.81
253.795	83.81
254.028	94.81
254.261	74.81
254.494	75.81
254.727	80.81
254.96	80.81
255.193	93.81
255.426	68.81
255.659	89.81
255.892	91.81
256.124	92.81
256.357	89.81
256.59	95.81
256.823	78.81
257.056	66.81
257.289	84.81
257.521	78.81
257.754	86.81
257.987	76.81
258.22	67.81
258.452	90.81
258.685	82.81
258.918	87.81
259.151	94.81
259.383	85.81
259.616	100.81
259.849	87.81
260.081	87.81
260.314	87.81
260.547	81.81
260.779	91.81
261.012	94.81
261.244	93.81
261.477	87.81
261.71	101.81
261.942	117.81
262.175	129.81
262.407	94.81
262.64	94.81
262.872	83.81
263.105	80.81
263.337	85.81
263.57	79.81
263.802	92.81
264.035	80.81
264.267	82.81
264.499	78.81
264.732	83.81
264.964	92.81
265.197	79.81
265.429	92.81
265.661	77.81
265.894	81.81
266.126	80.81
266.358	81.81
266.591	94.81
266.823	79.81
267.055	82.81
267.287	101.81
267.52	88.81
267.752	89.81
267.984	81.81
268.216	79.81
268.448	78.81
268.681	88.81
268.913	81.81
269.145	70.81
269.377	93.81
269.609	85.81
269.841	87.81
270.073	89.81
270.306	95.81
270.538	89.81
270.77	92.81
271.002	90.81
271.234	69.81
271.466	91.81
271.698	94.81
271.93	86.81
272.162	83.81
272.394	97.81
272.626	84.81
272.858	77.81
273.09	74.81
273.322	73.81
273.553	78.81
273.785	104.81
274.017	75.81
274.249	89.81
274.481	91.81
274.713	84.81
274.945	82.81
275.176	92.81
275.408	95.81
275.64	103.81
275.872	100.81
276.104	93.81
276.335	92.81
276.567	105.81
276.799	116.81
277.031	110.81
277.262	131.81
277.494	123.81
277.726	98.81
277.957	94.81
278.189	90.81
278.421	92.81
278.652	93.81
278.884	80.81
279.115	82.81
279.347	102.81
279.579	98.81
279.81	124.81
280.042	138.81
280.273	160.81
280.505	119.81
280.736	89.81
280.968	95.81
281.199	77.81
281.431	89.81
281.662	93.81
281.894	94.81
282.125	93.81
282.356	132.81
282.588	147.81
282.819	114.81
283.051	97.81
283.282	82.81
283.513	108.81
283.745	97.81
283.976	83.81
284.207	92.81
284.439	88.81
284.67	92.81
284.901	85.81
285.132	85.81
285.364	85.81
285.595	84.81
285.826	88.81
286.057	85.81
286.288	82.81
286.52	86.81
286.751	73.81
286.982	82.81
287.213	73.81
287.444	82.81
287.675	86.81
287.906	88.81
288.138	93.81
288.369	91.81
288.6	95.81
288.831	105.81
289.062	99.81
289.293	93.81
289.524	80.81
289.755	93.81
289.986	74.81
290.217	72.81
290.448	100.81
290.679	88.81
290.91	94.81
291.141	84.81
291.371	98.81
291.602	87.81
291.833	80.81
292.064	91.81
292.295	93.81
292.526	77.81
292.757	83.81
292.987	91.81
293.218	90.81
293.449	78.81
293.68	83.81
293.91	75.81
294.141	81.81
294.372	85.81
294.603	90.81
294.833	78.81
295.064	90.81
295.295	101.81
295.525	97.81
295.756	100.81
295.987	122.81
296.217	141.81
296.448	141.81
296.679	97.81
296.909	98.81
297.14	96.81
297.37	90.81
297.601	84.81
297.831	88.81
298.062	96.81
298.292	90.81
298.523	90.81
298.753	97.81
298.984	91.81
299.214	106.81
299.445	74.81
299.675	82.81
299.905	93.81
300.136	82.81
300.366	94.81
300.597	105.81
300.827	100.81
301.057	82.81
301.288	107.81
301.518	92.81
301.748	97.81
301.979	104.81
302.209	102.81
302.439	84.81
302.669	93.81
302.9	90.81
303.13	92.81
303.36	94.81
303.59	110.81
303.82	113.81
304.051	93.81
304.281	94.81
304.511	102.81
304.741	76.81
304.971	89.81
305.201	89.81
305.431	83.81
305.661	88.81
305.891	104.81
306.121	100.81
306.352	95.81
306.582	117.81
306.812	107.81
307.042	104.81
307.272	122.81
307.502	142.81
307.731	129.81
307.961	99.81
308.191	105.81
308.421	93.81
308.651	95.81
308.881	93.81
309.111	89.81
309.341	79.81
309.571	93.81
309.8	90.81
310.03	102.81
310.26	94.81
310.49	96.81
310.72	97.81
310.949	104.81
311.179	110.81
311.409	93.81
311.639	102.81
311.868	107.81
312.098	95.81
312.328	93.81
312.557	105.81
312.787	112.81
313.017	120.81
313.246	84.81
313.476	104.81
313.706	80.81
313.935	94.81
314.165	110.81
314.394	100.81
314.624	104.81
314.853	109.81
315.083	80.81
315.312	107.81
315.542	96.81
315.771	81.81
316.001	92.81
316.23	91.81
316.46	98.81
316.689	98.81
316.919	93.81
317.148	94.81
317.377	97.81
317.607	89.81
317.836	93.81
318.065	85.81
318.295	89.81
318.524	90.81
318.753	88.81
318.983	95.81
319.212	92.81
319.441	112.81
319.67	113.81
319.9	94.81
320.129	104.81
320.358	104.81
320.587	93.81
320.816	99.81
321.046	102.81
321.275	100.81
321.504	84.81
321.733	98.81
321.962	110.81
322.191	107.81
322.42	108.81
322.649	124.81
322.878	129.81
323.108	120.81
323.337	142.81
323.566	128.81
323.795	166.81
324.024	241.81
324.253	441.81
324.482	910.81
324.71	1899.81
324.939	2499.81
325.168	929.81
325.397	268.81
325.626	152.81
325.855	141.81
326.084	134.81
326.313	138.81
326.542	168.81
326.77	245.81
326.999	496.81
327.228	1045.81
327.457	1912.81
327.686	1515.81
327.914	461.81
328.143	344.81
328.372	377.81
328.6	229.81
328.829	164.81
329.058	156.81
329.287	160.81
329.515	156.81
329.744	163.81
329.972	278.81
330.201	518.81
330.43	710.81
330.658	358.81
330.887	212.81
331.115	154.81
331.344	111.81
331.572	109.81
331.801	108.81
332.03	108.81
332.258	102.81
332.486	99.81
332.715	112.81
332.943	103.81
333.172	103.81
333.4	107.81
333.629	139.81
333.857	170.81
334.085	265.81
334.314	493.81
334.542	878.81
334.771	796.81
334.999	260.81
335.227	142.81
335.455	109.81
335.684	133.81
335.912	113.81
336.14	102.81
336.369	113.81
336.597	100.81
336.825	101.81
337.053	101.81
337.281	101.81
337.51	96.81
337.738	81.81
337.966	109.81
338.194	101.81
338.422	98.81
338.65	96.81
338.878	107.81
339.106	93.81
339.334	94.81
339.562	90.81
339.79	88.81
340.018	99.81
340.246	104.81
340.474	100.81
340.702	94.81
340.93	88.81
341.158	100.81
341.386	114.81
341.614	100.81
341.842	114.81
342.07	98.81
342.298	103.81
342.526	78.81
342.754	89.81
342.981	93.81
343.209	80.81
343.437	101.81
343.665	98.81
343.893	91.81
344.12	92.81
344.348	93.81
344.576	93.81
344.804	84.81
345.031	102.81
345.259	112.81
345.487	101.81
345.714	107.81
345.942	94.81
346.17	91.81
346.397	100.81
346.625	90.81
346.853	102.81
347.08	91.81
347.308	102.81
347.535	89.81
347.763	110.81
347.99	101.81
348.218	117.81
348.445	101.81
348.673	123.81
348.9	107.81
349.128	105.81
349.355	100.81
349.583	94.81
349.81	104.81
350.037	99.81
350.265	98.81
350.492	88.81
350.72	102.81
350.947	105.81
351.174	107.81
351.402	115.81
351.629	107.81
351.856	99.81
352.083	115.81
352.311	128.81
352.538	114.81
352.765	110.81
352.992	130.81
353.22	113.81
353.447	101.81
353.674	97.81
353.901	89.81
354.128	106.81
354.355	105.81
354.583	101.81
354.81	93.81
355.037	95.81
355.264	91.81
355.491	92.81
355.718	97.81
355.945	93.81
356.172	100.81
356.399	94.81
356.626	96.81
356.853	87.81
357.08	88.81
357.307	92.81
357.534	88.81
357.761	96.81
357.988	96.81
358.215	99.81
358.441	107.81
358.668	81.81
358.895	95.81
359.122	82.81
359.349	88.81
359.576	92.81
359.802	115.81
360.029	131.81
360.256	140.81
360.483	97.81
360.709	85.81
360.936	92.81
361.163	105.81
361.39	103.81
361.616	99.81
361.843	93.81
362.07	113.81
362.296	103.81
362.523	108.81
362.749	93.81
362.976	97.81
363.203	90.81
363.429	92.81
363.656	92.81
363.882	90.81
364.109	84.81
364.335	103.81
364.562	100.81
364.788	87.81
365.015	97.81
365.241	112.81
365.468	102.81
365.694	116.81
365.92	105.81
366.147	84.81
366.373	93.81
366.599	89.81
366.826	82.81
367.052	93.81
367.278	97.81
367.505	101.81
367.731	100.81
367.957	105.81
368.184	86.81
368.41	98.81
368.636	105.81
368.862	121.81
369.089	117.81
369.315	99.81
369.541	84.81
369.767	89.81
369.993	91.81
370.219	103.81
370.445	100.81
370.672	70.81
370.898	86.81
371.124	81.81
371.35	90.81
371.576	89.81
371.802	91.81
372.028	94.81
372.254	97.81
372.48	86.81
372.706	88.81
372.932	81.81
373.158	90.81
373.384	110.81
373.61	108.81
373.835	107.81
374.061	90.81
374.287	94.81
374.513	94.81
374.739	99.81
374.965	95.81
375.191	95.81
375.416	92.81
375.642	102.81
375.868	91.81
376.094	73.81
376.319	84.81
376.545	100.81
376.771	89.81
376.997	95.81
377.222	88.81
377.448	85.81
377.674	93.81
377.899	83.81
378.125	92.81
378.35	85.81
378.576	99.81
378.802	80.81
379.027	98.81
379.253	102.81
379.478	97.81
379.704	101.81
379.929	84.81
380.155	107.81
380.38	82.81
380.606	93.81
380.831	98.81
381.057	100.81
381.282	101.81
381.507	96.81
381.733	91.81
381.958	106.81
382.184	105.81
382.409	123.81
382.634	106.81
382.86	107.81
383.085	105.81
383.31	98.81
383.535	100.81
383.761	104.81
383.986	93.81
384.211	99.81
384.436	86.81
384.662	101.81
384.887	96.81
385.112	117.81
385.337	96.81
385.562	121.81
385.787	116.81
386.013	111.81
386.238	133.81
386.463	110.81
386.688	120.81
386.913	114.81
387.138	109.81
387.363	100.81
387.588	117.81
387.813	110.81
388.038	113.81
388.263	118.81
388.488	118.81
388.713	98.81
388.938	93.81
389.163	94.81
389.387	116.81
389.612	97.81
389.837	83.81
390.062	80.81
390.287	90.81
390.512	89.81
390.736	96.81
390.961	88.81
391.186	86.81
391.411	107.81
391.636	108.81
391.86	84.81
392.085	108.81
392.31	93.81
392.534	91.81
392.759	90.81
392.984	88.81
393.208	87.81
393.433	97.81
393.658	97.81
393.882	87.81
394.107	80.81
394.331	86.81
394.556	94.81
394.78	93.81
395.005	90.81
395.229	81.81
395.454	94.81
395.678	94.81
395.903	97.81
396.127	98.81
396.352	93.81
396.576	92.81
396.801	85.81
397.025	102.81
397.249	82.81
397.474	98.81
397.698	92.81
397.922	75.81
398.147	76.81
398.371	89.81
398.595	87.81
398.82	78.81
399.044	84.81
399.268	88.81
399.492	95.81
399.717	97.81
399.941	90.81
400.165	86.81
400.389	94.81
400.613	104.81
400.837	81.81
401.062	104.81
401.286	105.81
401.51	96.81
401.734	97.81
401.958	113.81
402.182	142.81
402.406	178.81
402.63	122.81
402.854	105.81
403.078	103.81
403.302	96.81
403.526	85.81
403.75	88.81
403.974	75.81
404.198	88.81
404.422	92.81
404.645	110.81
404.869	98.81
405.093	99.81
405.317	125.81
405.541	117.81
405.765	105.81
405.988	118.81
406.212	191.81
406.436	264.81
406.66	176.81
406.883	112.81
407.107	91.81
407.331	109.81
407.555	130.81
407.778	93.81
408.002	104.81
408.226	91.81
408.449	96.81
408.673	89.81
408.896	105.81
409.12	106.81
409.344	93.81
409.567	103.81
409.791	91.81
410.014	87.81
410.238	89.81
410.461	90.81
410.685	94.81
410.908	109.81
411.132	98.81
411.355	109.81
411.578	101.81
411.802	87.81
412.025	101.81
412.249	97.81
412.472	106.81
412.695	120.81
412.919	107.81
413.142	86.81
413.365	105.81
413.589	105.81
413.812	94.81
414.035	98.81
414.258	96.81
414.482	100.81
414.705	86.81
414.928	95.81
415.151	78.81
415.374	92.81
415.597	78.81
415.821	102.81
416.044	85.81
416.267	110.81
416.49	89.81
416.713	82.81
416.936	87.81
417.159	85.81
417.382	93.81
417.605	89.81
417.828	85.81
418.051	85.81
418.274	81.81
418.497	100.81
418.72	103.81
418.943	88.81
419.166	87.81
419.389	83.81
419.611	95.81
419.834	101.81
420.057	104.81
420.28	90.81
420.503	89.81
420.726	98.81
420.948	83.81
421.171	100.81
421.394	80.81
421.617	92.81
421.839	93.81
422.062	98.81
422.285	105.81
422.507	90.81
422.73	96.81
422.953	96.81
423.175	84.81
423.398	89.81
423.621	89.81
423.843	93.81
424.066	91.81
424.288	99.81
424.511	89.81
424.733	103.81
424.956	119.81
425.178	112.81
425.401	117.81
425.623	118.81
425.846	91.81
426.068	104.81
426.291	88.81
426.513	98.81
426.735	102.81
426.958	85.81
427.18	115.81
427.402	153.81
427.625	213.81
427.847	188.81
428.069	163.81
428.292	103.81
428.514	72.81
428.736	92.81
428.958	85.81
429.181	93.81
429.403	90.81
429.625	87.81
429.847	85.81
430.069	103.81
430.292	101.81
430.514	95.81
430.736	94.81
430.958	85.81
431.18	88.81
431.402	78.81
431.624	86.81
431.846	84.81
432.068	86.81
432.29	83.81
432.512	81.81
432.734	103.81
432.956	83.81
433.178	105.81
433.4	111.81
433.622	88.81
433.844	81.81
434.066	100.81
434.287	93.81
434.509	90.81
434.731	90.81
434.953	84.81
435.175	98.81
435.397	92.81
435.618	94.81
435.84	113.81
436.062	157.81
436.284	117.81
436.505	106.81
436.727	98.81
436.949	90.81
437.17	98.81
437.392	94.81
437.614	98.81
437.835	110.81
438.057	136.81
438.278	132.81
438.5	120.81
438.721	134.81
438.943	123.81
439.165	92.81
439.386	83.81
439.608	100.81
439.829	108.81
440.05	145.81
440.272	168.81
440.493	108.81
440.715	101.81
440.936	97.81
441.158	88.81
441.379	91.81
441.6	113.81
441.822	100.81
442.043	91.81
442.264	117.81
442.486	88.81
442.707	92.81
442.928	112.81
443.149	153.81
443.371	161.81
443.592	120.81
443.813	121.81
444.034	109.81
444.255	96.81
444.476	84.81
444.698	86.81
444.919	83.81
445.14	136.81
445.361	128.81
445.582	136.81
445.803	150.81
446.024	172.81
446.245	151.81
446.466	118.81
446.687	101.81
446.908	111.81
447.129	95.81
447.35	90.81
447.571	106.81
447.792	98.81
448.013	107.81
448.234	114.81
448.455	113.81
448.675	117.81
448.896	129.81
449.117	110.81
449.338	106.81
449.559	146.81
449.779	158.81
450	96.81
450.221	95.81
450.442	94.81
450.662	95.81
450.883	122.81
451.104	136.81
451.324	100.81
451.545	96.81
451.766	85.81
451.986	85.81
452.207	89.81
452.428	96.81
452.648	112.81
452.869	119.81
453.089	114.81
453.31	130.81
453.53	90.81
453.751	116.81
453.971	103.81
454.192	137.81
454.412	91.81
454.633	96.81
454.853	83.81
455.073	94.81
455.294	102.81
455.514	107.81
455.734	94.81
455.955	91.81
456.175	89.81
456.395	74.81
456.616	86.81
456.836	80.81
457.056	97.81
457.276	89.81
457.497	92.81
457.717	93.81
457.937	94.81
458.157	89.81
458.377	88.81
458.598	119.81
458.818	185.81
459.038	200.81
459.258	128.81
459.478	99.81
459.698	75.81
459.918	99.81
460.138	89.81
460.358	101.81
460.578	93.81
460.798	82.81
461.018	107.81
461.238	94.81
461.458	83.81
461.678	83.81
461.898	77.81
462.118	93.81
462.338	89.81
462.558	80.81
462.777	90.81
462.997	99.81
463.217	95.81
463.437	94.81
463.657	92.81
463.876	78.81
464.096	85.81
464.316	103.81
464.536	87.81
464.755	79.81
464.975	113.81
465.195	198.81
465.414	194.81
465.634	98.81
465.854	85.81
466.073	82.81
466.293	91.81
466.512	89.81
466.732	85.81
466.951	94.81
467.171	98.81
467.391	116.81
467.61	120.81
467.829	144.81
468.049	288.81
468.268	414.81
468.488	148.81
468.707	87.81
468.927	100.81
469.146	90.81
469.365	93.81
469.585	94.81
469.804	105.81
470.023	98.81
470.243	117.81
470.462	115.81
470.681	129.81
470.901	97.81
471.12	86.81
471.339	96.81
471.558	100.81
471.777	121.81
471.997	179.81
472.216	523.81
472.435	1109.81
472.654	297.81
472.873	124.81
473.092	92.81
473.311	90.81
473.53	95.81
473.749	92.81
473.968	101.81
474.187	125.81
474.406	120.81
474.625	88.81
474.844	73.81
475.063	102.81
475.282	78.81
475.501	90.81
475.72	88.81
475.939	90.81
476.158	102.81
476.377	88.81
476.596	100.81
476.814	103.81
477.033	111.81
477.252	100.81
477.471	76.81
477.69	100.81
477.908	97.81
478.127	89.81
478.346	109.81
478.564	109.81
478.783	112.81
479.002	105.81
479.22	98.81
479.439	119.81
479.658	125.81
479.876	104.81
480.095	97.81
480.313	123.81
480.532	131.81
480.751	180.81
480.969	492.81
481.188	1976.81
481.406	1182.81
481.624	199.81
481.843	108.81
482.061	89.81
482.28	89.81
482.498	80.81
482.717	90.81
482.935	80.81
483.153	104.81
483.372	97.81
483.59	84.81
483.808	102.81
484.027	97.81
484.245	100.81
484.463	90.81
484.681	101.81
484.9	82.81
485.118	88.81
485.336	83.81
485.554	81.81
485.772	106.81
485.99	112.81
486.209	100.81
486.427	109.81
486.645	113.81
486.863	124.81
487.081	97.81
487.299	90.81
487.517	96.81
487.735	105.81
487.953	100.81
488.171	104.81
488.389	98.81
488.607	106.81
488.825	84.81
489.043	94.81
489.261	99.81
489.479	83.81
489.696	85.81
489.914	82.81
490.132	85.81
490.35	89.81
490.568	97.81
490.786	84.81
491.003	92.81
491.221	90.81
491.439	94.81
491.657	91.81
491.874	101.81
492.092	91.81
492.31	92.81
492.527	97.81
492.745	97.81
492.963	100.81
493.18	84.81
493.398	86.81
493.615	89.81
493.833	92.81
494.05	75.81
494.268	95.81
494.485	104.81
494.703	89.81
494.92	90.81
495.138	82.81
495.355	81.81
495.573	102.81
495.79	84.81
496.008	85.81
496.225	100.81
496.442	81.81
496.66	91.81
496.877	86.81
497.094	104.81
497.312	90.81
497.529	100.81
497.746	87.81
497.963	87.81
498.181	100.81
498.398	91.81
498.615	102.81
498.832	96.81
499.049	106.81
499.267	88.81
499.484	99.81
499.701	91.81
499.918	95.81
500.135	84.81
500.352	87.81
500.569	100.81
500.786	107.81
501.003	88.81
501.22	84.81
501.437	94.81
501.654	93.81
501.871	103.81
502.088	99.81
502.305	97.81
502.522	82.81
502.739	82.81
502.956	99.81
503.172	89.81
503.389	99.81
503.606	105.81
503.823	101.81
504.04	92.81
504.256	97.81
504.473	98.81
504.69	83.81
504.907	87.81
505.123	88.81
505.34	103.81
505.557	85.81
505.773	88.81
505.99	82.81
506.207	91.81
506.423	99.81
506.64	88.81
506.856	78.81
507.073	86.81
507.289	93.81
507.506	94.81
507.722	117.81
507.939	132.81
508.155	99.81
508.372	107.81
508.588	97.81
508.805	107.81
509.021	86.81
509.238	106.81
509.454	98.81
509.67	98.81
509.887	98.81
510.103	144.81
510.319	222.81
510.536	836.81
510.752	2867.81
510.968	776.81
511.184	168.81
511.401	120.81
511.617	114.81
511.833	114.81
512.049	97.81
512.265	99.81
512.481	98.81
512.698	86.81
512.914	88.81
513.13	98.81
513.346	101.81
513.562	103.81
