Data from Circ_2000_H10_HRD10591_00017.txt Node
Date: Wed Jan 03 10:49:37 EST 2024
User: Yrep
Spectrometer: HR+D1059
Trigger mode: 1
Integration Time (sec): 1.000000E-1
Scans to average: 1
Electric dark correction enabled: true
Nonlinearity correction enabled: false
Boxcar width: 0
XAxis mode: Wavelengths
Number of Pixels in Spectrum: 2048
>>>>>Begin Spectral Data<<<<<
223.165	-11.44
223.4	-11.44
223.635	-11.44
223.869	-24.44
224.104	-19.44
224.338	-23.44
224.573	-9.44
224.808	-10.44
225.042	-2.44
225.277	-7.44
225.511	-2.44
225.746	5.56
225.98	15.56
226.215	18.56
226.449	1.56
226.683	17.56
226.918	17.56
227.152	34.56
227.387	17.56
227.621	34.56
227.856	30.56
228.09	35.56
228.324	50.56
228.559	44.56
228.793	65.56
229.027	61.56
229.262	69.56
229.496	56.56
229.73	77.56
229.964	58.56
230.199	67.56
230.433	75.56
230.667	80.56
230.901	74.56
231.136	81.56
231.37	83.56
231.604	79.56
231.838	78.56
232.072	85.56
232.306	72.56
232.541	83.56
232.775	80.56
233.009	89.56
233.243	73.56
233.477	78.56
233.711	77.56
233.945	79.56
234.179	83.56
234.413	87.56
234.647	78.56
234.881	80.56
235.115	71.56
235.349	85.56
235.583	76.56
235.817	66.56
236.051	73.56
236.285	73.56
236.519	74.56
236.753	81.56
236.987	79.56
237.221	74.56
237.455	84.56
237.689	72.56
237.922	71.56
238.156	79.56
238.39	70.56
238.624	70.56
238.858	62.56
239.091	75.56
239.325	79.56
239.559	78.56
239.793	75.56
240.027	69.56
240.26	65.56
240.494	75.56
240.728	70.56
240.961	74.56
241.195	78.56
241.429	56.56
241.662	61.56
241.896	74.56
242.13	68.56
242.363	70.56
242.597	61.56
242.83	58.56
243.064	70.56
243.298	82.56
243.531	81.56
243.765	71.56
243.998	86.56
244.232	72.56
244.465	77.56
244.699	81.56
244.932	77.56
245.166	77.56
245.399	57.56
245.633	77.56
245.866	75.56
246.099	83.56
246.333	70.56
246.566	67.56
246.8	80.56
247.033	78.56
247.266	80.56
247.5	66.56
247.733	89.56
247.966	68.56
248.2	87.56
248.433	90.56
248.666	83.56
248.899	86.56
249.133	74.56
249.366	94.56
249.599	87.56
249.832	77.56
250.066	65.56
250.299	74.56
250.532	82.56
250.765	75.56
250.998	74.56
251.231	65.56
251.465	70.56
251.698	84.56
251.931	78.56
252.164	74.56
252.397	77.56
252.63	76.56
252.863	81.56
253.096	81.56
253.329	82.56
253.562	84.56
253.795	73.56
254.028	87.56
254.261	74.56
254.494	73.56
254.727	90.56
254.96	72.56
255.193	77.56
255.426	73.56
255.659	61.56
255.892	88.56
256.124	70.56
256.357	84.56
256.59	81.56
256.823	56.56
257.056	84.56
257.289	69.56
257.521	79.56
257.754	83.56
257.987	91.56
258.22	89.56
258.452	84.56
258.685	81.56
258.918	75.56
259.151	75.56
259.383	84.56
259.616	71.56
259.849	71.56
260.081	78.56
260.314	77.56
260.547	71.56
260.779	83.56
261.012	90.56
261.244	83.56
261.477	87.56
261.71	75.56
261.942	112.56
262.175	95.56
262.407	84.56
262.64	83.56
262.872	86.56
263.105	88.56
263.337	79.56
263.57	69.56
263.802	89.56
264.035	66.56
264.267	69.56
264.499	75.56
264.732	88.56
264.964	64.56
265.197	78.56
265.429	79.56
265.661	69.56
265.894	78.56
266.126	74.56
266.358	77.56
266.591	76.56
266.823	81.56
267.055	78.56
267.287	77.56
267.52	86.56
267.752	61.56
267.984	83.56
268.216	102.56
268.448	77.56
268.681	73.56
268.913	88.56
269.145	90.56
269.377	85.56
269.609	84.56
269.841	81.56
270.073	81.56
270.306	85.56
270.538	82.56
270.77	78.56
271.002	74.56
271.234	83.56
271.466	85.56
271.698	81.56
271.93	80.56
272.162	94.56
272.394	84.56
272.626	81.56
272.858	80.56
273.09	69.56
273.322	69.56
273.553	87.56
273.785	75.56
274.017	74.56
274.249	91.56
274.481	66.56
274.713	81.56
274.945	71.56
275.176	65.56
275.408	83.56
275.64	82.56
275.872	79.56
276.104	84.56
276.335	79.56
276.567	94.56
276.799	100.56
277.031	98.56
277.262	84.56
277.494	73.56
277.726	84.56
277.957	90.56
278.189	80.56
278.421	73.56
278.652	90.56
278.884	75.56
279.115	88.56
279.347	66.56
279.579	82.56
279.81	78.56
280.042	94.56
280.273	98.56
280.505	90.56
280.736	93.56
280.968	95.56
281.199	84.56
281.431	80.56
281.662	76.56
281.894	82.56
282.125	91.56
282.356	99.56
282.588	125.56
282.819	102.56
283.051	81.56
283.282	82.56
283.513	93.56
283.745	75.56
283.976	81.56
284.207	69.56
284.439	87.56
284.67	82.56
284.901	88.56
285.132	77.56
285.364	78.56
285.595	81.56
285.826	82.56
286.057	91.56
286.288	90.56
286.52	81.56
286.751	86.56
286.982	83.56
287.213	77.56
287.444	83.56
287.675	94.56
287.906	88.56
288.138	80.56
288.369	98.56
288.6	83.56
288.831	79.56
289.062	80.56
289.293	77.56
289.524	69.56
289.755	78.56
289.986	77.56
290.217	79.56
290.448	72.56
290.679	78.56
290.91	69.56
291.141	88.56
291.371	90.56
291.602	73.56
291.833	87.56
292.064	87.56
292.295	84.56
292.526	86.56
292.757	94.56
292.987	68.56
293.218	74.56
293.449	85.56
293.68	86.56
293.91	94.56
294.141	85.56
294.372	81.56
294.603	97.56
294.833	74.56
295.064	85.56
295.295	83.56
295.525	83.56
295.756	87.56
295.987	99.56
296.217	113.56
296.448	115.56
296.679	80.56
296.909	87.56
297.14	85.56
297.37	90.56
297.601	87.56
297.831	84.56
298.062	97.56
298.292	81.56
298.523	67.56
298.753	91.56
298.984	75.56
299.214	91.56
299.445	75.56
299.675	86.56
299.905	90.56
300.136	97.56
300.366	88.56
300.597	89.56
300.827	85.56
301.057	91.56
301.288	82.56
301.518	91.56
301.748	99.56
301.979	95.56
302.209	82.56
302.439	79.56
302.669	80.56
302.9	85.56
303.13	103.56
303.36	87.56
303.59	88.56
303.82	104.56
304.051	79.56
304.281	96.56
304.511	81.56
304.741	94.56
304.971	77.56
305.201	82.56
305.431	81.56
305.661	75.56
305.891	94.56
306.121	82.56
306.352	94.56
306.582	88.56
306.812	101.56
307.042	96.56
307.272	98.56
307.502	101.56
307.731	88.56
307.961	100.56
308.191	86.56
308.421	83.56
308.651	90.56
308.881	91.56
309.111	88.56
309.341	92.56
309.571	97.56
309.8	91.56
310.03	108.56
310.26	94.56
310.49	82.56
310.72	85.56
310.949	83.56
311.179	98.56
311.409	89.56
311.639	80.56
311.868	79.56
312.098	89.56
312.328	90.56
312.557	82.56
312.787	101.56
313.017	98.56
313.246	82.56
313.476	82.56
313.706	87.56
313.935	89.56
314.165	75.56
314.394	87.56
314.624	85.56
314.853	90.56
315.083	80.56
315.312	74.56
315.542	93.56
315.771	77.56
316.001	84.56
316.23	91.56
316.46	94.56
316.689	89.56
316.919	84.56
317.148	78.56
317.377	77.56
317.607	93.56
317.836	87.56
318.065	94.56
318.295	80.56
318.524	97.56
318.753	84.56
318.983	90.56
319.212	99.56
319.441	86.56
319.67	85.56
319.9	95.56
320.129	95.56
320.358	90.56
320.587	85.56
320.816	98.56
321.046	91.56
321.275	81.56
321.504	86.56
321.733	83.56
321.962	101.56
322.191	102.56
322.42	103.56
322.649	98.56
322.878	110.56
323.108	108.56
323.337	119.56
323.566	115.56
323.795	130.56
324.024	191.56
324.253	326.56
324.482	685.56
324.71	1392.56
324.939	1819.56
325.168	683.56
325.397	204.56
325.626	135.56
325.855	122.56
326.084	111.56
326.313	125.56
326.542	145.56
326.77	214.56
326.999	387.56
327.228	781.56
327.457	1416.56
327.686	1124.56
327.914	335.56
328.143	208.56
328.372	190.56
328.6	144.56
328.829	111.56
329.058	117.56
329.287	108.56
329.515	100.56
329.744	110.56
329.972	149.56
330.201	233.56
330.43	265.56
330.658	172.56
330.887	131.56
331.115	114.56
331.344	87.56
331.572	100.56
331.801	97.56
332.03	99.56
332.258	110.56
332.486	99.56
332.715	98.56
332.943	98.56
333.172	88.56
333.4	91.56
333.629	112.56
333.857	115.56
334.085	155.56
334.314	225.56
334.542	344.56
334.771	307.56
334.999	147.56
335.227	98.56
335.455	97.56
335.684	99.56
335.912	102.56
336.14	99.56
336.369	93.56
336.597	97.56
336.825	89.56
337.053	95.56
337.281	83.56
337.51	80.56
337.738	79.56
337.966	91.56
338.194	87.56
338.422	93.56
338.65	94.56
338.878	93.56
339.106	97.56
339.334	82.56
339.562	91.56
339.79	80.56
340.018	94.56
340.246	84.56
340.474	73.56
340.702	81.56
340.93	100.56
341.158	81.56
341.386	98.56
341.614	80.56
341.842	87.56
342.07	89.56
342.298	85.56
342.526	87.56
342.754	81.56
342.981	89.56
343.209	83.56
343.437	90.56
343.665	87.56
343.893	89.56
344.12	86.56
344.348	94.56
344.576	87.56
344.804	85.56
345.031	96.56
345.259	81.56
345.487	91.56
345.714	89.56
345.942	85.56
346.17	85.56
346.397	108.56
346.625	90.56
346.853	91.56
347.08	89.56
347.308	92.56
347.535	89.56
347.763	94.56
347.99	90.56
348.218	97.56
348.445	90.56
348.673	82.56
348.9	101.56
349.128	90.56
349.355	73.56
349.583	89.56
349.81	99.56
350.037	92.56
350.265	94.56
350.492	95.56
350.72	77.56
350.947	93.56
351.174	99.56
351.402	103.56
351.629	85.56
351.856	85.56
352.083	93.56
352.311	92.56
352.538	103.56
352.765	102.56
352.992	98.56
353.22	115.56
353.447	88.56
353.674	94.56
353.901	99.56
354.128	83.56
354.355	102.56
354.583	98.56
354.81	93.56
355.037	88.56
355.264	95.56
355.491	97.56
355.718	90.56
355.945	76.56
356.172	93.56
356.399	99.56
356.626	102.56
356.853	91.56
357.08	99.56
357.307	103.56
357.534	84.56
357.761	99.56
357.988	99.56
358.215	98.56
358.441	105.56
358.668	101.56
358.895	90.56
359.122	85.56
359.349	83.56
359.576	85.56
359.802	98.56
360.029	112.56
360.256	97.56
360.483	97.56
360.709	85.56
360.936	86.56
361.163	88.56
361.39	79.56
361.616	95.56
361.843	95.56
362.07	88.56
362.296	95.56
362.523	97.56
362.749	96.56
362.976	79.56
363.203	83.56
363.429	78.56
363.656	74.56
363.882	82.56
364.109	82.56
364.335	103.56
364.562	75.56
364.788	68.56
365.015	97.56
365.241	86.56
365.468	108.56
365.694	105.56
365.92	99.56
366.147	90.56
366.373	98.56
366.599	87.56
366.826	88.56
367.052	94.56
367.278	91.56
367.505	87.56
367.731	88.56
367.957	86.56
368.184	83.56
368.41	85.56
368.636	99.56
368.862	111.56
369.089	89.56
369.315	89.56
369.541	76.56
369.767	95.56
369.993	96.56
370.219	73.56
370.445	83.56
370.672	86.56
370.898	91.56
371.124	89.56
371.35	89.56
371.576	72.56
371.802	78.56
372.028	86.56
372.254	80.56
372.48	75.56
372.706	81.56
372.932	94.56
373.158	83.56
373.384	90.56
373.61	89.56
373.835	81.56
374.061	86.56
374.287	88.56
374.513	92.56
374.739	90.56
374.965	101.56
375.191	81.56
375.416	88.56
375.642	79.56
375.868	100.56
376.094	99.56
376.319	86.56
376.545	97.56
376.771	89.56
376.997	71.56
377.222	82.56
377.448	88.56
377.674	113.56
377.899	87.56
378.125	79.56
378.35	77.56
378.576	76.56
378.802	90.56
379.027	87.56
379.253	102.56
379.478	89.56
379.704	108.56
379.929	83.56
380.155	95.56
380.38	95.56
380.606	94.56
380.831	101.56
381.057	99.56
381.282	97.56
381.507	74.56
381.733	107.56
381.958	102.56
382.184	110.56
382.409	95.56
382.634	97.56
382.86	109.56
383.085	98.56
383.31	86.56
383.535	98.56
383.761	112.56
383.986	101.56
384.211	106.56
384.436	93.56
384.662	103.56
384.887	121.56
385.112	103.56
385.337	94.56
385.562	105.56
385.787	115.56
386.013	114.56
386.238	112.56
386.463	114.56
386.688	115.56
386.913	109.56
387.138	112.56
387.363	112.56
387.588	107.56
387.813	103.56
388.038	106.56
388.263	117.56
388.488	111.56
388.713	98.56
388.938	85.56
389.163	101.56
389.387	88.56
389.612	106.56
389.837	91.56
390.062	88.56
390.287	97.56
390.512	83.56
390.736	83.56
390.961	99.56
391.186	94.56
391.411	81.56
391.636	81.56
391.86	84.56
392.085	96.56
392.31	92.56
392.534	87.56
392.759	89.56
392.984	81.56
393.208	98.56
393.433	89.56
393.658	102.56
393.882	99.56
394.107	105.56
394.331	94.56
394.556	73.56
394.78	69.56
395.005	74.56
395.229	90.56
395.454	70.56
395.678	68.56
395.903	79.56
396.127	77.56
396.352	74.56
396.576	75.56
396.801	74.56
397.025	89.56
397.249	86.56
397.474	77.56
397.698	74.56
397.922	98.56
398.147	66.56
398.371	85.56
398.595	80.56
398.82	77.56
399.044	77.56
399.268	79.56
399.492	88.56
399.717	89.56
399.941	78.56
400.165	91.56
400.389	79.56
400.613	70.56
400.837	77.56
401.062	93.56
401.286	74.56
401.51	91.56
401.734	95.56
401.958	94.56
402.182	110.56
402.406	137.56
402.63	101.56
402.854	81.56
403.078	82.56
403.302	78.56
403.526	91.56
403.75	81.56
403.974	94.56
404.198	90.56
404.422	85.56
404.645	98.56
404.869	85.56
405.093	84.56
405.317	106.56
405.541	102.56
405.765	87.56
405.988	118.56
406.212	147.56
406.436	190.56
406.66	126.56
406.883	89.56
407.107	93.56
407.331	90.56
407.555	105.56
407.778	104.56
408.002	95.56
408.226	92.56
408.449	85.56
408.673	95.56
408.896	91.56
409.12	91.56
409.344	81.56
409.567	84.56
409.791	87.56
410.014	92.56
410.238	87.56
410.461	94.56
410.685	90.56
410.908	96.56
411.132	98.56
411.355	98.56
411.578	91.56
411.802	85.56
412.025	89.56
412.249	90.56
412.472	82.56
412.695	103.56
412.919	87.56
413.142	84.56
413.365	88.56
413.589	77.56
413.812	87.56
414.035	91.56
414.258	70.56
414.482	78.56
414.705	79.56
414.928	88.56
415.151	106.56
415.374	90.56
415.597	81.56
415.821	95.56
416.044	89.56
416.267	85.56
416.49	93.56
416.713	88.56
416.936	76.56
417.159	82.56
417.382	103.56
417.605	89.56
417.828	81.56
418.051	77.56
418.274	91.56
418.497	83.56
418.72	87.56
418.943	88.56
419.166	89.56
419.389	87.56
419.611	91.56
419.834	90.56
420.057	89.56
420.28	97.56
420.503	89.56
420.726	81.56
420.948	86.56
421.171	94.56
421.394	102.56
421.617	92.56
421.839	72.56
422.062	70.56
422.285	84.56
422.507	103.56
422.73	97.56
422.953	97.56
423.175	94.56
423.398	80.56
423.621	85.56
423.843	72.56
424.066	84.56
424.288	90.56
424.511	86.56
424.733	99.56
424.956	101.56
425.178	75.56
425.401	89.56
425.623	88.56
425.846	77.56
426.068	87.56
426.291	86.56
426.513	87.56
426.735	82.56
426.958	99.56
427.18	114.56
427.402	130.56
427.625	147.56
427.847	145.56
428.069	141.56
428.292	94.56
428.514	93.56
428.736	72.56
428.958	87.56
429.181	83.56
429.403	71.56
429.625	81.56
429.847	95.56
430.069	92.56
430.292	90.56
430.514	95.56
430.736	87.56
430.958	84.56
431.18	68.56
431.402	78.56
431.624	85.56
431.846	87.56
432.068	77.56
432.29	82.56
432.512	88.56
432.734	82.56
432.956	92.56
433.178	98.56
433.4	94.56
433.622	87.56
433.844	92.56
434.066	86.56
434.287	91.56
434.509	82.56
434.731	86.56
434.953	101.56
435.175	91.56
435.397	80.56
435.618	87.56
435.84	100.56
436.062	109.56
436.284	92.56
436.505	105.56
436.727	91.56
436.949	73.56
437.17	71.56
437.392	99.56
437.614	90.56
437.835	112.56
438.057	111.56
438.278	91.56
438.5	92.56
438.721	100.56
438.943	97.56
439.165	90.56
439.386	86.56
439.608	93.56
439.829	103.56
440.05	117.56
440.272	127.56
440.493	93.56
440.715	85.56
440.936	79.56
441.158	84.56
441.379	79.56
441.6	89.56
441.822	105.56
442.043	96.56
442.264	113.56
442.486	100.56
442.707	100.56
442.928	96.56
443.149	109.56
443.371	113.56
443.592	109.56
443.813	106.56
444.034	94.56
444.255	101.56
444.476	81.56
444.698	85.56
444.919	74.56
445.14	113.56
445.361	117.56
445.582	98.56
445.803	129.56
446.024	137.56
446.245	115.56
446.466	105.56
446.687	98.56
446.908	86.56
447.129	78.56
447.35	88.56
447.571	90.56
447.792	95.56
448.013	94.56
448.234	105.56
448.455	77.56
448.675	99.56
448.896	91.56
449.117	97.56
449.338	101.56
449.559	110.56
449.779	129.56
450	90.56
450.221	86.56
450.442	75.56
450.662	83.56
450.883	84.56
451.104	100.56
451.324	95.56
451.545	90.56
451.766	89.56
451.986	75.56
452.207	93.56
452.428	102.56
452.648	92.56
452.869	104.56
453.089	118.56
453.31	106.56
453.53	106.56
453.751	82.56
453.971	97.56
454.192	91.56
454.412	101.56
454.633	95.56
454.853	78.56
455.073	78.56
455.294	76.56
455.514	89.56
455.734	71.56
455.955	81.56
456.175	83.56
456.395	74.56
456.616	85.56
456.836	81.56
457.056	79.56
457.276	63.56
457.497	77.56
457.717	81.56
457.937	93.56
458.157	69.56
458.377	76.56
458.598	98.56
458.818	106.56
459.038	139.56
459.258	114.56
459.478	78.56
459.698	91.56
459.918	93.56
460.138	58.56
460.358	83.56
460.578	78.56
460.798	71.56
461.018	83.56
461.238	75.56
461.458	81.56
461.678	90.56
461.898	95.56
462.118	73.56
462.338	81.56
462.558	85.56
462.777	79.56
462.997	88.56
463.217	77.56
463.437	83.56
463.657	95.56
463.876	82.56
464.096	93.56
464.316	76.56
464.536	98.56
464.755	98.56
464.975	108.56
465.195	134.56
465.414	133.56
465.634	77.56
465.854	84.56
466.073	104.56
466.293	95.56
466.512	101.56
466.732	83.56
466.951	104.56
467.171	94.56
467.391	107.56
467.61	103.56
467.829	95.56
468.049	149.56
468.268	185.56
468.488	97.56
468.707	76.56
468.927	91.56
469.146	70.56
469.365	86.56
469.585	86.56
469.804	95.56
470.023	82.56
470.243	96.56
470.462	91.56
470.681	96.56
470.901	79.56
471.12	87.56
471.339	86.56
471.558	89.56
471.777	91.56
471.997	111.56
472.216	255.56
472.435	427.56
472.654	151.56
472.873	103.56
473.092	87.56
473.311	88.56
473.53	88.56
473.749	93.56
473.968	98.56
474.187	110.56
474.406	103.56
474.625	82.56
474.844	77.56
475.063	91.56
475.282	90.56
475.501	83.56
475.72	99.56
475.939	91.56
476.158	86.56
476.377	70.56
476.596	77.56
476.814	81.56
477.033	86.56
477.252	94.56
477.471	85.56
477.69	85.56
477.908	74.56
478.127	86.56
478.346	84.56
478.564	80.56
478.783	89.56
479.002	87.56
479.22	75.56
479.439	90.56
479.658	95.56
479.876	94.56
480.095	79.56
480.313	102.56
480.532	94.56
480.751	115.56
480.969	214.56
481.188	733.56
481.406	459.56
481.624	118.56
481.843	102.56
482.061	91.56
482.28	97.56
482.498	87.56
482.717	74.56
482.935	95.56
483.153	89.56
483.372	73.56
483.59	81.56
483.808	91.56
484.027	83.56
484.245	99.56
484.463	82.56
484.681	89.56
484.9	86.56
485.118	98.56
485.336	95.56
485.554	91.56
485.772	97.56
485.99	95.56
486.209	117.56
486.427	101.56
486.645	101.56
486.863	109.56
487.081	114.56
487.299	106.56
487.517	89.56
487.735	95.56
487.953	102.56
488.171	102.56
488.389	101.56
488.607	89.56
488.825	86.56
489.043	79.56
489.261	97.56
489.479	80.56
489.696	75.56
489.914	92.56
490.132	104.56
490.35	90.56
490.568	82.56
490.786	79.56
491.003	88.56
491.221	87.56
491.439	88.56
491.657	86.56
491.874	99.56
492.092	87.56
492.31	91.56
492.527	85.56
492.745	76.56
492.963	90.56
493.18	84.56
493.398	90.56
493.615	93.56
493.833	77.56
494.05	90.56
494.268	91.56
494.485	91.56
494.703	66.56
494.92	81.56
495.138	85.56
495.355	88.56
495.573	90.56
495.79	91.56
496.008	88.56
496.225	89.56
496.442	82.56
496.66	104.56
496.877	83.56
497.094	96.56
497.312	85.56
497.529	79.56
497.746	83.56
497.963	77.56
498.181	85.56
498.398	89.56
498.615	109.56
498.832	99.56
499.049	78.56
499.267	80.56
499.484	96.56
499.701	97.56
499.918	94.56
500.135	80.56
500.352	104.56
500.569	85.56
500.786	90.56
501.003	97.56
501.22	91.56
501.437	88.56
501.654	95.56
501.871	95.56
502.088	92.56
502.305	93.56
502.522	88.56
502.739	99.56
502.956	82.56
503.172	92.56
503.389	93.56
503.606	104.56
503.823	89.56
504.04	89.56
504.256	87.56
504.473	99.56
504.69	87.56
504.907	83.56
505.123	78.56
505.34	89.56
505.557	98.56
505.773	88.56
505.99	76.56
506.207	77.56
506.423	94.56
506.64	67.56
506.856	91.56
507.073	88.56
507.289	99.56
507.506	93.56
507.722	87.56
507.939	81.56
508.155	90.56
508.372	75.56
508.588	91.56
508.805	80.56
509.021	92.56
509.238	99.56
509.454	105.56
509.67	117.56
509.887	102.56
510.103	113.56
510.319	181.56
510.536	622.56
510.752	1958.56
510.968	553.56
511.184	161.56
511.401	103.56
511.617	89.56
511.833	100.56
512.049	84.56
512.265	90.56
512.481	89.56
512.698	88.56
512.914	82.56
513.13	88.56
513.346	85.56
513.562	93.56
513.778	82.56
513.994	95.56
514.21	113.56
514.426	114.56
514.642	119.56
514.858	111.56
515.074	136.56
515.29	369.56
515.506	1175.56
515.721	434.56
515.937	137.56
516.153	89.56
516.369	95.56
516.585	100.56
516.801	81.56
