Data from Circ_2000_H10_HRD10591_00033.txt Node
Date: Wed Jan 03 10:49:40 EST 2024
User: Yrep
Spectrometer: HR+D1059
Trigger mode: 1
Integration Time (sec): 1.000000E-1
Scans to average: 1
Electric dark correction enabled: true
Nonlinearity correction enabled: false
Boxcar width: 0
XAxis mode: Wavelengths
Number of Pixels in Spectrum: 2048
>>>>>Begin Spectral Data<<<<<
223.165	-7.44
223.4	-7.44
223.635	-7.44
223.869	-8.44
224.104	-24.44
224.338	-17.44
224.573	-15.44
224.808	-16.44
225.042	-17.44
225.277	-8.44
225.511	-6.44
225.746	17.56
225.98	6.56
226.215	5.56
226.449	29.56
226.683	21.56
226.918	21.56
227.152	19.56
227.387	33.56
227.621	17.56
227.856	44.56
228.09	49.56
228.324	52.56
228.559	71.56
228.793	55.56
229.027	69.56
229.262	71.56
229.496	68.56
229.73	82.56
229.964	90.56
230.199	81.56
230.433	97.56
230.667	84.56
230.901	79.56
231.136	102.56
231.37	83.56
231.604	97.56
231.838	84.56
232.072	90.56
232.306	93.56
232.541	77.56
232.775	85.56
233.009	81.56
233.243	80.56
233.477	85.56
233.711	80.56
233.945	75.56
234.179	75.56
234.413	91.56
234.647	83.56
234.881	85.56
235.115	88.56
235.349	83.56
235.583	71.56
235.817	85.56
236.051	82.56
236.285	78.56
236.519	77.56
236.753	89.56
236.987	78.56
237.221	94.56
237.455	94.56
237.689	69.56
237.922	83.56
238.156	76.56
238.39	79.56
238.624	77.56
238.858	77.56
239.091	75.56
239.325	68.56
239.559	70.56
239.793	76.56
240.027	84.56
240.26	62.56
240.494	79.56
240.728	78.56
240.961	81.56
241.195	82.56
241.429	66.56
241.662	86.56
241.896	72.56
242.13	79.56
242.363	91.56
242.597	89.56
242.83	71.56
243.064	89.56
243.298	78.56
243.531	76.56
243.765	69.56
243.998	81.56
244.232	95.56
244.465	97.56
244.699	87.56
244.932	82.56
245.166	83.56
245.399	74.56
245.633	88.56
245.866	87.56
246.099	81.56
246.333	72.56
246.566	80.56
246.8	75.56
247.033	68.56
247.266	81.56
247.5	77.56
247.733	71.56
247.966	91.56
248.2	75.56
248.433	83.56
248.666	90.56
248.899	93.56
249.133	91.56
249.366	98.56
249.599	96.56
249.832	81.56
250.066	89.56
250.299	77.56
250.532	81.56
250.765	87.56
250.998	77.56
251.231	73.56
251.465	87.56
251.698	84.56
251.931	78.56
252.164	76.56
252.397	79.56
252.63	76.56
252.863	79.56
253.096	88.56
253.329	76.56
253.562	97.56
253.795	78.56
254.028	71.56
254.261	85.56
254.494	97.56
254.727	94.56
254.96	76.56
255.193	91.56
255.426	83.56
255.659	84.56
255.892	94.56
256.124	80.56
256.357	75.56
256.59	65.56
256.823	86.56
257.056	88.56
257.289	75.56
257.521	83.56
257.754	92.56
257.987	85.56
258.22	84.56
258.452	75.56
258.685	80.56
258.918	91.56
259.151	91.56
259.383	88.56
259.616	101.56
259.849	75.56
260.081	81.56
260.314	87.56
260.547	86.56
260.779	90.56
261.012	84.56
261.244	92.56
261.477	100.56
261.71	86.56
261.942	105.56
262.175	118.56
262.407	100.56
262.64	77.56
262.872	85.56
263.105	108.56
263.337	93.56
263.57	89.56
263.802	102.56
264.035	83.56
264.267	85.56
264.499	90.56
264.732	81.56
264.964	93.56
265.197	91.56
265.429	79.56
265.661	87.56
265.894	80.56
266.126	89.56
266.358	74.56
266.591	78.56
266.823	64.56
267.055	86.56
267.287	77.56
267.52	87.56
267.752	91.56
267.984	82.56
268.216	83.56
268.448	95.56
268.681	76.56
268.913	88.56
269.145	80.56
269.377	95.56
269.609	84.56
269.841	80.56
270.073	90.56
270.306	87.56
270.538	98.56
270.77	80.56
271.002	91.56
271.234	74.56
271.466	86.56
271.698	96.56
271.93	80.56
272.162	96.56
272.394	100.56
272.626	81.56
272.858	78.56
273.09	81.56
273.322	93.56
273.553	88.56
273.785	81.56
274.017	76.56
274.249	75.56
274.481	82.56
274.713	81.56
274.945	79.56
275.176	76.56
275.408	86.56
275.64	90.56
275.872	90.56
276.104	76.56
276.335	104.56
276.567	88.56
276.799	105.56
277.031	118.56
277.262	110.56
277.494	99.56
277.726	96.56
277.957	93.56
278.189	77.56
278.421	87.56
278.652	90.56
278.884	94.56
279.115	92.56
279.347	88.56
279.579	80.56
279.81	89.56
280.042	91.56
280.273	132.56
280.505	117.56
280.736	80.56
280.968	87.56
281.199	83.56
281.431	91.56
281.662	100.56
281.894	94.56
282.125	95.56
282.356	123.56
282.588	133.56
282.819	126.56
283.051	95.56
283.282	92.56
283.513	88.56
283.745	92.56
283.976	95.56
284.207	87.56
284.439	86.56
284.67	94.56
284.901	89.56
285.132	87.56
285.364	82.56
285.595	94.56
285.826	85.56
286.057	97.56
286.288	85.56
286.52	91.56
286.751	84.56
286.982	89.56
287.213	85.56
287.444	78.56
287.675	84.56
287.906	94.56
288.138	93.56
288.369	91.56
288.6	94.56
288.831	97.56
289.062	89.56
289.293	92.56
289.524	86.56
289.755	95.56
289.986	81.56
290.217	97.56
290.448	83.56
290.679	79.56
290.91	89.56
291.141	86.56
291.371	106.56
291.602	86.56
291.833	101.56
292.064	100.56
292.295	82.56
292.526	85.56
292.757	98.56
292.987	86.56
293.218	91.56
293.449	102.56
293.68	89.56
293.91	99.56
294.141	80.56
294.372	81.56
294.603	83.56
294.833	91.56
295.064	96.56
295.295	94.56
295.525	88.56
295.756	106.56
295.987	120.56
296.217	156.56
296.448	127.56
296.679	94.56
296.909	93.56
297.14	88.56
297.37	90.56
297.601	97.56
297.831	97.56
298.062	88.56
298.292	92.56
298.523	104.56
298.753	84.56
298.984	91.56
299.214	107.56
299.445	98.56
299.675	100.56
299.905	100.56
300.136	78.56
300.366	88.56
300.597	93.56
300.827	97.56
301.057	102.56
301.288	110.56
301.518	98.56
301.748	85.56
301.979	108.56
302.209	79.56
302.439	88.56
302.669	84.56
302.9	91.56
303.13	87.56
303.36	102.56
303.59	105.56
303.82	118.56
304.051	95.56
304.281	96.56
304.511	101.56
304.741	96.56
304.971	105.56
305.201	98.56
305.431	98.56
305.661	97.56
305.891	107.56
306.121	104.56
306.352	102.56
306.582	118.56
306.812	109.56
307.042	109.56
307.272	108.56
307.502	124.56
307.731	111.56
307.961	115.56
308.191	97.56
308.421	86.56
308.651	86.56
308.881	107.56
309.111	93.56
309.341	94.56
309.571	97.56
309.8	96.56
310.03	103.56
310.26	116.56
310.49	89.56
310.72	95.56
310.949	107.56
311.179	96.56
311.409	111.56
311.639	100.56
311.868	107.56
312.098	97.56
312.328	104.56
312.557	115.56
312.787	109.56
313.017	93.56
313.246	105.56
313.476	85.56
313.706	100.56
313.935	79.56
314.165	84.56
314.394	111.56
314.624	94.56
314.853	101.56
315.083	110.56
315.312	108.56
315.542	84.56
315.771	88.56
316.001	90.56
316.23	76.56
316.46	85.56
316.689	83.56
316.919	98.56
317.148	90.56
317.377	96.56
317.607	95.56
317.836	84.56
318.065	83.56
318.295	91.56
318.524	89.56
318.753	91.56
318.983	92.56
319.212	109.56
319.441	105.56
319.67	107.56
319.9	85.56
320.129	88.56
320.358	92.56
320.587	96.56
320.816	104.56
321.046	103.56
321.275	106.56
321.504	85.56
321.733	96.56
321.962	106.56
322.191	108.56
322.42	106.56
322.649	113.56
322.878	115.56
323.108	112.56
323.337	131.56
323.566	147.56
323.795	168.56
324.024	215.56
324.253	398.56
324.482	795.56
324.71	1687.56
324.939	2184.56
325.168	811.56
325.397	245.56
325.626	153.56
325.855	125.56
326.084	123.56
326.313	138.56
326.542	159.56
326.77	240.56
326.999	470.56
327.228	918.56
327.457	1694.56
327.686	1364.56
327.914	406.56
328.143	251.56
328.372	265.56
328.6	191.56
328.829	139.56
329.058	117.56
329.287	131.56
329.515	116.56
329.744	145.56
329.972	203.56
330.201	304.56
330.43	421.56
330.658	244.56
330.887	179.56
331.115	137.56
331.344	123.56
331.572	105.56
331.801	97.56
332.03	97.56
332.258	107.56
332.486	97.56
332.715	109.56
332.943	113.56
333.172	106.56
333.4	117.56
333.629	117.56
333.857	149.56
334.085	186.56
334.314	285.56
334.542	502.56
334.771	461.56
334.999	184.56
335.227	117.56
335.455	96.56
335.684	96.56
335.912	116.56
336.14	119.56
336.369	96.56
336.597	112.56
336.825	111.56
337.053	103.56
337.281	100.56
337.51	94.56
337.738	105.56
337.966	107.56
338.194	89.56
338.422	114.56
338.65	86.56
338.878	84.56
339.106	105.56
339.334	90.56
339.562	97.56
339.79	97.56
340.018	87.56
340.246	95.56
340.474	93.56
340.702	92.56
340.93	100.56
341.158	110.56
341.386	100.56
341.614	95.56
341.842	89.56
342.07	92.56
342.298	91.56
342.526	92.56
342.754	86.56
342.981	89.56
343.209	97.56
343.437	108.56
343.665	97.56
343.893	77.56
344.12	79.56
344.348	88.56
344.576	91.56
344.804	108.56
345.031	103.56
345.259	88.56
345.487	90.56
345.714	105.56
345.942	92.56
346.17	90.56
346.397	93.56
346.625	93.56
346.853	82.56
347.08	85.56
347.308	99.56
347.535	105.56
347.763	103.56
347.99	107.56
348.218	93.56
348.445	86.56
348.673	98.56
348.9	103.56
349.128	100.56
349.355	102.56
349.583	96.56
349.81	91.56
350.037	104.56
350.265	99.56
350.492	96.56
350.72	99.56
350.947	107.56
351.174	106.56
351.402	116.56
351.629	94.56
351.856	112.56
352.083	115.56
352.311	107.56
352.538	103.56
352.765	115.56
352.992	133.56
353.22	109.56
353.447	111.56
353.674	102.56
353.901	108.56
354.128	100.56
354.355	89.56
354.583	107.56
354.81	104.56
355.037	95.56
355.264	101.56
355.491	83.56
355.718	92.56
355.945	100.56
356.172	94.56
356.399	108.56
356.626	101.56
356.853	100.56
357.08	98.56
357.307	92.56
357.534	100.56
357.761	79.56
357.988	81.56
358.215	93.56
358.441	96.56
358.668	93.56
358.895	97.56
359.122	98.56
359.349	103.56
359.576	102.56
359.802	110.56
360.029	99.56
360.256	112.56
360.483	110.56
360.709	91.56
360.936	94.56
361.163	105.56
361.39	107.56
361.616	100.56
361.843	89.56
362.07	89.56
362.296	100.56
362.523	79.56
362.749	82.56
362.976	97.56
363.203	102.56
363.429	92.56
363.656	83.56
363.882	98.56
364.109	92.56
364.335	97.56
364.562	93.56
364.788	101.56
365.015	89.56
365.241	94.56
365.468	109.56
365.694	109.56
365.92	96.56
366.147	99.56
366.373	89.56
366.599	106.56
366.826	97.56
367.052	92.56
367.278	103.56
367.505	93.56
367.731	93.56
367.957	98.56
368.184	87.56
368.41	103.56
368.636	102.56
368.862	105.56
369.089	109.56
369.315	104.56
369.541	98.56
369.767	95.56
369.993	107.56
370.219	80.56
370.445	88.56
370.672	104.56
370.898	85.56
371.124	88.56
371.35	97.56
371.576	105.56
371.802	87.56
372.028	100.56
372.254	91.56
372.48	92.56
372.706	93.56
372.932	95.56
373.158	97.56
373.384	97.56
373.61	109.56
373.835	85.56
374.061	97.56
374.287	83.56
374.513	91.56
374.739	96.56
374.965	97.56
375.191	96.56
375.416	95.56
375.642	92.56
375.868	104.56
376.094	91.56
376.319	91.56
376.545	89.56
376.771	89.56
376.997	104.56
377.222	91.56
377.448	86.56
377.674	88.56
377.899	86.56
378.125	94.56
378.35	95.56
378.576	93.56
378.802	89.56
379.027	97.56
379.253	95.56
379.478	83.56
379.704	97.56
379.929	101.56
380.155	108.56
380.38	102.56
380.606	91.56
380.831	98.56
381.057	115.56
381.282	102.56
381.507	103.56
381.733	92.56
381.958	100.56
382.184	111.56
382.409	110.56
382.634	107.56
382.86	101.56
383.085	104.56
383.31	95.56
383.535	98.56
383.761	100.56
383.986	101.56
384.211	111.56
384.436	107.56
384.662	106.56
384.887	112.56
385.112	101.56
385.337	123.56
385.562	119.56
385.787	116.56
386.013	121.56
386.238	125.56
386.463	118.56
386.688	110.56
386.913	97.56
387.138	107.56
387.363	116.56
387.588	109.56
387.813	108.56
388.038	114.56
388.263	117.56
388.488	107.56
388.713	93.56
388.938	91.56
389.163	100.56
389.387	97.56
389.612	95.56
389.837	101.56
390.062	92.56
390.287	106.56
390.512	86.56
390.736	92.56
390.961	81.56
391.186	101.56
391.411	102.56
391.636	73.56
391.86	97.56
392.085	89.56
392.31	80.56
392.534	76.56
392.759	104.56
392.984	92.56
393.208	100.56
393.433	99.56
393.658	107.56
393.882	81.56
394.107	113.56
394.331	90.56
394.556	78.56
394.78	104.56
395.005	97.56
395.229	90.56
395.454	89.56
395.678	90.56
395.903	83.56
396.127	97.56
396.352	84.56
396.576	85.56
396.801	96.56
397.025	100.56
397.249	96.56
397.474	80.56
397.698	87.56
397.922	85.56
398.147	91.56
398.371	88.56
398.595	96.56
398.82	91.56
399.044	92.56
399.268	77.56
399.492	86.56
399.717	88.56
399.941	84.56
400.165	90.56
400.389	101.56
400.613	87.56
400.837	86.56
401.062	95.56
401.286	85.56
401.51	99.56
401.734	100.56
401.958	93.56
402.182	130.56
402.406	153.56
402.63	123.56
402.854	102.56
403.078	94.56
403.302	88.56
403.526	86.56
403.75	89.56
403.974	85.56
404.198	92.56
404.422	102.56
404.645	80.56
404.869	85.56
405.093	116.56
405.317	118.56
405.541	117.56
405.765	117.56
405.988	113.56
406.212	187.56
406.436	247.56
406.66	147.56
406.883	96.56
407.107	91.56
407.331	97.56
407.555	107.56
407.778	109.56
408.002	94.56
408.226	92.56
408.449	107.56
408.673	94.56
408.896	80.56
409.12	97.56
409.344	97.56
409.567	87.56
409.791	98.56
410.014	101.56
410.238	91.56
410.461	89.56
410.685	96.56
410.908	91.56
411.132	106.56
411.355	82.56
411.578	90.56
411.802	85.56
412.025	94.56
412.249	90.56
412.472	102.56
412.695	122.56
412.919	99.56
413.142	89.56
413.365	90.56
413.589	72.56
413.812	101.56
414.035	107.56
414.258	98.56
414.482	90.56
414.705	81.56
414.928	106.56
415.151	99.56
415.374	91.56
415.597	97.56
415.821	84.56
416.044	90.56
416.267	90.56
416.49	100.56
416.713	100.56
416.936	96.56
417.159	94.56
417.382	85.56
417.605	103.56
417.828	102.56
418.051	99.56
418.274	82.56
418.497	94.56
418.72	90.56
418.943	104.56
419.166	85.56
419.389	91.56
419.611	97.56
419.834	91.56
420.057	91.56
420.28	87.56
420.503	98.56
420.726	96.56
420.948	91.56
421.171	100.56
421.394	98.56
421.617	95.56
421.839	104.56
422.062	80.56
422.285	79.56
422.507	86.56
422.73	93.56
422.953	105.56
423.175	95.56
423.398	96.56
423.621	85.56
423.843	91.56
424.066	101.56
424.288	71.56
424.511	77.56
424.733	100.56
424.956	99.56
425.178	109.56
425.401	91.56
425.623	103.56
425.846	92.56
426.068	100.56
426.291	103.56
426.513	94.56
426.735	107.56
426.958	91.56
427.18	104.56
427.402	134.56
427.625	181.56
427.847	162.56
428.069	131.56
428.292	103.56
428.514	80.56
428.736	104.56
428.958	94.56
429.181	79.56
429.403	89.56
429.625	71.56
429.847	98.56
430.069	103.56
430.292	99.56
430.514	86.56
430.736	83.56
430.958	88.56
431.18	94.56
431.402	84.56
431.624	102.56
431.846	85.56
432.068	94.56
432.29	67.56
432.512	94.56
432.734	100.56
432.956	85.56
433.178	99.56
433.4	98.56
433.622	91.56
433.844	98.56
434.066	112.56
434.287	104.56
434.509	101.56
434.731	97.56
434.953	99.56
435.175	94.56
435.397	79.56
435.618	93.56
435.84	116.56
436.062	128.56
436.284	108.56
436.505	109.56
436.727	92.56
436.949	98.56
437.17	96.56
437.392	106.56
437.614	73.56
437.835	107.56
438.057	121.56
438.278	120.56
438.5	101.56
438.721	111.56
438.943	109.56
439.165	101.56
439.386	107.56
439.608	94.56
439.829	103.56
440.05	128.56
440.272	149.56
440.493	109.56
440.715	107.56
440.936	88.56
441.158	98.56
441.379	77.56
441.6	78.56
441.822	96.56
442.043	98.56
442.264	119.56
442.486	96.56
442.707	92.56
442.928	106.56
443.149	132.56
443.371	133.56
443.592	124.56
443.813	115.56
444.034	109.56
444.255	90.56
444.476	95.56
444.698	96.56
444.919	92.56
445.14	123.56
445.361	117.56
445.582	114.56
445.803	153.56
446.024	138.56
446.245	149.56
446.466	122.56
446.687	98.56
446.908	93.56
447.129	84.56
447.35	97.56
447.571	97.56
447.792	104.56
448.013	106.56
448.234	108.56
448.455	107.56
448.675	113.56
448.896	110.56
449.117	103.56
449.338	93.56
449.559	129.56
449.779	144.56
450	101.56
450.221	92.56
450.442	88.56
450.662	86.56
450.883	126.56
451.104	132.56
451.324	97.56
451.545	85.56
451.766	103.56
451.986	83.56
452.207	85.56
452.428	101.56
452.648	106.56
452.869	103.56
453.089	107.56
453.31	119.56
453.53	114.56
453.751	96.56
453.971	112.56
454.192	113.56
454.412	98.56
454.633	89.56
454.853	85.56
455.073	78.56
455.294	93.56
455.514	111.56
455.734	92.56
455.955	105.56
456.175	81.56
456.395	95.56
456.616	96.56
456.836	91.56
457.056	74.56
457.276	87.56
457.497	96.56
457.717	91.56
457.937	91.56
458.157	85.56
458.377	99.56
458.598	113.56
458.818	154.56
459.038	152.56
459.258	123.56
459.478	98.56
459.698	85.56
459.918	95.56
460.138	82.56
460.358	75.56
460.578	105.56
460.798	102.56
461.018	97.56
461.238	94.56
461.458	98.56
461.678	89.56
461.898	104.56
462.118	103.56
462.338	100.56
462.558	81.56
462.777	81.56
462.997	101.56
463.217	95.56
463.437	93.56
463.657	101.56
463.876	96.56
464.096	105.56
464.316	96.56
464.536	97.56
464.755	81.56
464.975	112.56
465.195	153.56
465.414	156.56
465.634	106.56
465.854	104.56
466.073	108.56
466.293	85.56
466.512	101.56
466.732	93.56
466.951	96.56
467.171	88.56
467.391	85.56
467.61	124.56
467.829	125.56
468.049	199.56
468.268	266.56
468.488	113.56
468.707	92.56
468.927	87.56
469.146	88.56
469.365	87.56
469.585	87.56
469.804	98.56
470.023	95.56
470.243	97.56
470.462	105.56
470.681	108.56
470.901	103.56
471.12	88.56
471.339	91.56
471.558	76.56
471.777	96.56
471.997	144.56
472.216	358.56
472.435	645.56
472.654	219.56
472.873	120.56
473.092	95.56
473.311	89.56
473.53	87.56
473.749	93.56
473.968	109.56
474.187	120.56
474.406	103.56
474.625	83.56
474.844	84.56
475.063	91.56
475.282	83.56
475.501	88.56
475.72	90.56
475.939	96.56
476.158	98.56
476.377	88.56
476.596	87.56
476.814	79.56
477.033	89.56
477.252	74.56
477.471	97.56
477.69	90.56
477.908	96.56
478.127	86.56
478.346	88.56
478.564	93.56
478.783	120.56
479.002	101.56
479.22	88.56
479.439	97.56
479.658	115.56
479.876	113.56
480.095	109.56
480.313	95.56
480.532	115.56
480.751	138.56
480.969	343.56
481.188	1157.56
481.406	719.56
481.624	161.56
481.843	87.56
482.061	92.56
482.28	83.56
482.498	86.56
482.717	77.56
482.935	93.56
483.153	81.56
483.372	101.56
483.59	84.56
483.808	102.56
484.027	85.56
484.245	101.56
484.463	100.56
484.681	100.56
484.9	105.56
485.118	83.56
485.336	86.56
485.554	100.56
485.772	96.56
485.99	105.56
486.209	100.56
486.427	116.56
486.645	122.56
486.863	117.56
487.081	116.56
487.299	100.56
487.517	97.56
487.735	102.56
487.953	105.56
488.171	101.56
488.389	98.56
488.607	104.56
488.825	97.56
489.043	78.56
489.261	103.56
489.479	99.56
489.696	93.56
489.914	99.56
490.132	93.56
490.35	105.56
490.568	96.56
490.786	100.56
491.003	98.56
491.221	100.56
491.439	95.56
491.657	93.56
491.874	96.56
492.092	105.56
492.31	88.56
492.527	85.56
492.745	100.56
492.963	101.56
493.18	87.56
493.398	100.56
493.615	104.56
493.833	97.56
494.05	95.56
494.268	106.56
494.485	95.56
494.703	113.56
494.92	101.56
495.138	100.56
495.355	102.56
495.573	109.56
495.79	85.56
496.008	118.56
496.225	93.56
496.442	89.56
496.66	97.56
496.877	91.56
497.094	82.56
497.312	87.56
497.529	97.56
497.746	97.56
497.963	87.56
498.181	95.56
498.398	99.56
498.615	118.56
498.832	102.56
499.049	93.56
499.267	104.56
499.484	87.56
499.701	86.56
499.918	108.56
500.135	103.56
500.352	92.56
500.569	95.56
500.786	91.56
501.003	94.56
501.22	84.56
501.437	97.56
501.654	93.56
501.871	118.56
502.088	90.56
502.305	102.56
502.522	97.56
502.739	88.56
502.956	88.56
503.172	81.56
503.389	96.56
503.606	122.56
503.823	100.56
504.04	96.56
504.256	97.56
504.473	84.56
504.69	96.56
504.907	96.56
505.123	92.56
505.34	95.56
505.557	94.56
505.773	92.56
505.99	81.56
506.207	89.56
506.423	92.56
506.64	94.56
506.856	101.56
507.073	107.56
507.289	96.56
507.506	103.56
507.722	119.56
507.939	107.56
508.155	113.56
508.372	89.56
508.588	96.56
508.805	96.56
509.021	88.56
509.238	111.56
509.454	106.56
509.67	104.56
509.887	115.56
510.103	150.56
510.319	203.56
510.536	718.56
510.752	2290.56
510.968	641.56
511.184	159.56
511.401	129.56
511.617	118.56
511.833	96.56
512.049	83.56
512.265	78.56
512.481	96.56
512.698	101.56
512.914	96.56
513.13	99.56
513.346	108.56
513.562	80.56
