Data from Circ_2000_H10_HRD10591_00079.txt Node
Date: Wed Jan 03 10:49:49 EST 2024
User: Yrep
Spectrometer: HR+D1059
Trigger mode: 1
Integration Time (sec): 1.000000E-1
Scans to average: 1
Electric dark correction enabled: true
Nonlinearity correction enabled: false
Boxcar width: 0
XAxis mode: Wavelengths
Number of Pixels in Spectrum: 2048
>>>>>Begin Spectral Data<<<<<
223.165	-1.12
223.4	-1.12
223.635	-1.12
223.869	2.88
224.104	-21.12
224.338	-21.12
224.573	-3.12
224.808	-15.12
225.042	-11.12
225.277	-14.12
225.511	-16.12
225.746	-8.12
225.98	9.88
226.215	20.88
226.449	16.88
226.683	26.88
226.918	21.88
227.152	11.88
227.387	36.88
227.621	36.88
227.856	51.88
228.09	42.88
228.324	67.88
228.559	54.88
228.793	60.88
229.027	60.88
229.262	48.88
229.496	80.88
229.73	99.88
229.964	94.88
230.199	92.88
230.433	88.88
230.667	74.88
230.901	79.88
231.136	78.88
231.37	75.88
231.604	83.88
231.838	94.88
232.072	77.88
232.306	93.88
232.541	99.88
232.775	98.88
233.009	94.88
233.243	83.88
233.477	87.88
233.711	80.88
233.945	89.88
234.179	79.88
234.413	82.88
234.647	74.88
234.881	83.88
235.115	76.88
235.349	88.88
235.583	97.88
235.817	77.88
236.051	62.88
236.285	85.88
236.519	77.88
236.753	75.88
236.987	82.88
237.221	59.88
237.455	89.88
237.689	85.88
237.922	75.88
238.156	78.88
238.39	82.88
238.624	86.88
238.858	87.88
239.091	79.88
239.325	87.88
239.559	86.88
239.793	88.88
240.027	83.88
240.26	73.88
240.494	92.88
240.728	70.88
240.961	84.88
241.195	74.88
241.429	98.88
241.662	68.88
241.896	86.88
242.13	84.88
242.363	78.88
242.597	84.88
242.83	76.88
243.064	78.88
243.298	73.88
243.531	81.88
243.765	84.88
243.998	86.88
244.232	91.88
244.465	103.88
244.699	82.88
244.932	74.88
245.166	83.88
245.399	79.88
245.633	71.88
245.866	76.88
246.099	97.88
246.333	90.88
246.566	79.88
246.8	76.88
247.033	83.88
247.266	96.88
247.5	78.88
247.733	85.88
247.966	73.88
248.2	90.88
248.433	79.88
248.666	82.88
248.899	87.88
249.133	88.88
249.366	94.88
249.599	95.88
249.832	89.88
250.066	84.88
250.299	95.88
250.532	93.88
250.765	88.88
250.998	92.88
251.231	99.88
251.465	84.88
251.698	77.88
251.931	91.88
252.164	94.88
252.397	97.88
252.63	86.88
252.863	79.88
253.096	72.88
253.329	92.88
253.562	89.88
253.795	83.88
254.028	96.88
254.261	87.88
254.494	78.88
254.727	99.88
254.96	95.88
255.193	82.88
255.426	84.88
255.659	83.88
255.892	90.88
256.124	75.88
256.357	103.88
256.59	86.88
256.823	85.88
257.056	79.88
257.289	78.88
257.521	92.88
257.754	88.88
257.987	83.88
258.22	86.88
258.452	111.88
258.685	98.88
258.918	82.88
259.151	86.88
259.383	86.88
259.616	83.88
259.849	99.88
260.081	96.88
260.314	99.88
260.547	90.88
260.779	96.88
261.012	104.88
261.244	106.88
261.477	99.88
261.71	107.88
261.942	136.88
262.175	136.88
262.407	88.88
262.64	88.88
262.872	91.88
263.105	89.88
263.337	95.88
263.57	81.88
263.802	91.88
264.035	92.88
264.267	84.88
264.499	88.88
264.732	93.88
264.964	85.88
265.197	74.88
265.429	85.88
265.661	84.88
265.894	93.88
266.126	93.88
266.358	85.88
266.591	92.88
266.823	89.88
267.055	96.88
267.287	102.88
267.52	82.88
267.752	99.88
267.984	87.88
268.216	79.88
268.448	103.88
268.681	94.88
268.913	99.88
269.145	82.88
269.377	77.88
269.609	91.88
269.841	89.88
270.073	83.88
270.306	90.88
270.538	86.88
270.77	88.88
271.002	87.88
271.234	99.88
271.466	99.88
271.698	99.88
271.93	93.88
272.162	88.88
272.394	84.88
272.626	86.88
272.858	92.88
273.09	78.88
273.322	67.88
273.553	87.88
273.785	79.88
274.017	92.88
274.249	90.88
274.481	99.88
274.713	84.88
274.945	92.88
275.176	95.88
275.408	103.88
275.64	108.88
275.872	120.88
276.104	108.88
276.335	92.88
276.567	124.88
276.799	135.88
277.031	156.88
277.262	154.88
277.494	131.88
277.726	98.88
277.957	95.88
278.189	94.88
278.421	98.88
278.652	89.88
278.884	98.88
279.115	103.88
279.347	102.88
279.579	107.88
279.81	114.88
280.042	154.88
280.273	204.88
280.505	160.88
280.736	107.88
280.968	103.88
281.199	91.88
281.431	110.88
281.662	89.88
281.894	92.88
282.125	104.88
282.356	137.88
282.588	175.88
282.819	129.88
283.051	80.88
283.282	97.88
283.513	91.88
283.745	74.88
283.976	95.88
284.207	88.88
284.439	89.88
284.67	104.88
284.901	84.88
285.132	87.88
285.364	81.88
285.595	83.88
285.826	87.88
286.057	80.88
286.288	85.88
286.52	87.88
286.751	78.88
286.982	90.88
287.213	103.88
287.444	98.88
287.675	92.88
287.906	92.88
288.138	103.88
288.369	87.88
288.6	86.88
288.831	92.88
289.062	88.88
289.293	85.88
289.524	84.88
289.755	74.88
289.986	92.88
290.217	99.88
290.448	84.88
290.679	98.88
290.91	86.88
291.141	76.88
291.371	96.88
291.602	105.88
291.833	84.88
292.064	112.88
292.295	92.88
292.526	80.88
292.757	88.88
292.987	98.88
293.218	87.88
293.449	89.88
293.68	89.88
293.91	82.88
294.141	89.88
294.372	82.88
294.603	96.88
294.833	84.88
295.064	93.88
295.295	81.88
295.525	94.88
295.756	105.88
295.987	123.88
296.217	186.88
296.448	155.88
296.679	109.88
296.909	94.88
297.14	91.88
297.37	89.88
297.601	97.88
297.831	89.88
298.062	93.88
298.292	99.88
298.523	96.88
298.753	91.88
298.984	92.88
299.214	119.88
299.445	98.88
299.675	91.88
299.905	81.88
300.136	92.88
300.366	90.88
300.597	106.88
300.827	117.88
301.057	99.88
301.288	112.88
301.518	95.88
301.748	90.88
301.979	109.88
302.209	101.88
302.439	114.88
302.669	103.88
302.9	95.88
303.13	100.88
303.36	115.88
303.59	125.88
303.82	118.88
304.051	109.88
304.281	89.88
304.511	96.88
304.741	93.88
304.971	90.88
305.201	104.88
305.431	93.88
305.661	105.88
305.891	96.88
306.121	104.88
306.352	104.88
306.582	123.88
306.812	113.88
307.042	137.88
307.272	140.88
307.502	148.88
307.731	150.88
307.961	136.88
308.191	105.88
308.421	107.88
308.651	94.88
308.881	86.88
309.111	91.88
309.341	96.88
309.571	103.88
309.8	101.88
310.03	94.88
310.26	105.88
310.49	107.88
310.72	118.88
310.949	114.88
311.179	120.88
311.409	90.88
311.639	101.88
311.868	106.88
312.098	101.88
312.328	90.88
312.557	114.88
312.787	126.88
313.017	135.88
313.246	103.88
313.476	100.88
313.706	103.88
313.935	102.88
314.165	107.88
314.394	115.88
314.624	113.88
314.853	101.88
315.083	100.88
315.312	104.88
315.542	95.88
315.771	100.88
316.001	96.88
316.23	95.88
316.46	87.88
316.689	100.88
316.919	79.88
317.148	93.88
317.377	105.88
317.607	90.88
317.836	99.88
318.065	100.88
318.295	95.88
318.524	93.88
318.753	100.88
318.983	95.88
319.212	106.88
319.441	110.88
319.67	117.88
319.9	101.88
320.129	107.88
320.358	92.88
320.587	108.88
320.816	100.88
321.046	123.88
321.275	107.88
321.504	110.88
321.733	100.88
321.962	109.88
322.191	100.88
322.42	118.88
322.649	136.88
322.878	122.88
323.108	134.88
323.337	143.88
323.566	155.88
323.795	181.88
324.024	246.88
324.253	495.88
324.482	1086.88
324.71	2246.88
324.939	2912.88
325.168	1054.88
325.397	310.88
325.626	163.88
325.855	164.88
326.084	145.88
326.313	159.88
326.542	194.88
326.77	280.88
326.999	555.88
327.228	1131.88
327.457	2100.88
327.686	1668.88
327.914	534.88
328.143	440.88
328.372	528.88
328.6	316.88
328.829	185.88
329.058	190.88
329.287	190.88
329.515	164.88
329.744	202.88
329.972	354.88
330.201	714.88
330.43	1043.88
330.658	490.88
330.887	271.88
331.115	188.88
331.344	115.88
331.572	132.88
331.801	117.88
332.03	116.88
332.258	109.88
332.486	108.88
332.715	116.88
332.943	109.88
333.172	110.88
333.4	123.88
333.629	155.88
333.857	206.88
334.085	347.88
334.314	676.88
334.542	1274.88
334.771	1208.88
334.999	332.88
335.227	158.88
335.455	116.88
335.684	127.88
335.912	114.88
336.14	113.88
336.369	104.88
336.597	116.88
336.825	106.88
337.053	91.88
337.281	80.88
337.51	115.88
337.738	94.88
337.966	100.88
338.194	104.88
338.422	111.88
338.65	102.88
338.878	93.88
339.106	103.88
339.334	105.88
339.562	95.88
339.79	98.88
340.018	103.88
340.246	107.88
340.474	103.88
340.702	94.88
340.93	102.88
341.158	80.88
341.386	102.88
341.614	90.88
341.842	108.88
342.07	107.88
342.298	123.88
342.526	96.88
342.754	95.88
342.981	94.88
343.209	89.88
343.437	104.88
343.665	95.88
343.893	100.88
344.12	97.88
344.348	87.88
344.576	94.88
344.804	102.88
345.031	103.88
345.259	104.88
345.487	96.88
345.714	112.88
345.942	97.88
346.17	90.88
346.397	107.88
346.625	85.88
346.853	104.88
347.08	105.88
347.308	102.88
347.535	99.88
347.763	91.88
347.99	101.88
348.218	115.88
348.445	114.88
348.673	113.88
348.9	119.88
349.128	109.88
349.355	80.88
349.583	92.88
349.81	107.88
350.037	100.88
350.265	93.88
350.492	107.88
350.72	111.88
350.947	104.88
351.174	132.88
351.402	109.88
351.629	123.88
351.856	109.88
352.083	104.88
352.311	100.88
352.538	135.88
352.765	116.88
352.992	118.88
353.22	119.88
353.447	125.88
353.674	119.88
353.901	91.88
354.128	89.88
354.355	99.88
354.583	102.88
354.81	98.88
355.037	100.88
355.264	91.88
355.491	92.88
355.718	92.88
355.945	91.88
356.172	97.88
356.399	102.88
356.626	101.88
356.853	85.88
357.08	77.88
357.307	86.88
357.534	79.88
357.761	90.88
357.988	115.88
358.215	100.88
358.441	87.88
358.668	104.88
358.895	86.88
359.122	100.88
359.349	81.88
359.576	96.88
359.802	110.88
360.029	121.88
360.256	145.88
360.483	122.88
360.709	95.88
360.936	88.88
361.163	105.88
361.39	104.88
361.616	102.88
361.843	109.88
362.07	99.88
362.296	103.88
362.523	103.88
362.749	89.88
362.976	100.88
363.203	111.88
363.429	90.88
363.656	92.88
363.882	91.88
364.109	102.88
364.335	98.88
364.562	84.88
364.788	103.88
365.015	104.88
365.241	98.88
365.468	120.88
365.694	124.88
365.92	101.88
366.147	91.88
366.373	93.88
366.599	90.88
366.826	103.88
367.052	94.88
367.278	87.88
367.505	114.88
367.731	95.88
367.957	93.88
368.184	114.88
368.41	114.88
368.636	132.88
368.862	142.88
369.089	115.88
369.315	98.88
369.541	99.88
369.767	104.88
369.993	99.88
370.219	95.88
370.445	97.88
370.672	100.88
370.898	109.88
371.124	93.88
371.35	96.88
371.576	91.88
371.802	99.88
372.028	93.88
372.254	95.88
372.48	89.88
372.706	96.88
372.932	90.88
373.158	90.88
373.384	106.88
373.61	105.88
373.835	100.88
374.061	98.88
374.287	103.88
374.513	88.88
374.739	86.88
374.965	87.88
375.191	85.88
375.416	85.88
375.642	103.88
375.868	94.88
376.094	79.88
376.319	94.88
376.545	86.88
376.771	92.88
376.997	78.88
377.222	90.88
377.448	96.88
377.674	82.88
377.899	80.88
378.125	92.88
378.35	95.88
378.576	90.88
378.802	100.88
379.027	98.88
379.253	74.88
379.478	93.88
379.704	100.88
379.929	95.88
380.155	95.88
380.38	99.88
380.606	86.88
380.831	87.88
381.057	90.88
381.282	93.88
381.507	91.88
381.733	100.88
381.958	96.88
382.184	93.88
382.409	97.88
382.634	103.88
382.86	93.88
383.085	94.88
383.31	103.88
383.535	98.88
383.761	107.88
383.986	103.88
384.211	109.88
384.436	105.88
384.662	88.88
384.887	92.88
385.112	100.88
385.337	89.88
385.562	99.88
385.787	111.88
386.013	104.88
386.238	127.88
386.463	117.88
386.688	110.88
386.913	106.88
387.138	107.88
387.363	110.88
387.588	91.88
387.813	98.88
388.038	108.88
388.263	111.88
388.488	95.88
388.713	78.88
388.938	92.88
389.163	86.88
389.387	91.88
389.612	88.88
389.837	88.88
390.062	83.88
390.287	83.88
390.512	98.88
390.736	84.88
390.961	95.88
391.186	101.88
391.411	90.88
391.636	88.88
391.86	89.88
392.085	94.88
392.31	82.88
392.534	81.88
392.759	96.88
392.984	100.88
393.208	95.88
393.433	90.88
393.658	93.88
393.882	78.88
394.107	82.88
394.331	75.88
394.556	93.88
394.78	90.88
395.005	82.88
395.229	94.88
395.454	102.88
395.678	90.88
395.903	79.88
396.127	97.88
396.352	84.88
396.576	93.88
396.801	86.88
397.025	95.88
397.249	94.88
397.474	88.88
397.698	94.88
397.922	100.88
398.147	92.88
398.371	91.88
398.595	74.88
398.82	91.88
399.044	101.88
399.268	89.88
399.492	89.88
399.717	90.88
399.941	88.88
400.165	99.88
400.389	103.88
400.613	93.88
400.837	80.88
401.062	85.88
401.286	99.88
401.51	86.88
401.734	91.88
401.958	117.88
402.182	154.88
402.406	198.88
402.63	170.88
402.854	109.88
403.078	90.88
403.302	93.88
403.526	87.88
403.75	86.88
403.974	84.88
404.198	88.88
404.422	91.88
404.645	103.88
404.869	98.88
405.093	98.88
405.317	130.88
405.541	125.88
405.765	133.88
405.988	134.88
406.212	216.88
406.436	337.88
406.66	222.88
406.883	131.88
407.107	114.88
407.331	101.88
407.555	103.88
407.778	106.88
408.002	93.88
408.226	96.88
408.449	95.88
408.673	106.88
408.896	100.88
409.12	108.88
409.344	92.88
409.567	86.88
409.791	99.88
410.014	100.88
410.238	95.88
410.461	91.88
410.685	113.88
410.908	107.88
411.132	102.88
411.355	106.88
411.578	101.88
411.802	97.88
412.025	107.88
412.249	105.88
412.472	121.88
412.695	120.88
412.919	108.88
413.142	100.88
413.365	82.88
413.589	93.88
413.812	86.88
414.035	98.88
414.258	86.88
414.482	91.88
414.705	87.88
414.928	87.88
415.151	89.88
415.374	103.88
415.597	92.88
415.821	84.88
416.044	91.88
416.267	96.88
416.49	79.88
416.713	101.88
416.936	89.88
417.159	82.88
417.382	106.88
417.605	118.88
417.828	102.88
418.051	92.88
418.274	97.88
418.497	107.88
418.72	90.88
418.943	86.88
419.166	82.88
419.389	89.88
419.611	90.88
419.834	96.88
420.057	86.88
420.28	90.88
420.503	102.88
420.726	94.88
420.948	102.88
421.171	107.88
421.394	87.88
421.617	97.88
421.839	112.88
422.062	97.88
422.285	100.88
422.507	107.88
422.73	107.88
422.953	107.88
423.175	91.88
423.398	87.88
423.621	102.88
423.843	98.88
424.066	84.88
424.288	96.88
424.511	105.88
424.733	113.88
424.956	134.88
425.178	128.88
425.401	117.88
425.623	107.88
425.846	100.88
426.068	93.88
426.291	88.88
426.513	106.88
426.735	92.88
426.958	99.88
427.18	127.88
427.402	180.88
427.625	252.88
427.847	240.88
428.069	192.88
428.292	116.88
428.514	107.88
428.736	89.88
428.958	96.88
429.181	107.88
429.403	78.88
429.625	82.88
429.847	91.88
430.069	90.88
430.292	103.88
430.514	80.88
430.736	91.88
430.958	103.88
431.18	90.88
431.402	102.88
431.624	100.88
431.846	112.88
432.068	100.88
432.29	95.88
432.512	91.88
432.734	92.88
432.956	109.88
433.178	106.88
433.4	99.88
433.622	90.88
433.844	83.88
434.066	94.88
434.287	91.88
434.509	91.88
434.731	91.88
434.953	100.88
435.175	96.88
435.397	101.88
435.618	102.88
435.84	106.88
436.062	121.88
436.284	125.88
436.505	98.88
436.727	111.88
436.949	93.88
437.17	87.88
437.392	96.88
437.614	106.88
437.835	134.88
438.057	154.88
438.278	125.88
438.5	123.88
438.721	140.88
438.943	117.88
439.165	95.88
439.386	90.88
439.608	96.88
439.829	115.88
440.05	151.88
440.272	176.88
440.493	112.88
440.715	95.88
440.936	95.88
441.158	97.88
441.379	103.88
441.6	110.88
441.822	117.88
442.043	90.88
442.264	133.88
442.486	108.88
442.707	103.88
442.928	130.88
443.149	171.88
443.371	172.88
443.592	124.88
443.813	112.88
444.034	126.88
444.255	93.88
444.476	85.88
444.698	92.88
444.919	96.88
445.14	140.88
445.361	143.88
445.582	134.88
445.803	169.88
446.024	168.88
446.245	168.88
446.466	123.88
446.687	104.88
446.908	92.88
447.129	88.88
447.35	103.88
447.571	109.88
447.792	89.88
448.013	99.88
448.234	118.88
448.455	105.88
448.675	124.88
448.896	120.88
449.117	87.88
449.338	95.88
449.559	148.88
449.779	147.88
450	96.88
450.221	90.88
450.442	98.88
450.662	108.88
450.883	117.88
451.104	152.88
451.324	111.88
451.545	100.88
451.766	86.88
451.986	85.88
452.207	87.88
452.428	97.88
452.648	123.88
452.869	138.88
453.089	133.88
453.31	154.88
453.53	106.88
453.751	104.88
453.971	125.88
454.192	150.88
454.412	108.88
454.633	109.88
454.853	87.88
455.073	100.88
455.294	100.88
455.514	94.88
455.734	86.88
455.955	93.88
456.175	87.88
456.395	77.88
456.616	84.88
456.836	94.88
457.056	81.88
457.276	90.88
457.497	104.88
457.717	87.88
457.937	72.88
458.157	102.88
458.377	127.88
458.598	136.88
458.818	219.88
459.038	241.88
459.258	146.88
459.478	109.88
459.698	104.88
459.918	86.88
460.138	90.88
460.358	93.88
460.578	98.88
460.798	96.88
461.018	99.88
461.238	104.88
461.458	84.88
461.678	88.88
461.898	83.88
462.118	85.88
462.338	85.88
462.558	91.88
462.777	83.88
462.997	94.88
463.217	114.88
463.437	102.88
463.657	110.88
463.876	94.88
464.096	96.88
464.316	106.88
464.536	93.88
464.755	110.88
464.975	119.88
465.195	238.88
465.414	252.88
465.634	111.88
465.854	88.88
466.073	94.88
466.293	85.88
466.512	86.88
466.732	93.88
466.951	99.88
467.171	96.88
467.391	110.88
467.61	141.88
467.829	185.88
468.049	424.88
468.268	609.88
468.488	196.88
468.707	112.88
468.927	94.88
469.146	101.88
469.365	107.88
469.585	110.88
469.804	120.88
470.023	118.88
470.243	105.88
470.462	115.88
470.681	134.88
470.901	129.88
471.12	102.88
471.339	100.88
471.558	119.88
471.777	126.88
471.997	243.88
472.216	804.88
472.435	1810.88
472.654	454.88
472.873	138.88
473.092	121.88
473.311	109.88
473.53	115.88
473.749	105.88
473.968	108.88
474.187	118.88
474.406	112.88
474.625	96.88
474.844	93.88
475.063	79.88
475.282	92.88
475.501	87.88
475.72	99.88
475.939	81.88
476.158	96.88
476.377	86.88
476.596	114.88
476.814	99.88
477.033	99.88
477.252	105.88
477.471	97.88
477.69	108.88
477.908	97.88
478.127	107.88
478.346	107.88
478.564	97.88
478.783	92.88
479.002	106.88
479.22	98.88
479.439	115.88
479.658	130.88
479.876	133.88
480.095	124.88
480.313	123.88
480.532	143.88
480.751	215.88
480.969	728.88
481.188	3078.88
481.406	1817.88
481.624	295.88
481.843	138.88
482.061	98.88
482.28	99.88
482.498	95.88
482.717	88.88
482.935	108.88
483.153	97.88
483.372	95.88
483.59	90.88
483.808	106.88
484.027	80.88
484.245	90.88
484.463	96.88
484.681	104.88
484.9	96.88
485.118	97.88
485.336	99.88
485.554	107.88
485.772	107.88
485.99	111.88
486.209	109.88
486.427	116.88
486.645	116.88
486.863	148.88
487.081	110.88
487.299	109.88
487.517	91.88
487.735	104.88
487.953	102.88
488.171	90.88
488.389	99.88
488.607	121.88
488.825	105.88
489.043	87.88
489.261	92.88
489.479	98.88
489.696	115.88
489.914	84.88
490.132	98.88
490.35	98.88
490.568	87.88
490.786	84.88
491.003	95.88
491.221	101.88
491.439	100.88
491.657	111.88
491.874	96.88
492.092	94.88
492.31	90.88
492.527	87.88
492.745	88.88
492.963	90.88
493.18	102.88
493.398	111.88
493.615	92.88
493.833	88.88
494.05	91.88
494.268	109.88
494.485	96.88
494.703	86.88
494.92	94.88
495.138	88.88
495.355	82.88
495.573	109.88
495.79	90.88
496.008	107.88
496.225	104.88
496.442	100.88
496.66	102.88
496.877	88.88
497.094	91.88
497.312	83.88
497.529	85.88
497.746	92.88
497.963	91.88
498.181	106.88
498.398	100.88
498.615	112.88
498.832	96.88
499.049	101.88
499.267	93.88
499.484	88.88
499.701	91.88
499.918	88.88
500.135	93.88
500.352	96.88
500.569	95.88
500.786	93.88
501.003	91.88
501.22	82.88
501.437	91.88
501.654	97.88
501.871	124.88
502.088	92.88
502.305	105.88
502.522	94.88
502.739	93.88
502.956	100.88
503.172	99.88
503.389	117.88
503.606	119.88
503.823	114.88
504.04	101.88
504.256	93.88
504.473	100.88
504.69	98.88
504.907	104.88
505.123	89.88
505.34	88.88
505.557	92.88
505.773	97.88
505.99	86.88
506.207	94.88
506.423	104.88
506.64	92.88
506.856	89.88
507.073	96.88
507.289	92.88
507.506	110.88
507.722	155.88
507.939	134.88
508.155	111.88
508.372	90.88
508.588	91.88
508.805	97.88
509.021	109.88
509.238	107.88
509.454	96.88
509.67	116.88
509.887	109.88
510.103	155.88
510.319	260.88
510.536	1014.88
510.752	3526.88
510.968	919.88
511.184	183.88
511.401	128.88
511.617	106.88
511.833	106.88
512.049	100.88
