Data from Circ_2000_H10_HRD10591_00091.txt Node
Date: Wed Jan 03 10:49:52 EST 2024
User: Yrep
Spectrometer: HR+D1059
Trigger mode: 1
Integration Time (sec): 1.000000E-1
Scans to average: 1
Electric dark correction enabled: true
Nonlinearity correction enabled: false
Boxcar width: 0
XAxis mode: Wavelengths
Number of Pixels in Spectrum: 2048
>>>>>Begin Spectral Data<<<<<
223.165	-22.75
223.4	-22.75
223.635	-22.75
223.869	-12.75
224.104	-18.75
224.338	-28.75
224.573	-20.75
224.808	-3.75
225.042	2.25
225.277	-0.75
225.511	-7.75
225.746	6.25
225.98	6.25
226.215	9.25
226.449	7.25
226.683	23.25
226.918	30.25
227.152	31.25
227.387	20.25
227.621	41.25
227.856	60.25
228.09	40.25
228.324	37.25
228.559	41.25
228.793	53.25
229.027	66.25
229.262	58.25
229.496	67.25
229.73	114.25
229.964	87.25
230.199	79.25
230.433	70.25
230.667	82.25
230.901	82.25
231.136	90.25
231.37	86.25
231.604	83.25
231.838	81.25
232.072	87.25
232.306	71.25
232.541	89.25
232.775	73.25
233.009	83.25
233.243	79.25
233.477	77.25
233.711	77.25
233.945	86.25
234.179	69.25
234.413	77.25
234.647	73.25
234.881	76.25
235.115	86.25
235.349	85.25
235.583	75.25
235.817	69.25
236.051	72.25
236.285	77.25
236.519	85.25
236.753	73.25
236.987	83.25
237.221	113.25
237.455	94.25
237.689	95.25
237.922	85.25
238.156	80.25
238.39	66.25
238.624	69.25
238.858	79.25
239.091	55.25
239.325	83.25
239.559	100.25
239.793	98.25
240.027	94.25
240.26	84.25
240.494	76.25
240.728	74.25
240.961	89.25
241.195	75.25
241.429	71.25
241.662	82.25
241.896	84.25
242.13	77.25
242.363	71.25
242.597	92.25
242.83	77.25
243.064	85.25
243.298	89.25
243.531	82.25
243.765	81.25
243.998	62.25
244.232	80.25
244.465	82.25
244.699	94.25
244.932	76.25
245.166	66.25
245.399	83.25
245.633	80.25
245.866	75.25
246.099	79.25
246.333	66.25
246.566	81.25
246.8	79.25
247.033	86.25
247.266	83.25
247.5	75.25
247.733	78.25
247.966	75.25
248.2	75.25
248.433	76.25
248.666	74.25
248.899	91.25
249.133	95.25
249.366	122.25
249.599	104.25
249.832	94.25
250.066	75.25
250.299	84.25
250.532	90.25
250.765	91.25
250.998	88.25
251.231	81.25
251.465	97.25
251.698	85.25
251.931	85.25
252.164	62.25
252.397	84.25
252.63	101.25
252.863	84.25
253.096	86.25
253.329	99.25
253.562	85.25
253.795	95.25
254.028	78.25
254.261	75.25
254.494	74.25
254.727	75.25
254.96	74.25
255.193	90.25
255.426	86.25
255.659	81.25
255.892	88.25
256.124	103.25
256.357	90.25
256.59	87.25
256.823	88.25
257.056	84.25
257.289	72.25
257.521	82.25
257.754	77.25
257.987	77.25
258.22	95.25
258.452	82.25
258.685	88.25
258.918	84.25
259.151	98.25
259.383	94.25
259.616	90.25
259.849	80.25
260.081	85.25
260.314	71.25
260.547	80.25
260.779	90.25
261.012	107.25
261.244	111.25
261.477	95.25
261.71	112.25
261.942	140.25
262.175	135.25
262.407	90.25
262.64	91.25
262.872	79.25
263.105	91.25
263.337	93.25
263.57	85.25
263.802	84.25
264.035	92.25
264.267	80.25
264.499	88.25
264.732	89.25
264.964	89.25
265.197	78.25
265.429	83.25
265.661	82.25
265.894	68.25
266.126	85.25
266.358	90.25
266.591	92.25
266.823	79.25
267.055	92.25
267.287	87.25
267.52	92.25
267.752	84.25
267.984	84.25
268.216	86.25
268.448	83.25
268.681	84.25
268.913	91.25
269.145	79.25
269.377	88.25
269.609	87.25
269.841	85.25
270.073	87.25
270.306	87.25
270.538	91.25
270.77	91.25
271.002	81.25
271.234	74.25
271.466	77.25
271.698	93.25
271.93	103.25
272.162	89.25
272.394	86.25
272.626	78.25
272.858	74.25
273.09	87.25
273.322	90.25
273.553	99.25
273.785	81.25
274.017	82.25
274.249	92.25
274.481	69.25
274.713	91.25
274.945	88.25
275.176	101.25
275.408	86.25
275.64	113.25
275.872	115.25
276.104	103.25
276.335	115.25
276.567	129.25
276.799	139.25
277.031	159.25
277.262	169.25
277.494	128.25
277.726	95.25
277.957	79.25
278.189	88.25
278.421	93.25
278.652	100.25
278.884	89.25
279.115	93.25
279.347	91.25
279.579	101.25
279.81	112.25
280.042	181.25
280.273	212.25
280.505	152.25
280.736	92.25
280.968	92.25
281.199	107.25
281.431	100.25
281.662	85.25
281.894	88.25
282.125	100.25
282.356	133.25
282.588	175.25
282.819	137.25
283.051	94.25
283.282	78.25
283.513	89.25
283.745	97.25
283.976	88.25
284.207	76.25
284.439	87.25
284.67	87.25
284.901	91.25
285.132	73.25
285.364	77.25
285.595	98.25
285.826	91.25
286.057	100.25
286.288	78.25
286.52	81.25
286.751	81.25
286.982	81.25
287.213	77.25
287.444	101.25
287.675	82.25
287.906	94.25
288.138	83.25
288.369	90.25
288.6	94.25
288.831	89.25
289.062	95.25
289.293	85.25
289.524	93.25
289.755	89.25
289.986	85.25
290.217	98.25
290.448	98.25
290.679	96.25
290.91	79.25
291.141	94.25
291.371	82.25
291.602	87.25
291.833	104.25
292.064	92.25
292.295	89.25
292.526	83.25
292.757	90.25
292.987	85.25
293.218	92.25
293.449	96.25
293.68	90.25
293.91	89.25
294.141	87.25
294.372	108.25
294.603	94.25
294.833	92.25
295.064	89.25
295.295	90.25
295.525	94.25
295.756	101.25
295.987	139.25
296.217	177.25
296.448	142.25
296.679	95.25
296.909	78.25
297.14	98.25
297.37	100.25
297.601	88.25
297.831	95.25
298.062	81.25
298.292	98.25
298.523	83.25
298.753	95.25
298.984	103.25
299.214	88.25
299.445	102.25
299.675	100.25
299.905	105.25
300.136	113.25
300.366	89.25
300.597	86.25
300.827	99.25
301.057	105.25
301.288	121.25
301.518	106.25
301.748	98.25
301.979	106.25
302.209	94.25
302.439	99.25
302.669	99.25
302.9	109.25
303.13	98.25
303.36	114.25
303.59	137.25
303.82	133.25
304.051	97.25
304.281	82.25
304.511	78.25
304.741	86.25
304.971	96.25
305.201	104.25
305.431	96.25
305.661	94.25
305.891	120.25
306.121	104.25
306.352	117.25
306.582	113.25
306.812	105.25
307.042	117.25
307.272	145.25
307.502	165.25
307.731	151.25
307.961	124.25
308.191	101.25
308.421	90.25
308.651	104.25
308.881	110.25
309.111	89.25
309.341	97.25
309.571	118.25
309.8	104.25
310.03	107.25
310.26	109.25
310.49	111.25
310.72	103.25
310.949	124.25
311.179	117.25
311.409	100.25
311.639	106.25
311.868	107.25
312.098	97.25
312.328	97.25
312.557	117.25
312.787	123.25
313.017	103.25
313.246	93.25
313.476	99.25
313.706	94.25
313.935	122.25
314.165	116.25
314.394	106.25
314.624	104.25
314.853	106.25
315.083	107.25
315.312	99.25
315.542	91.25
315.771	97.25
316.001	95.25
316.23	82.25
316.46	102.25
316.689	85.25
316.919	93.25
317.148	105.25
317.377	113.25
317.607	110.25
317.836	102.25
318.065	101.25
318.295	97.25
318.524	84.25
318.753	101.25
318.983	92.25
319.212	99.25
319.441	124.25
319.67	118.25
319.9	91.25
320.129	98.25
320.358	97.25
320.587	103.25
320.816	109.25
321.046	118.25
321.275	98.25
321.504	104.25
321.733	106.25
321.962	94.25
322.191	117.25
322.42	121.25
322.649	141.25
322.878	118.25
323.108	137.25
323.337	131.25
323.566	173.25
323.795	193.25
324.024	249.25
324.253	523.25
324.482	1100.25
324.71	2355.25
324.939	3107.25
325.168	1113.25
325.397	300.25
325.626	179.25
325.855	161.25
326.084	138.25
326.313	135.25
326.542	199.25
326.77	292.25
326.999	567.25
327.228	1182.25
327.457	2245.25
327.686	1819.25
327.914	577.25
328.143	484.25
328.372	584.25
328.6	316.25
328.829	179.25
329.058	194.25
329.287	192.25
329.515	175.25
329.744	244.25
329.972	409.25
330.201	843.25
330.43	1192.25
330.658	551.25
330.887	276.25
331.115	189.25
331.344	126.25
331.572	124.25
331.801	110.25
332.03	126.25
332.258	110.25
332.486	89.25
332.715	115.25
332.943	118.25
333.172	111.25
333.4	129.25
333.629	147.25
333.857	224.25
334.085	391.25
334.314	807.25
334.542	1482.25
334.771	1436.25
334.999	377.25
335.227	174.25
335.455	135.25
335.684	116.25
335.912	100.25
336.14	93.25
336.369	112.25
336.597	109.25
336.825	107.25
337.053	102.25
337.281	96.25
337.51	92.25
337.738	94.25
337.966	103.25
338.194	101.25
338.422	106.25
338.65	79.25
338.878	96.25
339.106	85.25
339.334	94.25
339.562	110.25
339.79	105.25
340.018	93.25
340.246	93.25
340.474	112.25
340.702	83.25
340.93	108.25
341.158	99.25
341.386	111.25
341.614	103.25
341.842	102.25
342.07	84.25
342.298	92.25
342.526	92.25
342.754	81.25
342.981	93.25
343.209	81.25
343.437	107.25
343.665	94.25
343.893	97.25
344.12	93.25
344.348	87.25
344.576	82.25
344.804	107.25
345.031	111.25
345.259	130.25
345.487	102.25
345.714	95.25
345.942	94.25
346.17	103.25
346.397	95.25
346.625	89.25
346.853	96.25
347.08	98.25
347.308	101.25
347.535	114.25
347.763	116.25
347.99	110.25
348.218	95.25
348.445	127.25
348.673	106.25
348.9	100.25
349.128	93.25
349.355	94.25
349.583	101.25
349.81	101.25
350.037	91.25
350.265	94.25
350.492	90.25
350.72	93.25
350.947	116.25
351.174	135.25
351.402	134.25
351.629	114.25
351.856	117.25
352.083	102.25
352.311	123.25
352.538	118.25
352.765	120.25
352.992	125.25
353.22	123.25
353.447	101.25
353.674	112.25
353.901	92.25
354.128	98.25
354.355	111.25
354.583	107.25
354.81	106.25
355.037	93.25
355.264	92.25
355.491	94.25
355.718	86.25
355.945	91.25
356.172	76.25
356.399	97.25
356.626	94.25
356.853	85.25
357.08	92.25
357.307	85.25
357.534	90.25
357.761	83.25
357.988	99.25
358.215	93.25
358.441	79.25
358.668	105.25
358.895	97.25
359.122	101.25
359.349	92.25
359.576	99.25
359.802	126.25
360.029	147.25
360.256	137.25
360.483	122.25
360.709	87.25
360.936	100.25
361.163	109.25
361.39	102.25
361.616	109.25
361.843	93.25
362.07	89.25
362.296	111.25
362.523	95.25
362.749	96.25
362.976	94.25
363.203	100.25
363.429	89.25
363.656	94.25
363.882	104.25
364.109	87.25
364.335	101.25
364.562	100.25
364.788	106.25
365.015	111.25
365.241	114.25
365.468	126.25
365.694	134.25
365.92	85.25
366.147	95.25
366.373	88.25
366.599	95.25
366.826	105.25
367.052	93.25
367.278	91.25
367.505	105.25
367.731	98.25
367.957	99.25
368.184	106.25
368.41	106.25
368.636	140.25
368.862	145.25
369.089	124.25
369.315	82.25
369.541	97.25
369.767	99.25
369.993	98.25
370.219	103.25
370.445	99.25
370.672	82.25
370.898	108.25
371.124	99.25
371.35	108.25
371.576	114.25
371.802	85.25
372.028	81.25
372.254	83.25
372.48	85.25
372.706	101.25
372.932	77.25
373.158	84.25
373.384	91.25
373.61	95.25
373.835	108.25
374.061	102.25
374.287	82.25
374.513	97.25
374.739	87.25
374.965	96.25
375.191	92.25
375.416	90.25
375.642	83.25
375.868	95.25
376.094	86.25
376.319	97.25
376.545	87.25
376.771	102.25
376.997	91.25
377.222	95.25
377.448	80.25
377.674	97.25
377.899	94.25
378.125	91.25
378.35	98.25
378.576	92.25
378.802	99.25
379.027	94.25
379.253	90.25
379.478	98.25
379.704	86.25
379.929	100.25
380.155	88.25
380.38	90.25
380.606	116.25
380.831	99.25
381.057	89.25
381.282	93.25
381.507	91.25
381.733	87.25
381.958	103.25
382.184	101.25
382.409	93.25
382.634	113.25
382.86	94.25
383.085	95.25
383.31	97.25
383.535	95.25
383.761	93.25
383.986	91.25
384.211	106.25
384.436	91.25
384.662	104.25
384.887	109.25
385.112	106.25
385.337	109.25
385.562	97.25
385.787	108.25
386.013	113.25
386.238	126.25
386.463	114.25
386.688	112.25
386.913	102.25
387.138	96.25
387.363	95.25
387.588	96.25
387.813	93.25
388.038	109.25
388.263	98.25
388.488	107.25
388.713	103.25
388.938	98.25
389.163	90.25
389.387	109.25
389.612	101.25
389.837	94.25
390.062	79.25
390.287	85.25
390.512	100.25
390.736	97.25
390.961	91.25
391.186	86.25
391.411	90.25
391.636	86.25
391.86	72.25
392.085	70.25
392.31	95.25
392.534	85.25
392.759	94.25
392.984	89.25
393.208	87.25
393.433	87.25
393.658	80.25
393.882	88.25
394.107	97.25
394.331	88.25
394.556	92.25
394.78	90.25
395.005	81.25
395.229	93.25
395.454	102.25
395.678	81.25
395.903	78.25
396.127	98.25
396.352	106.25
396.576	87.25
396.801	89.25
397.025	88.25
397.249	71.25
397.474	89.25
397.698	82.25
397.922	85.25
398.147	97.25
398.371	88.25
398.595	90.25
398.82	72.25
399.044	88.25
399.268	90.25
399.492	90.25
399.717	79.25
399.941	94.25
400.165	93.25
400.389	86.25
400.613	90.25
400.837	85.25
401.062	94.25
401.286	104.25
401.51	104.25
401.734	107.25
401.958	104.25
402.182	152.25
402.406	217.25
402.63	134.25
402.854	104.25
403.078	94.25
403.302	85.25
403.526	97.25
403.75	86.25
403.974	88.25
404.198	94.25
404.422	102.25
404.645	83.25
404.869	109.25
405.093	100.25
405.317	141.25
405.541	113.25
405.765	108.25
405.988	147.25
406.212	219.25
406.436	324.25
406.66	215.25
406.883	119.25
407.107	119.25
407.331	110.25
407.555	113.25
407.778	101.25
408.002	92.25
408.226	99.25
408.449	88.25
408.673	107.25
408.896	107.25
409.12	105.25
409.344	83.25
409.567	94.25
409.791	94.25
410.014	96.25
410.238	108.25
410.461	102.25
410.685	89.25
410.908	90.25
411.132	99.25
411.355	101.25
411.578	80.25
411.802	83.25
412.025	87.25
412.249	95.25
412.472	112.25
412.695	129.25
412.919	117.25
413.142	101.25
413.365	100.25
413.589	90.25
413.812	86.25
414.035	84.25
414.258	95.25
414.482	92.25
414.705	95.25
414.928	99.25
415.151	95.25
415.374	104.25
415.597	81.25
415.821	96.25
416.044	101.25
416.267	93.25
416.49	104.25
416.713	88.25
416.936	104.25
417.159	98.25
417.382	97.25
417.605	115.25
417.828	116.25
418.051	109.25
418.274	95.25
418.497	99.25
418.72	83.25
418.943	95.25
419.166	86.25
419.389	89.25
419.611	79.25
419.834	90.25
420.057	99.25
420.28	111.25
420.503	101.25
420.726	91.25
420.948	105.25
421.171	108.25
421.394	105.25
421.617	85.25
421.839	86.25
422.062	97.25
422.285	101.25
422.507	87.25
422.73	110.25
422.953	104.25
423.175	99.25
423.398	95.25
423.621	97.25
423.843	88.25
424.066	73.25
424.288	86.25
424.511	114.25
424.733	107.25
424.956	103.25
425.178	118.25
425.401	121.25
425.623	116.25
425.846	91.25
426.068	97.25
426.291	91.25
426.513	93.25
426.735	92.25
426.958	108.25
427.18	131.25
427.402	169.25
427.625	286.25
427.847	230.25
428.069	206.25
428.292	121.25
428.514	90.25
428.736	79.25
428.958	88.25
429.181	90.25
429.403	82.25
429.625	90.25
429.847	108.25
430.069	110.25
430.292	93.25
430.514	106.25
430.736	87.25
430.958	90.25
431.18	86.25
431.402	105.25
431.624	97.25
431.846	85.25
432.068	94.25
432.29	79.25
432.512	94.25
432.734	84.25
432.956	97.25
433.178	106.25
433.4	109.25
433.622	92.25
433.844	106.25
434.066	109.25
434.287	85.25
434.509	83.25
434.731	99.25
434.953	96.25
435.175	88.25
435.397	95.25
435.618	99.25
435.84	121.25
436.062	154.25
436.284	150.25
436.505	120.25
436.727	106.25
436.949	105.25
437.17	98.25
437.392	99.25
437.614	109.25
437.835	138.25
438.057	166.25
438.278	134.25
438.5	117.25
438.721	140.25
438.943	106.25
439.165	110.25
439.386	96.25
439.608	102.25
439.829	103.25
440.05	171.25
440.272	199.25
440.493	122.25
440.715	102.25
440.936	93.25
441.158	102.25
441.379	88.25
441.6	95.25
441.822	105.25
442.043	97.25
442.264	118.25
442.486	112.25
442.707	99.25
442.928	116.25
443.149	174.25
443.371	169.25
443.592	157.25
443.813	144.25
444.034	125.25
444.255	95.25
444.476	99.25
444.698	69.25
444.919	103.25
445.14	138.25
445.361	132.25
445.582	132.25
445.803	191.25
446.024	187.25
446.245	165.25
446.466	135.25
446.687	100.25
446.908	93.25
447.129	86.25
447.35	89.25
447.571	101.25
447.792	103.25
448.013	107.25
448.234	119.25
448.455	104.25
448.675	134.25
448.896	143.25
449.117	131.25
449.338	111.25
449.559	135.25
449.779	157.25
450	104.25
450.221	95.25
450.442	94.25
450.662	117.25
450.883	133.25
451.104	147.25
451.324	120.25
451.545	93.25
451.766	91.25
451.986	101.25
452.207	90.25
452.428	99.25
452.648	112.25
452.869	114.25
453.089	132.25
453.31	138.25
453.53	107.25
453.751	98.25
453.971	118.25
454.192	136.25
454.412	111.25
454.633	90.25
454.853	112.25
455.073	89.25
455.294	99.25
455.514	107.25
455.734	100.25
455.955	93.25
456.175	95.25
456.395	79.25
456.616	78.25
456.836	88.25
457.056	87.25
457.276	98.25
457.497	99.25
457.717	93.25
457.937	99.25
458.157	95.25
458.377	93.25
458.598	131.25
458.818	242.25
459.038	251.25
459.258	174.25
459.478	98.25
459.698	82.25
459.918	90.25
460.138	87.25
460.358	83.25
460.578	86.25
460.798	101.25
461.018	105.25
461.238	90.25
461.458	87.25
461.678	88.25
461.898	87.25
462.118	82.25
462.338	88.25
462.558	98.25
462.777	88.25
462.997	97.25
463.217	107.25
463.437	87.25
463.657	86.25
463.876	99.25
464.096	98.25
464.316	98.25
464.536	112.25
464.755	110.25
464.975	121.25
465.195	243.25
465.414	244.25
465.634	111.25
465.854	94.25
466.073	95.25
466.293	99.25
466.512	86.25
466.732	95.25
466.951	108.25
467.171	102.25
467.391	101.25
467.61	138.25
467.829	201.25
468.049	477.25
468.268	676.25
468.488	197.25
468.707	94.25
468.927	89.25
469.146	83.25
469.365	100.25
469.585	99.25
469.804	115.25
470.023	116.25
470.243	111.25
470.462	128.25
470.681	143.25
470.901	113.25
471.12	99.25
471.339	116.25
471.558	115.25
471.777	139.25
471.997	249.25
472.216	935.25
472.435	2068.25
472.654	495.25
472.873	165.25
473.092	108.25
473.311	113.25
473.53	93.25
473.749	94.25
473.968	112.25
474.187	134.25
474.406	114.25
474.625	105.25
474.844	75.25
475.063	90.25
475.282	102.25
475.501	82.25
475.72	102.25
475.939	99.25
476.158	98.25
476.377	95.25
476.596	99.25
476.814	100.25
477.033	101.25
477.252	107.25
477.471	110.25
477.69	103.25
477.908	102.25
478.127	106.25
478.346	104.25
478.564	109.25
478.783	115.25
479.002	113.25
479.22	106.25
479.439	146.25
479.658	137.25
479.876	127.25
480.095	119.25
480.313	125.25
480.532	168.25
480.751	262.25
480.969	841.25
481.188	3561.25
481.406	2087.25
481.624	330.25
481.843	134.25
482.061	110.25
482.28	100.25
482.498	110.25
482.717	101.25
482.935	87.25
483.153	103.25
483.372	94.25
483.59	100.25
483.808	85.25
484.027	90.25
484.245	104.25
484.463	89.25
484.681	100.25
484.9	88.25
485.118	92.25
485.336	102.25
485.554	107.25
485.772	105.25
485.99	114.25
486.209	110.25
486.427	103.25
486.645	134.25
486.863	115.25
487.081	109.25
487.299	97.25
487.517	110.25
487.735	94.25
487.953	88.25
488.171	101.25
488.389	96.25
488.607	111.25
488.825	76.25
489.043	106.25
489.261	109.25
489.479	91.25
489.696	86.25
489.914	84.25
490.132	82.25
490.35	94.25
490.568	102.25
490.786	107.25
491.003	94.25
491.221	94.25
491.439	85.25
491.657	101.25
491.874	94.25
492.092	101.25
492.31	99.25
492.527	101.25
492.745	100.25
492.963	93.25
493.18	99.25
493.398	110.25
493.615	103.25
493.833	99.25
494.05	100.25
494.268	97.25
494.485	100.25
494.703	91.25
494.92	88.25
495.138	99.25
495.355	96.25
495.573	97.25
495.79	89.25
496.008	94.25
496.225	110.25
496.442	103.25
496.66	87.25
496.877	80.25
497.094	97.25
497.312	89.25
497.529	106.25
497.746	93.25
497.963	103.25
498.181	93.25
498.398	99.25
498.615	111.25
498.832	126.25
499.049	87.25
499.267	100.25
499.484	104.25
499.701	91.25
499.918	93.25
500.135	87.25
500.352	89.25
500.569	106.25
500.786	106.25
501.003	91.25
501.22	82.25
501.437	98.25
501.654	87.25
501.871	123.25
502.088	81.25
502.305	100.25
502.522	94.25
502.739	95.25
502.956	95.25
503.172	101.25
503.389	98.25
503.606	116.25
503.823	117.25
504.04	103.25
504.256	94.25
504.473	101.25
504.69	91.25
504.907	94.25
505.123	97.25
505.34	91.25
505.557	90.25
505.773	98.25
505.99	95.25
506.207	93.25
506.423	97.25
506.64	100.25
506.856	108.25
507.073	87.25
507.289	102.25
507.506	102.25
507.722	154.25
507.939	153.25
508.155	106.25
508.372	105.25
508.588	102.25
508.805	102.25
509.021	103.25
509.238	114.25
509.454	111.25
509.67	115.25
509.887	126.25
510.103	147.25
510.319	265.25
510.536	992.25
510.752	3521.25
510.968	932.25
511.184	191.25
511.401	124.25
511.617	107.25
511.833	122.25
512.049	111.25
