Data from Circ_2000_H10_HRD10591_00088.txt Node
Date: Wed Jan 03 10:49:51 EST 2024
User: Yrep
Spectrometer: HR+D1059
Trigger mode: 1
Integration Time (sec): 1.000000E-1
Scans to average: 1
Electric dark correction enabled: true
Nonlinearity correction enabled: false
Boxcar width: 0
XAxis mode: Wavelengths
Number of Pixels in Spectrum: 2048
>>>>>Begin Spectral Data<<<<<
223.165	-18.06
223.4	-18.06
223.635	-18.06
223.869	-23.06
224.104	-16.06
224.338	-14.06
224.573	-10.06
224.808	-2.06
225.042	-10.06
225.277	-6.06
225.511	-2.06
225.746	-0.06
225.98	14.94
226.215	6.94
226.449	4.94
226.683	23.94
226.918	20.94
227.152	29.94
227.387	32.94
227.621	33.94
227.856	53.94
228.09	39.94
228.324	39.94
228.559	54.94
228.793	59.94
229.027	75.94
229.262	81.94
229.496	69.94
229.73	91.94
229.964	92.94
230.199	92.94
230.433	75.94
230.667	80.94
230.901	87.94
231.136	77.94
231.37	91.94
231.604	83.94
231.838	81.94
232.072	73.94
232.306	82.94
232.541	74.94
232.775	77.94
233.009	84.94
233.243	83.94
233.477	77.94
233.711	83.94
233.945	83.94
234.179	65.94
234.413	68.94
234.647	69.94
234.881	58.94
235.115	71.94
235.349	73.94
235.583	74.94
235.817	74.94
236.051	68.94
236.285	65.94
236.519	71.94
236.753	73.94
236.987	86.94
237.221	88.94
237.455	90.94
237.689	73.94
237.922	76.94
238.156	73.94
238.39	75.94
238.624	84.94
238.858	73.94
239.091	77.94
239.325	61.94
239.559	75.94
239.793	70.94
240.027	85.94
240.26	85.94
240.494	76.94
240.728	77.94
240.961	86.94
241.195	88.94
241.429	77.94
241.662	78.94
241.896	81.94
242.13	84.94
242.363	83.94
242.597	71.94
242.83	68.94
243.064	80.94
243.298	76.94
243.531	71.94
243.765	88.94
243.998	80.94
244.232	87.94
244.465	87.94
244.699	80.94
244.932	69.94
245.166	70.94
245.399	76.94
245.633	69.94
245.866	76.94
246.099	74.94
246.333	80.94
246.566	85.94
246.8	83.94
247.033	72.94
247.266	73.94
247.5	84.94
247.733	75.94
247.966	85.94
248.2	74.94
248.433	71.94
248.666	81.94
248.899	81.94
249.133	97.94
249.366	117.94
249.599	104.94
249.832	99.94
250.066	81.94
250.299	85.94
250.532	84.94
250.765	102.94
250.998	83.94
251.231	86.94
251.465	84.94
251.698	84.94
251.931	84.94
252.164	81.94
252.397	65.94
252.63	67.94
252.863	78.94
253.096	74.94
253.329	88.94
253.562	83.94
253.795	74.94
254.028	91.94
254.261	85.94
254.494	81.94
254.727	77.94
254.96	77.94
255.193	87.94
255.426	82.94
255.659	72.94
255.892	75.94
256.124	88.94
256.357	86.94
256.59	88.94
256.823	89.94
257.056	78.94
257.289	71.94
257.521	91.94
257.754	86.94
257.987	82.94
258.22	104.94
258.452	93.94
258.685	79.94
258.918	63.94
259.151	83.94
259.383	85.94
259.616	77.94
259.849	85.94
260.081	90.94
260.314	91.94
260.547	79.94
260.779	97.94
261.012	93.94
261.244	95.94
261.477	100.94
261.71	102.94
261.942	130.94
262.175	149.94
262.407	89.94
262.64	85.94
262.872	92.94
263.105	91.94
263.337	91.94
263.57	93.94
263.802	96.94
264.035	91.94
264.267	92.94
264.499	84.94
264.732	76.94
264.964	89.94
265.197	75.94
265.429	86.94
265.661	90.94
265.894	87.94
266.126	96.94
266.358	96.94
266.591	83.94
266.823	76.94
267.055	85.94
267.287	76.94
267.52	79.94
267.752	75.94
267.984	86.94
268.216	79.94
268.448	87.94
268.681	78.94
268.913	74.94
269.145	86.94
269.377	87.94
269.609	92.94
269.841	89.94
270.073	76.94
270.306	75.94
270.538	81.94
270.77	76.94
271.002	82.94
271.234	89.94
271.466	104.94
271.698	89.94
271.93	77.94
272.162	91.94
272.394	76.94
272.626	92.94
272.858	77.94
273.09	80.94
273.322	84.94
273.553	79.94
273.785	92.94
274.017	82.94
274.249	84.94
274.481	79.94
274.713	90.94
274.945	97.94
275.176	96.94
275.408	88.94
275.64	103.94
275.872	98.94
276.104	85.94
276.335	108.94
276.567	132.94
276.799	148.94
277.031	162.94
277.262	154.94
277.494	122.94
277.726	80.94
277.957	78.94
278.189	88.94
278.421	83.94
278.652	94.94
278.884	96.94
279.115	90.94
279.347	93.94
279.579	101.94
279.81	122.94
280.042	172.94
280.273	230.94
280.505	162.94
280.736	97.94
280.968	83.94
281.199	106.94
281.431	77.94
281.662	92.94
281.894	99.94
282.125	113.94
282.356	142.94
282.588	188.94
282.819	132.94
283.051	88.94
283.282	97.94
283.513	72.94
283.745	86.94
283.976	79.94
284.207	92.94
284.439	84.94
284.67	82.94
284.901	88.94
285.132	75.94
285.364	72.94
285.595	76.94
285.826	84.94
286.057	89.94
286.288	86.94
286.52	78.94
286.751	89.94
286.982	83.94
287.213	77.94
287.444	91.94
287.675	99.94
287.906	111.94
288.138	93.94
288.369	107.94
288.6	97.94
288.831	91.94
289.062	89.94
289.293	96.94
289.524	82.94
289.755	82.94
289.986	84.94
290.217	72.94
290.448	90.94
290.679	76.94
290.91	76.94
291.141	80.94
291.371	82.94
291.602	83.94
291.833	94.94
292.064	85.94
292.295	85.94
292.526	92.94
292.757	72.94
292.987	95.94
293.218	86.94
293.449	79.94
293.68	89.94
293.91	96.94
294.141	85.94
294.372	106.94
294.603	101.94
294.833	84.94
295.064	75.94
295.295	83.94
295.525	98.94
295.756	101.94
295.987	119.94
296.217	170.94
296.448	136.94
296.679	109.94
296.909	97.94
297.14	90.94
297.37	88.94
297.601	88.94
297.831	91.94
298.062	112.94
298.292	97.94
298.523	85.94
298.753	98.94
298.984	91.94
299.214	88.94
299.445	94.94
299.675	110.94
299.905	99.94
300.136	87.94
300.366	74.94
300.597	93.94
300.827	93.94
301.057	105.94
301.288	116.94
301.518	93.94
301.748	88.94
301.979	114.94
302.209	99.94
302.439	98.94
302.669	94.94
302.9	95.94
303.13	101.94
303.36	101.94
303.59	144.94
303.82	152.94
304.051	103.94
304.281	89.94
304.511	91.94
304.741	102.94
304.971	86.94
305.201	95.94
305.431	89.94
305.661	83.94
305.891	100.94
306.121	92.94
306.352	116.94
306.582	124.94
306.812	91.94
307.042	104.94
307.272	141.94
307.502	171.94
307.731	146.94
307.961	124.94
308.191	91.94
308.421	93.94
308.651	93.94
308.881	96.94
309.111	101.94
309.341	107.94
309.571	106.94
309.8	100.94
310.03	107.94
310.26	97.94
310.49	99.94
310.72	120.94
310.949	103.94
311.179	123.94
311.409	113.94
311.639	106.94
311.868	96.94
312.098	108.94
312.328	113.94
312.557	106.94
312.787	116.94
313.017	107.94
313.246	101.94
313.476	91.94
313.706	88.94
313.935	85.94
314.165	109.94
314.394	106.94
314.624	120.94
314.853	114.94
315.083	102.94
315.312	88.94
315.542	93.94
315.771	99.94
316.001	100.94
316.23	89.94
316.46	109.94
316.689	104.94
316.919	104.94
317.148	108.94
317.377	88.94
317.607	93.94
317.836	101.94
318.065	96.94
318.295	90.94
318.524	87.94
318.753	96.94
318.983	102.94
319.212	97.94
319.441	104.94
319.67	117.94
319.9	104.94
320.129	104.94
320.358	116.94
320.587	98.94
320.816	89.94
321.046	102.94
321.275	111.94
321.504	106.94
321.733	98.94
321.962	103.94
322.191	109.94
322.42	109.94
322.649	119.94
322.878	125.94
323.108	138.94
323.337	151.94
323.566	155.94
323.795	199.94
324.024	276.94
324.253	549.94
324.482	1231.94
324.71	2551.94
324.939	3372.94
325.168	1192.94
325.397	342.94
325.626	175.94
325.855	156.94
326.084	146.94
326.313	147.94
326.542	178.94
326.77	298.94
326.999	623.94
327.228	1267.94
327.457	2429.94
327.686	1956.94
327.914	604.94
328.143	492.94
328.372	611.94
328.6	349.94
328.829	196.94
329.058	217.94
329.287	214.94
329.515	178.94
329.744	233.94
329.972	403.94
330.201	799.94
330.43	1192.94
330.658	539.94
330.887	294.94
331.115	210.94
331.344	132.94
331.572	119.94
331.801	137.94
332.03	130.94
332.258	116.94
332.486	114.94
332.715	114.94
332.943	105.94
333.172	114.94
333.4	119.94
333.629	147.94
333.857	215.94
334.085	389.94
334.314	779.94
334.542	1520.94
334.771	1469.94
334.999	389.94
335.227	171.94
335.455	119.94
335.684	120.94
335.912	101.94
336.14	109.94
336.369	101.94
336.597	125.94
336.825	107.94
337.053	98.94
337.281	90.94
337.51	105.94
337.738	94.94
337.966	108.94
338.194	93.94
338.422	101.94
338.65	111.94
338.878	92.94
339.106	74.94
339.334	89.94
339.562	96.94
339.79	85.94
340.018	105.94
340.246	97.94
340.474	103.94
340.702	94.94
340.93	92.94
341.158	83.94
341.386	91.94
341.614	116.94
341.842	102.94
342.07	105.94
342.298	96.94
342.526	96.94
342.754	84.94
342.981	89.94
343.209	83.94
343.437	99.94
343.665	92.94
343.893	92.94
344.12	91.94
344.348	99.94
344.576	95.94
344.804	103.94
345.031	108.94
345.259	112.94
345.487	111.94
345.714	102.94
345.942	97.94
346.17	95.94
346.397	92.94
346.625	94.94
346.853	92.94
347.08	99.94
347.308	103.94
347.535	103.94
347.763	111.94
347.99	99.94
348.218	110.94
348.445	110.94
348.673	120.94
348.9	106.94
349.128	107.94
349.355	70.94
349.583	92.94
349.81	105.94
350.037	91.94
350.265	76.94
350.492	93.94
350.72	113.94
350.947	105.94
351.174	127.94
351.402	131.94
351.629	111.94
351.856	99.94
352.083	112.94
352.311	116.94
352.538	128.94
352.765	125.94
352.992	121.94
353.22	124.94
353.447	101.94
353.674	109.94
353.901	100.94
354.128	87.94
354.355	86.94
354.583	97.94
354.81	105.94
355.037	84.94
355.264	88.94
355.491	99.94
355.718	85.94
355.945	85.94
356.172	86.94
356.399	94.94
356.626	97.94
356.853	97.94
357.08	88.94
357.307	84.94
357.534	88.94
357.761	100.94
357.988	91.94
358.215	87.94
358.441	92.94
358.668	88.94
358.895	98.94
359.122	83.94
359.349	76.94
359.576	93.94
359.802	113.94
360.029	129.94
360.256	138.94
360.483	120.94
360.709	97.94
360.936	96.94
361.163	112.94
361.39	103.94
361.616	100.94
361.843	99.94
362.07	113.94
362.296	106.94
362.523	103.94
362.749	97.94
362.976	97.94
363.203	96.94
363.429	93.94
363.656	95.94
363.882	102.94
364.109	90.94
364.335	101.94
364.562	103.94
364.788	100.94
365.015	105.94
365.241	123.94
365.468	122.94
365.694	121.94
365.92	104.94
366.147	94.94
366.373	98.94
366.599	96.94
366.826	85.94
367.052	81.94
367.278	90.94
367.505	98.94
367.731	97.94
367.957	83.94
368.184	96.94
368.41	90.94
368.636	131.94
368.862	132.94
369.089	123.94
369.315	95.94
369.541	101.94
369.767	84.94
369.993	85.94
370.219	103.94
370.445	86.94
370.672	87.94
370.898	95.94
371.124	89.94
371.35	95.94
371.576	89.94
371.802	86.94
372.028	84.94
372.254	99.94
372.48	82.94
372.706	65.94
372.932	90.94
373.158	93.94
373.384	80.94
373.61	84.94
373.835	84.94
374.061	82.94
374.287	96.94
374.513	90.94
374.739	94.94
374.965	86.94
375.191	82.94
375.416	72.94
375.642	96.94
375.868	84.94
376.094	82.94
376.319	92.94
376.545	76.94
376.771	91.94
376.997	85.94
377.222	90.94
377.448	103.94
377.674	75.94
377.899	83.94
378.125	91.94
378.35	89.94
378.576	86.94
378.802	99.94
379.027	101.94
379.253	84.94
379.478	73.94
379.704	88.94
379.929	95.94
380.155	93.94
380.38	83.94
380.606	76.94
380.831	86.94
381.057	100.94
381.282	83.94
381.507	103.94
381.733	98.94
381.958	93.94
382.184	98.94
382.409	95.94
382.634	93.94
382.86	78.94
383.085	113.94
383.31	105.94
383.535	84.94
383.761	96.94
383.986	92.94
384.211	96.94
384.436	105.94
384.662	99.94
384.887	91.94
385.112	90.94
385.337	97.94
385.562	91.94
385.787	108.94
386.013	105.94
386.238	112.94
386.463	104.94
386.688	96.94
386.913	95.94
387.138	109.94
387.363	103.94
387.588	93.94
387.813	101.94
388.038	93.94
388.263	88.94
388.488	83.94
388.713	105.94
388.938	90.94
389.163	108.94
389.387	88.94
389.612	85.94
389.837	93.94
390.062	100.94
390.287	94.94
390.512	86.94
390.736	81.94
390.961	92.94
391.186	92.94
391.411	93.94
391.636	100.94
391.86	92.94
392.085	76.94
392.31	75.94
392.534	83.94
392.759	96.94
392.984	87.94
393.208	80.94
393.433	87.94
393.658	91.94
393.882	85.94
394.107	100.94
394.331	70.94
394.556	90.94
394.78	93.94
395.005	88.94
395.229	89.94
395.454	94.94
395.678	95.94
395.903	81.94
396.127	88.94
396.352	76.94
396.576	93.94
396.801	93.94
397.025	89.94
397.249	89.94
397.474	91.94
397.698	88.94
397.922	81.94
398.147	85.94
398.371	81.94
398.595	72.94
398.82	86.94
399.044	75.94
399.268	84.94
399.492	86.94
399.717	97.94
399.941	86.94
400.165	102.94
400.389	101.94
400.613	84.94
400.837	79.94
401.062	84.94
401.286	97.94
401.51	96.94
401.734	103.94
401.958	110.94
402.182	167.94
402.406	218.94
402.63	154.94
402.854	104.94
403.078	93.94
403.302	75.94
403.526	101.94
403.75	90.94
403.974	87.94
404.198	75.94
404.422	68.94
404.645	85.94
404.869	85.94
405.093	116.94
405.317	133.94
405.541	144.94
405.765	120.94
405.988	133.94
406.212	232.94
406.436	355.94
406.66	209.94
406.883	122.94
407.107	108.94
407.331	106.94
407.555	113.94
407.778	115.94
408.002	87.94
408.226	99.94
408.449	79.94
408.673	99.94
408.896	100.94
409.12	103.94
409.344	93.94
409.567	86.94
409.791	90.94
410.014	85.94
410.238	90.94
410.461	93.94
410.685	89.94
410.908	93.94
411.132	96.94
411.355	98.94
411.578	96.94
411.802	76.94
412.025	85.94
412.249	98.94
412.472	127.94
412.695	118.94
412.919	113.94
413.142	100.94
413.365	85.94
413.589	71.94
413.812	92.94
414.035	86.94
414.258	94.94
414.482	91.94
414.705	79.94
414.928	80.94
415.151	82.94
415.374	91.94
415.597	93.94
415.821	97.94
416.044	97.94
416.267	90.94
416.49	91.94
416.713	77.94
416.936	91.94
417.159	90.94
417.382	84.94
417.605	83.94
417.828	103.94
418.051	106.94
418.274	90.94
418.497	89.94
418.72	86.94
418.943	78.94
419.166	90.94
419.389	81.94
419.611	95.94
419.834	83.94
420.057	88.94
420.28	94.94
420.503	86.94
420.726	103.94
420.948	97.94
421.171	90.94
421.394	87.94
421.617	87.94
421.839	79.94
422.062	84.94
422.285	96.94
422.507	89.94
422.73	129.94
422.953	99.94
423.175	80.94
423.398	86.94
423.621	93.94
423.843	91.94
424.066	98.94
424.288	93.94
424.511	77.94
424.733	101.94
424.956	110.94
425.178	120.94
425.401	104.94
425.623	102.94
425.846	95.94
426.068	102.94
426.291	99.94
426.513	107.94
426.735	85.94
426.958	96.94
427.18	109.94
427.402	175.94
427.625	269.94
427.847	255.94
428.069	203.94
428.292	117.94
428.514	93.94
428.736	95.94
428.958	87.94
429.181	84.94
429.403	93.94
429.625	99.94
429.847	87.94
430.069	94.94
430.292	90.94
430.514	86.94
430.736	92.94
430.958	80.94
431.18	64.94
431.402	81.94
431.624	92.94
431.846	77.94
432.068	83.94
432.29	87.94
432.512	81.94
432.734	83.94
432.956	85.94
433.178	99.94
433.4	105.94
433.622	88.94
433.844	89.94
434.066	82.94
434.287	98.94
434.509	77.94
434.731	79.94
434.953	79.94
435.175	96.94
435.397	91.94
435.618	83.94
435.84	92.94
436.062	134.94
436.284	137.94
436.505	101.94
436.727	109.94
436.949	92.94
437.17	84.94
437.392	80.94
437.614	97.94
437.835	127.94
438.057	163.94
438.278	142.94
438.5	114.94
438.721	144.94
438.943	118.94
439.165	108.94
439.386	82.94
439.608	112.94
439.829	111.94
440.05	145.94
440.272	193.94
440.493	123.94
440.715	89.94
440.936	92.94
441.158	84.94
441.379	84.94
441.6	115.94
441.822	107.94
442.043	99.94
442.264	122.94
442.486	108.94
442.707	104.94
442.928	118.94
443.149	171.94
443.371	171.94
443.592	129.94
443.813	131.94
444.034	114.94
444.255	99.94
444.476	98.94
444.698	76.94
444.919	96.94
445.14	136.94
445.361	145.94
445.582	151.94
445.803	181.94
446.024	180.94
446.245	171.94
446.466	140.94
446.687	99.94
446.908	83.94
447.129	91.94
447.35	92.94
447.571	101.94
447.792	106.94
448.013	112.94
448.234	112.94
448.455	98.94
448.675	127.94
448.896	147.94
449.117	113.94
449.338	98.94
449.559	156.94
449.779	143.94
450	94.94
450.221	87.94
450.442	107.94
450.662	100.94
450.883	145.94
451.104	148.94
451.324	109.94
451.545	89.94
451.766	84.94
451.986	78.94
452.207	89.94
452.428	98.94
452.648	118.94
452.869	129.94
453.089	147.94
453.31	174.94
453.53	102.94
453.751	106.94
453.971	121.94
454.192	141.94
454.412	86.94
454.633	81.94
454.853	77.94
455.073	103.94
455.294	109.94
455.514	108.94
455.734	95.94
455.955	98.94
456.175	82.94
456.395	89.94
456.616	83.94
456.836	87.94
457.056	80.94
457.276	83.94
457.497	90.94
457.717	92.94
457.937	99.94
458.157	89.94
458.377	101.94
458.598	124.94
458.818	209.94
459.038	259.94
459.258	154.94
459.478	99.94
459.698	95.94
459.918	98.94
460.138	88.94
460.358	84.94
460.578	85.94
460.798	93.94
461.018	85.94
461.238	72.94
461.458	83.94
461.678	65.94
461.898	103.94
462.118	100.94
462.338	86.94
462.558	85.94
462.777	88.94
462.997	83.94
463.217	91.94
463.437	108.94
463.657	90.94
463.876	100.94
464.096	93.94
464.316	107.94
464.536	122.94
464.755	108.94
464.975	129.94
465.195	251.94
465.414	263.94
465.634	113.94
465.854	77.94
466.073	101.94
466.293	79.94
466.512	85.94
466.732	92.94
466.951	94.94
467.171	96.94
467.391	118.94
467.61	144.94
467.829	204.94
468.049	475.94
468.268	719.94
468.488	192.94
468.707	105.94
468.927	84.94
469.146	72.94
469.365	91.94
469.585	95.94
469.804	110.94
470.023	110.94
470.243	97.94
470.462	112.94
470.681	157.94
470.901	104.94
471.12	89.94
471.339	96.94
471.558	129.94
471.777	142.94
471.997	251.94
472.216	915.94
472.435	2091.94
472.654	509.94
472.873	149.94
473.092	102.94
473.311	100.94
473.53	89.94
473.749	91.94
473.968	116.94
474.187	107.94
474.406	108.94
474.625	96.94
474.844	99.94
475.063	87.94
475.282	77.94
475.501	91.94
475.72	111.94
475.939	100.94
476.158	81.94
476.377	95.94
476.596	92.94
476.814	92.94
477.033	105.94
477.252	89.94
477.471	84.94
477.69	79.94
477.908	101.94
478.127	99.94
478.346	90.94
478.564	93.94
478.783	90.94
479.002	93.94
479.22	97.94
479.439	124.94
479.658	114.94
479.876	113.94
480.095	113.94
480.313	122.94
480.532	143.94
480.751	235.94
480.969	837.94
481.188	3557.94
481.406	2081.94
481.624	328.94
481.843	130.94
482.061	127.94
482.28	111.94
482.498	85.94
482.717	90.94
482.935	77.94
483.153	88.94
483.372	85.94
483.59	92.94
483.808	94.94
484.027	92.94
484.245	103.94
484.463	83.94
484.681	99.94
484.9	98.94
485.118	91.94
485.336	99.94
485.554	100.94
485.772	106.94
485.99	120.94
486.209	84.94
486.427	105.94
486.645	108.94
486.863	138.94
487.081	111.94
487.299	112.94
487.517	92.94
487.735	94.94
487.953	102.94
488.171	92.94
488.389	90.94
488.607	104.94
488.825	90.94
489.043	93.94
489.261	96.94
489.479	103.94
489.696	104.94
489.914	94.94
490.132	86.94
490.35	71.94
490.568	87.94
490.786	83.94
491.003	88.94
491.221	86.94
491.439	89.94
491.657	99.94
491.874	93.94
492.092	89.94
492.31	86.94
492.527	91.94
492.745	97.94
492.963	98.94
493.18	98.94
493.398	101.94
493.615	113.94
493.833	99.94
494.05	93.94
494.268	91.94
494.485	78.94
494.703	90.94
494.92	83.94
495.138	94.94
495.355	99.94
495.573	72.94
495.79	89.94
496.008	89.94
496.225	96.94
496.442	90.94
496.66	88.94
496.877	82.94
497.094	82.94
497.312	98.94
497.529	93.94
497.746	92.94
497.963	86.94
498.181	84.94
498.398	100.94
498.615	109.94
498.832	112.94
499.049	91.94
499.267	90.94
499.484	84.94
499.701	77.94
499.918	91.94
500.135	81.94
500.352	88.94
500.569	89.94
500.786	91.94
501.003	98.94
501.22	90.94
501.437	92.94
501.654	105.94
501.871	123.94
502.088	87.94
502.305	87.94
502.522	86.94
502.739	84.94
502.956	83.94
503.172	96.94
503.389	115.94
503.606	122.94
503.823	98.94
504.04	83.94
504.256	96.94
504.473	82.94
504.69	87.94
504.907	93.94
505.123	75.94
505.34	95.94
505.557	94.94
505.773	98.94
505.99	101.94
506.207	90.94
506.423	87.94
506.64	86.94
506.856	97.94
507.073	98.94
507.289	98.94
507.506	101.94
507.722	127.94
507.939	125.94
508.155	117.94
508.372	97.94
508.588	93.94
508.805	98.94
509.021	99.94
509.238	107.94
509.454	94.94
509.67	112.94
509.887	118.94
510.103	147.94
510.319	258.94
510.536	1039.94
510.752	3664.94
510.968	956.94
511.184	183.94
511.401	113.94
511.617	117.94
511.833	114.94
512.049	114.94
512.265	98.94
512.481	100.94
512.698	91.94
512.914	103.94
513.13	112.94
513.346	94.94
513.562	99.94
