Data from Circ_2000_H10_HRD10591_00064.txt Node
Date: Wed Jan 03 10:49:46 EST 2024
User: Yrep
Spectrometer: HR+D1059
Trigger mode: 1
Integration Time (sec): 1.000000E-1
Scans to average: 1
Electric dark correction enabled: true
Nonlinearity correction enabled: false
Boxcar width: 0
XAxis mode: Wavelengths
Number of Pixels in Spectrum: 2048
>>>>>Begin Spectral Data<<<<<
223.165	-34.19
223.4	-34.19
223.635	-34.19
223.869	-12.19
224.104	-23.19
224.338	-19.19
224.573	-22.19
224.808	-7.19
225.042	-10.19
225.277	-5.19
225.511	4.81
225.746	7.81
225.98	2.81
226.215	15.81
226.449	17.81
226.683	19.81
226.918	30.81
227.152	33.81
227.387	39.81
227.621	32.81
227.856	49.81
228.09	41.81
228.324	40.81
228.559	59.81
228.793	68.81
229.027	65.81
229.262	75.81
229.496	80.81
229.73	98.81
229.964	81.81
230.199	71.81
230.433	75.81
230.667	71.81
230.901	67.81
231.136	75.81
231.37	87.81
231.604	77.81
231.838	71.81
232.072	65.81
232.306	69.81
232.541	89.81
232.775	78.81
233.009	79.81
233.243	90.81
233.477	100.81
233.711	89.81
233.945	81.81
234.179	74.81
234.413	94.81
234.647	83.81
234.881	89.81
235.115	71.81
235.349	81.81
235.583	83.81
235.817	81.81
236.051	73.81
236.285	70.81
236.519	81.81
236.753	86.81
236.987	76.81
237.221	85.81
237.455	91.81
237.689	87.81
237.922	68.81
238.156	68.81
238.39	67.81
238.624	72.81
238.858	76.81
239.091	72.81
239.325	97.81
239.559	83.81
239.793	83.81
240.027	90.81
240.26	72.81
240.494	86.81
240.728	77.81
240.961	71.81
241.195	79.81
241.429	76.81
241.662	78.81
241.896	73.81
242.13	81.81
242.363	68.81
242.597	72.81
242.83	79.81
243.064	85.81
243.298	81.81
243.531	73.81
243.765	73.81
243.998	85.81
244.232	88.81
244.465	57.81
244.699	86.81
244.932	78.81
245.166	89.81
245.399	74.81
245.633	88.81
245.866	83.81
246.099	76.81
246.333	84.81
246.566	84.81
246.8	77.81
247.033	86.81
247.266	76.81
247.5	71.81
247.733	77.81
247.966	80.81
248.2	85.81
248.433	90.81
248.666	91.81
248.899	84.81
249.133	105.81
249.366	102.81
249.599	100.81
249.832	90.81
250.066	77.81
250.299	80.81
250.532	93.81
250.765	84.81
250.998	84.81
251.231	74.81
251.465	65.81
251.698	74.81
251.931	86.81
252.164	87.81
252.397	60.81
252.63	77.81
252.863	83.81
253.096	76.81
253.329	92.81
253.562	84.81
253.795	82.81
254.028	84.81
254.261	70.81
254.494	83.81
254.727	87.81
254.96	73.81
255.193	76.81
255.426	92.81
255.659	80.81
255.892	82.81
256.124	89.81
256.357	82.81
256.59	82.81
256.823	75.81
257.056	78.81
257.289	91.81
257.521	86.81
257.754	84.81
257.987	93.81
258.22	93.81
258.452	75.81
258.685	83.81
258.918	94.81
259.151	72.81
259.383	95.81
259.616	80.81
259.849	87.81
260.081	82.81
260.314	89.81
260.547	86.81
260.779	77.81
261.012	99.81
261.244	90.81
261.477	86.81
261.71	105.81
261.942	130.81
262.175	136.81
262.407	100.81
262.64	72.81
262.872	80.81
263.105	77.81
263.337	82.81
263.57	83.81
263.802	90.81
264.035	77.81
264.267	78.81
264.499	85.81
264.732	73.81
264.964	85.81
265.197	74.81
265.429	78.81
265.661	81.81
265.894	89.81
266.126	80.81
266.358	93.81
266.591	78.81
266.823	92.81
267.055	68.81
267.287	70.81
267.52	86.81
267.752	80.81
267.984	90.81
268.216	89.81
268.448	89.81
268.681	85.81
268.913	80.81
269.145	85.81
269.377	87.81
269.609	93.81
269.841	103.81
270.073	76.81
270.306	82.81
270.538	96.81
270.77	80.81
271.002	83.81
271.234	92.81
271.466	78.81
271.698	92.81
271.93	81.81
272.162	85.81
272.394	93.81
272.626	85.81
272.858	77.81
273.09	82.81
273.322	101.81
273.553	78.81
273.785	94.81
274.017	84.81
274.249	80.81
274.481	80.81
274.713	96.81
274.945	83.81
275.176	94.81
275.408	102.81
275.64	104.81
275.872	107.81
276.104	96.81
276.335	96.81
276.567	117.81
276.799	132.81
277.031	144.81
277.262	143.81
277.494	110.81
277.726	93.81
277.957	88.81
278.189	74.81
278.421	87.81
278.652	81.81
278.884	94.81
279.115	93.81
279.347	99.81
279.579	97.81
279.81	108.81
280.042	149.81
280.273	177.81
280.505	138.81
280.736	97.81
280.968	87.81
281.199	97.81
281.431	82.81
281.662	81.81
281.894	93.81
282.125	105.81
282.356	131.81
282.588	172.81
282.819	138.81
283.051	75.81
283.282	92.81
283.513	82.81
283.745	95.81
283.976	85.81
284.207	86.81
284.439	89.81
284.67	94.81
284.901	86.81
285.132	90.81
285.364	85.81
285.595	81.81
285.826	70.81
286.057	89.81
286.288	83.81
286.52	88.81
286.751	100.81
286.982	90.81
287.213	77.81
287.444	82.81
287.675	88.81
287.906	95.81
288.138	92.81
288.369	87.81
288.6	93.81
288.831	92.81
289.062	82.81
289.293	82.81
289.524	88.81
289.755	82.81
289.986	87.81
290.217	84.81
290.448	87.81
290.679	78.81
290.91	93.81
291.141	84.81
291.371	71.81
291.602	101.81
291.833	97.81
292.064	100.81
292.295	91.81
292.526	90.81
292.757	67.81
292.987	91.81
293.218	82.81
293.449	92.81
293.68	93.81
293.91	85.81
294.141	98.81
294.372	103.81
294.603	91.81
294.833	87.81
295.064	76.81
295.295	94.81
295.525	94.81
295.756	103.81
295.987	139.81
296.217	163.81
296.448	146.81
296.679	92.81
296.909	82.81
297.14	94.81
297.37	91.81
297.601	88.81
297.831	98.81
298.062	84.81
298.292	85.81
298.523	90.81
298.753	97.81
298.984	104.81
299.214	89.81
299.445	98.81
299.675	100.81
299.905	103.81
300.136	99.81
300.366	84.81
300.597	87.81
300.827	104.81
301.057	120.81
301.288	108.81
301.518	89.81
301.748	98.81
301.979	93.81
302.209	91.81
302.439	105.81
302.669	89.81
302.9	103.81
303.13	94.81
303.36	95.81
303.59	115.81
303.82	131.81
304.051	99.81
304.281	95.81
304.511	92.81
304.741	98.81
304.971	95.81
305.201	80.81
305.431	82.81
305.661	89.81
305.891	90.81
306.121	94.81
306.352	113.81
306.582	119.81
306.812	121.81
307.042	98.81
307.272	129.81
307.502	140.81
307.731	145.81
307.961	117.81
308.191	94.81
308.421	113.81
308.651	92.81
308.881	91.81
309.111	94.81
309.341	100.81
309.571	108.81
309.8	84.81
310.03	106.81
310.26	96.81
310.49	97.81
310.72	96.81
310.949	100.81
311.179	98.81
311.409	79.81
311.639	101.81
311.868	102.81
312.098	98.81
312.328	82.81
312.557	98.81
312.787	101.81
313.017	129.81
313.246	99.81
313.476	107.81
313.706	87.81
313.935	90.81
314.165	115.81
314.394	107.81
314.624	98.81
314.853	112.81
315.083	100.81
315.312	77.81
315.542	92.81
315.771	85.81
316.001	83.81
316.23	100.81
316.46	92.81
316.689	80.81
316.919	100.81
317.148	108.81
317.377	99.81
317.607	104.81
317.836	102.81
318.065	87.81
318.295	86.81
318.524	91.81
318.753	82.81
318.983	88.81
319.212	100.81
319.441	113.81
319.67	119.81
319.9	94.81
320.129	89.81
320.358	94.81
320.587	97.81
320.816	90.81
321.046	85.81
321.275	109.81
321.504	105.81
321.733	99.81
321.962	102.81
322.191	104.81
322.42	109.81
322.649	121.81
322.878	109.81
323.108	122.81
323.337	139.81
323.566	169.81
323.795	190.81
324.024	255.81
324.253	509.81
324.482	1134.81
324.71	2373.81
324.939	3186.81
325.168	1113.81
325.397	320.81
325.626	164.81
325.855	139.81
326.084	152.81
326.313	148.81
326.542	183.81
326.77	282.81
326.999	596.81
327.228	1271.81
327.457	2356.81
327.686	1840.81
327.914	536.81
328.143	406.81
328.372	452.81
328.6	268.81
328.829	184.81
329.058	172.81
329.287	176.81
329.515	150.81
329.744	204.81
329.972	337.81
330.201	630.81
330.43	868.81
330.658	418.81
330.887	230.81
331.115	166.81
331.344	111.81
331.572	123.81
331.801	120.81
332.03	121.81
332.258	103.81
332.486	98.81
332.715	96.81
332.943	96.81
333.172	112.81
333.4	111.81
333.629	148.81
333.857	195.81
334.085	306.81
334.314	594.81
334.542	1066.81
334.771	1013.81
334.999	300.81
335.227	146.81
335.455	125.81
335.684	112.81
335.912	107.81
336.14	117.81
336.369	108.81
336.597	121.81
336.825	109.81
337.053	94.81
337.281	100.81
337.51	94.81
337.738	96.81
337.966	105.81
338.194	99.81
338.422	107.81
338.65	105.81
338.878	76.81
339.106	92.81
339.334	95.81
339.562	108.81
339.79	102.81
340.018	93.81
340.246	103.81
340.474	95.81
340.702	97.81
340.93	97.81
341.158	90.81
341.386	97.81
341.614	91.81
341.842	77.81
342.07	88.81
342.298	87.81
342.526	93.81
342.754	94.81
342.981	77.81
343.209	68.81
343.437	99.81
343.665	93.81
343.893	95.81
344.12	82.81
344.348	84.81
344.576	96.81
344.804	93.81
345.031	101.81
345.259	100.81
345.487	88.81
345.714	108.81
345.942	99.81
346.17	110.81
346.397	94.81
346.625	86.81
346.853	86.81
347.08	98.81
347.308	96.81
347.535	115.81
347.763	109.81
347.99	112.81
348.218	115.81
348.445	124.81
348.673	118.81
348.9	113.81
349.128	107.81
349.355	95.81
349.583	94.81
349.81	101.81
350.037	92.81
350.265	94.81
350.492	106.81
350.72	97.81
350.947	106.81
351.174	113.81
351.402	125.81
351.629	109.81
351.856	106.81
352.083	113.81
352.311	116.81
352.538	136.81
352.765	113.81
352.992	134.81
353.22	121.81
353.447	110.81
353.674	115.81
353.901	101.81
354.128	94.81
354.355	91.81
354.583	103.81
354.81	99.81
355.037	85.81
355.264	91.81
355.491	94.81
355.718	102.81
355.945	93.81
356.172	86.81
356.399	96.81
356.626	91.81
356.853	86.81
357.08	80.81
357.307	101.81
357.534	93.81
357.761	103.81
357.988	98.81
358.215	105.81
358.441	83.81
358.668	96.81
358.895	92.81
359.122	92.81
359.349	99.81
359.576	92.81
359.802	122.81
360.029	128.81
360.256	124.81
360.483	113.81
360.709	86.81
360.936	88.81
361.163	85.81
361.39	108.81
361.616	100.81
361.843	98.81
362.07	96.81
362.296	109.81
362.523	90.81
362.749	109.81
362.976	91.81
363.203	93.81
363.429	89.81
363.656	88.81
363.882	103.81
364.109	100.81
364.335	94.81
364.562	93.81
364.788	95.81
365.015	98.81
365.241	122.81
365.468	122.81
365.694	112.81
365.92	111.81
366.147	94.81
366.373	90.81
366.599	90.81
366.826	89.81
367.052	105.81
367.278	93.81
367.505	89.81
367.731	100.81
367.957	96.81
368.184	100.81
368.41	114.81
368.636	114.81
368.862	126.81
369.089	109.81
369.315	98.81
369.541	91.81
369.767	99.81
369.993	104.81
370.219	91.81
370.445	112.81
370.672	107.81
370.898	87.81
371.124	90.81
371.35	88.81
371.576	91.81
371.802	90.81
372.028	85.81
372.254	90.81
372.48	76.81
372.706	76.81
372.932	91.81
373.158	84.81
373.384	106.81
373.61	90.81
373.835	94.81
374.061	85.81
374.287	92.81
374.513	100.81
374.739	104.81
374.965	81.81
375.191	96.81
375.416	83.81
375.642	94.81
375.868	84.81
376.094	103.81
376.319	86.81
376.545	96.81
376.771	91.81
376.997	98.81
377.222	96.81
377.448	99.81
377.674	101.81
377.899	85.81
378.125	89.81
378.35	93.81
378.576	88.81
378.802	97.81
379.027	89.81
379.253	100.81
379.478	97.81
379.704	85.81
379.929	86.81
380.155	90.81
380.38	93.81
380.606	104.81
380.831	89.81
381.057	100.81
381.282	92.81
381.507	100.81
381.733	110.81
381.958	116.81
382.184	100.81
382.409	104.81
382.634	102.81
382.86	106.81
383.085	103.81
383.31	106.81
383.535	102.81
383.761	102.81
383.986	92.81
384.211	103.81
384.436	88.81
384.662	84.81
384.887	94.81
385.112	101.81
385.337	115.81
385.562	97.81
385.787	95.81
386.013	112.81
386.238	114.81
386.463	117.81
386.688	115.81
386.913	121.81
387.138	105.81
387.363	109.81
387.588	99.81
387.813	101.81
388.038	113.81
388.263	98.81
388.488	115.81
388.713	94.81
388.938	92.81
389.163	101.81
389.387	116.81
389.612	99.81
389.837	91.81
390.062	94.81
390.287	91.81
390.512	77.81
390.736	96.81
390.961	96.81
391.186	104.81
391.411	86.81
391.636	91.81
391.86	91.81
392.085	89.81
392.31	77.81
392.534	82.81
392.759	90.81
392.984	89.81
393.208	93.81
393.433	105.81
393.658	81.81
393.882	82.81
394.107	82.81
394.331	89.81
394.556	84.81
394.78	90.81
395.005	85.81
395.229	71.81
395.454	85.81
395.678	92.81
395.903	96.81
396.127	90.81
396.352	84.81
396.576	102.81
396.801	98.81
397.025	92.81
397.249	107.81
397.474	98.81
397.698	100.81
397.922	102.81
398.147	94.81
398.371	85.81
398.595	92.81
398.82	110.81
399.044	93.81
399.268	85.81
399.492	95.81
399.717	90.81
399.941	91.81
400.165	108.81
400.389	103.81
400.613	105.81
400.837	92.81
401.062	93.81
401.286	77.81
401.51	97.81
401.734	90.81
401.958	110.81
402.182	159.81
402.406	213.81
402.63	138.81
402.854	97.81
403.078	100.81
403.302	91.81
403.526	80.81
403.75	67.81
403.974	76.81
404.198	94.81
404.422	94.81
404.645	95.81
404.869	112.81
405.093	101.81
405.317	123.81
405.541	135.81
405.765	118.81
405.988	131.81
406.212	226.81
406.436	302.81
406.66	190.81
406.883	121.81
407.107	99.81
407.331	97.81
407.555	112.81
407.778	91.81
408.002	90.81
408.226	92.81
408.449	82.81
408.673	107.81
408.896	109.81
409.12	99.81
409.344	93.81
409.567	84.81
409.791	81.81
410.014	108.81
410.238	102.81
410.461	105.81
410.685	92.81
410.908	99.81
411.132	116.81
411.355	116.81
411.578	97.81
411.802	91.81
412.025	103.81
412.249	105.81
412.472	99.81
412.695	140.81
412.919	100.81
413.142	96.81
413.365	94.81
413.589	81.81
413.812	95.81
414.035	91.81
414.258	105.81
414.482	95.81
414.705	85.81
414.928	70.81
415.151	93.81
415.374	98.81
415.597	87.81
415.821	80.81
416.044	95.81
416.267	88.81
416.49	83.81
416.713	93.81
416.936	95.81
417.159	89.81
417.382	78.81
417.605	87.81
417.828	105.81
418.051	113.81
418.274	100.81
418.497	94.81
418.72	78.81
418.943	82.81
419.166	88.81
419.389	84.81
419.611	95.81
419.834	96.81
420.057	94.81
420.28	98.81
420.503	87.81
420.726	92.81
420.948	104.81
421.171	107.81
421.394	103.81
421.617	83.81
421.839	75.81
422.062	85.81
422.285	101.81
422.507	100.81
422.73	110.81
422.953	90.81
423.175	100.81
423.398	89.81
423.621	77.81
423.843	97.81
424.066	86.81
424.288	90.81
424.511	104.81
424.733	109.81
424.956	114.81
425.178	108.81
425.401	109.81
425.623	108.81
425.846	106.81
426.068	80.81
426.291	88.81
426.513	98.81
426.735	97.81
426.958	100.81
427.18	128.81
427.402	195.81
427.625	257.81
427.847	225.81
428.069	194.81
428.292	122.81
428.514	87.81
428.736	92.81
428.958	89.81
429.181	77.81
429.403	97.81
429.625	90.81
429.847	95.81
430.069	86.81
430.292	101.81
430.514	89.81
430.736	83.81
430.958	77.81
431.18	75.81
431.402	82.81
431.624	89.81
431.846	91.81
432.068	102.81
432.29	76.81
432.512	89.81
432.734	93.81
432.956	88.81
433.178	101.81
433.4	114.81
433.622	87.81
433.844	96.81
434.066	94.81
434.287	91.81
434.509	92.81
434.731	82.81
434.953	74.81
435.175	79.81
435.397	96.81
435.618	101.81
435.84	130.81
436.062	143.81
436.284	138.81
436.505	105.81
436.727	112.81
436.949	91.81
437.17	94.81
437.392	92.81
437.614	100.81
437.835	114.81
438.057	152.81
438.278	133.81
438.5	107.81
438.721	148.81
438.943	116.81
439.165	78.81
439.386	92.81
439.608	109.81
439.829	114.81
440.05	155.81
440.272	186.81
440.493	94.81
440.715	90.81
440.936	84.81
441.158	91.81
441.379	91.81
441.6	109.81
441.822	101.81
442.043	104.81
442.264	128.81
442.486	120.81
442.707	113.81
442.928	114.81
443.149	168.81
443.371	168.81
443.592	134.81
443.813	132.81
444.034	119.81
444.255	108.81
444.476	88.81
444.698	86.81
444.919	89.81
445.14	138.81
445.361	144.81
445.582	150.81
445.803	188.81
446.024	155.81
446.245	191.81
446.466	131.81
446.687	85.81
446.908	76.81
447.129	86.81
447.35	100.81
447.571	90.81
447.792	101.81
448.013	102.81
448.234	130.81
448.455	119.81
448.675	124.81
448.896	150.81
449.117	107.81
449.338	123.81
449.559	149.81
449.779	163.81
450	110.81
450.221	92.81
450.442	95.81
450.662	112.81
450.883	120.81
451.104	122.81
451.324	94.81
451.545	106.81
451.766	92.81
451.986	83.81
452.207	97.81
452.428	90.81
452.648	109.81
452.869	124.81
453.089	134.81
453.31	141.81
453.53	93.81
453.751	85.81
453.971	110.81
454.192	136.81
454.412	97.81
454.633	105.81
454.853	90.81
455.073	88.81
455.294	97.81
455.514	116.81
455.734	105.81
455.955	83.81
456.175	82.81
456.395	92.81
456.616	89.81
456.836	83.81
457.056	78.81
457.276	85.81
457.497	81.81
457.717	76.81
457.937	77.81
458.157	89.81
458.377	83.81
458.598	118.81
458.818	194.81
459.038	236.81
459.258	164.81
459.478	108.81
459.698	85.81
459.918	93.81
460.138	76.81
460.358	70.81
460.578	86.81
460.798	101.81
461.018	93.81
461.238	89.81
461.458	63.81
461.678	100.81
461.898	76.81
462.118	97.81
462.338	92.81
462.558	97.81
462.777	97.81
462.997	105.81
463.217	94.81
463.437	89.81
463.657	91.81
463.876	82.81
464.096	84.81
464.316	103.81
464.536	112.81
464.755	100.81
464.975	113.81
465.195	198.81
465.414	206.81
465.634	106.81
465.854	106.81
466.073	113.81
466.293	84.81
466.512	93.81
466.732	86.81
466.951	94.81
467.171	101.81
467.391	100.81
467.61	136.81
467.829	171.81
468.049	371.81
468.268	488.81
468.488	162.81
468.707	98.81
468.927	84.81
469.146	98.81
469.365	92.81
469.585	100.81
469.804	102.81
470.023	94.81
470.243	110.81
470.462	119.81
470.681	124.81
470.901	100.81
471.12	92.81
471.339	92.81
471.558	98.81
471.777	131.81
471.997	230.81
472.216	674.81
472.435	1478.81
472.654	378.81
472.873	129.81
473.092	106.81
473.311	89.81
473.53	83.81
473.749	97.81
473.968	98.81
474.187	130.81
474.406	112.81
474.625	80.81
474.844	82.81
475.063	94.81
475.282	80.81
475.501	76.81
475.72	89.81
475.939	91.81
476.158	89.81
476.377	93.81
476.596	83.81
476.814	98.81
477.033	94.81
477.252	92.81
477.471	100.81
477.69	104.81
477.908	84.81
478.127	82.81
478.346	94.81
478.564	78.81
478.783	108.81
479.002	85.81
479.22	86.81
479.439	124.81
479.658	126.81
479.876	110.81
480.095	113.81
480.313	122.81
480.532	150.81
480.751	200.81
480.969	648.81
481.188	2602.81
481.406	1521.81
481.624	258.81
481.843	123.81
482.061	104.81
482.28	88.81
482.498	95.81
482.717	93.81
482.935	98.81
483.153	92.81
483.372	100.81
483.59	102.81
483.808	86.81
484.027	94.81
484.245	101.81
484.463	109.81
484.681	90.81
484.9	97.81
485.118	86.81
485.336	100.81
485.554	99.81
485.772	109.81
485.99	94.81
486.209	101.81
486.427	107.81
486.645	108.81
486.863	129.81
487.081	101.81
487.299	94.81
487.517	101.81
487.735	96.81
487.953	85.81
488.171	93.81
488.389	103.81
488.607	106.81
488.825	102.81
489.043	93.81
489.261	98.81
489.479	93.81
489.696	93.81
489.914	96.81
490.132	80.81
490.35	76.81
490.568	85.81
490.786	82.81
491.003	94.81
491.221	99.81
491.439	108.81
491.657	95.81
491.874	96.81
492.092	85.81
492.31	101.81
492.527	105.81
492.745	93.81
492.963	88.81
493.18	93.81
493.398	84.81
493.615	94.81
493.833	94.81
494.05	76.81
494.268	94.81
494.485	86.81
494.703	88.81
494.92	98.81
495.138	100.81
495.355	85.81
495.573	87.81
495.79	80.81
496.008	81.81
496.225	93.81
496.442	91.81
496.66	92.81
496.877	80.81
497.094	91.81
497.312	92.81
497.529	88.81
497.746	81.81
497.963	82.81
498.181	100.81
498.398	108.81
498.615	117.81
498.832	110.81
499.049	101.81
499.267	82.81
499.484	85.81
499.701	94.81
499.918	85.81
500.135	82.81
500.352	80.81
500.569	82.81
500.786	84.81
501.003	91.81
501.22	101.81
501.437	89.81
501.654	97.81
501.871	130.81
502.088	93.81
502.305	94.81
502.522	86.81
502.739	84.81
502.956	91.81
503.172	92.81
503.389	90.81
503.606	111.81
503.823	102.81
504.04	84.81
504.256	80.81
504.473	103.81
504.69	96.81
504.907	92.81
505.123	73.81
505.34	80.81
505.557	93.81
505.773	88.81
505.99	84.81
506.207	73.81
506.423	110.81
506.64	84.81
506.856	82.81
507.073	84.81
507.289	94.81
507.506	92.81
507.722	122.81
507.939	122.81
508.155	90.81
508.372	98.81
508.588	96.81
508.805	88.81
509.021	108.81
509.238	92.81
509.454	113.81
509.67	105.81
509.887	98.81
510.103	132.81
510.319	230.81
510.536	893.81
510.752	3050.81
510.968	825.81
511.184	168.81
511.401	113.81
511.617	104.81
511.833	100.81
512.049	103.81
512.265	81.81
512.481	82.81
512.698	92.81
512.914	95.81
513.13	89.81
513.346	92.81
