Data from Circ_2000_H10_HRD10591_00009.txt Node
Date: Wed Jan 03 10:49:35 EST 2024
User: Yrep
Spectrometer: HR+D1059
Trigger mode: 1
Integration Time (sec): 1.000000E-1
Scans to average: 1
Electric dark correction enabled: true
Nonlinearity correction enabled: false
Boxcar width: 0
XAxis mode: Wavelengths
Number of Pixels in Spectrum: 2048
>>>>>Begin Spectral Data<<<<<
223.165	-30.06
223.4	-30.06
223.635	-30.06
223.869	-34.06
224.104	-28.06
224.338	-13.06
224.573	-7.06
224.808	-23.06
225.042	-0.06
225.277	-1.06
225.511	-2.06
225.746	9.94
225.98	9.94
226.215	18.94
226.449	18.94
226.683	21.94
226.918	27.94
227.152	30.94
227.387	31.94
227.621	31.94
227.856	35.94
228.09	52.94
228.324	53.94
228.559	60.94
228.793	66.94
229.027	56.94
229.262	61.94
229.496	77.94
229.73	81.94
229.964	82.94
230.199	80.94
230.433	78.94
230.667	87.94
230.901	79.94
231.136	74.94
231.37	75.94
231.604	80.94
231.838	89.94
232.072	85.94
232.306	82.94
232.541	93.94
232.775	82.94
233.009	86.94
233.243	90.94
233.477	83.94
233.711	71.94
233.945	76.94
234.179	87.94
234.413	102.94
234.647	71.94
234.881	85.94
235.115	85.94
235.349	88.94
235.583	97.94
235.817	90.94
236.051	86.94
236.285	93.94
236.519	74.94
236.753	75.94
236.987	94.94
237.221	74.94
237.455	96.94
237.689	86.94
237.922	89.94
238.156	89.94
238.39	70.94
238.624	82.94
238.858	92.94
239.091	70.94
239.325	78.94
239.559	83.94
239.793	76.94
240.027	82.94
240.26	72.94
240.494	85.94
240.728	84.94
240.961	82.94
241.195	86.94
241.429	82.94
241.662	74.94
241.896	68.94
242.13	81.94
242.363	76.94
242.597	79.94
242.83	85.94
243.064	79.94
243.298	63.94
243.531	72.94
243.765	87.94
243.998	78.94
244.232	78.94
244.465	85.94
244.699	85.94
244.932	92.94
245.166	86.94
245.399	72.94
245.633	78.94
245.866	84.94
246.099	65.94
246.333	83.94
246.566	66.94
246.8	94.94
247.033	79.94
247.266	77.94
247.5	78.94
247.733	81.94
247.966	79.94
248.2	82.94
248.433	86.94
248.666	92.94
248.899	72.94
249.133	82.94
249.366	102.94
249.599	94.94
249.832	68.94
250.066	83.94
250.299	79.94
250.532	68.94
250.765	71.94
250.998	78.94
251.231	87.94
251.465	86.94
251.698	82.94
251.931	76.94
252.164	75.94
252.397	90.94
252.63	91.94
252.863	76.94
253.096	83.94
253.329	77.94
253.562	90.94
253.795	76.94
254.028	82.94
254.261	78.94
254.494	72.94
254.727	95.94
254.96	102.94
255.193	78.94
255.426	87.94
255.659	84.94
255.892	86.94
256.124	71.94
256.357	104.94
256.59	87.94
256.823	93.94
257.056	89.94
257.289	85.94
257.521	85.94
257.754	96.94
257.987	86.94
258.22	95.94
258.452	91.94
258.685	90.94
258.918	84.94
259.151	68.94
259.383	64.94
259.616	91.94
259.849	92.94
260.081	83.94
260.314	75.94
260.547	73.94
260.779	92.94
261.012	83.94
261.244	102.94
261.477	82.94
261.71	104.94
261.942	116.94
262.175	115.94
262.407	91.94
262.64	101.94
262.872	93.94
263.105	108.94
263.337	88.94
263.57	82.94
263.802	94.94
264.035	92.94
264.267	76.94
264.499	87.94
264.732	75.94
264.964	86.94
265.197	86.94
265.429	83.94
265.661	68.94
265.894	93.94
266.126	78.94
266.358	75.94
266.591	77.94
266.823	86.94
267.055	85.94
267.287	77.94
267.52	82.94
267.752	91.94
267.984	83.94
268.216	90.94
268.448	85.94
268.681	79.94
268.913	92.94
269.145	91.94
269.377	83.94
269.609	92.94
269.841	101.94
270.073	84.94
270.306	77.94
270.538	80.94
270.77	87.94
271.002	91.94
271.234	87.94
271.466	100.94
271.698	93.94
271.93	86.94
272.162	107.94
272.394	81.94
272.626	99.94
272.858	85.94
273.09	84.94
273.322	75.94
273.553	95.94
273.785	81.94
274.017	77.94
274.249	80.94
274.481	92.94
274.713	92.94
274.945	83.94
275.176	80.94
275.408	94.94
275.64	86.94
275.872	92.94
276.104	88.94
276.335	99.94
276.567	92.94
276.799	102.94
277.031	109.94
277.262	84.94
277.494	98.94
277.726	81.94
277.957	85.94
278.189	80.94
278.421	83.94
278.652	91.94
278.884	95.94
279.115	79.94
279.347	91.94
279.579	83.94
279.81	93.94
280.042	86.94
280.273	98.94
280.505	95.94
280.736	94.94
280.968	84.94
281.199	96.94
281.431	84.94
281.662	85.94
281.894	94.94
282.125	93.94
282.356	126.94
282.588	135.94
282.819	122.94
283.051	90.94
283.282	82.94
283.513	96.94
283.745	85.94
283.976	90.94
284.207	75.94
284.439	83.94
284.67	82.94
284.901	71.94
285.132	87.94
285.364	87.94
285.595	95.94
285.826	77.94
286.057	84.94
286.288	82.94
286.52	85.94
286.751	86.94
286.982	81.94
287.213	90.94
287.444	87.94
287.675	87.94
287.906	94.94
288.138	82.94
288.369	99.94
288.6	92.94
288.831	89.94
289.062	88.94
289.293	87.94
289.524	81.94
289.755	79.94
289.986	79.94
290.217	80.94
290.448	84.94
290.679	87.94
290.91	80.94
291.141	95.94
291.371	93.94
291.602	95.94
291.833	75.94
292.064	78.94
292.295	86.94
292.526	104.94
292.757	91.94
292.987	89.94
293.218	80.94
293.449	91.94
293.68	88.94
293.91	85.94
294.141	84.94
294.372	80.94
294.603	85.94
294.833	89.94
295.064	93.94
295.295	96.94
295.525	94.94
295.756	93.94
295.987	104.94
296.217	127.94
296.448	127.94
296.679	110.94
296.909	99.94
297.14	93.94
297.37	92.94
297.601	92.94
297.831	108.94
298.062	90.94
298.292	86.94
298.523	80.94
298.753	95.94
298.984	87.94
299.214	92.94
299.445	96.94
299.675	106.94
299.905	102.94
300.136	89.94
300.366	95.94
300.597	79.94
300.827	90.94
301.057	96.94
301.288	100.94
301.518	103.94
301.748	94.94
301.979	99.94
302.209	81.94
302.439	100.94
302.669	82.94
302.9	86.94
303.13	91.94
303.36	96.94
303.59	102.94
303.82	102.94
304.051	92.94
304.281	103.94
304.511	81.94
304.741	94.94
304.971	94.94
305.201	99.94
305.431	81.94
305.661	88.94
305.891	96.94
306.121	96.94
306.352	114.94
306.582	122.94
306.812	103.94
307.042	109.94
307.272	104.94
307.502	99.94
307.731	109.94
307.961	83.94
308.191	93.94
308.421	91.94
308.651	91.94
308.881	95.94
309.111	100.94
309.341	123.94
309.571	97.94
309.8	96.94
310.03	95.94
310.26	107.94
310.49	86.94
310.72	96.94
310.949	102.94
311.179	126.94
311.409	106.94
311.639	111.94
311.868	99.94
312.098	94.94
312.328	103.94
312.557	98.94
312.787	97.94
313.017	102.94
313.246	94.94
313.476	95.94
313.706	73.94
313.935	85.94
314.165	98.94
314.394	96.94
314.624	84.94
314.853	94.94
315.083	89.94
315.312	100.94
315.542	102.94
315.771	96.94
316.001	100.94
316.23	83.94
316.46	98.94
316.689	88.94
316.919	94.94
317.148	97.94
317.377	100.94
317.607	116.94
317.836	100.94
318.065	95.94
318.295	94.94
318.524	85.94
318.753	91.94
318.983	91.94
319.212	99.94
319.441	109.94
319.67	100.94
319.9	96.94
320.129	96.94
320.358	87.94
320.587	90.94
320.816	97.94
321.046	97.94
321.275	88.94
321.504	111.94
321.733	95.94
321.962	97.94
322.191	101.94
322.42	108.94
322.649	103.94
322.878	100.94
323.108	101.94
323.337	121.94
323.566	135.94
323.795	163.94
324.024	208.94
324.253	381.94
324.482	744.94
324.71	1504.94
324.939	2000.94
325.168	729.94
325.397	232.94
325.626	150.94
325.855	133.94
326.084	129.94
326.313	134.94
326.542	148.94
326.77	199.94
326.999	423.94
327.228	834.94
327.457	1514.94
327.686	1255.94
327.914	349.94
328.143	194.94
328.372	184.94
328.6	158.94
328.829	120.94
329.058	127.94
329.287	142.94
329.515	100.94
329.744	106.94
329.972	143.94
330.201	175.94
330.43	224.94
330.658	156.94
330.887	143.94
331.115	116.94
331.344	103.94
331.572	112.94
331.801	102.94
332.03	85.94
332.258	90.94
332.486	88.94
332.715	98.94
332.943	98.94
333.172	93.94
333.4	117.94
333.629	110.94
333.857	131.94
334.085	146.94
334.314	185.94
334.542	275.94
334.771	266.94
334.999	136.94
335.227	110.94
335.455	100.94
335.684	101.94
335.912	98.94
336.14	90.94
336.369	102.94
336.597	102.94
336.825	107.94
337.053	88.94
337.281	93.94
337.51	92.94
337.738	89.94
337.966	109.94
338.194	101.94
338.422	103.94
338.65	107.94
338.878	105.94
339.106	99.94
339.334	91.94
339.562	90.94
339.79	89.94
340.018	97.94
340.246	80.94
340.474	114.94
340.702	96.94
340.93	91.94
341.158	81.94
341.386	99.94
341.614	115.94
341.842	105.94
342.07	95.94
342.298	95.94
342.526	109.94
342.754	90.94
342.981	96.94
343.209	92.94
343.437	95.94
343.665	100.94
343.893	110.94
344.12	102.94
344.348	90.94
344.576	90.94
344.804	102.94
345.031	88.94
345.259	109.94
345.487	106.94
345.714	99.94
345.942	96.94
346.17	97.94
346.397	83.94
346.625	87.94
346.853	86.94
347.08	86.94
347.308	95.94
347.535	91.94
347.763	108.94
347.99	106.94
348.218	104.94
348.445	101.94
348.673	103.94
348.9	103.94
349.128	98.94
349.355	90.94
349.583	95.94
349.81	89.94
350.037	98.94
350.265	88.94
350.492	90.94
350.72	100.94
350.947	92.94
351.174	112.94
351.402	102.94
351.629	89.94
351.856	87.94
352.083	95.94
352.311	120.94
352.538	120.94
352.765	107.94
352.992	118.94
353.22	120.94
353.447	103.94
353.674	93.94
353.901	116.94
354.128	108.94
354.355	104.94
354.583	99.94
354.81	93.94
355.037	99.94
355.264	104.94
355.491	101.94
355.718	96.94
355.945	97.94
356.172	101.94
356.399	109.94
356.626	91.94
356.853	86.94
357.08	90.94
357.307	95.94
357.534	94.94
357.761	95.94
357.988	95.94
358.215	106.94
358.441	104.94
358.668	94.94
358.895	102.94
359.122	103.94
359.349	90.94
359.576	81.94
359.802	91.94
360.029	101.94
360.256	103.94
360.483	95.94
360.709	82.94
360.936	91.94
361.163	98.94
361.39	99.94
361.616	104.94
361.843	92.94
362.07	95.94
362.296	99.94
362.523	91.94
362.749	86.94
362.976	95.94
363.203	85.94
363.429	89.94
363.656	78.94
363.882	94.94
364.109	88.94
364.335	97.94
364.562	87.94
364.788	96.94
365.015	99.94
365.241	106.94
365.468	103.94
365.694	96.94
365.92	103.94
366.147	95.94
366.373	99.94
366.599	93.94
366.826	93.94
367.052	99.94
367.278	100.94
367.505	96.94
367.731	95.94
367.957	108.94
368.184	106.94
368.41	105.94
368.636	99.94
368.862	112.94
369.089	105.94
369.315	109.94
369.541	74.94
369.767	77.94
369.993	94.94
370.219	89.94
370.445	79.94
370.672	91.94
370.898	85.94
371.124	84.94
371.35	87.94
371.576	82.94
371.802	89.94
372.028	107.94
372.254	104.94
372.48	84.94
372.706	99.94
372.932	79.94
373.158	94.94
373.384	99.94
373.61	96.94
373.835	75.94
374.061	78.94
374.287	96.94
374.513	99.94
374.739	102.94
374.965	93.94
375.191	88.94
375.416	100.94
375.642	89.94
375.868	90.94
376.094	92.94
376.319	91.94
376.545	107.94
376.771	85.94
376.997	112.94
377.222	96.94
377.448	76.94
377.674	101.94
377.899	91.94
378.125	86.94
378.35	94.94
378.576	84.94
378.802	99.94
379.027	100.94
379.253	102.94
379.478	99.94
379.704	87.94
379.929	107.94
380.155	90.94
380.38	99.94
380.606	94.94
380.831	107.94
381.057	106.94
381.282	96.94
381.507	102.94
381.733	105.94
381.958	108.94
382.184	102.94
382.409	100.94
382.634	122.94
382.86	115.94
383.085	92.94
383.31	103.94
383.535	101.94
383.761	121.94
383.986	116.94
384.211	121.94
384.436	120.94
384.662	101.94
384.887	109.94
385.112	135.94
385.337	138.94
385.562	131.94
385.787	117.94
386.013	130.94
386.238	135.94
386.463	118.94
386.688	132.94
386.913	117.94
387.138	120.94
387.363	124.94
387.588	97.94
387.813	117.94
388.038	110.94
388.263	139.94
388.488	119.94
388.713	98.94
388.938	116.94
389.163	103.94
389.387	106.94
389.612	88.94
389.837	90.94
390.062	93.94
390.287	81.94
390.512	98.94
390.736	96.94
390.961	102.94
391.186	86.94
391.411	71.94
391.636	102.94
391.86	87.94
392.085	91.94
392.31	89.94
392.534	104.94
392.759	89.94
392.984	101.94
393.208	109.94
393.433	100.94
393.658	101.94
393.882	94.94
394.107	103.94
394.331	92.94
394.556	84.94
394.78	79.94
395.005	91.94
395.229	106.94
395.454	96.94
395.678	95.94
395.903	89.94
396.127	101.94
396.352	94.94
396.576	108.94
396.801	103.94
397.025	95.94
397.249	88.94
397.474	91.94
397.698	89.94
397.922	79.94
398.147	70.94
398.371	80.94
398.595	81.94
398.82	85.94
399.044	77.94
399.268	79.94
399.492	87.94
399.717	100.94
399.941	106.94
400.165	100.94
400.389	93.94
400.613	76.94
400.837	89.94
401.062	99.94
401.286	86.94
401.51	93.94
401.734	80.94
401.958	105.94
402.182	125.94
402.406	163.94
402.63	123.94
402.854	88.94
403.078	90.94
403.302	84.94
403.526	74.94
403.75	86.94
403.974	86.94
404.198	90.94
404.422	88.94
404.645	82.94
404.869	86.94
405.093	99.94
405.317	105.94
405.541	100.94
405.765	99.94
405.988	102.94
406.212	174.94
406.436	210.94
406.66	143.94
406.883	101.94
407.107	94.94
407.331	102.94
407.555	107.94
407.778	98.94
408.002	91.94
408.226	93.94
408.449	92.94
408.673	86.94
408.896	88.94
409.12	83.94
409.344	86.94
409.567	92.94
409.791	84.94
410.014	90.94
410.238	86.94
410.461	92.94
410.685	107.94
410.908	92.94
411.132	104.94
411.355	97.94
411.578	107.94
411.802	87.94
412.025	96.94
412.249	99.94
412.472	90.94
412.695	104.94
412.919	95.94
413.142	101.94
413.365	80.94
413.589	90.94
413.812	101.94
414.035	104.94
414.258	98.94
414.482	94.94
414.705	88.94
414.928	92.94
415.151	90.94
415.374	89.94
415.597	85.94
415.821	100.94
416.044	92.94
416.267	87.94
416.49	104.94
416.713	106.94
416.936	93.94
417.159	93.94
417.382	96.94
417.605	95.94
417.828	87.94
418.051	95.94
418.274	80.94
418.497	87.94
418.72	94.94
418.943	93.94
419.166	84.94
419.389	91.94
419.611	87.94
419.834	82.94
420.057	85.94
420.28	86.94
420.503	86.94
420.726	97.94
420.948	91.94
421.171	100.94
421.394	95.94
421.617	112.94
421.839	96.94
422.062	91.94
422.285	85.94
422.507	104.94
422.73	106.94
422.953	99.94
423.175	85.94
423.398	99.94
423.621	78.94
423.843	91.94
424.066	87.94
424.288	83.94
424.511	72.94
424.733	95.94
424.956	104.94
425.178	96.94
425.401	101.94
425.623	93.94
425.846	85.94
426.068	102.94
426.291	87.94
426.513	74.94
426.735	96.94
426.958	98.94
427.18	97.94
427.402	123.94
427.625	182.94
427.847	148.94
428.069	121.94
428.292	95.94
428.514	101.94
428.736	71.94
428.958	95.94
429.181	99.94
429.403	107.94
429.625	95.94
429.847	93.94
430.069	109.94
430.292	93.94
430.514	79.94
430.736	84.94
430.958	85.94
431.18	81.94
431.402	94.94
431.624	88.94
431.846	89.94
432.068	99.94
432.29	94.94
432.512	85.94
432.734	95.94
432.956	99.94
433.178	102.94
433.4	104.94
433.622	104.94
433.844	102.94
434.066	88.94
434.287	87.94
434.509	78.94
434.731	90.94
434.953	82.94
435.175	87.94
435.397	96.94
435.618	90.94
435.84	100.94
436.062	123.94
436.284	112.94
436.505	95.94
436.727	91.94
436.949	101.94
437.17	82.94
437.392	87.94
437.614	90.94
437.835	111.94
438.057	101.94
438.278	104.94
438.5	102.94
438.721	109.94
438.943	102.94
439.165	87.94
439.386	90.94
439.608	81.94
439.829	98.94
440.05	115.94
440.272	142.94
440.493	118.94
440.715	89.94
440.936	85.94
441.158	82.94
441.379	95.94
441.6	97.94
441.822	93.94
442.043	87.94
442.264	100.94
442.486	99.94
442.707	105.94
442.928	95.94
443.149	125.94
443.371	133.94
443.592	117.94
443.813	103.94
444.034	105.94
444.255	93.94
444.476	81.94
444.698	92.94
444.919	90.94
445.14	139.94
445.361	124.94
445.582	115.94
445.803	140.94
446.024	139.94
446.245	129.94
446.466	129.94
446.687	98.94
446.908	74.94
447.129	83.94
447.35	96.94
447.571	93.94
447.792	80.94
448.013	97.94
448.234	117.94
448.455	106.94
448.675	99.94
448.896	110.94
449.117	93.94
449.338	90.94
449.559	117.94
449.779	130.94
450	91.94
450.221	89.94
450.442	96.94
450.662	106.94
450.883	110.94
451.104	110.94
451.324	95.94
451.545	89.94
451.766	81.94
451.986	86.94
452.207	87.94
452.428	96.94
452.648	99.94
452.869	104.94
453.089	111.94
453.31	127.94
453.53	97.94
453.751	94.94
453.971	108.94
454.192	120.94
454.412	92.94
454.633	106.94
454.853	72.94
455.073	95.94
455.294	94.94
455.514	94.94
455.734	100.94
455.955	76.94
456.175	92.94
456.395	88.94
456.616	91.94
456.836	88.94
457.056	91.94
457.276	92.94
457.497	88.94
457.717	93.94
457.937	97.94
458.157	98.94
458.377	86.94
458.598	111.94
458.818	130.94
459.038	152.94
459.258	107.94
459.478	92.94
459.698	87.94
459.918	85.94
460.138	84.94
460.358	92.94
460.578	80.94
460.798	97.94
461.018	81.94
461.238	84.94
461.458	85.94
461.678	87.94
461.898	88.94
462.118	90.94
462.338	89.94
462.558	83.94
462.777	84.94
462.997	83.94
463.217	103.94
463.437	92.94
463.657	84.94
463.876	75.94
464.096	94.94
464.316	90.94
464.536	89.94
464.755	105.94
464.975	103.94
465.195	147.94
465.414	144.94
465.634	84.94
465.854	92.94
466.073	88.94
466.293	94.94
466.512	91.94
466.732	85.94
466.951	83.94
467.171	98.94
467.391	95.94
467.61	106.94
467.829	103.94
468.049	130.94
468.268	171.94
468.488	107.94
468.707	101.94
468.927	90.94
469.146	93.94
469.365	91.94
469.585	100.94
469.804	93.94
470.023	103.94
470.243	107.94
470.462	96.94
470.681	111.94
470.901	90.94
471.12	78.94
471.339	78.94
471.558	93.94
471.777	85.94
471.997	112.94
472.216	206.94
472.435	359.94
472.654	154.94
472.873	97.94
473.092	82.94
473.311	90.94
473.53	84.94
473.749	93.94
473.968	96.94
474.187	95.94
474.406	84.94
474.625	81.94
474.844	90.94
475.063	98.94
475.282	89.94
475.501	91.94
475.72	92.94
475.939	101.94
476.158	97.94
476.377	81.94
476.596	84.94
476.814	91.94
477.033	86.94
477.252	100.94
477.471	81.94
477.69	86.94
477.908	89.94
478.127	83.94
478.346	97.94
478.564	94.94
478.783	92.94
479.002	82.94
479.22	92.94
479.439	104.94
479.658	99.94
479.876	96.94
480.095	86.94
480.313	102.94
480.532	100.94
480.751	114.94
480.969	206.94
481.188	556.94
481.406	374.94
481.624	114.94
481.843	100.94
482.061	91.94
482.28	90.94
482.498	92.94
482.717	92.94
482.935	82.94
483.153	90.94
483.372	87.94
483.59	85.94
483.808	85.94
484.027	88.94
484.245	91.94
484.463	106.94
484.681	96.94
484.9	103.94
485.118	94.94
485.336	93.94
485.554	107.94
485.772	116.94
485.99	108.94
486.209	97.94
486.427	106.94
486.645	115.94
486.863	127.94
487.081	106.94
487.299	91.94
487.517	108.94
487.735	101.94
487.953	108.94
488.171	105.94
488.389	105.94
488.607	104.94
488.825	88.94
489.043	94.94
489.261	93.94
489.479	96.94
489.696	90.94
489.914	96.94
490.132	87.94
490.35	90.94
490.568	99.94
490.786	100.94
491.003	90.94
491.221	93.94
491.439	93.94
491.657	95.94
491.874	79.94
492.092	81.94
492.31	89.94
492.527	103.94
492.745	84.94
492.963	100.94
493.18	84.94
493.398	91.94
493.615	100.94
493.833	109.94
494.05	89.94
494.268	85.94
494.485	96.94
494.703	87.94
494.92	94.94
495.138	88.94
495.355	75.94
495.573	93.94
495.79	98.94
496.008	99.94
496.225	102.94
496.442	93.94
496.66	101.94
496.877	110.94
497.094	104.94
497.312	92.94
497.529	86.94
497.746	89.94
497.963	86.94
498.181	91.94
498.398	94.94
498.615	114.94
498.832	95.94
499.049	98.94
499.267	94.94
499.484	80.94
499.701	93.94
499.918	83.94
500.135	104.94
500.352	77.94
500.569	99.94
500.786	85.94
501.003	86.94
501.22	80.94
501.437	85.94
501.654	91.94
501.871	100.94
502.088	84.94
502.305	111.94
502.522	81.94
502.739	101.94
502.956	94.94
503.172	88.94
503.389	102.94
503.606	96.94
503.823	96.94
504.04	101.94
504.256	82.94
504.473	91.94
504.69	95.94
504.907	92.94
505.123	86.94
505.34	90.94
505.557	101.94
505.773	100.94
505.99	85.94
506.207	91.94
506.423	87.94
506.64	93.94
506.856	87.94
507.073	84.94
507.289	104.94
507.506	106.94
507.722	103.94
507.939	95.94
508.155	96.94
508.372	88.94
508.588	97.94
508.805	93.94
509.021	94.94
509.238	106.94
509.454	109.94
509.67	101.94
509.887	110.94
510.103	125.94
510.319	197.94
510.536	739.94
510.752	2310.94
510.968	655.94
511.184	157.94
511.401	119.94
511.617	106.94
511.833	101.94
512.049	103.94
512.265	88.94
512.481	87.94
512.698	83.94
512.914	88.94
513.13	87.94
513.346	93.94
513.562	95.94
513.778	96.94
513.994	100.94
514.21	110.94
514.426	116.94
