Data from Circ_2000_H10_HRD10591_00020.txt Node
Date: Wed Jan 03 10:49:37 EST 2024
User: Yrep
Spectrometer: HR+D1059
Trigger mode: 1
Integration Time (sec): 1.000000E-1
Scans to average: 1
Electric dark correction enabled: true
Nonlinearity correction enabled: false
Boxcar width: 0
XAxis mode: Wavelengths
Number of Pixels in Spectrum: 2048
>>>>>Begin Spectral Data<<<<<
223.165	-15.25
223.4	-15.25
223.635	-15.25
223.869	-23.25
224.104	-18.25
224.338	-15.25
224.573	-29.25
224.808	-7.25
225.042	0.75
225.277	-3.25
225.511	-1.25
225.746	2.75
225.98	16.75
226.215	-1.25
226.449	18.75
226.683	34.75
226.918	20.75
227.152	19.75
227.387	42.75
227.621	35.75
227.856	37.75
228.09	41.75
228.324	44.75
228.559	59.75
228.793	50.75
229.027	69.75
229.262	58.75
229.496	74.75
229.73	86.75
229.964	83.75
230.199	78.75
230.433	75.75
230.667	82.75
230.901	78.75
231.136	85.75
231.37	81.75
231.604	65.75
231.838	80.75
232.072	85.75
232.306	72.75
232.541	76.75
232.775	77.75
233.009	86.75
233.243	77.75
233.477	76.75
233.711	85.75
233.945	79.75
234.179	83.75
234.413	80.75
234.647	82.75
234.881	85.75
235.115	77.75
235.349	85.75
235.583	75.75
235.817	85.75
236.051	81.75
236.285	83.75
236.519	71.75
236.753	85.75
236.987	77.75
237.221	91.75
237.455	95.75
237.689	68.75
237.922	73.75
238.156	80.75
238.39	68.75
238.624	80.75
238.858	79.75
239.091	72.75
239.325	81.75
239.559	70.75
239.793	73.75
240.027	92.75
240.26	72.75
240.494	70.75
240.728	86.75
240.961	81.75
241.195	87.75
241.429	73.75
241.662	76.75
241.896	82.75
242.13	84.75
242.363	70.75
242.597	74.75
242.83	73.75
243.064	92.75
243.298	72.75
243.531	83.75
243.765	85.75
243.998	87.75
244.232	85.75
244.465	70.75
244.699	91.75
244.932	77.75
245.166	69.75
245.399	80.75
245.633	85.75
245.866	85.75
246.099	70.75
246.333	84.75
246.566	72.75
246.8	71.75
247.033	63.75
247.266	64.75
247.5	86.75
247.733	96.75
247.966	81.75
248.2	88.75
248.433	78.75
248.666	83.75
248.899	80.75
249.133	76.75
249.366	110.75
249.599	102.75
249.832	99.75
250.066	90.75
250.299	95.75
250.532	85.75
250.765	83.75
250.998	73.75
251.231	84.75
251.465	81.75
251.698	82.75
251.931	70.75
252.164	81.75
252.397	79.75
252.63	78.75
252.863	81.75
253.096	78.75
253.329	80.75
253.562	64.75
253.795	74.75
254.028	77.75
254.261	83.75
254.494	75.75
254.727	88.75
254.96	76.75
255.193	82.75
255.426	77.75
255.659	98.75
255.892	94.75
256.124	82.75
256.357	86.75
256.59	75.75
256.823	92.75
257.056	89.75
257.289	88.75
257.521	81.75
257.754	93.75
257.987	73.75
258.22	83.75
258.452	78.75
258.685	69.75
258.918	81.75
259.151	78.75
259.383	82.75
259.616	80.75
259.849	76.75
260.081	91.75
260.314	89.75
260.547	81.75
260.779	81.75
261.012	85.75
261.244	89.75
261.477	83.75
261.71	96.75
261.942	113.75
262.175	129.75
262.407	76.75
262.64	80.75
262.872	86.75
263.105	82.75
263.337	71.75
263.57	90.75
263.802	77.75
264.035	88.75
264.267	85.75
264.499	92.75
264.732	73.75
264.964	83.75
265.197	96.75
265.429	84.75
265.661	81.75
265.894	82.75
266.126	78.75
266.358	82.75
266.591	84.75
266.823	84.75
267.055	80.75
267.287	90.75
267.52	94.75
267.752	92.75
267.984	83.75
268.216	87.75
268.448	78.75
268.681	88.75
268.913	64.75
269.145	78.75
269.377	87.75
269.609	78.75
269.841	87.75
270.073	70.75
270.306	77.75
270.538	84.75
270.77	78.75
271.002	94.75
271.234	68.75
271.466	79.75
271.698	73.75
271.93	81.75
272.162	89.75
272.394	82.75
272.626	98.75
272.858	78.75
273.09	83.75
273.322	88.75
273.553	80.75
273.785	96.75
274.017	72.75
274.249	85.75
274.481	78.75
274.713	81.75
274.945	101.75
275.176	93.75
275.408	90.75
275.64	91.75
275.872	93.75
276.104	101.75
276.335	100.75
276.567	90.75
276.799	117.75
277.031	117.75
277.262	126.75
277.494	104.75
277.726	93.75
277.957	81.75
278.189	86.75
278.421	82.75
278.652	72.75
278.884	81.75
279.115	72.75
279.347	83.75
279.579	78.75
279.81	89.75
280.042	110.75
280.273	128.75
280.505	102.75
280.736	96.75
280.968	94.75
281.199	83.75
281.431	96.75
281.662	94.75
281.894	91.75
282.125	105.75
282.356	122.75
282.588	152.75
282.819	116.75
283.051	92.75
283.282	79.75
283.513	107.75
283.745	96.75
283.976	88.75
284.207	91.75
284.439	87.75
284.67	96.75
284.901	73.75
285.132	79.75
285.364	95.75
285.595	85.75
285.826	94.75
286.057	91.75
286.288	85.75
286.52	80.75
286.751	75.75
286.982	87.75
287.213	92.75
287.444	94.75
287.675	90.75
287.906	90.75
288.138	103.75
288.369	90.75
288.6	92.75
288.831	80.75
289.062	87.75
289.293	92.75
289.524	84.75
289.755	88.75
289.986	88.75
290.217	96.75
290.448	70.75
290.679	82.75
290.91	86.75
291.141	96.75
291.371	87.75
291.602	82.75
291.833	89.75
292.064	92.75
292.295	88.75
292.526	96.75
292.757	93.75
292.987	107.75
293.218	90.75
293.449	89.75
293.68	86.75
293.91	95.75
294.141	101.75
294.372	73.75
294.603	92.75
294.833	103.75
295.064	94.75
295.295	97.75
295.525	84.75
295.756	102.75
295.987	106.75
296.217	128.75
296.448	124.75
296.679	91.75
296.909	85.75
297.14	86.75
297.37	96.75
297.601	92.75
297.831	84.75
298.062	83.75
298.292	76.75
298.523	86.75
298.753	93.75
298.984	83.75
299.214	94.75
299.445	89.75
299.675	97.75
299.905	94.75
300.136	90.75
300.366	94.75
300.597	86.75
300.827	87.75
301.057	100.75
301.288	101.75
301.518	114.75
301.748	97.75
301.979	92.75
302.209	95.75
302.439	91.75
302.669	89.75
302.9	90.75
303.13	86.75
303.36	81.75
303.59	107.75
303.82	114.75
304.051	103.75
304.281	87.75
304.511	85.75
304.741	94.75
304.971	89.75
305.201	87.75
305.431	92.75
305.661	97.75
305.891	93.75
306.121	98.75
306.352	102.75
306.582	89.75
306.812	106.75
307.042	106.75
307.272	112.75
307.502	125.75
307.731	117.75
307.961	92.75
308.191	92.75
308.421	96.75
308.651	87.75
308.881	88.75
309.111	91.75
309.341	111.75
309.571	103.75
309.8	86.75
310.03	112.75
310.26	117.75
310.49	88.75
310.72	106.75
310.949	96.75
311.179	99.75
311.409	98.75
311.639	107.75
311.868	97.75
312.098	77.75
312.328	106.75
312.557	107.75
312.787	120.75
313.017	106.75
313.246	106.75
313.476	84.75
313.706	83.75
313.935	99.75
314.165	100.75
314.394	104.75
314.624	98.75
314.853	111.75
315.083	116.75
315.312	96.75
315.542	102.75
315.771	109.75
316.001	87.75
316.23	102.75
316.46	86.75
316.689	91.75
316.919	92.75
317.148	101.75
317.377	82.75
317.607	106.75
317.836	102.75
318.065	76.75
318.295	108.75
318.524	100.75
318.753	88.75
318.983	97.75
319.212	103.75
319.441	113.75
319.67	120.75
319.9	98.75
320.129	94.75
320.358	95.75
320.587	95.75
320.816	85.75
321.046	109.75
321.275	86.75
321.504	94.75
321.733	83.75
321.962	114.75
322.191	84.75
322.42	88.75
322.649	101.75
322.878	121.75
323.108	119.75
323.337	121.75
323.566	131.75
323.795	171.75
324.024	220.75
324.253	431.75
324.482	923.75
324.71	1845.75
324.939	2457.75
325.168	893.75
325.397	270.75
325.626	168.75
325.855	131.75
326.084	130.75
326.313	141.75
326.542	176.75
326.77	234.75
326.999	498.75
327.228	1024.75
327.457	1868.75
327.686	1483.75
327.914	437.75
328.143	294.75
328.372	298.75
328.6	178.75
328.829	137.75
329.058	144.75
329.287	140.75
329.515	137.75
329.744	132.75
329.972	209.75
330.201	370.75
330.43	499.75
330.658	295.75
330.887	180.75
331.115	136.75
331.344	104.75
331.572	103.75
331.801	112.75
332.03	114.75
332.258	99.75
332.486	88.75
332.715	106.75
332.943	114.75
333.172	100.75
333.4	109.75
333.629	121.75
333.857	152.75
334.085	214.75
334.314	385.75
334.542	633.75
334.771	600.75
334.999	209.75
335.227	117.75
335.455	113.75
335.684	116.75
335.912	97.75
336.14	103.75
336.369	101.75
336.597	92.75
336.825	90.75
337.053	93.75
337.281	95.75
337.51	89.75
337.738	94.75
337.966	101.75
338.194	107.75
338.422	90.75
338.65	102.75
338.878	92.75
339.106	95.75
339.334	97.75
339.562	110.75
339.79	89.75
340.018	100.75
340.246	99.75
340.474	90.75
340.702	104.75
340.93	99.75
341.158	92.75
341.386	100.75
341.614	104.75
341.842	85.75
342.07	97.75
342.298	94.75
342.526	93.75
342.754	85.75
342.981	81.75
343.209	93.75
343.437	91.75
343.665	95.75
343.893	96.75
344.12	89.75
344.348	80.75
344.576	75.75
344.804	93.75
345.031	88.75
345.259	100.75
345.487	112.75
345.714	85.75
345.942	85.75
346.17	92.75
346.397	84.75
346.625	97.75
346.853	95.75
347.08	95.75
347.308	97.75
347.535	120.75
347.763	106.75
347.99	98.75
348.218	108.75
348.445	93.75
348.673	108.75
348.9	101.75
349.128	101.75
349.355	95.75
349.583	106.75
349.81	88.75
350.037	72.75
350.265	106.75
350.492	99.75
350.72	87.75
350.947	104.75
351.174	114.75
351.402	101.75
351.629	97.75
351.856	112.75
352.083	108.75
352.311	103.75
352.538	124.75
352.765	115.75
352.992	101.75
353.22	109.75
353.447	99.75
353.674	96.75
353.901	109.75
354.128	105.75
354.355	89.75
354.583	92.75
354.81	95.75
355.037	96.75
355.264	107.75
355.491	102.75
355.718	89.75
355.945	98.75
356.172	97.75
356.399	103.75
356.626	101.75
356.853	87.75
357.08	98.75
357.307	99.75
357.534	80.75
357.761	88.75
357.988	101.75
358.215	101.75
358.441	102.75
358.668	89.75
358.895	88.75
359.122	94.75
359.349	98.75
359.576	86.75
359.802	85.75
360.029	123.75
360.256	133.75
360.483	94.75
360.709	94.75
360.936	101.75
361.163	94.75
361.39	104.75
361.616	94.75
361.843	84.75
362.07	86.75
362.296	106.75
362.523	97.75
362.749	95.75
362.976	73.75
363.203	97.75
363.429	86.75
363.656	101.75
363.882	95.75
364.109	104.75
364.335	92.75
364.562	92.75
364.788	94.75
365.015	86.75
365.241	106.75
365.468	103.75
365.694	105.75
365.92	91.75
366.147	96.75
366.373	98.75
366.599	98.75
366.826	87.75
367.052	91.75
367.278	102.75
367.505	94.75
367.731	96.75
367.957	86.75
368.184	93.75
368.41	92.75
368.636	120.75
368.862	111.75
369.089	108.75
369.315	107.75
369.541	98.75
369.767	94.75
369.993	106.75
370.219	88.75
370.445	95.75
370.672	81.75
370.898	82.75
371.124	93.75
371.35	97.75
371.576	93.75
371.802	103.75
372.028	89.75
372.254	81.75
372.48	83.75
372.706	75.75
372.932	80.75
373.158	94.75
373.384	91.75
373.61	99.75
373.835	81.75
374.061	82.75
374.287	93.75
374.513	85.75
374.739	96.75
374.965	96.75
375.191	95.75
375.416	92.75
375.642	91.75
375.868	90.75
376.094	84.75
376.319	79.75
376.545	80.75
376.771	92.75
376.997	89.75
377.222	95.75
377.448	98.75
377.674	85.75
377.899	95.75
378.125	99.75
378.35	89.75
378.576	100.75
378.802	90.75
379.027	100.75
379.253	84.75
379.478	93.75
379.704	112.75
379.929	92.75
380.155	92.75
380.38	93.75
380.606	97.75
380.831	89.75
381.057	104.75
381.282	100.75
381.507	113.75
381.733	98.75
381.958	94.75
382.184	118.75
382.409	108.75
382.634	104.75
382.86	94.75
383.085	105.75
383.31	105.75
383.535	104.75
383.761	108.75
383.986	101.75
384.211	102.75
384.436	110.75
384.662	104.75
384.887	104.75
385.112	117.75
385.337	118.75
385.562	121.75
385.787	115.75
386.013	125.75
386.238	126.75
386.463	115.75
386.688	116.75
386.913	111.75
387.138	110.75
387.363	115.75
387.588	103.75
387.813	101.75
388.038	115.75
388.263	114.75
388.488	124.75
388.713	96.75
388.938	78.75
389.163	84.75
389.387	90.75
389.612	87.75
389.837	94.75
390.062	93.75
390.287	87.75
390.512	81.75
390.736	99.75
390.961	86.75
391.186	105.75
391.411	83.75
391.636	85.75
391.86	78.75
392.085	77.75
392.31	88.75
392.534	98.75
392.759	93.75
392.984	98.75
393.208	98.75
393.433	98.75
393.658	84.75
393.882	86.75
394.107	91.75
394.331	99.75
394.556	94.75
394.78	105.75
395.005	96.75
395.229	85.75
395.454	96.75
395.678	88.75
395.903	98.75
396.127	96.75
396.352	85.75
396.576	90.75
396.801	84.75
397.025	78.75
397.249	100.75
397.474	94.75
397.698	83.75
397.922	81.75
398.147	83.75
398.371	97.75
398.595	78.75
398.82	85.75
399.044	93.75
399.268	85.75
399.492	80.75
399.717	75.75
399.941	93.75
400.165	99.75
400.389	91.75
400.613	82.75
400.837	89.75
401.062	80.75
401.286	89.75
401.51	89.75
401.734	82.75
401.958	115.75
402.182	125.75
402.406	170.75
402.63	122.75
402.854	101.75
403.078	88.75
403.302	90.75
403.526	93.75
403.75	86.75
403.974	85.75
404.198	102.75
404.422	84.75
404.645	82.75
404.869	102.75
405.093	109.75
405.317	122.75
405.541	106.75
405.765	96.75
405.988	120.75
406.212	177.75
406.436	245.75
406.66	154.75
406.883	129.75
407.107	104.75
407.331	103.75
407.555	100.75
407.778	104.75
408.002	114.75
408.226	97.75
408.449	82.75
408.673	98.75
408.896	110.75
409.12	99.75
409.344	85.75
409.567	91.75
409.791	72.75
410.014	96.75
410.238	90.75
410.461	114.75
410.685	105.75
410.908	84.75
411.132	97.75
411.355	98.75
411.578	88.75
411.802	92.75
412.025	80.75
412.249	103.75
412.472	97.75
412.695	116.75
412.919	99.75
413.142	99.75
413.365	79.75
413.589	100.75
413.812	87.75
414.035	83.75
414.258	83.75
414.482	95.75
414.705	88.75
414.928	82.75
415.151	88.75
415.374	99.75
415.597	103.75
415.821	83.75
416.044	87.75
416.267	89.75
416.49	85.75
416.713	89.75
416.936	82.75
417.159	82.75
417.382	85.75
417.605	98.75
417.828	101.75
418.051	86.75
418.274	85.75
418.497	85.75
418.72	96.75
418.943	94.75
419.166	92.75
419.389	86.75
419.611	85.75
419.834	81.75
420.057	88.75
420.28	82.75
420.503	85.75
420.726	100.75
420.948	94.75
421.171	100.75
421.394	99.75
421.617	94.75
421.839	92.75
422.062	83.75
422.285	89.75
422.507	98.75
422.73	107.75
422.953	86.75
423.175	93.75
423.398	75.75
423.621	83.75
423.843	91.75
424.066	90.75
424.288	92.75
424.511	93.75
424.733	101.75
424.956	103.75
425.178	105.75
425.401	87.75
425.623	101.75
425.846	79.75
426.068	94.75
426.291	101.75
426.513	106.75
426.735	82.75
426.958	78.75
427.18	112.75
427.402	154.75
427.625	197.75
427.847	195.75
428.069	164.75
428.292	113.75
428.514	83.75
428.736	95.75
428.958	97.75
429.181	84.75
429.403	93.75
429.625	91.75
429.847	80.75
430.069	123.75
430.292	102.75
430.514	84.75
430.736	80.75
430.958	80.75
431.18	85.75
431.402	81.75
431.624	99.75
431.846	73.75
432.068	94.75
432.29	83.75
432.512	92.75
432.734	87.75
432.956	83.75
433.178	98.75
433.4	102.75
433.622	106.75
433.844	97.75
434.066	91.75
434.287	75.75
434.509	65.75
434.731	91.75
434.953	88.75
435.175	78.75
435.397	89.75
435.618	86.75
435.84	115.75
436.062	128.75
436.284	115.75
436.505	92.75
436.727	97.75
436.949	93.75
437.17	78.75
437.392	89.75
437.614	100.75
437.835	104.75
438.057	125.75
438.278	125.75
438.5	102.75
438.721	131.75
438.943	108.75
439.165	89.75
439.386	87.75
439.608	89.75
439.829	118.75
440.05	133.75
440.272	164.75
440.493	110.75
440.715	101.75
440.936	89.75
441.158	90.75
441.379	101.75
441.6	88.75
441.822	114.75
442.043	97.75
442.264	110.75
442.486	101.75
442.707	94.75
442.928	113.75
443.149	146.75
443.371	143.75
443.592	140.75
443.813	131.75
444.034	110.75
444.255	81.75
444.476	88.75
444.698	79.75
444.919	91.75
445.14	133.75
445.361	128.75
445.582	125.75
445.803	168.75
446.024	147.75
446.245	154.75
446.466	136.75
446.687	94.75
446.908	88.75
447.129	93.75
447.35	89.75
447.571	98.75
447.792	90.75
448.013	114.75
448.234	111.75
448.455	96.75
448.675	113.75
448.896	139.75
449.117	108.75
449.338	104.75
449.559	148.75
449.779	150.75
450	90.75
450.221	83.75
450.442	84.75
450.662	115.75
450.883	122.75
451.104	119.75
451.324	103.75
451.545	95.75
451.766	89.75
451.986	80.75
452.207	93.75
452.428	104.75
452.648	88.75
452.869	116.75
453.089	117.75
453.31	104.75
453.53	107.75
453.751	90.75
453.971	114.75
454.192	123.75
454.412	84.75
454.633	84.75
454.853	103.75
455.073	101.75
455.294	91.75
455.514	115.75
455.734	89.75
455.955	80.75
456.175	90.75
456.395	91.75
456.616	102.75
456.836	103.75
457.056	84.75
457.276	75.75
457.497	88.75
457.717	77.75
457.937	80.75
458.157	75.75
458.377	108.75
458.598	113.75
458.818	170.75
459.038	181.75
459.258	125.75
459.478	89.75
459.698	81.75
459.918	102.75
460.138	100.75
460.358	91.75
460.578	82.75
460.798	82.75
461.018	85.75
461.238	77.75
461.458	84.75
461.678	89.75
461.898	88.75
462.118	97.75
462.338	84.75
462.558	84.75
462.777	91.75
462.997	65.75
463.217	88.75
463.437	85.75
463.657	74.75
463.876	83.75
464.096	91.75
464.316	98.75
464.536	95.75
464.755	85.75
464.975	117.75
465.195	195.75
465.414	192.75
465.634	96.75
465.854	98.75
466.073	77.75
466.293	81.75
466.512	86.75
466.732	91.75
466.951	87.75
467.171	93.75
467.391	96.75
467.61	107.75
467.829	116.75
468.049	223.75
468.268	284.75
468.488	128.75
468.707	93.75
468.927	87.75
469.146	86.75
469.365	88.75
469.585	99.75
469.804	92.75
470.023	102.75
470.243	101.75
470.462	113.75
470.681	119.75
470.901	98.75
471.12	92.75
471.339	92.75
471.558	80.75
471.777	102.75
471.997	150.75
472.216	376.75
472.435	771.75
472.654	224.75
472.873	117.75
473.092	98.75
473.311	78.75
473.53	83.75
473.749	81.75
473.968	95.75
474.187	95.75
474.406	102.75
474.625	98.75
474.844	88.75
475.063	61.75
475.282	84.75
475.501	95.75
475.72	98.75
475.939	93.75
476.158	85.75
476.377	96.75
476.596	85.75
476.814	89.75
477.033	85.75
477.252	86.75
477.471	83.75
477.69	111.75
477.908	98.75
478.127	86.75
478.346	94.75
478.564	93.75
478.783	105.75
479.002	96.75
479.22	101.75
479.439	119.75
479.658	118.75
479.876	114.75
480.095	106.75
480.313	112.75
480.532	106.75
480.751	145.75
480.969	377.75
481.188	1321.75
481.406	806.75
481.624	193.75
481.843	116.75
482.061	96.75
482.28	87.75
482.498	90.75
482.717	84.75
482.935	87.75
483.153	96.75
483.372	98.75
483.59	90.75
483.808	96.75
484.027	92.75
484.245	98.75
484.463	96.75
484.681	94.75
484.9	83.75
485.118	92.75
485.336	90.75
485.554	109.75
485.772	102.75
485.99	102.75
486.209	102.75
486.427	99.75
486.645	116.75
486.863	120.75
487.081	101.75
487.299	87.75
487.517	89.75
487.735	94.75
487.953	96.75
488.171	94.75
488.389	100.75
488.607	101.75
488.825	82.75
489.043	91.75
489.261	88.75
489.479	88.75
489.696	79.75
489.914	97.75
490.132	86.75
490.35	91.75
490.568	94.75
490.786	91.75
491.003	90.75
491.221	103.75
491.439	90.75
491.657	92.75
491.874	75.75
492.092	77.75
492.31	92.75
492.527	85.75
492.745	92.75
492.963	93.75
493.18	89.75
493.398	104.75
493.615	104.75
493.833	91.75
494.05	108.75
494.268	92.75
494.485	85.75
494.703	92.75
494.92	84.75
495.138	89.75
495.355	89.75
495.573	89.75
495.79	88.75
496.008	89.75
496.225	82.75
496.442	97.75
496.66	93.75
496.877	81.75
497.094	101.75
497.312	76.75
497.529	83.75
497.746	89.75
497.963	90.75
498.181	87.75
498.398	88.75
498.615	102.75
498.832	97.75
499.049	83.75
499.267	88.75
499.484	78.75
499.701	91.75
499.918	100.75
500.135	94.75
500.352	76.75
500.569	98.75
500.786	109.75
501.003	97.75
501.22	79.75
501.437	82.75
501.654	98.75
501.871	103.75
502.088	87.75
502.305	97.75
502.522	99.75
502.739	94.75
502.956	98.75
503.172	104.75
503.389	87.75
503.606	111.75
503.823	114.75
504.04	84.75
504.256	97.75
504.473	88.75
504.69	92.75
504.907	90.75
505.123	92.75
505.34	84.75
505.557	85.75
505.773	102.75
505.99	91.75
506.207	92.75
506.423	105.75
506.64	83.75
506.856	84.75
507.073	92.75
507.289	88.75
507.506	105.75
507.722	113.75
507.939	128.75
508.155	98.75
508.372	99.75
508.588	88.75
508.805	93.75
509.021	84.75
509.238	106.75
509.454	84.75
509.67	94.75
509.887	111.75
510.103	148.75
510.319	222.75
510.536	763.75
510.752	2397.75
510.968	662.75
511.184	172.75
511.401	120.75
511.617	98.75
511.833	99.75
512.049	94.75
512.265	89.75
512.481	94.75
512.698	79.75
512.914	96.75
513.13	107.75
513.346	95.75
513.562	91.75
513.778	82.75
513.994	103.75
514.21	108.75
514.426	118.75
