Data from Circ_2000_H10_HRD10591_00022.txt Node
Date: Wed Jan 03 10:49:38 EST 2024
User: Yrep
Spectrometer: HR+D1059
Trigger mode: 1
Integration Time (sec): 1.000000E-1
Scans to average: 1
Electric dark correction enabled: true
Nonlinearity correction enabled: false
Boxcar width: 0
XAxis mode: Wavelengths
Number of Pixels in Spectrum: 2048
>>>>>Begin Spectral Data<<<<<
223.165	-21.56
223.4	-21.56
223.635	-21.56
223.869	-25.56
224.104	-15.56
224.338	-16.56
224.573	-2.56
224.808	-12.56
225.042	2.44
225.277	-11.56
225.511	12.44
225.746	5.44
225.98	2.44
226.215	0.44
226.449	15.44
226.683	17.44
226.918	15.44
227.152	34.44
227.387	28.44
227.621	54.44
227.856	44.44
228.09	37.44
228.324	48.44
228.559	57.44
228.793	52.44
229.027	48.44
229.262	73.44
229.496	72.44
229.73	83.44
229.964	82.44
230.199	58.44
230.433	80.44
230.667	72.44
230.901	79.44
231.136	75.44
231.37	91.44
231.604	79.44
231.838	84.44
232.072	84.44
232.306	72.44
232.541	78.44
232.775	89.44
233.009	68.44
233.243	68.44
233.477	96.44
233.711	90.44
233.945	74.44
234.179	79.44
234.413	75.44
234.647	72.44
234.881	70.44
235.115	82.44
235.349	73.44
235.583	71.44
235.817	81.44
236.051	83.44
236.285	85.44
236.519	73.44
236.753	75.44
236.987	85.44
237.221	75.44
237.455	69.44
237.689	79.44
237.922	79.44
238.156	85.44
238.39	78.44
238.624	84.44
238.858	80.44
239.091	89.44
239.325	66.44
239.559	66.44
239.793	79.44
240.027	88.44
240.26	87.44
240.494	62.44
240.728	82.44
240.961	90.44
241.195	63.44
241.429	83.44
241.662	79.44
241.896	77.44
242.13	69.44
242.363	72.44
242.597	82.44
242.83	82.44
243.064	71.44
243.298	68.44
243.531	83.44
243.765	91.44
243.998	75.44
244.232	73.44
244.465	71.44
244.699	80.44
244.932	78.44
245.166	75.44
245.399	73.44
245.633	68.44
245.866	78.44
246.099	72.44
246.333	67.44
246.566	85.44
246.8	75.44
247.033	89.44
247.266	76.44
247.5	84.44
247.733	83.44
247.966	78.44
248.2	72.44
248.433	81.44
248.666	80.44
248.899	74.44
249.133	88.44
249.366	92.44
249.599	109.44
249.832	68.44
250.066	83.44
250.299	80.44
250.532	73.44
250.765	66.44
250.998	77.44
251.231	81.44
251.465	70.44
251.698	77.44
251.931	85.44
252.164	90.44
252.397	82.44
252.63	76.44
252.863	77.44
253.096	70.44
253.329	81.44
253.562	91.44
253.795	83.44
254.028	84.44
254.261	82.44
254.494	99.44
254.727	81.44
254.96	78.44
255.193	81.44
255.426	86.44
255.659	86.44
255.892	83.44
256.124	87.44
256.357	73.44
256.59	82.44
256.823	77.44
257.056	80.44
257.289	77.44
257.521	71.44
257.754	72.44
257.987	70.44
258.22	84.44
258.452	81.44
258.685	98.44
258.918	75.44
259.151	100.44
259.383	70.44
259.616	70.44
259.849	81.44
260.081	94.44
260.314	81.44
260.547	86.44
260.779	90.44
261.012	83.44
261.244	85.44
261.477	97.44
261.71	84.44
261.942	103.44
262.175	98.44
262.407	86.44
262.64	73.44
262.872	82.44
263.105	84.44
263.337	73.44
263.57	71.44
263.802	70.44
264.035	85.44
264.267	81.44
264.499	76.44
264.732	75.44
264.964	75.44
265.197	90.44
265.429	88.44
265.661	86.44
265.894	67.44
266.126	87.44
266.358	76.44
266.591	105.44
266.823	101.44
267.055	78.44
267.287	85.44
267.52	82.44
267.752	83.44
267.984	94.44
268.216	80.44
268.448	89.44
268.681	70.44
268.913	95.44
269.145	81.44
269.377	72.44
269.609	85.44
269.841	78.44
270.073	75.44
270.306	78.44
270.538	70.44
270.77	81.44
271.002	84.44
271.234	90.44
271.466	83.44
271.698	92.44
271.93	89.44
272.162	85.44
272.394	77.44
272.626	86.44
272.858	80.44
273.09	86.44
273.322	89.44
273.553	66.44
273.785	98.44
274.017	79.44
274.249	87.44
274.481	82.44
274.713	95.44
274.945	85.44
275.176	87.44
275.408	83.44
275.64	82.44
275.872	89.44
276.104	76.44
276.335	92.44
276.567	97.44
276.799	111.44
277.031	110.44
277.262	98.44
277.494	111.44
277.726	90.44
277.957	85.44
278.189	80.44
278.421	97.44
278.652	82.44
278.884	91.44
279.115	94.44
279.347	64.44
279.579	84.44
279.81	100.44
280.042	83.44
280.273	103.44
280.505	94.44
280.736	88.44
280.968	91.44
281.199	76.44
281.431	89.44
281.662	82.44
281.894	89.44
282.125	88.44
282.356	99.44
282.588	139.44
282.819	101.44
283.051	97.44
283.282	79.44
283.513	85.44
283.745	86.44
283.976	95.44
284.207	81.44
284.439	80.44
284.67	83.44
284.901	75.44
285.132	91.44
285.364	98.44
285.595	97.44
285.826	83.44
286.057	78.44
286.288	90.44
286.52	81.44
286.751	76.44
286.982	83.44
287.213	85.44
287.444	102.44
287.675	70.44
287.906	90.44
288.138	86.44
288.369	97.44
288.6	81.44
288.831	92.44
289.062	97.44
289.293	84.44
289.524	64.44
289.755	82.44
289.986	86.44
290.217	79.44
290.448	84.44
290.679	86.44
290.91	88.44
291.141	88.44
291.371	72.44
291.602	78.44
291.833	106.44
292.064	76.44
292.295	70.44
292.526	91.44
292.757	92.44
292.987	96.44
293.218	88.44
293.449	68.44
293.68	79.44
293.91	82.44
294.141	90.44
294.372	84.44
294.603	86.44
294.833	85.44
295.064	87.44
295.295	99.44
295.525	111.44
295.756	106.44
295.987	107.44
296.217	145.44
296.448	105.44
296.679	94.44
296.909	96.44
297.14	79.44
297.37	73.44
297.601	83.44
297.831	67.44
298.062	83.44
298.292	88.44
298.523	89.44
298.753	81.44
298.984	93.44
299.214	90.44
299.445	82.44
299.675	90.44
299.905	88.44
300.136	85.44
300.366	94.44
300.597	84.44
300.827	80.44
301.057	89.44
301.288	89.44
301.518	87.44
301.748	95.44
301.979	99.44
302.209	92.44
302.439	87.44
302.669	82.44
302.9	101.44
303.13	85.44
303.36	89.44
303.59	101.44
303.82	104.44
304.051	72.44
304.281	88.44
304.511	95.44
304.741	99.44
304.971	84.44
305.201	88.44
305.431	71.44
305.661	96.44
305.891	89.44
306.121	87.44
306.352	91.44
306.582	97.44
306.812	81.44
307.042	96.44
307.272	110.44
307.502	100.44
307.731	111.44
307.961	83.44
308.191	85.44
308.421	99.44
308.651	88.44
308.881	78.44
309.111	89.44
309.341	95.44
309.571	86.44
309.8	88.44
310.03	83.44
310.26	85.44
310.49	93.44
310.72	87.44
310.949	92.44
311.179	99.44
311.409	87.44
311.639	88.44
311.868	91.44
312.098	96.44
312.328	92.44
312.557	89.44
312.787	88.44
313.017	98.44
313.246	99.44
313.476	93.44
313.706	87.44
313.935	78.44
314.165	98.44
314.394	100.44
314.624	87.44
314.853	95.44
315.083	96.44
315.312	73.44
315.542	91.44
315.771	101.44
316.001	92.44
316.23	86.44
316.46	90.44
316.689	74.44
316.919	107.44
317.148	79.44
317.377	75.44
317.607	84.44
317.836	103.44
318.065	74.44
318.295	89.44
318.524	94.44
318.753	92.44
318.983	103.44
319.212	92.44
319.441	98.44
319.67	100.44
319.9	90.44
320.129	81.44
320.358	88.44
320.587	106.44
320.816	107.44
321.046	95.44
321.275	116.44
321.504	99.44
321.733	89.44
321.962	94.44
322.191	94.44
322.42	103.44
322.649	92.44
322.878	101.44
323.108	126.44
323.337	129.44
323.566	108.44
323.795	147.44
324.024	190.44
324.253	373.44
324.482	727.44
324.71	1525.44
324.939	1972.44
325.168	737.44
325.397	235.44
325.626	128.44
325.855	118.44
326.084	123.44
326.313	112.44
326.542	148.44
326.77	216.44
326.999	419.44
327.228	856.44
327.457	1522.44
327.686	1215.44
327.914	353.44
328.143	214.44
328.372	219.44
328.6	144.44
328.829	131.44
329.058	139.44
329.287	124.44
329.515	120.44
329.744	120.44
329.972	160.44
330.201	256.44
330.43	330.44
330.658	196.44
330.887	135.44
331.115	131.44
331.344	110.44
331.572	92.44
331.801	96.44
332.03	98.44
332.258	95.44
332.486	89.44
332.715	105.44
332.943	84.44
333.172	112.44
333.4	92.44
333.629	111.44
333.857	130.44
334.085	162.44
334.314	240.44
334.542	418.44
334.771	403.44
334.999	160.44
335.227	117.44
335.455	87.44
335.684	116.44
335.912	101.44
336.14	99.44
336.369	101.44
336.597	88.44
336.825	90.44
337.053	88.44
337.281	98.44
337.51	72.44
337.738	96.44
337.966	95.44
338.194	112.44
338.422	99.44
338.65	91.44
338.878	85.44
339.106	88.44
339.334	86.44
339.562	91.44
339.79	82.44
340.018	85.44
340.246	70.44
340.474	84.44
340.702	92.44
340.93	92.44
341.158	90.44
341.386	90.44
341.614	102.44
341.842	72.44
342.07	92.44
342.298	104.44
342.526	77.44
342.754	70.44
342.981	80.44
343.209	67.44
343.437	103.44
343.665	85.44
343.893	83.44
344.12	99.44
344.348	85.44
344.576	87.44
344.804	97.44
345.031	97.44
345.259	87.44
345.487	92.44
345.714	91.44
345.942	82.44
346.17	91.44
346.397	79.44
346.625	86.44
346.853	96.44
347.08	90.44
347.308	105.44
347.535	108.44
347.763	105.44
347.99	100.44
348.218	95.44
348.445	92.44
348.673	114.44
348.9	82.44
349.128	96.44
349.355	97.44
349.583	90.44
349.81	90.44
350.037	96.44
350.265	106.44
350.492	97.44
350.72	99.44
350.947	88.44
351.174	102.44
351.402	96.44
351.629	103.44
351.856	87.44
352.083	91.44
352.311	99.44
352.538	93.44
352.765	92.44
352.992	108.44
353.22	106.44
353.447	97.44
353.674	93.44
353.901	90.44
354.128	100.44
354.355	102.44
354.583	107.44
354.81	102.44
355.037	106.44
355.264	106.44
355.491	82.44
355.718	93.44
355.945	101.44
356.172	91.44
356.399	85.44
356.626	98.44
356.853	104.44
357.08	85.44
357.307	88.44
357.534	83.44
357.761	87.44
357.988	92.44
358.215	87.44
358.441	87.44
358.668	87.44
358.895	92.44
359.122	95.44
359.349	89.44
359.576	77.44
359.802	97.44
360.029	96.44
360.256	108.44
360.483	94.44
360.709	92.44
360.936	91.44
361.163	84.44
361.39	78.44
361.616	85.44
361.843	95.44
362.07	83.44
362.296	92.44
362.523	96.44
362.749	89.44
362.976	90.44
363.203	92.44
363.429	88.44
363.656	82.44
363.882	91.44
364.109	81.44
364.335	92.44
364.562	91.44
364.788	89.44
365.015	102.44
365.241	100.44
365.468	98.44
365.694	84.44
365.92	88.44
366.147	90.44
366.373	84.44
366.599	87.44
366.826	88.44
367.052	86.44
367.278	108.44
367.505	79.44
367.731	90.44
367.957	70.44
368.184	105.44
368.41	98.44
368.636	101.44
368.862	99.44
369.089	112.44
369.315	101.44
369.541	98.44
369.767	83.44
369.993	76.44
370.219	84.44
370.445	83.44
370.672	83.44
370.898	83.44
371.124	97.44
371.35	77.44
371.576	83.44
371.802	90.44
372.028	96.44
372.254	86.44
372.48	82.44
372.706	89.44
372.932	81.44
373.158	76.44
373.384	89.44
373.61	84.44
373.835	83.44
374.061	79.44
374.287	96.44
374.513	92.44
374.739	91.44
374.965	72.44
375.191	85.44
375.416	84.44
375.642	73.44
375.868	98.44
376.094	97.44
376.319	90.44
376.545	89.44
376.771	100.44
376.997	98.44
377.222	101.44
377.448	88.44
377.674	81.44
377.899	92.44
378.125	96.44
378.35	100.44
378.576	90.44
378.802	91.44
379.027	105.44
379.253	93.44
379.478	87.44
379.704	90.44
379.929	106.44
380.155	97.44
380.38	102.44
380.606	99.44
380.831	99.44
381.057	87.44
381.282	86.44
381.507	79.44
381.733	93.44
381.958	92.44
382.184	99.44
382.409	95.44
382.634	106.44
382.86	99.44
383.085	118.44
383.31	102.44
383.535	87.44
383.761	106.44
383.986	93.44
384.211	90.44
384.436	98.44
384.662	94.44
384.887	101.44
385.112	106.44
385.337	107.44
385.562	121.44
385.787	115.44
386.013	117.44
386.238	114.44
386.463	103.44
386.688	98.44
386.913	119.44
387.138	117.44
387.363	113.44
387.588	101.44
387.813	109.44
388.038	119.44
388.263	125.44
388.488	98.44
388.713	101.44
388.938	91.44
389.163	99.44
389.387	97.44
389.612	102.44
389.837	90.44
390.062	83.44
390.287	72.44
390.512	91.44
390.736	90.44
390.961	86.44
391.186	93.44
391.411	96.44
391.636	89.44
391.86	93.44
392.085	78.44
392.31	98.44
392.534	75.44
392.759	84.44
392.984	73.44
393.208	80.44
393.433	104.44
393.658	101.44
393.882	78.44
394.107	82.44
394.331	87.44
394.556	64.44
394.78	74.44
395.005	82.44
395.229	76.44
395.454	75.44
395.678	72.44
395.903	87.44
396.127	96.44
396.352	76.44
396.576	81.44
396.801	75.44
397.025	67.44
397.249	83.44
397.474	80.44
397.698	78.44
397.922	82.44
398.147	83.44
398.371	93.44
398.595	94.44
398.82	63.44
399.044	94.44
399.268	83.44
399.492	72.44
399.717	94.44
399.941	90.44
400.165	78.44
400.389	81.44
400.613	69.44
400.837	86.44
401.062	89.44
401.286	94.44
401.51	91.44
401.734	94.44
401.958	94.44
402.182	94.44
402.406	143.44
402.63	110.44
402.854	100.44
403.078	85.44
403.302	90.44
403.526	90.44
403.75	83.44
403.974	87.44
404.198	79.44
404.422	72.44
404.645	83.44
404.869	90.44
405.093	102.44
405.317	101.44
405.541	96.44
405.765	94.44
405.988	119.44
406.212	161.44
406.436	198.44
406.66	148.44
406.883	95.44
407.107	86.44
407.331	105.44
407.555	88.44
407.778	95.44
408.002	96.44
408.226	101.44
408.449	84.44
408.673	92.44
408.896	104.44
409.12	96.44
409.344	76.44
409.567	80.44
409.791	100.44
410.014	90.44
410.238	89.44
410.461	91.44
410.685	86.44
410.908	95.44
411.132	103.44
411.355	101.44
411.578	90.44
411.802	86.44
412.025	92.44
412.249	97.44
412.472	90.44
412.695	105.44
412.919	98.44
413.142	90.44
413.365	88.44
413.589	86.44
413.812	91.44
414.035	84.44
414.258	72.44
414.482	87.44
414.705	70.44
414.928	97.44
415.151	88.44
415.374	96.44
415.597	100.44
415.821	94.44
416.044	76.44
416.267	92.44
416.49	89.44
416.713	79.44
416.936	98.44
417.159	69.44
417.382	79.44
417.605	82.44
417.828	79.44
418.051	88.44
418.274	84.44
418.497	88.44
418.72	90.44
418.943	85.44
419.166	76.44
419.389	91.44
419.611	89.44
419.834	91.44
420.057	89.44
420.28	94.44
420.503	75.44
420.726	81.44
420.948	88.44
421.171	89.44
421.394	87.44
421.617	87.44
421.839	95.44
422.062	87.44
422.285	88.44
422.507	107.44
422.73	92.44
422.953	102.44
423.175	89.44
423.398	86.44
423.621	86.44
423.843	82.44
424.066	87.44
424.288	62.44
424.511	86.44
424.733	91.44
424.956	98.44
425.178	101.44
425.401	94.44
425.623	88.44
425.846	87.44
426.068	96.44
426.291	89.44
426.513	86.44
426.735	97.44
426.958	96.44
427.18	99.44
427.402	134.44
427.625	174.44
427.847	144.44
428.069	131.44
428.292	103.44
428.514	91.44
428.736	83.44
428.958	88.44
429.181	74.44
429.403	74.44
429.625	79.44
429.847	103.44
430.069	107.44
430.292	81.44
430.514	80.44
430.736	90.44
430.958	72.44
431.18	89.44
431.402	99.44
431.624	99.44
431.846	88.44
432.068	82.44
432.29	83.44
432.512	83.44
432.734	84.44
432.956	86.44
433.178	99.44
433.4	67.44
433.622	90.44
433.844	77.44
434.066	89.44
434.287	85.44
434.509	79.44
434.731	97.44
434.953	97.44
435.175	104.44
435.397	101.44
435.618	79.44
435.84	106.44
436.062	123.44
436.284	109.44
436.505	84.44
436.727	95.44
436.949	86.44
437.17	70.44
437.392	88.44
437.614	90.44
437.835	85.44
438.057	112.44
438.278	90.44
438.5	96.44
438.721	119.44
438.943	98.44
439.165	92.44
439.386	63.44
439.608	95.44
439.829	90.44
440.05	109.44
440.272	139.44
440.493	106.44
440.715	85.44
440.936	88.44
441.158	84.44
441.379	85.44
441.6	94.44
441.822	102.44
442.043	100.44
442.264	106.44
442.486	102.44
442.707	94.44
442.928	102.44
443.149	114.44
443.371	111.44
443.592	112.44
443.813	113.44
444.034	96.44
444.255	109.44
444.476	80.44
444.698	86.44
444.919	90.44
445.14	124.44
445.361	132.44
445.582	103.44
445.803	122.44
446.024	126.44
446.245	122.44
446.466	108.44
446.687	90.44
446.908	98.44
447.129	75.44
447.35	78.44
447.571	84.44
447.792	92.44
448.013	96.44
448.234	101.44
448.455	92.44
448.675	102.44
448.896	110.44
449.117	98.44
449.338	99.44
449.559	112.44
449.779	132.44
450	94.44
450.221	82.44
450.442	83.44
450.662	91.44
450.883	93.44
451.104	112.44
451.324	89.44
451.545	92.44
451.766	91.44
451.986	91.44
452.207	82.44
452.428	87.44
452.648	91.44
452.869	96.44
453.089	117.44
453.31	122.44
453.53	78.44
453.751	98.44
453.971	100.44
454.192	105.44
454.412	82.44
454.633	78.44
454.853	75.44
455.073	86.44
455.294	74.44
455.514	96.44
455.734	83.44
455.955	79.44
456.175	92.44
456.395	84.44
456.616	82.44
456.836	87.44
457.056	78.44
457.276	79.44
457.497	82.44
457.717	91.44
457.937	96.44
458.157	85.44
458.377	85.44
458.598	85.44
458.818	128.44
459.038	145.44
459.258	110.44
459.478	86.44
459.698	89.44
459.918	75.44
460.138	79.44
460.358	82.44
460.578	78.44
460.798	76.44
461.018	85.44
461.238	86.44
461.458	95.44
461.678	88.44
461.898	74.44
462.118	76.44
462.338	86.44
462.558	100.44
462.777	95.44
462.997	76.44
463.217	72.44
463.437	82.44
463.657	87.44
463.876	83.44
464.096	92.44
464.316	84.44
464.536	68.44
464.755	93.44
464.975	92.44
465.195	148.44
465.414	140.44
465.634	81.44
465.854	87.44
466.073	87.44
466.293	100.44
466.512	81.44
466.732	84.44
466.951	84.44
467.171	96.44
467.391	91.44
467.61	99.44
467.829	109.44
468.049	151.44
468.268	223.44
468.488	105.44
468.707	86.44
468.927	96.44
469.146	93.44
469.365	75.44
469.585	85.44
469.804	103.44
470.023	82.44
470.243	81.44
470.462	95.44
470.681	87.44
470.901	87.44
471.12	89.44
471.339	85.44
471.558	87.44
471.777	98.44
471.997	119.44
472.216	260.44
472.435	502.44
472.654	170.44
472.873	104.44
473.092	114.44
473.311	94.44
473.53	91.44
473.749	84.44
473.968	96.44
474.187	87.44
474.406	96.44
474.625	68.44
474.844	70.44
475.063	96.44
475.282	77.44
475.501	88.44
475.72	83.44
475.939	92.44
476.158	85.44
476.377	73.44
476.596	75.44
476.814	79.44
477.033	99.44
477.252	81.44
477.471	80.44
477.69	92.44
477.908	94.44
478.127	98.44
478.346	81.44
478.564	96.44
478.783	102.44
479.002	103.44
479.22	91.44
479.439	104.44
479.658	99.44
479.876	89.44
480.095	84.44
480.313	99.44
480.532	90.44
480.751	108.44
480.969	262.44
481.188	833.44
481.406	526.44
481.624	128.44
481.843	102.44
482.061	72.44
482.28	80.44
482.498	86.44
482.717	82.44
482.935	85.44
483.153	86.44
483.372	91.44
483.59	77.44
483.808	80.44
484.027	89.44
484.245	83.44
484.463	84.44
484.681	108.44
484.9	103.44
485.118	107.44
485.336	99.44
485.554	102.44
485.772	110.44
485.99	99.44
486.209	107.44
486.427	98.44
486.645	113.44
486.863	118.44
487.081	102.44
487.299	88.44
487.517	87.44
487.735	87.44
487.953	98.44
488.171	82.44
488.389	100.44
488.607	95.44
488.825	78.44
489.043	83.44
489.261	81.44
489.479	90.44
489.696	84.44
489.914	77.44
490.132	82.44
490.35	86.44
490.568	80.44
490.786	96.44
491.003	102.44
491.221	83.44
491.439	83.44
491.657	94.44
491.874	85.44
492.092	90.44
492.31	95.44
492.527	89.44
492.745	76.44
492.963	84.44
493.18	88.44
493.398	94.44
493.615	101.44
493.833	86.44
494.05	96.44
494.268	89.44
494.485	94.44
494.703	95.44
494.92	92.44
495.138	94.44
495.355	102.44
495.573	89.44
495.79	95.44
496.008	80.44
496.225	87.44
496.442	92.44
496.66	90.44
496.877	87.44
497.094	82.44
497.312	95.44
497.529	92.44
497.746	84.44
497.963	92.44
498.181	101.44
498.398	89.44
498.615	111.44
498.832	99.44
499.049	98.44
499.267	93.44
499.484	75.44
499.701	84.44
499.918	93.44
500.135	80.44
500.352	90.44
500.569	88.44
500.786	79.44
501.003	90.44
501.22	81.44
501.437	83.44
501.654	97.44
501.871	104.44
502.088	91.44
502.305	89.44
502.522	90.44
502.739	80.44
502.956	97.44
503.172	98.44
503.389	96.44
503.606	99.44
503.823	104.44
504.04	88.44
504.256	95.44
504.473	83.44
504.69	102.44
504.907	78.44
505.123	78.44
505.34	101.44
505.557	98.44
505.773	87.44
505.99	80.44
506.207	76.44
506.423	86.44
506.64	83.44
506.856	77.44
507.073	84.44
507.289	96.44
507.506	87.44
507.722	89.44
507.939	96.44
508.155	86.44
508.372	99.44
508.588	90.44
508.805	92.44
509.021	105.44
509.238	103.44
509.454	96.44
509.67	103.44
509.887	87.44
510.103	110.44
510.319	177.44
510.536	657.44
510.752	2165.44
510.968	619.44
511.184	152.44
511.401	106.44
511.617	91.44
511.833	94.44
512.049	106.44
512.265	69.44
512.481	86.44
512.698	85.44
512.914	83.44
513.13	87.44
513.346	96.44
513.562	81.44
513.778	106.44
513.994	90.44
514.21	105.44
514.426	117.44
514.642	122.44
514.858	106.44
515.074	164.44
515.29	406.44
515.506	1368.44
515.721	498.44
515.937	150.44
516.153	114.44
