Data from Circ_2000_H10_HRD10591_00032.txt Node
Date: Wed Jan 03 10:49:40 EST 2024
User: Yrep
Spectrometer: HR+D1059
Trigger mode: 1
Integration Time (sec): 1.000000E-1
Scans to average: 1
Electric dark correction enabled: true
Nonlinearity correction enabled: false
Boxcar width: 0
XAxis mode: Wavelengths
Number of Pixels in Spectrum: 2048
>>>>>Begin Spectral Data<<<<<
223.165	-13.88
223.4	-13.88
223.635	-13.88
223.869	1.12
224.104	-24.88
224.338	-26.88
224.573	-15.88
224.808	-25.88
225.042	-10.88
225.277	-7.88
225.511	-10.88
225.746	11.12
225.98	12.12
226.215	10.12
226.449	17.12
226.683	21.12
226.918	39.12
227.152	25.12
227.387	32.12
227.621	36.12
227.856	45.12
228.09	45.12
228.324	65.12
228.559	64.12
228.793	55.12
229.027	74.12
229.262	71.12
229.496	80.12
229.73	80.12
229.964	90.12
230.199	85.12
230.433	71.12
230.667	79.12
230.901	88.12
231.136	95.12
231.37	86.12
231.604	71.12
231.838	74.12
232.072	80.12
232.306	82.12
232.541	76.12
232.775	78.12
233.009	88.12
233.243	81.12
233.477	81.12
233.711	89.12
233.945	70.12
234.179	92.12
234.413	91.12
234.647	92.12
234.881	78.12
235.115	82.12
235.349	84.12
235.583	103.12
235.817	82.12
236.051	72.12
236.285	90.12
236.519	80.12
236.753	72.12
236.987	92.12
237.221	97.12
237.455	97.12
237.689	84.12
237.922	92.12
238.156	89.12
238.39	84.12
238.624	80.12
238.858	76.12
239.091	70.12
239.325	76.12
239.559	71.12
239.793	69.12
240.027	76.12
240.26	76.12
240.494	74.12
240.728	73.12
240.961	76.12
241.195	88.12
241.429	78.12
241.662	68.12
241.896	68.12
242.13	73.12
242.363	70.12
242.597	89.12
242.83	79.12
243.064	76.12
243.298	69.12
243.531	84.12
243.765	93.12
243.998	86.12
244.232	84.12
244.465	86.12
244.699	77.12
244.932	92.12
245.166	89.12
245.399	90.12
245.633	81.12
245.866	90.12
246.099	80.12
246.333	73.12
246.566	89.12
246.8	80.12
247.033	69.12
247.266	90.12
247.5	79.12
247.733	81.12
247.966	75.12
248.2	87.12
248.433	76.12
248.666	68.12
248.899	84.12
249.133	99.12
249.366	90.12
249.599	81.12
249.832	109.12
250.066	107.12
250.299	80.12
250.532	94.12
250.765	95.12
250.998	85.12
251.231	72.12
251.465	72.12
251.698	72.12
251.931	79.12
252.164	76.12
252.397	82.12
252.63	78.12
252.863	88.12
253.096	74.12
253.329	94.12
253.562	82.12
253.795	83.12
254.028	82.12
254.261	79.12
254.494	84.12
254.727	88.12
254.96	81.12
255.193	88.12
255.426	98.12
255.659	73.12
255.892	87.12
256.124	98.12
256.357	89.12
256.59	77.12
256.823	88.12
257.056	82.12
257.289	80.12
257.521	71.12
257.754	81.12
257.987	73.12
258.22	74.12
258.452	90.12
258.685	92.12
258.918	84.12
259.151	82.12
259.383	76.12
259.616	87.12
259.849	89.12
260.081	84.12
260.314	81.12
260.547	77.12
260.779	84.12
261.012	81.12
261.244	95.12
261.477	91.12
261.71	80.12
261.942	113.12
262.175	125.12
262.407	80.12
262.64	103.12
262.872	82.12
263.105	80.12
263.337	93.12
263.57	89.12
263.802	91.12
264.035	76.12
264.267	86.12
264.499	91.12
264.732	77.12
264.964	102.12
265.197	95.12
265.429	100.12
265.661	79.12
265.894	77.12
266.126	100.12
266.358	80.12
266.591	97.12
266.823	76.12
267.055	82.12
267.287	100.12
267.52	80.12
267.752	78.12
267.984	84.12
268.216	102.12
268.448	107.12
268.681	92.12
268.913	69.12
269.145	97.12
269.377	90.12
269.609	90.12
269.841	94.12
270.073	91.12
270.306	88.12
270.538	81.12
270.77	82.12
271.002	110.12
271.234	91.12
271.466	73.12
271.698	80.12
271.93	94.12
272.162	96.12
272.394	85.12
272.626	97.12
272.858	89.12
273.09	80.12
273.322	84.12
273.553	89.12
273.785	97.12
274.017	93.12
274.249	93.12
274.481	96.12
274.713	100.12
274.945	97.12
275.176	103.12
275.408	89.12
275.64	96.12
275.872	73.12
276.104	84.12
276.335	96.12
276.567	92.12
276.799	121.12
277.031	130.12
277.262	110.12
277.494	102.12
277.726	104.12
277.957	87.12
278.189	84.12
278.421	80.12
278.652	73.12
278.884	84.12
279.115	97.12
279.347	92.12
279.579	81.12
279.81	92.12
280.042	97.12
280.273	141.12
280.505	108.12
280.736	95.12
280.968	96.12
281.199	98.12
281.431	93.12
281.662	93.12
281.894	76.12
282.125	105.12
282.356	125.12
282.588	140.12
282.819	112.12
283.051	94.12
283.282	94.12
283.513	80.12
283.745	98.12
283.976	85.12
284.207	88.12
284.439	79.12
284.67	89.12
284.901	96.12
285.132	90.12
285.364	95.12
285.595	93.12
285.826	96.12
286.057	82.12
286.288	86.12
286.52	93.12
286.751	93.12
286.982	104.12
287.213	88.12
287.444	97.12
287.675	85.12
287.906	79.12
288.138	85.12
288.369	88.12
288.6	88.12
288.831	82.12
289.062	103.12
289.293	90.12
289.524	82.12
289.755	81.12
289.986	100.12
290.217	94.12
290.448	93.12
290.679	79.12
290.91	96.12
291.141	81.12
291.371	85.12
291.602	100.12
291.833	89.12
292.064	100.12
292.295	88.12
292.526	76.12
292.757	84.12
292.987	97.12
293.218	98.12
293.449	88.12
293.68	77.12
293.91	86.12
294.141	78.12
294.372	78.12
294.603	78.12
294.833	98.12
295.064	104.12
295.295	106.12
295.525	91.12
295.756	86.12
295.987	117.12
296.217	148.12
296.448	124.12
296.679	104.12
296.909	102.12
297.14	93.12
297.37	95.12
297.601	82.12
297.831	85.12
298.062	96.12
298.292	85.12
298.523	77.12
298.753	100.12
298.984	83.12
299.214	100.12
299.445	100.12
299.675	91.12
299.905	89.12
300.136	99.12
300.366	81.12
300.597	90.12
300.827	104.12
301.057	120.12
301.288	107.12
301.518	97.12
301.748	92.12
301.979	92.12
302.209	95.12
302.439	109.12
302.669	89.12
302.9	99.12
303.13	98.12
303.36	93.12
303.59	118.12
303.82	107.12
304.051	97.12
304.281	103.12
304.511	93.12
304.741	89.12
304.971	88.12
305.201	99.12
305.431	84.12
305.661	91.12
305.891	106.12
306.121	108.12
306.352	117.12
306.582	104.12
306.812	91.12
307.042	93.12
307.272	111.12
307.502	112.12
307.731	119.12
307.961	114.12
308.191	89.12
308.421	89.12
308.651	89.12
308.881	94.12
309.111	101.12
309.341	105.12
309.571	111.12
309.8	95.12
310.03	105.12
310.26	99.12
310.49	103.12
310.72	105.12
310.949	110.12
311.179	98.12
311.409	102.12
311.639	98.12
311.868	95.12
312.098	99.12
312.328	87.12
312.557	86.12
312.787	106.12
313.017	111.12
313.246	93.12
313.476	92.12
313.706	94.12
313.935	94.12
314.165	82.12
314.394	97.12
314.624	98.12
314.853	113.12
315.083	88.12
315.312	89.12
315.542	89.12
315.771	98.12
316.001	106.12
316.23	89.12
316.46	108.12
316.689	97.12
316.919	89.12
317.148	86.12
317.377	102.12
317.607	104.12
317.836	98.12
318.065	88.12
318.295	95.12
318.524	118.12
318.753	102.12
318.983	81.12
319.212	103.12
319.441	96.12
319.67	108.12
319.9	96.12
320.129	97.12
320.358	90.12
320.587	104.12
320.816	103.12
321.046	103.12
321.275	121.12
321.504	105.12
321.733	101.12
321.962	100.12
322.191	93.12
322.42	109.12
322.649	114.12
322.878	129.12
323.108	122.12
323.337	136.12
323.566	147.12
323.795	153.12
324.024	203.12
324.253	428.12
324.482	925.12
324.71	1832.12
324.939	2350.12
325.168	853.12
325.397	254.12
325.626	167.12
325.855	132.12
326.084	145.12
326.313	124.12
326.542	162.12
326.77	244.12
326.999	507.12
327.228	1023.12
327.457	1810.12
327.686	1484.12
327.914	411.12
328.143	282.12
328.372	268.12
328.6	193.12
328.829	135.12
329.058	148.12
329.287	146.12
329.515	130.12
329.744	144.12
329.972	217.12
330.201	344.12
330.43	473.12
330.658	239.12
330.887	174.12
331.115	139.12
331.344	116.12
331.572	114.12
331.801	104.12
332.03	111.12
332.258	110.12
332.486	96.12
332.715	99.12
332.943	98.12
333.172	96.12
333.4	111.12
333.629	134.12
333.857	143.12
334.085	201.12
334.314	336.12
334.542	595.12
334.771	553.12
334.999	201.12
335.227	125.12
335.455	97.12
335.684	111.12
335.912	99.12
336.14	108.12
336.369	115.12
336.597	98.12
336.825	107.12
337.053	100.12
337.281	99.12
337.51	92.12
337.738	90.12
337.966	90.12
338.194	87.12
338.422	97.12
338.65	100.12
338.878	101.12
339.106	86.12
339.334	101.12
339.562	104.12
339.79	84.12
340.018	100.12
340.246	100.12
340.474	105.12
340.702	90.12
340.93	91.12
341.158	85.12
341.386	101.12
341.614	103.12
341.842	90.12
342.07	105.12
342.298	102.12
342.526	99.12
342.754	90.12
342.981	106.12
343.209	92.12
343.437	100.12
343.665	86.12
343.893	102.12
344.12	103.12
344.348	97.12
344.576	91.12
344.804	96.12
345.031	120.12
345.259	87.12
345.487	103.12
345.714	97.12
345.942	100.12
346.17	92.12
346.397	97.12
346.625	91.12
346.853	94.12
347.08	100.12
347.308	98.12
347.535	113.12
347.763	95.12
347.99	103.12
348.218	111.12
348.445	103.12
348.673	96.12
348.9	99.12
349.128	100.12
349.355	88.12
349.583	96.12
349.81	96.12
350.037	89.12
350.265	100.12
350.492	88.12
350.72	98.12
350.947	94.12
351.174	120.12
351.402	111.12
351.629	104.12
351.856	105.12
352.083	113.12
352.311	110.12
352.538	115.12
352.765	103.12
352.992	113.12
353.22	112.12
353.447	119.12
353.674	98.12
353.901	111.12
354.128	96.12
354.355	121.12
354.583	101.12
354.81	97.12
355.037	97.12
355.264	102.12
355.491	94.12
355.718	73.12
355.945	88.12
356.172	101.12
356.399	114.12
356.626	107.12
356.853	103.12
357.08	95.12
357.307	93.12
357.534	100.12
357.761	106.12
357.988	106.12
358.215	118.12
358.441	119.12
358.668	98.12
358.895	113.12
359.122	97.12
359.349	93.12
359.576	104.12
359.802	112.12
360.029	131.12
360.256	120.12
360.483	114.12
360.709	87.12
360.936	102.12
361.163	95.12
361.39	93.12
361.616	105.12
361.843	84.12
362.07	104.12
362.296	116.12
362.523	103.12
362.749	104.12
362.976	111.12
363.203	96.12
363.429	100.12
363.656	86.12
363.882	106.12
364.109	100.12
364.335	95.12
364.562	94.12
364.788	107.12
365.015	94.12
365.241	108.12
365.468	94.12
365.694	105.12
365.92	96.12
366.147	90.12
366.373	93.12
366.599	91.12
366.826	106.12
367.052	88.12
367.278	92.12
367.505	85.12
367.731	88.12
367.957	88.12
368.184	102.12
368.41	101.12
368.636	109.12
368.862	114.12
369.089	96.12
369.315	110.12
369.541	104.12
369.767	101.12
369.993	108.12
370.219	112.12
370.445	101.12
370.672	90.12
370.898	96.12
371.124	98.12
371.35	103.12
371.576	76.12
371.802	86.12
372.028	106.12
372.254	102.12
372.48	92.12
372.706	95.12
372.932	104.12
373.158	78.12
373.384	95.12
373.61	88.12
373.835	93.12
374.061	103.12
374.287	100.12
374.513	94.12
374.739	97.12
374.965	99.12
375.191	99.12
375.416	91.12
375.642	84.12
375.868	104.12
376.094	89.12
376.319	97.12
376.545	90.12
376.771	87.12
376.997	105.12
377.222	106.12
377.448	101.12
377.674	97.12
377.899	88.12
378.125	94.12
378.35	96.12
378.576	102.12
378.802	79.12
379.027	85.12
379.253	92.12
379.478	95.12
379.704	95.12
379.929	98.12
380.155	108.12
380.38	107.12
380.606	88.12
380.831	89.12
381.057	92.12
381.282	105.12
381.507	96.12
381.733	111.12
381.958	116.12
382.184	109.12
382.409	107.12
382.634	120.12
382.86	107.12
383.085	101.12
383.31	102.12
383.535	111.12
383.761	103.12
383.986	105.12
384.211	102.12
384.436	105.12
384.662	105.12
384.887	121.12
385.112	107.12
385.337	106.12
385.562	98.12
385.787	104.12
386.013	116.12
386.238	125.12
386.463	112.12
386.688	110.12
386.913	112.12
387.138	102.12
387.363	108.12
387.588	97.12
387.813	104.12
388.038	108.12
388.263	120.12
388.488	113.12
388.713	96.12
388.938	101.12
389.163	102.12
389.387	106.12
389.612	104.12
389.837	98.12
390.062	99.12
390.287	92.12
390.512	86.12
390.736	96.12
390.961	104.12
391.186	109.12
391.411	98.12
391.636	90.12
391.86	102.12
392.085	89.12
392.31	88.12
392.534	99.12
392.759	78.12
392.984	87.12
393.208	95.12
393.433	109.12
393.658	98.12
393.882	77.12
394.107	93.12
394.331	86.12
394.556	86.12
394.78	86.12
395.005	92.12
395.229	84.12
395.454	102.12
395.678	93.12
395.903	89.12
396.127	104.12
396.352	94.12
396.576	98.12
396.801	99.12
397.025	91.12
397.249	102.12
397.474	94.12
397.698	96.12
397.922	92.12
398.147	91.12
398.371	89.12
398.595	108.12
398.82	103.12
399.044	97.12
399.268	81.12
399.492	80.12
399.717	95.12
399.941	88.12
400.165	109.12
400.389	100.12
400.613	96.12
400.837	102.12
401.062	84.12
401.286	97.12
401.51	96.12
401.734	97.12
401.958	101.12
402.182	147.12
402.406	144.12
402.63	116.12
402.854	102.12
403.078	92.12
403.302	96.12
403.526	91.12
403.75	106.12
403.974	101.12
404.198	94.12
404.422	86.12
404.645	94.12
404.869	93.12
405.093	116.12
405.317	120.12
405.541	121.12
405.765	100.12
405.988	132.12
406.212	176.12
406.436	225.12
406.66	158.12
406.883	103.12
407.107	96.12
407.331	87.12
407.555	110.12
407.778	112.12
408.002	101.12
408.226	88.12
408.449	97.12
408.673	96.12
408.896	92.12
409.12	100.12
409.344	111.12
409.567	99.12
409.791	102.12
410.014	91.12
410.238	110.12
410.461	88.12
410.685	97.12
410.908	94.12
411.132	111.12
411.355	111.12
411.578	107.12
411.802	102.12
412.025	93.12
412.249	104.12
412.472	108.12
412.695	124.12
412.919	111.12
413.142	118.12
413.365	105.12
413.589	87.12
413.812	90.12
414.035	92.12
414.258	93.12
414.482	102.12
414.705	85.12
414.928	96.12
415.151	96.12
415.374	100.12
415.597	97.12
415.821	90.12
416.044	92.12
416.267	81.12
416.49	87.12
416.713	81.12
416.936	94.12
417.159	106.12
417.382	96.12
417.605	83.12
417.828	113.12
418.051	101.12
418.274	90.12
418.497	88.12
418.72	93.12
418.943	86.12
419.166	87.12
419.389	90.12
419.611	78.12
419.834	85.12
420.057	90.12
420.28	100.12
420.503	88.12
420.726	91.12
420.948	100.12
421.171	85.12
421.394	94.12
421.617	87.12
421.839	93.12
422.062	92.12
422.285	102.12
422.507	115.12
422.73	113.12
422.953	110.12
423.175	101.12
423.398	101.12
423.621	98.12
423.843	85.12
424.066	91.12
424.288	80.12
424.511	90.12
424.733	103.12
424.956	105.12
425.178	108.12
425.401	109.12
425.623	96.12
425.846	95.12
426.068	88.12
426.291	91.12
426.513	92.12
426.735	85.12
426.958	102.12
427.18	102.12
427.402	152.12
427.625	181.12
427.847	174.12
428.069	173.12
428.292	96.12
428.514	88.12
428.736	98.12
428.958	91.12
429.181	77.12
429.403	99.12
429.625	87.12
429.847	90.12
430.069	105.12
430.292	96.12
430.514	91.12
430.736	111.12
430.958	85.12
431.18	82.12
431.402	83.12
431.624	84.12
431.846	90.12
432.068	104.12
432.29	96.12
432.512	101.12
432.734	85.12
432.956	103.12
433.178	106.12
433.4	97.12
433.622	92.12
433.844	88.12
434.066	91.12
434.287	90.12
434.509	92.12
434.731	92.12
434.953	101.12
435.175	77.12
435.397	86.12
435.618	96.12
435.84	122.12
436.062	142.12
436.284	123.12
436.505	109.12
436.727	97.12
436.949	102.12
437.17	88.12
437.392	92.12
437.614	95.12
437.835	101.12
438.057	133.12
438.278	133.12
438.5	112.12
438.721	137.12
438.943	117.12
439.165	98.12
439.386	94.12
439.608	86.12
439.829	95.12
440.05	130.12
440.272	158.12
440.493	121.12
440.715	83.12
440.936	98.12
441.158	92.12
441.379	81.12
441.6	99.12
441.822	103.12
442.043	107.12
442.264	117.12
442.486	114.12
442.707	98.12
442.928	98.12
443.149	140.12
443.371	144.12
443.592	107.12
443.813	112.12
444.034	118.12
444.255	98.12
444.476	81.12
444.698	97.12
444.919	96.12
445.14	132.12
445.361	118.12
445.582	130.12
445.803	154.12
446.024	152.12
446.245	154.12
446.466	116.12
446.687	94.12
446.908	107.12
447.129	93.12
447.35	95.12
447.571	91.12
447.792	90.12
448.013	88.12
448.234	117.12
448.455	115.12
448.675	120.12
448.896	134.12
449.117	123.12
449.338	107.12
449.559	138.12
449.779	146.12
450	109.12
450.221	91.12
450.442	96.12
450.662	95.12
450.883	102.12
451.104	125.12
451.324	97.12
451.545	79.12
451.766	102.12
451.986	94.12
452.207	84.12
452.428	100.12
452.648	111.12
452.869	118.12
453.089	118.12
453.31	113.12
453.53	103.12
453.751	89.12
453.971	118.12
454.192	117.12
454.412	104.12
454.633	96.12
454.853	107.12
455.073	88.12
455.294	92.12
455.514	93.12
455.734	99.12
455.955	91.12
456.175	97.12
456.395	102.12
456.616	90.12
456.836	89.12
457.056	84.12
457.276	97.12
457.497	98.12
457.717	98.12
457.937	101.12
458.157	85.12
458.377	78.12
458.598	111.12
458.818	162.12
459.038	163.12
459.258	120.12
459.478	97.12
459.698	90.12
459.918	82.12
460.138	86.12
460.358	93.12
460.578	89.12
460.798	98.12
461.018	99.12
461.238	92.12
461.458	75.12
461.678	87.12
461.898	90.12
462.118	80.12
462.338	87.12
462.558	83.12
462.777	89.12
462.997	92.12
463.217	96.12
463.437	97.12
463.657	85.12
463.876	87.12
464.096	87.12
464.316	79.12
464.536	95.12
464.755	105.12
464.975	103.12
465.195	181.12
465.414	174.12
465.634	108.12
465.854	97.12
466.073	92.12
466.293	84.12
466.512	103.12
466.732	83.12
466.951	88.12
467.171	94.12
467.391	100.12
467.61	102.12
467.829	112.12
468.049	227.12
468.268	286.12
468.488	114.12
468.707	94.12
468.927	92.12
469.146	88.12
469.365	77.12
469.585	83.12
469.804	95.12
470.023	110.12
470.243	88.12
470.462	113.12
470.681	125.12
470.901	88.12
471.12	105.12
471.339	96.12
471.558	84.12
471.777	124.12
471.997	158.12
472.216	372.12
472.435	732.12
472.654	224.12
472.873	114.12
473.092	97.12
473.311	100.12
473.53	94.12
473.749	86.12
473.968	94.12
474.187	112.12
474.406	96.12
474.625	97.12
474.844	103.12
475.063	97.12
475.282	96.12
475.501	100.12
475.72	90.12
475.939	97.12
476.158	86.12
476.377	92.12
476.596	99.12
476.814	105.12
477.033	95.12
477.252	97.12
477.471	92.12
477.69	91.12
477.908	92.12
478.127	105.12
478.346	82.12
478.564	96.12
478.783	109.12
479.002	91.12
479.22	95.12
479.439	107.12
479.658	116.12
479.876	121.12
480.095	102.12
480.313	100.12
480.532	116.12
480.751	146.12
480.969	383.12
481.188	1269.12
481.406	741.12
481.624	166.12
481.843	101.12
482.061	97.12
482.28	84.12
482.498	94.12
482.717	101.12
482.935	91.12
483.153	95.12
483.372	98.12
483.59	106.12
483.808	94.12
484.027	102.12
484.245	100.12
484.463	98.12
484.681	96.12
484.9	102.12
485.118	98.12
485.336	107.12
485.554	96.12
485.772	98.12
485.99	105.12
486.209	108.12
486.427	93.12
486.645	112.12
486.863	114.12
487.081	106.12
487.299	97.12
487.517	96.12
487.735	104.12
487.953	83.12
488.171	91.12
488.389	103.12
488.607	103.12
488.825	94.12
489.043	93.12
489.261	88.12
489.479	90.12
489.696	86.12
489.914	93.12
490.132	102.12
490.35	90.12
490.568	109.12
490.786	86.12
491.003	92.12
491.221	90.12
491.439	87.12
491.657	95.12
491.874	84.12
492.092	80.12
492.31	88.12
492.527	96.12
492.745	95.12
492.963	88.12
493.18	88.12
493.398	76.12
493.615	103.12
493.833	108.12
494.05	102.12
494.268	94.12
494.485	107.12
494.703	92.12
494.92	89.12
495.138	92.12
495.355	97.12
495.573	96.12
495.79	76.12
496.008	103.12
496.225	102.12
496.442	98.12
496.66	85.12
496.877	78.12
497.094	97.12
497.312	95.12
497.529	87.12
497.746	81.12
497.963	94.12
498.181	101.12
498.398	106.12
498.615	119.12
498.832	116.12
499.049	102.12
499.267	89.12
499.484	98.12
499.701	82.12
499.918	94.12
500.135	89.12
500.352	100.12
500.569	112.12
500.786	85.12
501.003	80.12
501.22	92.12
501.437	105.12
501.654	97.12
501.871	122.12
502.088	104.12
502.305	94.12
502.522	101.12
502.739	99.12
502.956	85.12
503.172	100.12
503.389	110.12
503.606	105.12
503.823	90.12
504.04	97.12
504.256	102.12
504.473	95.12
504.69	86.12
504.907	94.12
505.123	90.12
505.34	102.12
505.557	84.12
505.773	96.12
505.99	89.12
506.207	82.12
506.423	102.12
506.64	88.12
506.856	113.12
507.073	106.12
507.289	89.12
507.506	101.12
507.722	132.12
507.939	127.12
508.155	96.12
508.372	100.12
508.588	90.12
508.805	97.12
509.021	90.12
509.238	118.12
509.454	112.12
509.67	107.12
509.887	113.12
510.103	132.12
510.319	210.12
510.536	740.12
510.752	2272.12
510.968	666.12
511.184	151.12
511.401	121.12
511.617	90.12
511.833	91.12
512.049	81.12
512.265	96.12
512.481	97.12
512.698	91.12
512.914	87.12
