Data from Circ_2000_H10_HRD10591_00075.txt Node
Date: Wed Jan 03 10:49:48 EST 2024
User: Yrep
Spectrometer: HR+D1059
Trigger mode: 1
Integration Time (sec): 1.000000E-1
Scans to average: 1
Electric dark correction enabled: true
Nonlinearity correction enabled: false
Boxcar width: 0
XAxis mode: Wavelengths
Number of Pixels in Spectrum: 2048
>>>>>Begin Spectral Data<<<<<
223.165	-19.56
223.4	-19.56
223.635	-19.56
223.869	-23.56
224.104	-18.56
224.338	-19.56
224.573	-2.56
224.808	1.44
225.042	-4.56
225.277	-10.56
225.511	6.44
225.746	-2.56
225.98	7.44
226.215	14.44
226.449	2.44
226.683	12.44
226.918	26.44
227.152	30.44
227.387	31.44
227.621	40.44
227.856	44.44
228.09	45.44
228.324	47.44
228.559	69.44
228.793	52.44
229.027	57.44
229.262	75.44
229.496	66.44
229.73	91.44
229.964	81.44
230.199	74.44
230.433	83.44
230.667	85.44
230.901	78.44
231.136	77.44
231.37	82.44
231.604	73.44
231.838	88.44
232.072	90.44
232.306	77.44
232.541	90.44
232.775	99.44
233.009	93.44
233.243	84.44
233.477	68.44
233.711	89.44
233.945	94.44
234.179	86.44
234.413	73.44
234.647	90.44
234.881	89.44
235.115	81.44
235.349	71.44
235.583	87.44
235.817	87.44
236.051	74.44
236.285	85.44
236.519	88.44
236.753	85.44
236.987	73.44
237.221	74.44
237.455	88.44
237.689	74.44
237.922	81.44
238.156	89.44
238.39	70.44
238.624	68.44
238.858	78.44
239.091	74.44
239.325	67.44
239.559	79.44
239.793	89.44
240.027	96.44
240.26	82.44
240.494	68.44
240.728	80.44
240.961	81.44
241.195	74.44
241.429	77.44
241.662	95.44
241.896	81.44
242.13	78.44
242.363	70.44
242.597	83.44
242.83	82.44
243.064	77.44
243.298	91.44
243.531	85.44
243.765	77.44
243.998	80.44
244.232	88.44
244.465	99.44
244.699	96.44
244.932	75.44
245.166	81.44
245.399	62.44
245.633	82.44
245.866	73.44
246.099	79.44
246.333	78.44
246.566	95.44
246.8	75.44
247.033	73.44
247.266	96.44
247.5	84.44
247.733	89.44
247.966	80.44
248.2	75.44
248.433	83.44
248.666	82.44
248.899	86.44
249.133	106.44
249.366	106.44
249.599	102.44
249.832	85.44
250.066	78.44
250.299	76.44
250.532	70.44
250.765	78.44
250.998	86.44
251.231	93.44
251.465	85.44
251.698	72.44
251.931	97.44
252.164	89.44
252.397	74.44
252.63	94.44
252.863	79.44
253.096	86.44
253.329	70.44
253.562	87.44
253.795	78.44
254.028	81.44
254.261	79.44
254.494	86.44
254.727	87.44
254.96	79.44
255.193	92.44
255.426	83.44
255.659	95.44
255.892	95.44
256.124	90.44
256.357	87.44
256.59	82.44
256.823	83.44
257.056	78.44
257.289	85.44
257.521	96.44
257.754	95.44
257.987	87.44
258.22	91.44
258.452	81.44
258.685	79.44
258.918	92.44
259.151	91.44
259.383	94.44
259.616	81.44
259.849	87.44
260.081	78.44
260.314	76.44
260.547	84.44
260.779	97.44
261.012	115.44
261.244	93.44
261.477	89.44
261.71	100.44
261.942	135.44
262.175	122.44
262.407	89.44
262.64	85.44
262.872	76.44
263.105	74.44
263.337	103.44
263.57	82.44
263.802	93.44
264.035	89.44
264.267	82.44
264.499	95.44
264.732	84.44
264.964	85.44
265.197	69.44
265.429	85.44
265.661	76.44
265.894	85.44
266.126	79.44
266.358	95.44
266.591	103.44
266.823	88.44
267.055	86.44
267.287	94.44
267.52	93.44
267.752	83.44
267.984	80.44
268.216	99.44
268.448	88.44
268.681	93.44
268.913	90.44
269.145	89.44
269.377	93.44
269.609	77.44
269.841	99.44
270.073	102.44
270.306	78.44
270.538	89.44
270.77	100.44
271.002	90.44
271.234	89.44
271.466	91.44
271.698	94.44
271.93	88.44
272.162	86.44
272.394	80.44
272.626	74.44
272.858	83.44
273.09	93.44
273.322	102.44
273.553	77.44
273.785	95.44
274.017	93.44
274.249	85.44
274.481	79.44
274.713	80.44
274.945	107.44
275.176	87.44
275.408	92.44
275.64	95.44
275.872	105.44
276.104	100.44
276.335	99.44
276.567	91.44
276.799	133.44
277.031	136.44
277.262	135.44
277.494	115.44
277.726	102.44
277.957	75.44
278.189	95.44
278.421	85.44
278.652	98.44
278.884	98.44
279.115	98.44
279.347	82.44
279.579	98.44
279.81	115.44
280.042	139.44
280.273	173.44
280.505	141.44
280.736	94.44
280.968	84.44
281.199	87.44
281.431	89.44
281.662	88.44
281.894	89.44
282.125	101.44
282.356	116.44
282.588	165.44
282.819	133.44
283.051	88.44
283.282	91.44
283.513	83.44
283.745	87.44
283.976	91.44
284.207	98.44
284.439	88.44
284.67	97.44
284.901	83.44
285.132	96.44
285.364	83.44
285.595	78.44
285.826	108.44
286.057	93.44
286.288	89.44
286.52	78.44
286.751	95.44
286.982	81.44
287.213	89.44
287.444	93.44
287.675	92.44
287.906	93.44
288.138	87.44
288.369	87.44
288.6	105.44
288.831	81.44
289.062	96.44
289.293	78.44
289.524	100.44
289.755	98.44
289.986	102.44
290.217	91.44
290.448	107.44
290.679	79.44
290.91	76.44
291.141	78.44
291.371	99.44
291.602	91.44
291.833	87.44
292.064	88.44
292.295	95.44
292.526	82.44
292.757	86.44
292.987	81.44
293.218	98.44
293.449	101.44
293.68	99.44
293.91	95.44
294.141	88.44
294.372	102.44
294.603	78.44
294.833	77.44
295.064	92.44
295.295	84.44
295.525	91.44
295.756	106.44
295.987	135.44
296.217	161.44
296.448	140.44
296.679	93.44
296.909	91.44
297.14	98.44
297.37	95.44
297.601	99.44
297.831	90.44
298.062	88.44
298.292	101.44
298.523	94.44
298.753	86.44
298.984	93.44
299.214	77.44
299.445	90.44
299.675	101.44
299.905	103.44
300.136	105.44
300.366	78.44
300.597	90.44
300.827	93.44
301.057	101.44
301.288	107.44
301.518	89.44
301.748	83.44
301.979	121.44
302.209	98.44
302.439	107.44
302.669	90.44
302.9	84.44
303.13	104.44
303.36	99.44
303.59	133.44
303.82	116.44
304.051	92.44
304.281	103.44
304.511	97.44
304.741	85.44
304.971	110.44
305.201	81.44
305.431	82.44
305.661	101.44
305.891	101.44
306.121	93.44
306.352	113.44
306.582	110.44
306.812	102.44
307.042	112.44
307.272	114.44
307.502	137.44
307.731	145.44
307.961	121.44
308.191	108.44
308.421	89.44
308.651	91.44
308.881	99.44
309.111	83.44
309.341	99.44
309.571	105.44
309.8	99.44
310.03	98.44
310.26	106.44
310.49	109.44
310.72	105.44
310.949	115.44
311.179	114.44
311.409	98.44
311.639	95.44
311.868	99.44
312.098	106.44
312.328	89.44
312.557	114.44
312.787	132.44
313.017	109.44
313.246	100.44
313.476	103.44
313.706	93.44
313.935	101.44
314.165	116.44
314.394	102.44
314.624	104.44
314.853	105.44
315.083	100.44
315.312	96.44
315.542	102.44
315.771	90.44
316.001	95.44
316.23	93.44
316.46	97.44
316.689	94.44
316.919	107.44
317.148	85.44
317.377	85.44
317.607	95.44
317.836	91.44
318.065	94.44
318.295	94.44
318.524	90.44
318.753	92.44
318.983	100.44
319.212	98.44
319.441	115.44
319.67	120.44
319.9	91.44
320.129	92.44
320.358	110.44
320.587	97.44
320.816	102.44
321.046	116.44
321.275	103.44
321.504	100.44
321.733	108.44
321.962	108.44
322.191	103.44
322.42	99.44
322.649	132.44
322.878	126.44
323.108	133.44
323.337	121.44
323.566	145.44
323.795	160.44
324.024	242.44
324.253	463.44
324.482	961.44
324.71	1960.44
324.939	2559.44
325.168	943.44
325.397	287.44
325.626	168.44
325.855	145.44
326.084	137.44
326.313	138.44
326.542	177.44
326.77	249.44
326.999	517.44
327.228	1068.44
327.457	1964.44
327.686	1553.44
327.914	491.44
328.143	365.44
328.372	401.44
328.6	243.44
328.829	140.44
329.058	153.44
329.287	184.44
329.515	164.44
329.744	185.44
329.972	300.44
330.201	560.44
330.43	803.44
330.658	401.44
330.887	229.44
331.115	149.44
331.344	117.44
331.572	113.44
331.801	124.44
332.03	105.44
332.258	106.44
332.486	100.44
332.715	90.44
332.943	93.44
333.172	96.44
333.4	118.44
333.629	140.44
333.857	179.44
334.085	297.44
334.314	547.44
334.542	992.44
334.771	949.44
334.999	271.44
335.227	129.44
335.455	117.44
335.684	115.44
335.912	114.44
336.14	111.44
336.369	106.44
336.597	106.44
336.825	96.44
337.053	107.44
337.281	94.44
337.51	98.44
337.738	94.44
337.966	84.44
338.194	104.44
338.422	89.44
338.65	101.44
338.878	98.44
339.106	107.44
339.334	96.44
339.562	89.44
339.79	98.44
340.018	83.44
340.246	99.44
340.474	87.44
340.702	105.44
340.93	91.44
341.158	94.44
341.386	114.44
341.614	116.44
341.842	109.44
342.07	105.44
342.298	75.44
342.526	91.44
342.754	84.44
342.981	86.44
343.209	84.44
343.437	102.44
343.665	79.44
343.893	76.44
344.12	92.44
344.348	101.44
344.576	86.44
344.804	91.44
345.031	109.44
345.259	104.44
345.487	94.44
345.714	105.44
345.942	91.44
346.17	81.44
346.397	82.44
346.625	83.44
346.853	85.44
347.08	94.44
347.308	90.44
347.535	94.44
347.763	106.44
347.99	98.44
348.218	102.44
348.445	122.44
348.673	105.44
348.9	90.44
349.128	96.44
349.355	96.44
349.583	94.44
349.81	99.44
350.037	107.44
350.265	87.44
350.492	94.44
350.72	107.44
350.947	111.44
351.174	109.44
351.402	104.44
351.629	108.44
351.856	113.44
352.083	103.44
352.311	101.44
352.538	131.44
352.765	113.44
352.992	128.44
353.22	116.44
353.447	118.44
353.674	89.44
353.901	97.44
354.128	107.44
354.355	92.44
354.583	102.44
354.81	93.44
355.037	101.44
355.264	110.44
355.491	101.44
355.718	107.44
355.945	91.44
356.172	97.44
356.399	85.44
356.626	102.44
356.853	93.44
357.08	92.44
357.307	96.44
357.534	100.44
357.761	106.44
357.988	101.44
358.215	110.44
358.441	91.44
358.668	88.44
358.895	95.44
359.122	102.44
359.349	108.44
359.576	114.44
359.802	100.44
360.029	127.44
360.256	125.44
360.483	107.44
360.709	94.44
360.936	90.44
361.163	98.44
361.39	108.44
361.616	97.44
361.843	93.44
362.07	103.44
362.296	98.44
362.523	92.44
362.749	97.44
362.976	85.44
363.203	88.44
363.429	99.44
363.656	94.44
363.882	92.44
364.109	101.44
364.335	91.44
364.562	93.44
364.788	93.44
365.015	94.44
365.241	110.44
365.468	121.44
365.694	113.44
365.92	92.44
366.147	93.44
366.373	92.44
366.599	94.44
366.826	79.44
367.052	90.44
367.278	103.44
367.505	86.44
367.731	104.44
367.957	96.44
368.184	108.44
368.41	117.44
368.636	123.44
368.862	133.44
369.089	132.44
369.315	98.44
369.541	91.44
369.767	94.44
369.993	87.44
370.219	92.44
370.445	94.44
370.672	99.44
370.898	100.44
371.124	91.44
371.35	84.44
371.576	89.44
371.802	83.44
372.028	81.44
372.254	76.44
372.48	101.44
372.706	95.44
372.932	89.44
373.158	95.44
373.384	106.44
373.61	94.44
373.835	104.44
374.061	73.44
374.287	94.44
374.513	93.44
374.739	82.44
374.965	96.44
375.191	86.44
375.416	88.44
375.642	86.44
375.868	74.44
376.094	94.44
376.319	88.44
376.545	83.44
376.771	98.44
376.997	103.44
377.222	83.44
377.448	110.44
377.674	96.44
377.899	93.44
378.125	94.44
378.35	91.44
378.576	95.44
378.802	87.44
379.027	101.44
379.253	101.44
379.478	83.44
379.704	102.44
379.929	75.44
380.155	96.44
380.38	102.44
380.606	97.44
380.831	100.44
381.057	94.44
381.282	86.44
381.507	97.44
381.733	107.44
381.958	100.44
382.184	90.44
382.409	94.44
382.634	99.44
382.86	107.44
383.085	84.44
383.31	104.44
383.535	110.44
383.761	101.44
383.986	96.44
384.211	95.44
384.436	89.44
384.662	110.44
384.887	98.44
385.112	108.44
385.337	107.44
385.562	117.44
385.787	106.44
386.013	103.44
386.238	107.44
386.463	110.44
386.688	114.44
386.913	95.44
387.138	103.44
387.363	108.44
387.588	94.44
387.813	95.44
388.038	100.44
388.263	115.44
388.488	118.44
388.713	92.44
388.938	76.44
389.163	91.44
389.387	106.44
389.612	90.44
389.837	98.44
390.062	86.44
390.287	94.44
390.512	99.44
390.736	93.44
390.961	101.44
391.186	101.44
391.411	78.44
391.636	90.44
391.86	90.44
392.085	83.44
392.31	87.44
392.534	92.44
392.759	92.44
392.984	80.44
393.208	91.44
393.433	89.44
393.658	93.44
393.882	78.44
394.107	85.44
394.331	84.44
394.556	93.44
394.78	92.44
395.005	84.44
395.229	97.44
395.454	87.44
395.678	82.44
395.903	82.44
396.127	90.44
396.352	97.44
396.576	94.44
396.801	92.44
397.025	98.44
397.249	94.44
397.474	97.44
397.698	79.44
397.922	83.44
398.147	88.44
398.371	91.44
398.595	84.44
398.82	87.44
399.044	90.44
399.268	76.44
399.492	74.44
399.717	100.44
399.941	91.44
400.165	104.44
400.389	94.44
400.613	82.44
400.837	89.44
401.062	83.44
401.286	100.44
401.51	97.44
401.734	103.44
401.958	95.44
402.182	127.44
402.406	194.44
402.63	137.44
402.854	98.44
403.078	78.44
403.302	89.44
403.526	93.44
403.75	74.44
403.974	99.44
404.198	96.44
404.422	85.44
404.645	82.44
404.869	94.44
405.093	97.44
405.317	136.44
405.541	107.44
405.765	106.44
405.988	134.44
406.212	195.44
406.436	282.44
406.66	187.44
406.883	117.44
407.107	91.44
407.331	99.44
407.555	91.44
407.778	107.44
408.002	84.44
408.226	97.44
408.449	89.44
408.673	105.44
408.896	95.44
409.12	89.44
409.344	93.44
409.567	88.44
409.791	100.44
410.014	91.44
410.238	89.44
410.461	93.44
410.685	95.44
410.908	100.44
411.132	96.44
411.355	97.44
411.578	96.44
411.802	95.44
412.025	77.44
412.249	103.44
412.472	101.44
412.695	123.44
412.919	108.44
413.142	81.44
413.365	81.44
413.589	90.44
413.812	95.44
414.035	96.44
414.258	85.44
414.482	100.44
414.705	101.44
414.928	88.44
415.151	89.44
415.374	90.44
415.597	100.44
415.821	86.44
416.044	82.44
416.267	84.44
416.49	90.44
416.713	106.44
416.936	83.44
417.159	81.44
417.382	89.44
417.605	98.44
417.828	86.44
418.051	102.44
418.274	83.44
418.497	88.44
418.72	89.44
418.943	92.44
419.166	86.44
419.389	93.44
419.611	107.44
419.834	93.44
420.057	106.44
420.28	94.44
420.503	97.44
420.726	91.44
420.948	102.44
421.171	106.44
421.394	103.44
421.617	89.44
421.839	91.44
422.062	82.44
422.285	87.44
422.507	105.44
422.73	112.44
422.953	83.44
423.175	78.44
423.398	87.44
423.621	86.44
423.843	81.44
424.066	92.44
424.288	90.44
424.511	85.44
424.733	102.44
424.956	125.44
425.178	109.44
425.401	103.44
425.623	99.44
425.846	89.44
426.068	99.44
426.291	85.44
426.513	103.44
426.735	92.44
426.958	101.44
427.18	119.44
427.402	163.44
427.625	218.44
427.847	210.44
428.069	185.44
428.292	111.44
428.514	88.44
428.736	105.44
428.958	77.44
429.181	86.44
429.403	97.44
429.625	102.44
429.847	106.44
430.069	105.44
430.292	92.44
430.514	94.44
430.736	102.44
430.958	84.44
431.18	81.44
431.402	76.44
431.624	103.44
431.846	81.44
432.068	88.44
432.29	91.44
432.512	90.44
432.734	82.44
432.956	89.44
433.178	104.44
433.4	96.44
433.622	70.44
433.844	97.44
434.066	92.44
434.287	94.44
434.509	104.44
434.731	79.44
434.953	85.44
435.175	92.44
435.397	78.44
435.618	95.44
435.84	106.44
436.062	119.44
436.284	129.44
436.505	102.44
436.727	107.44
436.949	113.44
437.17	101.44
437.392	103.44
437.614	102.44
437.835	113.44
438.057	141.44
438.278	124.44
438.5	96.44
438.721	111.44
438.943	98.44
439.165	86.44
439.386	100.44
439.608	94.44
439.829	92.44
440.05	141.44
440.272	157.44
440.493	113.44
440.715	101.44
440.936	103.44
441.158	95.44
441.379	99.44
441.6	101.44
441.822	103.44
442.043	102.44
442.264	112.44
442.486	106.44
442.707	85.44
442.928	113.44
443.149	150.44
443.371	165.44
443.592	122.44
443.813	103.44
444.034	108.44
444.255	88.44
444.476	86.44
444.698	101.44
444.919	98.44
445.14	142.44
445.361	108.44
445.582	122.44
445.803	166.44
446.024	156.44
446.245	145.44
446.466	121.44
446.687	86.44
446.908	100.44
447.129	89.44
447.35	92.44
447.571	89.44
447.792	98.44
448.013	77.44
448.234	108.44
448.455	111.44
448.675	117.44
448.896	116.44
449.117	109.44
449.338	103.44
449.559	127.44
449.779	145.44
450	98.44
450.221	93.44
450.442	97.44
450.662	114.44
450.883	109.44
451.104	129.44
451.324	96.44
451.545	87.44
451.766	81.44
451.986	89.44
452.207	95.44
452.428	106.44
452.648	102.44
452.869	129.44
453.089	125.44
453.31	130.44
453.53	93.44
453.751	95.44
453.971	114.44
454.192	122.44
454.412	101.44
454.633	96.44
454.853	82.44
455.073	91.44
455.294	90.44
455.514	101.44
455.734	89.44
455.955	94.44
456.175	92.44
456.395	78.44
456.616	103.44
456.836	90.44
457.056	93.44
457.276	90.44
457.497	84.44
457.717	84.44
457.937	100.44
458.157	83.44
458.377	99.44
458.598	115.44
458.818	174.44
459.038	197.44
459.258	136.44
459.478	94.44
459.698	83.44
459.918	103.44
460.138	94.44
460.358	83.44
460.578	94.44
460.798	88.44
461.018	98.44
461.238	82.44
461.458	87.44
461.678	91.44
461.898	83.44
462.118	79.44
462.338	105.44
462.558	87.44
462.777	93.44
462.997	91.44
463.217	98.44
463.437	71.44
463.657	90.44
463.876	93.44
464.096	82.44
464.316	93.44
464.536	95.44
464.755	91.44
464.975	115.44
465.195	214.44
465.414	194.44
465.634	105.44
465.854	101.44
466.073	95.44
466.293	77.44
466.512	94.44
466.732	86.44
466.951	97.44
467.171	93.44
467.391	106.44
467.61	108.44
467.829	150.44
468.049	345.44
468.268	497.44
468.488	166.44
468.707	97.44
468.927	98.44
469.146	109.44
469.365	86.44
469.585	99.44
469.804	102.44
470.023	116.44
470.243	106.44
470.462	96.44
470.681	125.44
470.901	102.44
471.12	97.44
471.339	101.44
471.558	87.44
471.777	121.44
471.997	222.44
472.216	666.44
472.435	1382.44
472.654	346.44
472.873	141.44
473.092	93.44
473.311	93.44
473.53	99.44
473.749	96.44
473.968	102.44
474.187	145.44
474.406	105.44
474.625	93.44
474.844	102.44
475.063	78.44
475.282	78.44
475.501	87.44
475.72	99.44
475.939	93.44
476.158	96.44
476.377	107.44
476.596	89.44
476.814	84.44
477.033	96.44
477.252	102.44
477.471	94.44
477.69	97.44
477.908	89.44
478.127	95.44
478.346	93.44
478.564	98.44
478.783	98.44
479.002	98.44
479.22	94.44
479.439	99.44
479.658	129.44
479.876	115.44
480.095	114.44
480.313	104.44
480.532	131.44
480.751	215.44
480.969	618.44
481.188	2439.44
481.406	1425.44
481.624	243.44
481.843	133.44
482.061	91.44
482.28	95.44
482.498	91.44
482.717	92.44
482.935	95.44
483.153	91.44
483.372	99.44
483.59	87.44
483.808	88.44
484.027	89.44
484.245	110.44
484.463	115.44
484.681	89.44
484.9	97.44
485.118	92.44
485.336	96.44
485.554	97.44
485.772	94.44
485.99	113.44
486.209	105.44
486.427	122.44
486.645	140.44
486.863	119.44
487.081	111.44
487.299	102.44
487.517	97.44
487.735	101.44
487.953	80.44
488.171	98.44
488.389	86.44
488.607	98.44
488.825	94.44
489.043	85.44
489.261	108.44
489.479	88.44
489.696	77.44
489.914	97.44
490.132	88.44
490.35	101.44
490.568	78.44
490.786	82.44
491.003	86.44
491.221	93.44
491.439	88.44
491.657	89.44
491.874	93.44
492.092	83.44
492.31	86.44
492.527	90.44
492.745	89.44
492.963	94.44
493.18	94.44
493.398	91.44
493.615	92.44
493.833	100.44
494.05	90.44
494.268	111.44
494.485	84.44
494.703	101.44
494.92	92.44
495.138	83.44
495.355	77.44
495.573	97.44
495.79	78.44
496.008	91.44
496.225	90.44
496.442	94.44
496.66	98.44
496.877	85.44
497.094	107.44
497.312	97.44
497.529	100.44
497.746	84.44
497.963	103.44
498.181	99.44
498.398	98.44
498.615	114.44
498.832	100.44
499.049	95.44
499.267	94.44
499.484	94.44
499.701	97.44
499.918	94.44
500.135	78.44
500.352	91.44
500.569	91.44
500.786	100.44
501.003	93.44
501.22	92.44
501.437	99.44
501.654	91.44
501.871	105.44
502.088	107.44
502.305	92.44
502.522	99.44
502.739	103.44
502.956	103.44
503.172	74.44
503.389	97.44
503.606	118.44
503.823	104.44
504.04	85.44
504.256	96.44
504.473	88.44
504.69	86.44
504.907	111.44
505.123	82.44
505.34	83.44
505.557	86.44
505.773	93.44
505.99	90.44
506.207	99.44
506.423	97.44
506.64	96.44
506.856	91.44
507.073	101.44
507.289	85.44
507.506	103.44
507.722	122.44
507.939	109.44
508.155	95.44
508.372	105.44
508.588	85.44
508.805	94.44
509.021	102.44
509.238	94.44
509.454	105.44
509.67	105.44
509.887	113.44
510.103	147.44
510.319	227.44
510.536	836.44
510.752	2892.44
510.968	790.44
511.184	176.44
511.401	120.44
511.617	117.44
511.833	109.44
512.049	89.44
512.265	114.44
512.481	110.44
512.698	91.44
512.914	90.44
513.13	96.44
513.346	106.44
