Data from Circ_2000_H10_HRD10591_00065.txt Node
Date: Wed Jan 03 10:49:46 EST 2024
User: Yrep
Spectrometer: HR+D1059
Trigger mode: 1
Integration Time (sec): 1.000000E-1
Scans to average: 1
Electric dark correction enabled: true
Nonlinearity correction enabled: false
Boxcar width: 0
XAxis mode: Wavelengths
Number of Pixels in Spectrum: 2048
>>>>>Begin Spectral Data<<<<<
223.165	-19.44
223.4	-19.44
223.635	-19.44
223.869	-24.44
224.104	-28.44
224.338	-16.44
224.573	-4.44
224.808	-3.44
225.042	-14.44
225.277	7.56
225.511	5.56
225.746	5.56
225.98	3.56
226.215	10.56
226.449	17.56
226.683	17.56
226.918	16.56
227.152	26.56
227.387	31.56
227.621	32.56
227.856	47.56
228.09	36.56
228.324	64.56
228.559	63.56
228.793	55.56
229.027	73.56
229.262	58.56
229.496	85.56
229.73	111.56
229.964	86.56
230.199	109.56
230.433	81.56
230.667	84.56
230.901	73.56
231.136	80.56
231.37	79.56
231.604	72.56
231.838	81.56
232.072	73.56
232.306	74.56
232.541	72.56
232.775	88.56
233.009	81.56
233.243	75.56
233.477	79.56
233.711	79.56
233.945	93.56
234.179	71.56
234.413	91.56
234.647	78.56
234.881	74.56
235.115	83.56
235.349	88.56
235.583	77.56
235.817	84.56
236.051	88.56
236.285	84.56
236.519	73.56
236.753	73.56
236.987	85.56
237.221	83.56
237.455	87.56
237.689	91.56
237.922	80.56
238.156	73.56
238.39	81.56
238.624	75.56
238.858	82.56
239.091	86.56
239.325	83.56
239.559	87.56
239.793	87.56
240.027	59.56
240.26	87.56
240.494	80.56
240.728	80.56
240.961	78.56
241.195	87.56
241.429	82.56
241.662	59.56
241.896	82.56
242.13	75.56
242.363	78.56
242.597	79.56
242.83	69.56
243.064	87.56
243.298	72.56
243.531	81.56
243.765	60.56
243.998	83.56
244.232	71.56
244.465	87.56
244.699	79.56
244.932	95.56
245.166	66.56
245.399	73.56
245.633	75.56
245.866	62.56
246.099	87.56
246.333	96.56
246.566	72.56
246.8	81.56
247.033	78.56
247.266	77.56
247.5	87.56
247.733	80.56
247.966	71.56
248.2	88.56
248.433	86.56
248.666	94.56
248.899	102.56
249.133	93.56
249.366	99.56
249.599	92.56
249.832	86.56
250.066	83.56
250.299	80.56
250.532	82.56
250.765	78.56
250.998	78.56
251.231	81.56
251.465	70.56
251.698	85.56
251.931	88.56
252.164	83.56
252.397	57.56
252.63	82.56
252.863	86.56
253.096	89.56
253.329	83.56
253.562	83.56
253.795	79.56
254.028	83.56
254.261	70.56
254.494	77.56
254.727	89.56
254.96	74.56
255.193	71.56
255.426	86.56
255.659	95.56
255.892	86.56
256.124	87.56
256.357	92.56
256.59	80.56
256.823	92.56
257.056	92.56
257.289	93.56
257.521	90.56
257.754	85.56
257.987	81.56
258.22	97.56
258.452	69.56
258.685	95.56
258.918	90.56
259.151	75.56
259.383	77.56
259.616	80.56
259.849	81.56
260.081	92.56
260.314	95.56
260.547	100.56
260.779	88.56
261.012	105.56
261.244	120.56
261.477	95.56
261.71	117.56
261.942	140.56
262.175	160.56
262.407	93.56
262.64	91.56
262.872	87.56
263.105	91.56
263.337	78.56
263.57	74.56
263.802	89.56
264.035	101.56
264.267	86.56
264.499	76.56
264.732	77.56
264.964	85.56
265.197	83.56
265.429	92.56
265.661	83.56
265.894	99.56
266.126	93.56
266.358	84.56
266.591	80.56
266.823	95.56
267.055	77.56
267.287	80.56
267.52	91.56
267.752	89.56
267.984	81.56
268.216	79.56
268.448	90.56
268.681	88.56
268.913	93.56
269.145	105.56
269.377	92.56
269.609	88.56
269.841	77.56
270.073	76.56
270.306	92.56
270.538	99.56
270.77	92.56
271.002	92.56
271.234	94.56
271.466	91.56
271.698	90.56
271.93	95.56
272.162	75.56
272.394	86.56
272.626	97.56
272.858	86.56
273.09	106.56
273.322	92.56
273.553	90.56
273.785	98.56
274.017	61.56
274.249	83.56
274.481	69.56
274.713	79.56
274.945	87.56
275.176	89.56
275.408	101.56
275.64	108.56
275.872	113.56
276.104	102.56
276.335	114.56
276.567	121.56
276.799	145.56
277.031	153.56
277.262	165.56
277.494	134.56
277.726	90.56
277.957	85.56
278.189	92.56
278.421	82.56
278.652	95.56
278.884	102.56
279.115	92.56
279.347	92.56
279.579	103.56
279.81	131.56
280.042	149.56
280.273	210.56
280.505	145.56
280.736	93.56
280.968	92.56
281.199	90.56
281.431	76.56
281.662	85.56
281.894	95.56
282.125	97.56
282.356	151.56
282.588	174.56
282.819	134.56
283.051	105.56
283.282	89.56
283.513	83.56
283.745	90.56
283.976	81.56
284.207	92.56
284.439	80.56
284.67	109.56
284.901	77.56
285.132	89.56
285.364	76.56
285.595	83.56
285.826	76.56
286.057	106.56
286.288	88.56
286.52	91.56
286.751	78.56
286.982	94.56
287.213	98.56
287.444	83.56
287.675	87.56
287.906	95.56
288.138	91.56
288.369	114.56
288.6	98.56
288.831	83.56
289.062	94.56
289.293	80.56
289.524	94.56
289.755	103.56
289.986	102.56
290.217	80.56
290.448	86.56
290.679	107.56
290.91	91.56
291.141	98.56
291.371	92.56
291.602	92.56
291.833	82.56
292.064	87.56
292.295	101.56
292.526	88.56
292.757	88.56
292.987	88.56
293.218	77.56
293.449	75.56
293.68	96.56
293.91	97.56
294.141	86.56
294.372	90.56
294.603	100.56
294.833	95.56
295.064	87.56
295.295	88.56
295.525	98.56
295.756	104.56
295.987	137.56
296.217	185.56
296.448	157.56
296.679	109.56
296.909	84.56
297.14	90.56
297.37	81.56
297.601	96.56
297.831	99.56
298.062	98.56
298.292	97.56
298.523	95.56
298.753	110.56
298.984	96.56
299.214	95.56
299.445	101.56
299.675	101.56
299.905	95.56
300.136	106.56
300.366	83.56
300.597	92.56
300.827	92.56
301.057	106.56
301.288	107.56
301.518	101.56
301.748	100.56
301.979	118.56
302.209	99.56
302.439	93.56
302.669	92.56
302.9	91.56
303.13	110.56
303.36	109.56
303.59	134.56
303.82	152.56
304.051	106.56
304.281	95.56
304.511	98.56
304.741	90.56
304.971	95.56
305.201	97.56
305.431	93.56
305.661	83.56
305.891	90.56
306.121	108.56
306.352	111.56
306.582	124.56
306.812	95.56
307.042	107.56
307.272	122.56
307.502	150.56
307.731	151.56
307.961	113.56
308.191	104.56
308.421	88.56
308.651	110.56
308.881	96.56
309.111	102.56
309.341	106.56
309.571	108.56
309.8	101.56
310.03	122.56
310.26	108.56
310.49	94.56
310.72	100.56
310.949	126.56
311.179	117.56
311.409	93.56
311.639	98.56
311.868	93.56
312.098	104.56
312.328	93.56
312.557	116.56
312.787	119.56
313.017	120.56
313.246	101.56
313.476	100.56
313.706	105.56
313.935	104.56
314.165	105.56
314.394	117.56
314.624	104.56
314.853	109.56
315.083	100.56
315.312	105.56
315.542	89.56
315.771	89.56
316.001	92.56
316.23	104.56
316.46	95.56
316.689	96.56
316.919	105.56
317.148	105.56
317.377	93.56
317.607	107.56
317.836	98.56
318.065	93.56
318.295	91.56
318.524	97.56
318.753	79.56
318.983	97.56
319.212	108.56
319.441	123.56
319.67	122.56
319.9	100.56
320.129	85.56
320.358	102.56
320.587	105.56
320.816	113.56
321.046	109.56
321.275	112.56
321.504	106.56
321.733	108.56
321.962	113.56
322.191	115.56
322.42	118.56
322.649	121.56
322.878	117.56
323.108	144.56
323.337	146.56
323.566	157.56
323.795	184.56
324.024	246.56
324.253	469.56
324.482	994.56
324.71	2019.56
324.939	2755.56
325.168	1032.56
325.397	289.56
325.626	154.56
325.855	139.56
326.084	147.56
326.313	155.56
326.542	175.56
326.77	260.56
326.999	520.56
327.228	1083.56
327.457	1918.56
327.686	1561.56
327.914	510.56
328.143	454.56
328.372	530.56
328.6	314.56
328.829	193.56
329.058	193.56
329.287	194.56
329.515	157.56
329.744	216.56
329.972	373.56
330.201	767.56
330.43	1077.56
330.658	521.56
330.887	283.56
331.115	193.56
331.344	117.56
331.572	120.56
331.801	118.56
332.03	131.56
332.258	114.56
332.486	102.56
332.715	88.56
332.943	113.56
333.172	120.56
333.4	127.56
333.629	175.56
333.857	222.56
334.085	350.56
334.314	703.56
334.542	1314.56
334.771	1260.56
334.999	355.56
335.227	153.56
335.455	125.56
335.684	115.56
335.912	107.56
336.14	99.56
336.369	101.56
336.597	119.56
336.825	108.56
337.053	114.56
337.281	105.56
337.51	93.56
337.738	103.56
337.966	117.56
338.194	111.56
338.422	104.56
338.65	112.56
338.878	96.56
339.106	100.56
339.334	107.56
339.562	108.56
339.79	114.56
340.018	107.56
340.246	89.56
340.474	112.56
340.702	95.56
340.93	98.56
341.158	115.56
341.386	112.56
341.614	90.56
341.842	99.56
342.07	87.56
342.298	91.56
342.526	98.56
342.754	89.56
342.981	102.56
343.209	93.56
343.437	101.56
343.665	86.56
343.893	92.56
344.12	93.56
344.348	99.56
344.576	91.56
344.804	109.56
345.031	94.56
345.259	119.56
345.487	96.56
345.714	117.56
345.942	106.56
346.17	93.56
346.397	100.56
346.625	111.56
346.853	94.56
347.08	89.56
347.308	101.56
347.535	102.56
347.763	123.56
347.99	122.56
348.218	109.56
348.445	123.56
348.673	116.56
348.9	107.56
349.128	93.56
349.355	95.56
349.583	101.56
349.81	94.56
350.037	89.56
350.265	105.56
350.492	111.56
350.72	100.56
350.947	121.56
351.174	126.56
351.402	108.56
351.629	102.56
351.856	108.56
352.083	120.56
352.311	114.56
352.538	120.56
352.765	122.56
352.992	123.56
353.22	118.56
353.447	129.56
353.674	109.56
353.901	87.56
354.128	91.56
354.355	100.56
354.583	104.56
354.81	100.56
355.037	109.56
355.264	105.56
355.491	88.56
355.718	98.56
355.945	95.56
356.172	87.56
356.399	95.56
356.626	90.56
356.853	98.56
357.08	115.56
357.307	102.56
357.534	96.56
357.761	84.56
357.988	86.56
358.215	92.56
358.441	92.56
358.668	98.56
358.895	90.56
359.122	91.56
359.349	105.56
359.576	101.56
359.802	133.56
360.029	152.56
360.256	150.56
360.483	125.56
360.709	92.56
360.936	94.56
361.163	108.56
361.39	113.56
361.616	110.56
361.843	98.56
362.07	105.56
362.296	107.56
362.523	96.56
362.749	106.56
362.976	101.56
363.203	101.56
363.429	98.56
363.656	95.56
363.882	80.56
364.109	92.56
364.335	102.56
364.562	100.56
364.788	102.56
365.015	111.56
365.241	108.56
365.468	123.56
365.694	135.56
365.92	115.56
366.147	101.56
366.373	110.56
366.599	89.56
366.826	105.56
367.052	103.56
367.278	95.56
367.505	109.56
367.731	100.56
367.957	113.56
368.184	101.56
368.41	112.56
368.636	126.56
368.862	137.56
369.089	126.56
369.315	113.56
369.541	100.56
369.767	102.56
369.993	84.56
370.219	113.56
370.445	100.56
370.672	93.56
370.898	90.56
371.124	95.56
371.35	93.56
371.576	83.56
371.802	77.56
372.028	90.56
372.254	79.56
372.48	93.56
372.706	90.56
372.932	97.56
373.158	83.56
373.384	82.56
373.61	93.56
373.835	80.56
374.061	100.56
374.287	110.56
374.513	85.56
374.739	92.56
374.965	109.56
375.191	102.56
375.416	99.56
375.642	77.56
375.868	87.56
376.094	89.56
376.319	114.56
376.545	76.56
376.771	96.56
376.997	86.56
377.222	89.56
377.448	87.56
377.674	85.56
377.899	94.56
378.125	94.56
378.35	96.56
378.576	89.56
378.802	96.56
379.027	84.56
379.253	107.56
379.478	85.56
379.704	100.56
379.929	97.56
380.155	89.56
380.38	94.56
380.606	92.56
380.831	90.56
381.057	106.56
381.282	104.56
381.507	82.56
381.733	93.56
381.958	108.56
382.184	96.56
382.409	89.56
382.634	112.56
382.86	95.56
383.085	97.56
383.31	92.56
383.535	101.56
383.761	107.56
383.986	110.56
384.211	95.56
384.436	84.56
384.662	113.56
384.887	110.56
385.112	103.56
385.337	115.56
385.562	108.56
385.787	110.56
386.013	126.56
386.238	138.56
386.463	113.56
386.688	100.56
386.913	106.56
387.138	95.56
387.363	84.56
387.588	93.56
387.813	91.56
388.038	115.56
388.263	105.56
388.488	122.56
388.713	108.56
388.938	95.56
389.163	106.56
389.387	106.56
389.612	89.56
389.837	93.56
390.062	88.56
390.287	84.56
390.512	84.56
390.736	78.56
390.961	109.56
391.186	93.56
391.411	94.56
391.636	83.56
391.86	93.56
392.085	90.56
392.31	83.56
392.534	95.56
392.759	87.56
392.984	94.56
393.208	93.56
393.433	95.56
393.658	89.56
393.882	88.56
394.107	82.56
394.331	104.56
394.556	91.56
394.78	79.56
395.005	89.56
395.229	96.56
395.454	100.56
395.678	88.56
395.903	98.56
396.127	100.56
396.352	92.56
396.576	92.56
396.801	105.56
397.025	100.56
397.249	90.56
397.474	92.56
397.698	97.56
397.922	92.56
398.147	86.56
398.371	83.56
398.595	106.56
398.82	81.56
399.044	82.56
399.268	91.56
399.492	83.56
399.717	93.56
399.941	90.56
400.165	99.56
400.389	90.56
400.613	92.56
400.837	75.56
401.062	92.56
401.286	104.56
401.51	108.56
401.734	111.56
401.958	119.56
402.182	148.56
402.406	214.56
402.63	175.56
402.854	106.56
403.078	102.56
403.302	101.56
403.526	101.56
403.75	92.56
403.974	86.56
404.198	91.56
404.422	102.56
404.645	102.56
404.869	88.56
405.093	122.56
405.317	127.56
405.541	135.56
405.765	123.56
405.988	138.56
406.212	235.56
406.436	340.56
406.66	224.56
406.883	129.56
407.107	101.56
407.331	109.56
407.555	117.56
407.778	104.56
408.002	100.56
408.226	92.56
408.449	93.56
408.673	81.56
408.896	106.56
409.12	92.56
409.344	90.56
409.567	76.56
409.791	107.56
410.014	93.56
410.238	101.56
410.461	95.56
410.685	81.56
410.908	96.56
411.132	125.56
411.355	105.56
411.578	89.56
411.802	102.56
412.025	81.56
412.249	105.56
412.472	105.56
412.695	142.56
412.919	113.56
413.142	90.56
413.365	92.56
413.589	97.56
413.812	95.56
414.035	94.56
414.258	85.56
414.482	89.56
414.705	94.56
414.928	89.56
415.151	100.56
415.374	95.56
415.597	91.56
415.821	101.56
416.044	99.56
416.267	91.56
416.49	95.56
416.713	72.56
416.936	103.56
417.159	81.56
417.382	91.56
417.605	112.56
417.828	99.56
418.051	98.56
418.274	98.56
418.497	83.56
418.72	99.56
418.943	96.56
419.166	75.56
419.389	82.56
419.611	85.56
419.834	89.56
420.057	99.56
420.28	99.56
420.503	104.56
420.726	95.56
420.948	98.56
421.171	92.56
421.394	106.56
421.617	105.56
421.839	88.56
422.062	99.56
422.285	89.56
422.507	109.56
422.73	111.56
422.953	92.56
423.175	89.56
423.398	82.56
423.621	103.56
423.843	97.56
424.066	87.56
424.288	90.56
424.511	103.56
424.733	113.56
424.956	114.56
425.178	105.56
425.401	109.56
425.623	96.56
425.846	96.56
426.068	114.56
426.291	86.56
426.513	94.56
426.735	91.56
426.958	100.56
427.18	108.56
427.402	170.56
427.625	266.56
427.847	225.56
428.069	188.56
428.292	119.56
428.514	91.56
428.736	103.56
428.958	91.56
429.181	86.56
429.403	87.56
429.625	102.56
429.847	93.56
430.069	104.56
430.292	87.56
430.514	89.56
430.736	86.56
430.958	100.56
431.18	72.56
431.402	77.56
431.624	89.56
431.846	82.56
432.068	87.56
432.29	104.56
432.512	94.56
432.734	91.56
432.956	98.56
433.178	102.56
433.4	105.56
433.622	89.56
433.844	97.56
434.066	90.56
434.287	90.56
434.509	97.56
434.731	100.56
434.953	91.56
435.175	78.56
435.397	95.56
435.618	88.56
435.84	106.56
436.062	135.56
436.284	108.56
436.505	102.56
436.727	106.56
436.949	73.56
437.17	87.56
437.392	87.56
437.614	109.56
437.835	130.56
438.057	154.56
438.278	127.56
438.5	109.56
438.721	148.56
438.943	132.56
439.165	89.56
439.386	77.56
439.608	102.56
439.829	110.56
440.05	129.56
440.272	184.56
440.493	133.56
440.715	96.56
440.936	75.56
441.158	84.56
441.379	103.56
441.6	111.56
441.822	118.56
442.043	90.56
442.264	112.56
442.486	116.56
442.707	111.56
442.928	119.56
443.149	167.56
443.371	179.56
443.592	131.56
443.813	124.56
444.034	117.56
444.255	91.56
444.476	92.56
444.698	78.56
444.919	92.56
445.14	138.56
445.361	138.56
445.582	139.56
445.803	161.56
446.024	164.56
446.245	177.56
446.466	125.56
446.687	103.56
446.908	98.56
447.129	87.56
447.35	89.56
447.571	88.56
447.792	105.56
448.013	117.56
448.234	113.56
448.455	109.56
448.675	133.56
448.896	145.56
449.117	114.56
449.338	108.56
449.559	135.56
449.779	140.56
450	98.56
450.221	108.56
450.442	104.56
450.662	98.56
450.883	128.56
451.104	137.56
451.324	111.56
451.545	86.56
451.766	89.56
451.986	89.56
452.207	95.56
452.428	107.56
452.648	105.56
452.869	143.56
453.089	135.56
453.31	144.56
453.53	110.56
453.751	101.56
453.971	138.56
454.192	153.56
454.412	117.56
454.633	86.56
454.853	102.56
455.073	98.56
455.294	88.56
455.514	94.56
455.734	91.56
455.955	82.56
456.175	91.56
456.395	87.56
456.616	91.56
456.836	94.56
457.056	79.56
457.276	90.56
457.497	86.56
457.717	87.56
457.937	96.56
458.157	95.56
458.377	103.56
458.598	125.56
458.818	232.56
459.038	229.56
459.258	153.56
459.478	108.56
459.698	93.56
459.918	95.56
460.138	80.56
460.358	91.56
460.578	84.56
460.798	101.56
461.018	91.56
461.238	83.56
461.458	86.56
461.678	85.56
461.898	99.56
462.118	108.56
462.338	97.56
462.558	85.56
462.777	85.56
462.997	95.56
463.217	93.56
463.437	89.56
463.657	87.56
463.876	91.56
464.096	83.56
464.316	101.56
464.536	97.56
464.755	110.56
464.975	125.56
465.195	245.56
465.414	269.56
465.634	113.56
465.854	93.56
466.073	91.56
466.293	93.56
466.512	95.56
466.732	83.56
466.951	90.56
467.171	98.56
467.391	110.56
467.61	146.56
467.829	181.56
468.049	442.56
468.268	655.56
468.488	182.56
468.707	110.56
468.927	90.56
469.146	90.56
469.365	91.56
469.585	97.56
469.804	110.56
470.023	121.56
470.243	118.56
470.462	115.56
470.681	145.56
470.901	87.56
471.12	98.56
471.339	100.56
471.558	119.56
471.777	140.56
471.997	233.56
472.216	812.56
472.435	1830.56
472.654	479.56
472.873	159.56
473.092	109.56
473.311	96.56
473.53	91.56
473.749	89.56
473.968	108.56
474.187	105.56
474.406	115.56
474.625	71.56
474.844	86.56
475.063	90.56
475.282	83.56
475.501	93.56
475.72	94.56
475.939	94.56
476.158	96.56
476.377	95.56
476.596	91.56
476.814	99.56
477.033	111.56
477.252	95.56
477.471	92.56
477.69	99.56
477.908	93.56
478.127	81.56
478.346	102.56
478.564	103.56
478.783	110.56
479.002	95.56
479.22	96.56
479.439	132.56
479.658	144.56
479.876	136.56
480.095	106.56
480.313	128.56
480.532	136.56
480.751	227.56
480.969	763.56
481.188	3146.56
481.406	1869.56
481.624	282.56
481.843	124.56
482.061	105.56
482.28	83.56
482.498	89.56
482.717	103.56
482.935	95.56
483.153	97.56
483.372	99.56
483.59	98.56
483.808	99.56
484.027	91.56
484.245	94.56
484.463	101.56
484.681	107.56
484.9	89.56
485.118	113.56
485.336	97.56
485.554	98.56
485.772	114.56
485.99	103.56
486.209	104.56
486.427	116.56
486.645	117.56
486.863	111.56
487.081	125.56
487.299	107.56
487.517	97.56
487.735	98.56
487.953	99.56
488.171	91.56
488.389	103.56
488.607	117.56
488.825	97.56
489.043	86.56
489.261	87.56
489.479	84.56
489.696	81.56
489.914	75.56
490.132	91.56
490.35	95.56
490.568	86.56
490.786	78.56
491.003	89.56
491.221	105.56
491.439	95.56
491.657	101.56
491.874	108.56
492.092	109.56
492.31	102.56
492.527	101.56
492.745	95.56
492.963	87.56
493.18	108.56
493.398	87.56
493.615	90.56
493.833	95.56
494.05	87.56
494.268	84.56
494.485	93.56
494.703	98.56
494.92	93.56
495.138	88.56
495.355	77.56
495.573	97.56
495.79	96.56
496.008	94.56
496.225	97.56
496.442	97.56
496.66	82.56
496.877	80.56
497.094	103.56
497.312	62.56
497.529	89.56
497.746	85.56
497.963	86.56
498.181	90.56
498.398	104.56
498.615	107.56
498.832	121.56
499.049	99.56
499.267	90.56
499.484	83.56
499.701	83.56
499.918	97.56
500.135	100.56
500.352	90.56
500.569	89.56
500.786	95.56
501.003	88.56
501.22	89.56
501.437	94.56
501.654	110.56
501.871	130.56
502.088	106.56
502.305	108.56
502.522	91.56
502.739	87.56
502.956	95.56
503.172	92.56
503.389	113.56
503.606	124.56
503.823	125.56
504.04	98.56
504.256	104.56
504.473	87.56
504.69	111.56
504.907	89.56
505.123	83.56
505.34	85.56
505.557	90.56
505.773	99.56
505.99	89.56
506.207	91.56
506.423	78.56
506.64	90.56
506.856	88.56
507.073	87.56
507.289	105.56
507.506	109.56
507.722	143.56
507.939	127.56
508.155	106.56
508.372	91.56
508.588	91.56
508.805	86.56
509.021	90.56
509.238	94.56
509.454	100.56
509.67	111.56
509.887	130.56
510.103	163.56
510.319	270.56
510.536	1038.56
510.752	3707.56
510.968	998.56
511.184	207.56
511.401	136.56
511.617	111.56
511.833	120.56
512.049	109.56
512.265	101.56
