Data from Circ_2000_H10_HRD10591_00084.txt Node
Date: Wed Jan 03 10:49:50 EST 2024
User: Yrep
Spectrometer: HR+D1059
Trigger mode: 1
Integration Time (sec): 1.000000E-1
Scans to average: 1
Electric dark correction enabled: true
Nonlinearity correction enabled: false
Boxcar width: 0
XAxis mode: Wavelengths
Number of Pixels in Spectrum: 2048
>>>>>Begin Spectral Data<<<<<
223.165	-24.25
223.4	-24.25
223.635	-24.25
223.869	-24.25
224.104	-20.25
224.338	-20.25
224.573	-11.25
224.808	-5.25
225.042	-19.25
225.277	-18.25
225.511	-2.25
225.746	18.75
225.98	8.75
226.215	9.75
226.449	10.75
226.683	26.75
226.918	32.75
227.152	37.75
227.387	30.75
227.621	43.75
227.856	62.75
228.09	52.75
228.324	53.75
228.559	56.75
228.793	58.75
229.027	70.75
229.262	87.75
229.496	78.75
229.73	107.75
229.964	87.75
230.199	72.75
230.433	68.75
230.667	73.75
230.901	77.75
231.136	84.75
231.37	82.75
231.604	91.75
231.838	84.75
232.072	73.75
232.306	74.75
232.541	91.75
232.775	66.75
233.009	79.75
233.243	84.75
233.477	78.75
233.711	73.75
233.945	84.75
234.179	87.75
234.413	87.75
234.647	72.75
234.881	88.75
235.115	87.75
235.349	89.75
235.583	91.75
235.817	90.75
236.051	85.75
236.285	80.75
236.519	77.75
236.753	82.75
236.987	85.75
237.221	106.75
237.455	107.75
237.689	88.75
237.922	85.75
238.156	90.75
238.39	79.75
238.624	66.75
238.858	80.75
239.091	79.75
239.325	77.75
239.559	82.75
239.793	68.75
240.027	79.75
240.26	74.75
240.494	85.75
240.728	77.75
240.961	80.75
241.195	74.75
241.429	81.75
241.662	87.75
241.896	74.75
242.13	91.75
242.363	77.75
242.597	75.75
242.83	74.75
243.064	76.75
243.298	80.75
243.531	86.75
243.765	75.75
243.998	83.75
244.232	84.75
244.465	96.75
244.699	80.75
244.932	88.75
245.166	74.75
245.399	87.75
245.633	72.75
245.866	64.75
246.099	72.75
246.333	93.75
246.566	91.75
246.8	81.75
247.033	76.75
247.266	89.75
247.5	77.75
247.733	91.75
247.966	84.75
248.2	79.75
248.433	101.75
248.666	75.75
248.899	87.75
249.133	107.75
249.366	113.75
249.599	111.75
249.832	90.75
250.066	81.75
250.299	98.75
250.532	88.75
250.765	71.75
250.998	91.75
251.231	82.75
251.465	70.75
251.698	87.75
251.931	100.75
252.164	90.75
252.397	87.75
252.63	74.75
252.863	82.75
253.096	84.75
253.329	84.75
253.562	80.75
253.795	82.75
254.028	74.75
254.261	80.75
254.494	88.75
254.727	76.75
254.96	90.75
255.193	74.75
255.426	72.75
255.659	78.75
255.892	96.75
256.124	102.75
256.357	88.75
256.59	94.75
256.823	86.75
257.056	91.75
257.289	87.75
257.521	82.75
257.754	90.75
257.987	94.75
258.22	93.75
258.452	102.75
258.685	81.75
258.918	85.75
259.151	84.75
259.383	101.75
259.616	83.75
259.849	89.75
260.081	91.75
260.314	98.75
260.547	94.75
260.779	105.75
261.012	103.75
261.244	89.75
261.477	91.75
261.71	124.75
261.942	149.75
262.175	146.75
262.407	121.75
262.64	100.75
262.872	96.75
263.105	103.75
263.337	89.75
263.57	91.75
263.802	83.75
264.035	93.75
264.267	80.75
264.499	88.75
264.732	90.75
264.964	88.75
265.197	82.75
265.429	63.75
265.661	87.75
265.894	79.75
266.126	91.75
266.358	86.75
266.591	94.75
266.823	99.75
267.055	78.75
267.287	94.75
267.52	87.75
267.752	91.75
267.984	89.75
268.216	87.75
268.448	81.75
268.681	84.75
268.913	95.75
269.145	84.75
269.377	83.75
269.609	80.75
269.841	84.75
270.073	91.75
270.306	103.75
270.538	86.75
270.77	82.75
271.002	78.75
271.234	98.75
271.466	88.75
271.698	95.75
271.93	87.75
272.162	88.75
272.394	94.75
272.626	90.75
272.858	87.75
273.09	107.75
273.322	87.75
273.553	86.75
273.785	109.75
274.017	80.75
274.249	90.75
274.481	93.75
274.713	85.75
274.945	95.75
275.176	96.75
275.408	92.75
275.64	109.75
275.872	117.75
276.104	98.75
276.335	98.75
276.567	114.75
276.799	146.75
277.031	163.75
277.262	175.75
277.494	140.75
277.726	103.75
277.957	94.75
278.189	108.75
278.421	102.75
278.652	88.75
278.884	103.75
279.115	76.75
279.347	91.75
279.579	89.75
279.81	111.75
280.042	170.75
280.273	235.75
280.505	171.75
280.736	113.75
280.968	102.75
281.199	105.75
281.431	86.75
281.662	94.75
281.894	104.75
282.125	107.75
282.356	146.75
282.588	190.75
282.819	133.75
283.051	98.75
283.282	90.75
283.513	100.75
283.745	85.75
283.976	86.75
284.207	81.75
284.439	80.75
284.67	85.75
284.901	79.75
285.132	96.75
285.364	89.75
285.595	97.75
285.826	95.75
286.057	78.75
286.288	86.75
286.52	85.75
286.751	94.75
286.982	75.75
287.213	95.75
287.444	102.75
287.675	88.75
287.906	80.75
288.138	88.75
288.369	109.75
288.6	100.75
288.831	99.75
289.062	85.75
289.293	95.75
289.524	90.75
289.755	90.75
289.986	91.75
290.217	92.75
290.448	105.75
290.679	90.75
290.91	88.75
291.141	90.75
291.371	90.75
291.602	75.75
291.833	94.75
292.064	82.75
292.295	92.75
292.526	86.75
292.757	94.75
292.987	99.75
293.218	78.75
293.449	82.75
293.68	86.75
293.91	91.75
294.141	90.75
294.372	71.75
294.603	103.75
294.833	84.75
295.064	90.75
295.295	100.75
295.525	102.75
295.756	111.75
295.987	141.75
296.217	164.75
296.448	147.75
296.679	92.75
296.909	97.75
297.14	82.75
297.37	89.75
297.601	82.75
297.831	94.75
298.062	99.75
298.292	100.75
298.523	93.75
298.753	96.75
298.984	93.75
299.214	98.75
299.445	101.75
299.675	106.75
299.905	106.75
300.136	104.75
300.366	102.75
300.597	96.75
300.827	97.75
301.057	107.75
301.288	111.75
301.518	94.75
301.748	108.75
301.979	120.75
302.209	103.75
302.439	104.75
302.669	95.75
302.9	100.75
303.13	97.75
303.36	112.75
303.59	126.75
303.82	139.75
304.051	109.75
304.281	94.75
304.511	98.75
304.741	90.75
304.971	94.75
305.201	90.75
305.431	92.75
305.661	95.75
305.891	106.75
306.121	99.75
306.352	113.75
306.582	132.75
306.812	109.75
307.042	117.75
307.272	144.75
307.502	169.75
307.731	151.75
307.961	120.75
308.191	100.75
308.421	84.75
308.651	92.75
308.881	101.75
309.111	94.75
309.341	113.75
309.571	115.75
309.8	88.75
310.03	107.75
310.26	112.75
310.49	96.75
310.72	99.75
310.949	125.75
311.179	128.75
311.409	92.75
311.639	112.75
311.868	91.75
312.098	114.75
312.328	102.75
312.557	121.75
312.787	128.75
313.017	131.75
313.246	110.75
313.476	109.75
313.706	100.75
313.935	95.75
314.165	116.75
314.394	128.75
314.624	107.75
314.853	106.75
315.083	86.75
315.312	106.75
315.542	94.75
315.771	88.75
316.001	96.75
316.23	96.75
316.46	87.75
316.689	90.75
316.919	85.75
317.148	105.75
317.377	91.75
317.607	103.75
317.836	106.75
318.065	93.75
318.295	90.75
318.524	101.75
318.753	101.75
318.983	101.75
319.212	105.75
319.441	125.75
319.67	113.75
319.9	93.75
320.129	107.75
320.358	93.75
320.587	110.75
320.816	112.75
321.046	115.75
321.275	110.75
321.504	107.75
321.733	102.75
321.962	104.75
322.191	108.75
322.42	117.75
322.649	127.75
322.878	133.75
323.108	150.75
323.337	159.75
323.566	169.75
323.795	181.75
324.024	293.75
324.253	589.75
324.482	1327.75
324.71	2793.75
324.939	3664.75
325.168	1317.75
325.397	340.75
325.626	212.75
325.855	157.75
326.084	160.75
326.313	162.75
326.542	194.75
326.77	325.75
326.999	690.75
327.228	1441.75
327.457	2699.75
327.686	2148.75
327.914	636.75
328.143	510.75
328.372	606.75
328.6	374.75
328.829	202.75
329.058	203.75
329.287	205.75
329.515	195.75
329.744	243.75
329.972	424.75
330.201	884.75
330.43	1301.75
330.658	612.75
330.887	310.75
331.115	210.75
331.344	140.75
331.572	120.75
331.801	134.75
332.03	126.75
332.258	109.75
332.486	130.75
332.715	108.75
332.943	122.75
333.172	127.75
333.4	127.75
333.629	159.75
333.857	226.75
334.085	397.75
334.314	827.75
334.542	1636.75
334.771	1560.75
334.999	412.75
335.227	180.75
335.455	135.75
335.684	120.75
335.912	103.75
336.14	112.75
336.369	111.75
336.597	119.75
336.825	112.75
337.053	97.75
337.281	96.75
337.51	107.75
337.738	88.75
337.966	111.75
338.194	105.75
338.422	118.75
338.65	97.75
338.878	86.75
339.106	90.75
339.334	96.75
339.562	100.75
339.79	107.75
340.018	99.75
340.246	99.75
340.474	104.75
340.702	99.75
340.93	96.75
341.158	106.75
341.386	108.75
341.614	108.75
341.842	108.75
342.07	106.75
342.298	94.75
342.526	92.75
342.754	97.75
342.981	97.75
343.209	89.75
343.437	107.75
343.665	88.75
343.893	100.75
344.12	108.75
344.348	100.75
344.576	94.75
344.804	93.75
345.031	88.75
345.259	110.75
345.487	98.75
345.714	93.75
345.942	100.75
346.17	93.75
346.397	87.75
346.625	95.75
346.853	90.75
347.08	101.75
347.308	114.75
347.535	111.75
347.763	103.75
347.99	96.75
348.218	118.75
348.445	131.75
348.673	110.75
348.9	109.75
349.128	89.75
349.355	82.75
349.583	98.75
349.81	96.75
350.037	94.75
350.265	108.75
350.492	85.75
350.72	106.75
350.947	107.75
351.174	139.75
351.402	132.75
351.629	116.75
351.856	115.75
352.083	130.75
352.311	116.75
352.538	146.75
352.765	141.75
352.992	130.75
353.22	118.75
353.447	115.75
353.674	100.75
353.901	97.75
354.128	102.75
354.355	119.75
354.583	110.75
354.81	84.75
355.037	94.75
355.264	86.75
355.491	85.75
355.718	100.75
355.945	105.75
356.172	83.75
356.399	107.75
356.626	99.75
356.853	94.75
357.08	91.75
357.307	99.75
357.534	91.75
357.761	94.75
357.988	102.75
358.215	103.75
358.441	93.75
358.668	71.75
358.895	73.75
359.122	98.75
359.349	97.75
359.576	97.75
359.802	118.75
360.029	159.75
360.256	151.75
360.483	118.75
360.709	94.75
360.936	101.75
361.163	100.75
361.39	114.75
361.616	105.75
361.843	98.75
362.07	104.75
362.296	109.75
362.523	100.75
362.749	103.75
362.976	96.75
363.203	92.75
363.429	91.75
363.656	106.75
363.882	110.75
364.109	106.75
364.335	103.75
364.562	113.75
364.788	111.75
365.015	95.75
365.241	109.75
365.468	120.75
365.694	109.75
365.92	124.75
366.147	97.75
366.373	100.75
366.599	107.75
366.826	84.75
367.052	94.75
367.278	94.75
367.505	118.75
367.731	110.75
367.957	102.75
368.184	104.75
368.41	93.75
368.636	117.75
368.862	138.75
369.089	125.75
369.315	115.75
369.541	105.75
369.767	92.75
369.993	103.75
370.219	96.75
370.445	103.75
370.672	97.75
370.898	99.75
371.124	93.75
371.35	88.75
371.576	104.75
371.802	101.75
372.028	98.75
372.254	95.75
372.48	89.75
372.706	91.75
372.932	88.75
373.158	91.75
373.384	92.75
373.61	108.75
373.835	105.75
374.061	107.75
374.287	91.75
374.513	87.75
374.739	72.75
374.965	97.75
375.191	102.75
375.416	100.75
375.642	103.75
375.868	95.75
376.094	100.75
376.319	92.75
376.545	89.75
376.771	98.75
376.997	84.75
377.222	98.75
377.448	91.75
377.674	85.75
377.899	86.75
378.125	79.75
378.35	103.75
378.576	88.75
378.802	87.75
379.027	107.75
379.253	106.75
379.478	90.75
379.704	89.75
379.929	96.75
380.155	108.75
380.38	101.75
380.606	99.75
380.831	89.75
381.057	87.75
381.282	110.75
381.507	106.75
381.733	94.75
381.958	102.75
382.184	113.75
382.409	109.75
382.634	114.75
382.86	94.75
383.085	106.75
383.31	118.75
383.535	98.75
383.761	90.75
383.986	106.75
384.211	90.75
384.436	94.75
384.662	104.75
384.887	103.75
385.112	111.75
385.337	119.75
385.562	88.75
385.787	99.75
386.013	103.75
386.238	130.75
386.463	116.75
386.688	123.75
386.913	105.75
387.138	104.75
387.363	94.75
387.588	100.75
387.813	107.75
388.038	91.75
388.263	107.75
388.488	126.75
388.713	109.75
388.938	100.75
389.163	96.75
389.387	96.75
389.612	103.75
389.837	94.75
390.062	92.75
390.287	87.75
390.512	89.75
390.736	77.75
390.961	80.75
391.186	97.75
391.411	97.75
391.636	90.75
391.86	95.75
392.085	96.75
392.31	84.75
392.534	85.75
392.759	90.75
392.984	85.75
393.208	113.75
393.433	96.75
393.658	91.75
393.882	90.75
394.107	99.75
394.331	82.75
394.556	85.75
394.78	99.75
395.005	93.75
395.229	95.75
395.454	115.75
395.678	95.75
395.903	99.75
396.127	93.75
396.352	98.75
396.576	72.75
396.801	96.75
397.025	94.75
397.249	93.75
397.474	76.75
397.698	87.75
397.922	86.75
398.147	89.75
398.371	90.75
398.595	88.75
398.82	100.75
399.044	81.75
399.268	87.75
399.492	86.75
399.717	91.75
399.941	103.75
400.165	99.75
400.389	91.75
400.613	82.75
400.837	81.75
401.062	98.75
401.286	88.75
401.51	106.75
401.734	98.75
401.958	103.75
402.182	153.75
402.406	223.75
402.63	160.75
402.854	99.75
403.078	94.75
403.302	101.75
403.526	103.75
403.75	84.75
403.974	96.75
404.198	104.75
404.422	76.75
404.645	114.75
404.869	124.75
405.093	121.75
405.317	163.75
405.541	150.75
405.765	130.75
405.988	139.75
406.212	226.75
406.436	340.75
406.66	229.75
406.883	136.75
407.107	111.75
407.331	120.75
407.555	132.75
407.778	111.75
408.002	100.75
408.226	101.75
408.449	97.75
408.673	78.75
408.896	103.75
409.12	102.75
409.344	99.75
409.567	103.75
409.791	91.75
410.014	90.75
410.238	84.75
410.461	99.75
410.685	110.75
410.908	108.75
411.132	119.75
411.355	115.75
411.578	109.75
411.802	98.75
412.025	96.75
412.249	117.75
412.472	126.75
412.695	145.75
412.919	118.75
413.142	91.75
413.365	101.75
413.589	96.75
413.812	96.75
414.035	97.75
414.258	88.75
414.482	105.75
414.705	100.75
414.928	102.75
415.151	96.75
415.374	88.75
415.597	86.75
415.821	86.75
416.044	91.75
416.267	95.75
416.49	99.75
416.713	80.75
416.936	100.75
417.159	98.75
417.382	86.75
417.605	113.75
417.828	99.75
418.051	102.75
418.274	105.75
418.497	96.75
418.72	99.75
418.943	92.75
419.166	93.75
419.389	106.75
419.611	89.75
419.834	117.75
420.057	79.75
420.28	99.75
420.503	108.75
420.726	101.75
420.948	100.75
421.171	118.75
421.394	111.75
421.617	97.75
421.839	89.75
422.062	108.75
422.285	92.75
422.507	117.75
422.73	116.75
422.953	103.75
423.175	99.75
423.398	69.75
423.621	88.75
423.843	105.75
424.066	87.75
424.288	95.75
424.511	94.75
424.733	118.75
424.956	129.75
425.178	111.75
425.401	125.75
425.623	119.75
425.846	103.75
426.068	114.75
426.291	103.75
426.513	95.75
426.735	108.75
426.958	111.75
427.18	136.75
427.402	191.75
427.625	280.75
427.847	266.75
428.069	242.75
428.292	134.75
428.514	101.75
428.736	104.75
428.958	91.75
429.181	93.75
429.403	90.75
429.625	94.75
429.847	109.75
430.069	125.75
430.292	101.75
430.514	94.75
430.736	95.75
430.958	91.75
431.18	101.75
431.402	95.75
431.624	90.75
431.846	87.75
432.068	87.75
432.29	94.75
432.512	95.75
432.734	101.75
432.956	78.75
433.178	108.75
433.4	105.75
433.622	98.75
433.844	92.75
434.066	88.75
434.287	79.75
434.509	100.75
434.731	103.75
434.953	92.75
435.175	99.75
435.397	97.75
435.618	102.75
435.84	133.75
436.062	168.75
436.284	152.75
436.505	118.75
436.727	111.75
436.949	94.75
437.17	102.75
437.392	92.75
437.614	95.75
437.835	143.75
438.057	152.75
438.278	139.75
438.5	140.75
438.721	166.75
438.943	121.75
439.165	103.75
439.386	103.75
439.608	100.75
439.829	117.75
440.05	174.75
440.272	219.75
440.493	132.75
440.715	104.75
440.936	86.75
441.158	89.75
441.379	95.75
441.6	107.75
441.822	106.75
442.043	102.75
442.264	147.75
442.486	131.75
442.707	113.75
442.928	144.75
443.149	196.75
443.371	191.75
443.592	152.75
443.813	134.75
444.034	135.75
444.255	103.75
444.476	92.75
444.698	98.75
444.919	103.75
445.14	137.75
445.361	150.75
445.582	152.75
445.803	219.75
446.024	212.75
446.245	201.75
446.466	144.75
446.687	85.75
446.908	80.75
447.129	92.75
447.35	108.75
447.571	104.75
447.792	100.75
448.013	123.75
448.234	118.75
448.455	119.75
448.675	173.75
448.896	155.75
449.117	114.75
449.338	133.75
449.559	154.75
449.779	180.75
450	107.75
450.221	94.75
450.442	86.75
450.662	105.75
450.883	136.75
451.104	152.75
451.324	130.75
451.545	96.75
451.766	92.75
451.986	82.75
452.207	101.75
452.428	105.75
452.648	98.75
452.869	142.75
453.089	147.75
453.31	162.75
453.53	119.75
453.751	116.75
453.971	110.75
454.192	152.75
454.412	107.75
454.633	94.75
454.853	88.75
455.073	86.75
455.294	104.75
455.514	129.75
455.734	110.75
455.955	89.75
456.175	79.75
456.395	82.75
456.616	96.75
456.836	96.75
457.056	88.75
457.276	74.75
457.497	77.75
457.717	100.75
457.937	100.75
458.157	100.75
458.377	104.75
458.598	143.75
458.818	246.75
459.038	249.75
459.258	171.75
459.478	110.75
459.698	96.75
459.918	82.75
460.138	92.75
460.358	83.75
460.578	93.75
460.798	95.75
461.018	89.75
461.238	89.75
461.458	101.75
461.678	90.75
461.898	91.75
462.118	92.75
462.338	96.75
462.558	91.75
462.777	84.75
462.997	103.75
463.217	99.75
463.437	91.75
463.657	86.75
463.876	95.75
464.096	95.75
464.316	104.75
464.536	107.75
464.755	102.75
464.975	139.75
465.195	244.75
465.414	252.75
465.634	121.75
465.854	91.75
466.073	107.75
466.293	99.75
466.512	93.75
466.732	101.75
466.951	90.75
467.171	96.75
467.391	109.75
467.61	143.75
467.829	218.75
468.049	482.75
468.268	722.75
468.488	204.75
468.707	105.75
468.927	110.75
469.146	95.75
469.365	80.75
469.585	86.75
469.804	112.75
470.023	114.75
470.243	106.75
470.462	132.75
470.681	136.75
470.901	92.75
471.12	97.75
471.339	95.75
471.558	110.75
471.777	151.75
471.997	270.75
472.216	947.75
472.435	2174.75
472.654	534.75
472.873	171.75
473.092	102.75
473.311	92.75
473.53	98.75
473.749	80.75
473.968	108.75
474.187	137.75
474.406	126.75
474.625	102.75
474.844	116.75
475.063	100.75
475.282	90.75
475.501	93.75
475.72	97.75
475.939	95.75
476.158	100.75
476.377	91.75
476.596	94.75
476.814	111.75
477.033	110.75
477.252	93.75
477.471	92.75
477.69	115.75
477.908	92.75
478.127	93.75
478.346	96.75
478.564	109.75
478.783	105.75
479.002	107.75
479.22	117.75
479.439	131.75
479.658	138.75
479.876	119.75
480.095	138.75
480.313	131.75
480.532	157.75
480.751	246.75
480.969	872.75
481.188	3784.75
481.406	2216.75
481.624	340.75
481.843	138.75
482.061	110.75
482.28	106.75
482.498	103.75
482.717	77.75
482.935	94.75
483.153	87.75
483.372	100.75
483.59	101.75
483.808	84.75
484.027	100.75
484.245	94.75
484.463	85.75
484.681	94.75
484.9	100.75
485.118	90.75
485.336	95.75
485.554	102.75
485.772	107.75
485.99	106.75
486.209	115.75
486.427	108.75
486.645	121.75
486.863	140.75
487.081	95.75
487.299	91.75
487.517	103.75
487.735	99.75
487.953	83.75
488.171	90.75
488.389	109.75
488.607	125.75
488.825	102.75
489.043	98.75
489.261	84.75
489.479	96.75
489.696	101.75
489.914	99.75
490.132	85.75
490.35	89.75
490.568	82.75
490.786	93.75
491.003	95.75
491.221	92.75
491.439	82.75
491.657	88.75
491.874	94.75
492.092	82.75
492.31	89.75
492.527	110.75
492.745	101.75
492.963	97.75
493.18	89.75
493.398	102.75
493.615	95.75
493.833	90.75
494.05	80.75
494.268	100.75
494.485	107.75
494.703	88.75
494.92	97.75
495.138	85.75
495.355	107.75
495.573	96.75
495.79	88.75
496.008	86.75
496.225	93.75
496.442	93.75
496.66	85.75
496.877	99.75
497.094	102.75
497.312	91.75
497.529	93.75
497.746	91.75
497.963	105.75
498.181	92.75
498.398	105.75
498.615	119.75
498.832	128.75
499.049	96.75
499.267	96.75
499.484	85.75
499.701	94.75
499.918	78.75
500.135	99.75
500.352	99.75
500.569	84.75
500.786	108.75
501.003	82.75
501.22	92.75
501.437	101.75
501.654	111.75
501.871	124.75
502.088	105.75
502.305	100.75
502.522	89.75
502.739	91.75
502.956	96.75
503.172	101.75
503.389	100.75
503.606	136.75
503.823	114.75
504.04	97.75
504.256	88.75
504.473	108.75
504.69	93.75
504.907	94.75
505.123	77.75
505.34	94.75
505.557	88.75
505.773	76.75
505.99	89.75
506.207	85.75
506.423	95.75
506.64	88.75
506.856	98.75
507.073	98.75
507.289	98.75
507.506	118.75
507.722	141.75
507.939	158.75
508.155	103.75
508.372	111.75
508.588	104.75
508.805	110.75
509.021	104.75
509.238	99.75
509.454	100.75
509.67	103.75
509.887	114.75
510.103	146.75
510.319	260.75
510.536	982.75
510.752	3559.75
510.968	966.75
511.184	202.75
511.401	143.75
