Data from Circ_2000_H10_HRD10591_00067.txt Node
Date: Wed Jan 03 10:49:47 EST 2024
User: Yrep
Spectrometer: HR+D1059
Trigger mode: 1
Integration Time (sec): 1.000000E-1
Scans to average: 1
Electric dark correction enabled: true
Nonlinearity correction enabled: false
Boxcar width: 0
XAxis mode: Wavelengths
Number of Pixels in Spectrum: 2048
>>>>>Begin Spectral Data<<<<<
223.165	-28.69
223.4	-28.69
223.635	-28.69
223.869	-4.69
224.104	-25.69
224.338	-24.69
224.573	-16.69
224.808	-13.69
225.042	-9.69
225.277	-4.69
225.511	1.31
225.746	14.31
225.98	6.31
226.215	18.31
226.449	11.31
226.683	26.31
226.918	26.31
227.152	24.31
227.387	35.31
227.621	31.31
227.856	41.31
228.09	45.31
228.324	49.31
228.559	57.31
228.793	51.31
229.027	47.31
229.262	66.31
229.496	68.31
229.73	78.31
229.964	83.31
230.199	76.31
230.433	66.31
230.667	85.31
230.901	71.31
231.136	76.31
231.37	72.31
231.604	78.31
231.838	71.31
232.072	80.31
232.306	83.31
232.541	92.31
232.775	80.31
233.009	81.31
233.243	69.31
233.477	83.31
233.711	73.31
233.945	83.31
234.179	67.31
234.413	84.31
234.647	67.31
234.881	74.31
235.115	80.31
235.349	82.31
235.583	72.31
235.817	77.31
236.051	69.31
236.285	74.31
236.519	75.31
236.753	79.31
236.987	73.31
237.221	100.31
237.455	72.31
237.689	64.31
237.922	81.31
238.156	80.31
238.39	67.31
238.624	72.31
238.858	86.31
239.091	81.31
239.325	70.31
239.559	88.31
239.793	84.31
240.027	85.31
240.26	78.31
240.494	82.31
240.728	89.31
240.961	81.31
241.195	73.31
241.429	80.31
241.662	74.31
241.896	67.31
242.13	74.31
242.363	77.31
242.597	86.31
242.83	70.31
243.064	77.31
243.298	82.31
243.531	83.31
243.765	73.31
243.998	71.31
244.232	77.31
244.465	90.31
244.699	78.31
244.932	73.31
245.166	79.31
245.399	92.31
245.633	84.31
245.866	81.31
246.099	76.31
246.333	101.31
246.566	81.31
246.8	92.31
247.033	76.31
247.266	66.31
247.5	72.31
247.733	83.31
247.966	80.31
248.2	69.31
248.433	78.31
248.666	81.31
248.899	92.31
249.133	74.31
249.366	105.31
249.599	101.31
249.832	87.31
250.066	74.31
250.299	77.31
250.532	86.31
250.765	76.31
250.998	67.31
251.231	70.31
251.465	80.31
251.698	64.31
251.931	87.31
252.164	81.31
252.397	81.31
252.63	72.31
252.863	91.31
253.096	74.31
253.329	86.31
253.562	95.31
253.795	76.31
254.028	82.31
254.261	91.31
254.494	78.31
254.727	89.31
254.96	71.31
255.193	84.31
255.426	73.31
255.659	78.31
255.892	86.31
256.124	98.31
256.357	79.31
256.59	85.31
256.823	89.31
257.056	99.31
257.289	96.31
257.521	90.31
257.754	76.31
257.987	71.31
258.22	94.31
258.452	96.31
258.685	88.31
258.918	89.31
259.151	89.31
259.383	89.31
259.616	94.31
259.849	88.31
260.081	95.31
260.314	100.31
260.547	94.31
260.779	75.31
261.012	89.31
261.244	92.31
261.477	100.31
261.71	81.31
261.942	132.31
262.175	130.31
262.407	80.31
262.64	87.31
262.872	83.31
263.105	92.31
263.337	91.31
263.57	82.31
263.802	87.31
264.035	87.31
264.267	67.31
264.499	82.31
264.732	83.31
264.964	74.31
265.197	87.31
265.429	68.31
265.661	84.31
265.894	77.31
266.126	90.31
266.358	85.31
266.591	76.31
266.823	89.31
267.055	74.31
267.287	87.31
267.52	94.31
267.752	84.31
267.984	67.31
268.216	75.31
268.448	98.31
268.681	91.31
268.913	80.31
269.145	92.31
269.377	93.31
269.609	90.31
269.841	88.31
270.073	82.31
270.306	78.31
270.538	78.31
270.77	91.31
271.002	89.31
271.234	88.31
271.466	90.31
271.698	88.31
271.93	94.31
272.162	85.31
272.394	88.31
272.626	82.31
272.858	68.31
273.09	65.31
273.322	79.31
273.553	97.31
273.785	102.31
274.017	91.31
274.249	78.31
274.481	70.31
274.713	102.31
274.945	83.31
275.176	98.31
275.408	96.31
275.64	97.31
275.872	91.31
276.104	110.31
276.335	99.31
276.567	109.31
276.799	135.31
277.031	145.31
277.262	160.31
277.494	121.31
277.726	106.31
277.957	81.31
278.189	94.31
278.421	96.31
278.652	80.31
278.884	96.31
279.115	88.31
279.347	88.31
279.579	101.31
279.81	119.31
280.042	148.31
280.273	194.31
280.505	142.31
280.736	96.31
280.968	93.31
281.199	93.31
281.431	80.31
281.662	86.31
281.894	76.31
282.125	94.31
282.356	145.31
282.588	162.31
282.819	130.31
283.051	84.31
283.282	89.31
283.513	97.31
283.745	90.31
283.976	87.31
284.207	91.31
284.439	75.31
284.67	84.31
284.901	79.31
285.132	76.31
285.364	94.31
285.595	86.31
285.826	81.31
286.057	82.31
286.288	80.31
286.52	97.31
286.751	87.31
286.982	91.31
287.213	67.31
287.444	89.31
287.675	95.31
287.906	82.31
288.138	90.31
288.369	100.31
288.6	87.31
288.831	100.31
289.062	87.31
289.293	92.31
289.524	94.31
289.755	67.31
289.986	65.31
290.217	87.31
290.448	81.31
290.679	95.31
290.91	95.31
291.141	76.31
291.371	91.31
291.602	77.31
291.833	107.31
292.064	80.31
292.295	76.31
292.526	93.31
292.757	89.31
292.987	78.31
293.218	84.31
293.449	81.31
293.68	88.31
293.91	95.31
294.141	80.31
294.372	82.31
294.603	89.31
294.833	85.31
295.064	92.31
295.295	86.31
295.525	91.31
295.756	92.31
295.987	111.31
296.217	162.31
296.448	143.31
296.679	92.31
296.909	96.31
297.14	72.31
297.37	89.31
297.601	88.31
297.831	88.31
298.062	88.31
298.292	82.31
298.523	89.31
298.753	101.31
298.984	100.31
299.214	82.31
299.445	84.31
299.675	89.31
299.905	96.31
300.136	78.31
300.366	87.31
300.597	97.31
300.827	98.31
301.057	109.31
301.288	110.31
301.518	110.31
301.748	94.31
301.979	100.31
302.209	104.31
302.439	100.31
302.669	100.31
302.9	107.31
303.13	106.31
303.36	113.31
303.59	123.31
303.82	119.31
304.051	97.31
304.281	88.31
304.511	89.31
304.741	84.31
304.971	98.31
305.201	101.31
305.431	81.31
305.661	86.31
305.891	95.31
306.121	94.31
306.352	105.31
306.582	118.31
306.812	112.31
307.042	111.31
307.272	144.31
307.502	154.31
307.731	141.31
307.961	127.31
308.191	85.31
308.421	80.31
308.651	93.31
308.881	92.31
309.111	100.31
309.341	112.31
309.571	98.31
309.8	96.31
310.03	99.31
310.26	90.31
310.49	94.31
310.72	109.31
310.949	125.31
311.179	101.31
311.409	91.31
311.639	108.31
311.868	99.31
312.098	97.31
312.328	88.31
312.557	116.31
312.787	115.31
313.017	115.31
313.246	103.31
313.476	95.31
313.706	82.31
313.935	107.31
314.165	101.31
314.394	104.31
314.624	106.31
314.853	97.31
315.083	99.31
315.312	89.31
315.542	92.31
315.771	88.31
316.001	86.31
316.23	87.31
316.46	88.31
316.689	93.31
316.919	115.31
317.148	105.31
317.377	101.31
317.607	108.31
317.836	83.31
318.065	76.31
318.295	100.31
318.524	91.31
318.753	89.31
318.983	93.31
319.212	102.31
319.441	113.31
319.67	115.31
319.9	111.31
320.129	102.31
320.358	95.31
320.587	100.31
320.816	95.31
321.046	111.31
321.275	115.31
321.504	107.31
321.733	103.31
321.962	122.31
322.191	108.31
322.42	113.31
322.649	121.31
322.878	121.31
323.108	138.31
323.337	147.31
323.566	160.31
323.795	174.31
324.024	252.31
324.253	524.31
324.482	1109.31
324.71	2370.31
324.939	3155.31
325.168	1097.31
325.397	307.31
325.626	171.31
325.855	137.31
326.084	132.31
326.313	170.31
326.542	171.31
326.77	284.31
326.999	571.31
327.228	1216.31
327.457	2276.31
327.686	1826.31
327.914	540.31
328.143	406.31
328.372	480.31
328.6	290.31
328.829	184.31
329.058	182.31
329.287	171.31
329.515	153.31
329.744	204.31
329.972	328.31
330.201	640.31
330.43	949.31
330.658	440.31
330.887	246.31
331.115	184.31
331.344	130.31
331.572	117.31
331.801	111.31
332.03	107.31
332.258	116.31
332.486	117.31
332.715	107.31
332.943	121.31
333.172	114.31
333.4	113.31
333.629	139.31
333.857	198.31
334.085	306.31
334.314	614.31
334.542	1191.31
334.771	1135.31
334.999	313.31
335.227	146.31
335.455	100.31
335.684	114.31
335.912	111.31
336.14	102.31
336.369	106.31
336.597	100.31
336.825	98.31
337.053	92.31
337.281	92.31
337.51	86.31
337.738	88.31
337.966	109.31
338.194	114.31
338.422	105.31
338.65	96.31
338.878	101.31
339.106	97.31
339.334	75.31
339.562	87.31
339.79	100.31
340.018	92.31
340.246	80.31
340.474	97.31
340.702	106.31
340.93	104.31
341.158	92.31
341.386	107.31
341.614	105.31
341.842	90.31
342.07	76.31
342.298	91.31
342.526	90.31
342.754	80.31
342.981	94.31
343.209	103.31
343.437	90.31
343.665	98.31
343.893	93.31
344.12	95.31
344.348	88.31
344.576	100.31
344.804	105.31
345.031	113.31
345.259	97.31
345.487	91.31
345.714	112.31
345.942	103.31
346.17	93.31
346.397	76.31
346.625	97.31
346.853	91.31
347.08	97.31
347.308	84.31
347.535	94.31
347.763	95.31
347.99	102.31
348.218	100.31
348.445	113.31
348.673	104.31
348.9	99.31
349.128	92.31
349.355	78.31
349.583	107.31
349.81	101.31
350.037	82.31
350.265	97.31
350.492	94.31
350.72	98.31
350.947	98.31
351.174	114.31
351.402	127.31
351.629	96.31
351.856	100.31
352.083	103.31
352.311	115.31
352.538	119.31
352.765	119.31
352.992	119.31
353.22	121.31
353.447	113.31
353.674	104.31
353.901	107.31
354.128	103.31
354.355	99.31
354.583	98.31
354.81	97.31
355.037	103.31
355.264	92.31
355.491	98.31
355.718	85.31
355.945	99.31
356.172	82.31
356.399	96.31
356.626	85.31
356.853	93.31
357.08	90.31
357.307	88.31
357.534	92.31
357.761	96.31
357.988	94.31
358.215	84.31
358.441	86.31
358.668	90.31
358.895	91.31
359.122	90.31
359.349	85.31
359.576	91.31
359.802	110.31
360.029	127.31
360.256	130.31
360.483	107.31
360.709	98.31
360.936	99.31
361.163	86.31
361.39	98.31
361.616	110.31
361.843	80.31
362.07	106.31
362.296	90.31
362.523	95.31
362.749	96.31
362.976	86.31
363.203	85.31
363.429	95.31
363.656	105.31
363.882	87.31
364.109	91.31
364.335	98.31
364.562	95.31
364.788	92.31
365.015	93.31
365.241	100.31
365.468	102.31
365.694	108.31
365.92	110.31
366.147	87.31
366.373	80.31
366.599	93.31
366.826	86.31
367.052	91.31
367.278	114.31
367.505	107.31
367.731	103.31
367.957	105.31
368.184	87.31
368.41	107.31
368.636	126.31
368.862	133.31
369.089	119.31
369.315	102.31
369.541	73.31
369.767	99.31
369.993	86.31
370.219	96.31
370.445	92.31
370.672	86.31
370.898	91.31
371.124	87.31
371.35	82.31
371.576	86.31
371.802	103.31
372.028	72.31
372.254	93.31
372.48	92.31
372.706	92.31
372.932	78.31
373.158	74.31
373.384	81.31
373.61	93.31
373.835	100.31
374.061	90.31
374.287	90.31
374.513	74.31
374.739	90.31
374.965	87.31
375.191	87.31
375.416	83.31
375.642	90.31
375.868	86.31
376.094	94.31
376.319	97.31
376.545	102.31
376.771	79.31
376.997	92.31
377.222	83.31
377.448	90.31
377.674	79.31
377.899	84.31
378.125	87.31
378.35	87.31
378.576	106.31
378.802	98.31
379.027	92.31
379.253	75.31
379.478	85.31
379.704	86.31
379.929	103.31
380.155	90.31
380.38	86.31
380.606	98.31
380.831	100.31
381.057	99.31
381.282	95.31
381.507	99.31
381.733	97.31
381.958	85.31
382.184	100.31
382.409	95.31
382.634	96.31
382.86	92.31
383.085	93.31
383.31	116.31
383.535	104.31
383.761	102.31
383.986	111.31
384.211	99.31
384.436	90.31
384.662	109.31
384.887	112.31
385.112	107.31
385.337	95.31
385.562	96.31
385.787	109.31
386.013	117.31
386.238	122.31
386.463	103.31
386.688	110.31
386.913	101.31
387.138	96.31
387.363	93.31
387.588	102.31
387.813	84.31
388.038	103.31
388.263	117.31
388.488	117.31
388.713	86.31
388.938	98.31
389.163	89.31
389.387	99.31
389.612	86.31
389.837	101.31
390.062	90.31
390.287	82.31
390.512	73.31
390.736	96.31
390.961	84.31
391.186	82.31
391.411	80.31
391.636	99.31
391.86	91.31
392.085	103.31
392.31	83.31
392.534	96.31
392.759	78.31
392.984	94.31
393.208	75.31
393.433	73.31
393.658	91.31
393.882	84.31
394.107	83.31
394.331	72.31
394.556	93.31
394.78	89.31
395.005	82.31
395.229	101.31
395.454	90.31
395.678	81.31
395.903	73.31
396.127	88.31
396.352	85.31
396.576	86.31
396.801	90.31
397.025	62.31
397.249	83.31
397.474	86.31
397.698	87.31
397.922	86.31
398.147	93.31
398.371	86.31
398.595	81.31
398.82	82.31
399.044	82.31
399.268	96.31
399.492	89.31
399.717	87.31
399.941	97.31
400.165	96.31
400.389	94.31
400.613	82.31
400.837	80.31
401.062	98.31
401.286	85.31
401.51	88.31
401.734	93.31
401.958	115.31
402.182	140.31
402.406	198.31
402.63	143.31
402.854	107.31
403.078	95.31
403.302	80.31
403.526	98.31
403.75	99.31
403.974	79.31
404.198	86.31
404.422	94.31
404.645	98.31
404.869	89.31
405.093	112.31
405.317	122.31
405.541	137.31
405.765	116.31
405.988	144.31
406.212	218.31
406.436	318.31
406.66	183.31
406.883	114.31
407.107	93.31
407.331	101.31
407.555	107.31
407.778	97.31
408.002	96.31
408.226	73.31
408.449	83.31
408.673	89.31
408.896	92.31
409.12	82.31
409.344	90.31
409.567	91.31
409.791	89.31
410.014	90.31
410.238	88.31
410.461	76.31
410.685	74.31
410.908	97.31
411.132	103.31
411.355	101.31
411.578	94.31
411.802	86.31
412.025	109.31
412.249	93.31
412.472	108.31
412.695	120.31
412.919	95.31
413.142	98.31
413.365	95.31
413.589	82.31
413.812	86.31
414.035	96.31
414.258	85.31
414.482	92.31
414.705	78.31
414.928	94.31
415.151	90.31
415.374	99.31
415.597	97.31
415.821	79.31
416.044	74.31
416.267	92.31
416.49	85.31
416.713	80.31
416.936	88.31
417.159	90.31
417.382	96.31
417.605	89.31
417.828	116.31
418.051	99.31
418.274	90.31
418.497	86.31
418.72	85.31
418.943	78.31
419.166	83.31
419.389	82.31
419.611	90.31
419.834	89.31
420.057	91.31
420.28	83.31
420.503	79.31
420.726	83.31
420.948	85.31
421.171	99.31
421.394	98.31
421.617	93.31
421.839	94.31
422.062	95.31
422.285	103.31
422.507	98.31
422.73	116.31
422.953	97.31
423.175	86.31
423.398	96.31
423.621	89.31
423.843	87.31
424.066	86.31
424.288	84.31
424.511	86.31
424.733	89.31
424.956	121.31
425.178	100.31
425.401	100.31
425.623	100.31
425.846	88.31
426.068	102.31
426.291	88.31
426.513	81.31
426.735	97.31
426.958	100.31
427.18	116.31
427.402	168.31
427.625	256.31
427.847	218.31
428.069	202.31
428.292	115.31
428.514	91.31
428.736	90.31
428.958	99.31
429.181	74.31
429.403	92.31
429.625	85.31
429.847	82.31
430.069	103.31
430.292	93.31
430.514	81.31
430.736	87.31
430.958	88.31
431.18	81.31
431.402	95.31
431.624	92.31
431.846	74.31
432.068	82.31
432.29	80.31
432.512	83.31
432.734	91.31
432.956	94.31
433.178	115.31
433.4	100.31
433.622	91.31
433.844	88.31
434.066	91.31
434.287	99.31
434.509	86.31
434.731	74.31
434.953	93.31
435.175	79.31
435.397	85.31
435.618	91.31
435.84	104.31
436.062	130.31
436.284	121.31
436.505	93.31
436.727	92.31
436.949	94.31
437.17	98.31
437.392	90.31
437.614	102.31
437.835	107.31
438.057	150.31
438.278	131.31
438.5	112.31
438.721	135.31
438.943	89.31
439.165	84.31
439.386	89.31
439.608	103.31
439.829	119.31
440.05	149.31
440.272	170.31
440.493	111.31
440.715	83.31
440.936	105.31
441.158	87.31
441.379	87.31
441.6	88.31
441.822	104.31
442.043	92.31
442.264	111.31
442.486	99.31
442.707	101.31
442.928	121.31
443.149	160.31
443.371	167.31
443.592	118.31
443.813	125.31
444.034	121.31
444.255	102.31
444.476	97.31
444.698	79.31
444.919	99.31
445.14	151.31
445.361	138.31
445.582	139.31
445.803	162.31
446.024	159.31
446.245	168.31
446.466	131.31
446.687	87.31
446.908	87.31
447.129	100.31
447.35	82.31
447.571	104.31
447.792	78.31
448.013	111.31
448.234	116.31
448.455	111.31
448.675	131.31
448.896	134.31
449.117	104.31
449.338	104.31
449.559	136.31
449.779	146.31
450	105.31
450.221	106.31
450.442	99.31
450.662	105.31
450.883	113.31
451.104	130.31
451.324	98.31
451.545	92.31
451.766	97.31
451.986	91.31
452.207	95.31
452.428	99.31
452.648	101.31
452.869	123.31
453.089	131.31
453.31	134.31
453.53	114.31
453.751	107.31
453.971	118.31
454.192	130.31
454.412	101.31
454.633	88.31
454.853	83.31
455.073	100.31
455.294	95.31
455.514	96.31
455.734	97.31
455.955	74.31
456.175	82.31
456.395	92.31
456.616	70.31
456.836	79.31
457.056	81.31
457.276	85.31
457.497	82.31
457.717	78.31
457.937	89.31
458.157	96.31
458.377	106.31
458.598	110.31
458.818	187.31
459.038	224.31
459.258	140.31
459.478	92.31
459.698	95.31
459.918	92.31
460.138	91.31
460.358	84.31
460.578	105.31
460.798	95.31
461.018	86.31
461.238	90.31
461.458	92.31
461.678	76.31
461.898	77.31
462.118	95.31
462.338	97.31
462.558	89.31
462.777	89.31
462.997	90.31
463.217	90.31
463.437	76.31
463.657	99.31
463.876	90.31
464.096	83.31
464.316	87.31
464.536	104.31
464.755	101.31
464.975	110.31
465.195	225.31
465.414	222.31
465.634	113.31
465.854	86.31
466.073	95.31
466.293	92.31
466.512	80.31
466.732	77.31
466.951	98.31
467.171	106.31
467.391	106.31
467.61	144.31
467.829	158.31
468.049	394.31
468.268	558.31
468.488	155.31
468.707	110.31
468.927	80.31
469.146	87.31
469.365	87.31
469.585	106.31
469.804	121.31
470.023	105.31
470.243	94.31
470.462	119.31
470.681	134.31
470.901	107.31
471.12	92.31
471.339	102.31
471.558	119.31
471.777	127.31
471.997	213.31
472.216	769.31
472.435	1643.31
472.654	421.31
472.873	130.31
473.092	88.31
473.311	93.31
473.53	93.31
473.749	104.31
473.968	99.31
474.187	94.31
474.406	95.31
474.625	83.31
474.844	99.31
475.063	88.31
475.282	97.31
475.501	86.31
475.72	75.31
475.939	87.31
476.158	95.31
476.377	89.31
476.596	89.31
476.814	99.31
477.033	91.31
477.252	98.31
477.471	96.31
477.69	92.31
477.908	83.31
478.127	85.31
478.346	90.31
478.564	111.31
478.783	111.31
479.002	116.31
479.22	113.31
479.439	109.31
479.658	132.31
479.876	115.31
480.095	100.31
480.313	106.31
480.532	148.31
480.751	210.31
480.969	674.31
481.188	2789.31
481.406	1682.31
481.624	286.31
481.843	107.31
482.061	105.31
482.28	109.31
482.498	98.31
482.717	104.31
482.935	95.31
483.153	97.31
483.372	98.31
483.59	89.31
483.808	94.31
484.027	94.31
484.245	99.31
484.463	81.31
484.681	92.31
484.9	82.31
485.118	98.31
485.336	97.31
485.554	95.31
485.772	115.31
485.99	100.31
486.209	107.31
486.427	122.31
486.645	113.31
486.863	133.31
487.081	96.31
487.299	92.31
487.517	73.31
487.735	100.31
487.953	91.31
488.171	92.31
488.389	101.31
488.607	107.31
488.825	100.31
489.043	87.31
489.261	104.31
489.479	92.31
489.696	103.31
489.914	86.31
490.132	89.31
490.35	95.31
490.568	89.31
490.786	93.31
491.003	94.31
491.221	87.31
491.439	94.31
491.657	90.31
491.874	82.31
492.092	90.31
492.31	110.31
492.527	111.31
492.745	98.31
492.963	83.31
493.18	92.31
493.398	95.31
493.615	97.31
493.833	96.31
494.05	86.31
494.268	91.31
494.485	96.31
494.703	92.31
494.92	79.31
495.138	84.31
495.355	99.31
495.573	85.31
495.79	76.31
496.008	91.31
496.225	90.31
496.442	81.31
496.66	99.31
496.877	82.31
497.094	96.31
497.312	84.31
497.529	102.31
497.746	84.31
497.963	98.31
498.181	94.31
498.398	84.31
498.615	120.31
498.832	102.31
499.049	88.31
499.267	88.31
499.484	91.31
499.701	97.31
499.918	95.31
500.135	81.31
500.352	76.31
500.569	86.31
500.786	76.31
501.003	92.31
501.22	88.31
501.437	89.31
501.654	96.31
501.871	106.31
502.088	101.31
502.305	94.31
502.522	97.31
502.739	90.31
502.956	78.31
503.172	105.31
503.389	106.31
503.606	107.31
503.823	104.31
504.04	99.31
504.256	89.31
504.473	93.31
504.69	81.31
504.907	92.31
505.123	98.31
505.34	97.31
505.557	98.31
505.773	87.31
505.99	100.31
506.207	94.31
506.423	119.31
506.64	88.31
506.856	95.31
507.073	94.31
507.289	91.31
507.506	95.31
507.722	119.31
507.939	138.31
508.155	100.31
508.372	93.31
508.588	88.31
508.805	94.31
509.021	107.31
509.238	105.31
509.454	102.31
509.67	110.31
509.887	94.31
510.103	142.31
510.319	228.31
510.536	912.31
510.752	3205.31
510.968	878.31
511.184	186.31
511.401	119.31
511.617	113.31
511.833	102.31
512.049	75.31
512.265	96.31
512.481	91.31
512.698	98.31
512.914	82.31
513.13	91.31
513.346	98.31
513.562	102.31
513.778	100.31
513.994	96.31
