Data from Circ_2000_H10_HRD10591_00045.txt Node
Date: Wed Jan 03 10:49:42 EST 2024
User: Yrep
Spectrometer: HR+D1059
Trigger mode: 1
Integration Time (sec): 1.000000E-1
Scans to average: 1
Electric dark correction enabled: true
Nonlinearity correction enabled: false
Boxcar width: 0
XAxis mode: Wavelengths
Number of Pixels in Spectrum: 2048
>>>>>Begin Spectral Data<<<<<
223.165	-12.44
223.4	-12.44
223.635	-12.44
223.869	-16.44
224.104	-20.44
224.338	-21.44
224.573	-13.44
224.808	-6.44
225.042	-10.44
225.277	-21.44
225.511	-9.44
225.746	5.56
225.98	13.56
226.215	6.56
226.449	17.56
226.683	21.56
226.918	31.56
227.152	35.56
227.387	48.56
227.621	34.56
227.856	41.56
228.09	49.56
228.324	50.56
228.559	58.56
228.793	55.56
229.027	56.56
229.262	76.56
229.496	73.56
229.73	97.56
229.964	73.56
230.199	75.56
230.433	75.56
230.667	69.56
230.901	86.56
231.136	74.56
231.37	70.56
231.604	84.56
231.838	76.56
232.072	89.56
232.306	75.56
232.541	99.56
232.775	69.56
233.009	91.56
233.243	84.56
233.477	101.56
233.711	85.56
233.945	85.56
234.179	83.56
234.413	74.56
234.647	83.56
234.881	77.56
235.115	92.56
235.349	92.56
235.583	68.56
235.817	61.56
236.051	81.56
236.285	71.56
236.519	74.56
236.753	84.56
236.987	72.56
237.221	85.56
237.455	86.56
237.689	76.56
237.922	73.56
238.156	79.56
238.39	91.56
238.624	75.56
238.858	81.56
239.091	78.56
239.325	76.56
239.559	91.56
239.793	68.56
240.027	81.56
240.26	78.56
240.494	86.56
240.728	81.56
240.961	78.56
241.195	71.56
241.429	76.56
241.662	66.56
241.896	73.56
242.13	78.56
242.363	83.56
242.597	88.56
242.83	81.56
243.064	75.56
243.298	85.56
243.531	81.56
243.765	83.56
243.998	84.56
244.232	76.56
244.465	82.56
244.699	72.56
244.932	69.56
245.166	77.56
245.399	94.56
245.633	73.56
245.866	70.56
246.099	72.56
246.333	72.56
246.566	91.56
246.8	81.56
247.033	87.56
247.266	74.56
247.5	85.56
247.733	83.56
247.966	77.56
248.2	79.56
248.433	92.56
248.666	91.56
248.899	102.56
249.133	89.56
249.366	99.56
249.599	95.56
249.832	92.56
250.066	79.56
250.299	93.56
250.532	93.56
250.765	83.56
250.998	74.56
251.231	80.56
251.465	68.56
251.698	74.56
251.931	80.56
252.164	76.56
252.397	75.56
252.63	85.56
252.863	92.56
253.096	84.56
253.329	68.56
253.562	81.56
253.795	79.56
254.028	89.56
254.261	78.56
254.494	92.56
254.727	90.56
254.96	94.56
255.193	68.56
255.426	73.56
255.659	79.56
255.892	98.56
256.124	89.56
256.357	87.56
256.59	93.56
256.823	100.56
257.056	75.56
257.289	72.56
257.521	95.56
257.754	80.56
257.987	77.56
258.22	84.56
258.452	105.56
258.685	78.56
258.918	78.56
259.151	92.56
259.383	79.56
259.616	86.56
259.849	86.56
260.081	85.56
260.314	81.56
260.547	90.56
260.779	94.56
261.012	103.56
261.244	91.56
261.477	88.56
261.71	92.56
261.942	124.56
262.175	124.56
262.407	98.56
262.64	100.56
262.872	83.56
263.105	97.56
263.337	93.56
263.57	77.56
263.802	94.56
264.035	95.56
264.267	84.56
264.499	77.56
264.732	76.56
264.964	85.56
265.197	66.56
265.429	78.56
265.661	82.56
265.894	104.56
266.126	83.56
266.358	88.56
266.591	95.56
266.823	86.56
267.055	78.56
267.287	82.56
267.52	96.56
267.752	91.56
267.984	79.56
268.216	96.56
268.448	101.56
268.681	97.56
268.913	86.56
269.145	92.56
269.377	87.56
269.609	96.56
269.841	82.56
270.073	96.56
270.306	83.56
270.538	77.56
270.77	91.56
271.002	108.56
271.234	100.56
271.466	97.56
271.698	79.56
271.93	79.56
272.162	83.56
272.394	86.56
272.626	79.56
272.858	87.56
273.09	88.56
273.322	87.56
273.553	100.56
273.785	82.56
274.017	96.56
274.249	78.56
274.481	91.56
274.713	72.56
274.945	87.56
275.176	89.56
275.408	97.56
275.64	102.56
275.872	79.56
276.104	82.56
276.335	87.56
276.567	106.56
276.799	110.56
277.031	123.56
277.262	121.56
277.494	116.56
277.726	101.56
277.957	90.56
278.189	89.56
278.421	90.56
278.652	93.56
278.884	104.56
279.115	92.56
279.347	96.56
279.579	85.56
279.81	99.56
280.042	119.56
280.273	120.56
280.505	91.56
280.736	95.56
280.968	86.56
281.199	92.56
281.431	82.56
281.662	84.56
281.894	98.56
282.125	106.56
282.356	103.56
282.588	134.56
282.819	112.56
283.051	89.56
283.282	99.56
283.513	86.56
283.745	81.56
283.976	84.56
284.207	76.56
284.439	91.56
284.67	90.56
284.901	85.56
285.132	102.56
285.364	86.56
285.595	84.56
285.826	89.56
286.057	95.56
286.288	92.56
286.52	85.56
286.751	86.56
286.982	80.56
287.213	98.56
287.444	93.56
287.675	92.56
287.906	93.56
288.138	90.56
288.369	90.56
288.6	83.56
288.831	87.56
289.062	79.56
289.293	98.56
289.524	83.56
289.755	82.56
289.986	92.56
290.217	84.56
290.448	89.56
290.679	77.56
290.91	78.56
291.141	87.56
291.371	97.56
291.602	87.56
291.833	75.56
292.064	95.56
292.295	89.56
292.526	95.56
292.757	89.56
292.987	80.56
293.218	107.56
293.449	89.56
293.68	86.56
293.91	84.56
294.141	95.56
294.372	94.56
294.603	95.56
294.833	89.56
295.064	86.56
295.295	72.56
295.525	96.56
295.756	106.56
295.987	114.56
296.217	134.56
296.448	131.56
296.679	124.56
296.909	93.56
297.14	86.56
297.37	97.56
297.601	95.56
297.831	85.56
298.062	90.56
298.292	94.56
298.523	87.56
298.753	94.56
298.984	84.56
299.214	83.56
299.445	101.56
299.675	91.56
299.905	94.56
300.136	79.56
300.366	86.56
300.597	94.56
300.827	108.56
301.057	105.56
301.288	98.56
301.518	98.56
301.748	93.56
301.979	100.56
302.209	81.56
302.439	108.56
302.669	87.56
302.9	92.56
303.13	92.56
303.36	91.56
303.59	103.56
303.82	122.56
304.051	105.56
304.281	91.56
304.511	86.56
304.741	84.56
304.971	93.56
305.201	84.56
305.431	92.56
305.661	83.56
305.891	92.56
306.121	92.56
306.352	110.56
306.582	109.56
306.812	95.56
307.042	109.56
307.272	125.56
307.502	124.56
307.731	117.56
307.961	101.56
308.191	96.56
308.421	103.56
308.651	90.56
308.881	79.56
309.111	106.56
309.341	95.56
309.571	92.56
309.8	100.56
310.03	107.56
310.26	104.56
310.49	101.56
310.72	110.56
310.949	109.56
311.179	105.56
311.409	93.56
311.639	95.56
311.868	89.56
312.098	106.56
312.328	76.56
312.557	94.56
312.787	94.56
313.017	115.56
313.246	99.56
313.476	100.56
313.706	102.56
313.935	99.56
314.165	103.56
314.394	96.56
314.624	97.56
314.853	103.56
315.083	94.56
315.312	95.56
315.542	106.56
315.771	98.56
316.001	94.56
316.23	86.56
316.46	83.56
316.689	95.56
316.919	105.56
317.148	114.56
317.377	100.56
317.607	90.56
317.836	92.56
318.065	83.56
318.295	95.56
318.524	97.56
318.753	96.56
318.983	95.56
319.212	105.56
319.441	110.56
319.67	100.56
319.9	101.56
320.129	94.56
320.358	109.56
320.587	112.56
320.816	86.56
321.046	97.56
321.275	97.56
321.504	96.56
321.733	102.56
321.962	101.56
322.191	96.56
322.42	115.56
322.649	110.56
322.878	121.56
323.108	131.56
323.337	142.56
323.566	129.56
323.795	168.56
324.024	203.56
324.253	405.56
324.482	893.56
324.71	1809.56
324.939	2430.56
325.168	877.56
325.397	260.56
325.626	149.56
325.855	129.56
326.084	118.56
326.313	147.56
326.542	163.56
326.77	236.56
326.999	473.56
327.228	1006.56
327.457	1857.56
327.686	1483.56
327.914	430.56
328.143	295.56
328.372	316.56
328.6	196.56
328.829	127.56
329.058	127.56
329.287	145.56
329.515	138.56
329.744	135.56
329.972	198.56
330.201	371.56
330.43	500.56
330.658	281.56
330.887	159.56
331.115	141.56
331.344	106.56
331.572	116.56
331.801	117.56
332.03	105.56
332.258	113.56
332.486	93.56
332.715	104.56
332.943	109.56
333.172	101.56
333.4	109.56
333.629	124.56
333.857	155.56
334.085	193.56
334.314	358.56
334.542	623.56
334.771	607.56
334.999	199.56
335.227	121.56
335.455	93.56
335.684	105.56
335.912	100.56
336.14	104.56
336.369	105.56
336.597	103.56
336.825	104.56
337.053	98.56
337.281	86.56
337.51	87.56
337.738	101.56
337.966	98.56
338.194	105.56
338.422	94.56
338.65	90.56
338.878	94.56
339.106	84.56
339.334	104.56
339.562	89.56
339.79	79.56
340.018	90.56
340.246	100.56
340.474	86.56
340.702	94.56
340.93	92.56
341.158	94.56
341.386	98.56
341.614	94.56
341.842	89.56
342.07	93.56
342.298	106.56
342.526	106.56
342.754	87.56
342.981	68.56
343.209	85.56
343.437	109.56
343.665	99.56
343.893	93.56
344.12	83.56
344.348	89.56
344.576	94.56
344.804	92.56
345.031	97.56
345.259	103.56
345.487	98.56
345.714	98.56
345.942	92.56
346.17	85.56
346.397	100.56
346.625	92.56
346.853	101.56
347.08	98.56
347.308	97.56
347.535	98.56
347.763	107.56
347.99	108.56
348.218	105.56
348.445	122.56
348.673	112.56
348.9	105.56
349.128	112.56
349.355	99.56
349.583	83.56
349.81	94.56
350.037	92.56
350.265	114.56
350.492	104.56
350.72	112.56
350.947	92.56
351.174	104.56
351.402	106.56
351.629	106.56
351.856	99.56
352.083	105.56
352.311	105.56
352.538	122.56
352.765	108.56
352.992	115.56
353.22	113.56
353.447	114.56
353.674	102.56
353.901	106.56
354.128	86.56
354.355	94.56
354.583	99.56
354.81	93.56
355.037	85.56
355.264	92.56
355.491	99.56
355.718	101.56
355.945	99.56
356.172	105.56
356.399	96.56
356.626	93.56
356.853	107.56
357.08	94.56
357.307	101.56
357.534	107.56
357.761	110.56
357.988	94.56
358.215	93.56
358.441	103.56
358.668	98.56
358.895	104.56
359.122	93.56
359.349	86.56
359.576	110.56
359.802	110.56
360.029	100.56
360.256	122.56
360.483	114.56
360.709	90.56
360.936	91.56
361.163	102.56
361.39	102.56
361.616	105.56
361.843	114.56
362.07	101.56
362.296	100.56
362.523	103.56
362.749	94.56
362.976	93.56
363.203	86.56
363.429	88.56
363.656	79.56
363.882	84.56
364.109	82.56
364.335	94.56
364.562	106.56
364.788	92.56
365.015	83.56
365.241	81.56
365.468	94.56
365.694	100.56
365.92	91.56
366.147	91.56
366.373	83.56
366.599	92.56
366.826	95.56
367.052	93.56
367.278	104.56
367.505	96.56
367.731	85.56
367.957	111.56
368.184	97.56
368.41	119.56
368.636	114.56
368.862	103.56
369.089	102.56
369.315	100.56
369.541	87.56
369.767	99.56
369.993	93.56
370.219	82.56
370.445	96.56
370.672	89.56
370.898	82.56
371.124	98.56
371.35	95.56
371.576	84.56
371.802	88.56
372.028	84.56
372.254	89.56
372.48	105.56
372.706	91.56
372.932	92.56
373.158	86.56
373.384	87.56
373.61	98.56
373.835	84.56
374.061	86.56
374.287	98.56
374.513	90.56
374.739	90.56
374.965	76.56
375.191	89.56
375.416	84.56
375.642	96.56
375.868	108.56
376.094	76.56
376.319	80.56
376.545	87.56
376.771	106.56
376.997	93.56
377.222	85.56
377.448	94.56
377.674	97.56
377.899	102.56
378.125	83.56
378.35	105.56
378.576	94.56
378.802	79.56
379.027	81.56
379.253	108.56
379.478	102.56
379.704	100.56
379.929	95.56
380.155	106.56
380.38	92.56
380.606	107.56
380.831	97.56
381.057	90.56
381.282	100.56
381.507	101.56
381.733	92.56
381.958	102.56
382.184	99.56
382.409	85.56
382.634	104.56
382.86	100.56
383.085	94.56
383.31	97.56
383.535	90.56
383.761	101.56
383.986	115.56
384.211	94.56
384.436	89.56
384.662	104.56
384.887	110.56
385.112	96.56
385.337	110.56
385.562	111.56
385.787	109.56
386.013	105.56
386.238	116.56
386.463	98.56
386.688	118.56
386.913	109.56
387.138	123.56
387.363	92.56
387.588	109.56
387.813	110.56
388.038	117.56
388.263	122.56
388.488	116.56
388.713	104.56
388.938	98.56
389.163	94.56
389.387	91.56
389.612	98.56
389.837	92.56
390.062	102.56
390.287	95.56
390.512	96.56
390.736	87.56
390.961	103.56
391.186	98.56
391.411	84.56
391.636	82.56
391.86	81.56
392.085	97.56
392.31	101.56
392.534	96.56
392.759	90.56
392.984	87.56
393.208	83.56
393.433	85.56
393.658	102.56
393.882	85.56
394.107	87.56
394.331	93.56
394.556	79.56
394.78	99.56
395.005	86.56
395.229	72.56
395.454	85.56
395.678	79.56
395.903	102.56
396.127	81.56
396.352	81.56
396.576	101.56
396.801	78.56
397.025	83.56
397.249	80.56
397.474	91.56
397.698	95.56
397.922	79.56
398.147	86.56
398.371	90.56
398.595	93.56
398.82	82.56
399.044	77.56
399.268	80.56
399.492	89.56
399.717	87.56
399.941	86.56
400.165	109.56
400.389	92.56
400.613	77.56
400.837	91.56
401.062	78.56
401.286	84.56
401.51	94.56
401.734	99.56
401.958	114.56
402.182	123.56
402.406	169.56
402.63	139.56
402.854	96.56
403.078	100.56
403.302	90.56
403.526	75.56
403.75	90.56
403.974	93.56
404.198	98.56
404.422	93.56
404.645	89.56
404.869	110.56
405.093	100.56
405.317	124.56
405.541	99.56
405.765	106.56
405.988	128.56
406.212	163.56
406.436	238.56
406.66	155.56
406.883	107.56
407.107	94.56
407.331	97.56
407.555	97.56
407.778	87.56
408.002	96.56
408.226	97.56
408.449	94.56
408.673	89.56
408.896	95.56
409.12	94.56
409.344	93.56
409.567	87.56
409.791	85.56
410.014	95.56
410.238	100.56
410.461	84.56
410.685	86.56
410.908	96.56
411.132	107.56
411.355	107.56
411.578	92.56
411.802	103.56
412.025	96.56
412.249	97.56
412.472	118.56
412.695	114.56
412.919	93.56
413.142	85.56
413.365	86.56
413.589	108.56
413.812	95.56
414.035	101.56
414.258	99.56
414.482	92.56
414.705	84.56
414.928	86.56
415.151	103.56
415.374	106.56
415.597	107.56
415.821	76.56
416.044	89.56
416.267	105.56
416.49	87.56
416.713	88.56
416.936	109.56
417.159	86.56
417.382	88.56
417.605	83.56
417.828	97.56
418.051	85.56
418.274	95.56
418.497	94.56
418.72	76.56
418.943	91.56
419.166	92.56
419.389	91.56
419.611	92.56
419.834	88.56
420.057	89.56
420.28	93.56
420.503	83.56
420.726	90.56
420.948	101.56
421.171	99.56
421.394	89.56
421.617	74.56
421.839	85.56
422.062	92.56
422.285	90.56
422.507	102.56
422.73	91.56
422.953	91.56
423.175	90.56
423.398	92.56
423.621	86.56
423.843	92.56
424.066	77.56
424.288	77.56
424.511	95.56
424.733	93.56
424.956	105.56
425.178	97.56
425.401	90.56
425.623	90.56
425.846	77.56
426.068	100.56
426.291	95.56
426.513	79.56
426.735	81.56
426.958	108.56
427.18	114.56
427.402	156.56
427.625	201.56
427.847	167.56
428.069	140.56
428.292	93.56
428.514	94.56
428.736	85.56
428.958	95.56
429.181	89.56
429.403	81.56
429.625	87.56
429.847	89.56
430.069	91.56
430.292	92.56
430.514	86.56
430.736	96.56
430.958	86.56
431.18	93.56
431.402	94.56
431.624	103.56
431.846	93.56
432.068	75.56
432.29	89.56
432.512	94.56
432.734	95.56
432.956	100.56
433.178	117.56
433.4	104.56
433.622	105.56
433.844	87.56
434.066	91.56
434.287	104.56
434.509	89.56
434.731	91.56
434.953	93.56
435.175	95.56
435.397	85.56
435.618	97.56
435.84	99.56
436.062	127.56
436.284	122.56
436.505	106.56
436.727	106.56
436.949	90.56
437.17	87.56
437.392	82.56
437.614	87.56
437.835	105.56
438.057	134.56
438.278	120.56
438.5	117.56
438.721	124.56
438.943	104.56
439.165	90.56
439.386	77.56
439.608	101.56
439.829	101.56
440.05	132.56
440.272	163.56
440.493	101.56
440.715	85.56
440.936	94.56
441.158	89.56
441.379	83.56
441.6	105.56
441.822	84.56
442.043	107.56
442.264	96.56
442.486	120.56
442.707	85.56
442.928	103.56
443.149	149.56
443.371	135.56
443.592	119.56
443.813	121.56
444.034	104.56
444.255	97.56
444.476	88.56
444.698	102.56
444.919	90.56
445.14	127.56
445.361	136.56
445.582	113.56
445.803	144.56
446.024	148.56
446.245	134.56
446.466	120.56
446.687	98.56
446.908	88.56
447.129	86.56
447.35	93.56
447.571	85.56
447.792	87.56
448.013	101.56
448.234	110.56
448.455	94.56
448.675	95.56
448.896	129.56
449.117	99.56
449.338	101.56
449.559	129.56
449.779	142.56
450	82.56
450.221	83.56
450.442	98.56
450.662	103.56
450.883	121.56
451.104	114.56
451.324	95.56
451.545	95.56
451.766	92.56
451.986	73.56
452.207	94.56
452.428	81.56
452.648	95.56
452.869	118.56
453.089	94.56
453.31	107.56
453.53	104.56
453.751	80.56
453.971	110.56
454.192	122.56
454.412	98.56
454.633	87.56
454.853	91.56
455.073	88.56
455.294	84.56
455.514	118.56
455.734	94.56
455.955	97.56
456.175	89.56
456.395	85.56
456.616	80.56
456.836	103.56
457.056	81.56
457.276	82.56
457.497	79.56
457.717	88.56
457.937	90.56
458.157	109.56
458.377	83.56
458.598	101.56
458.818	149.56
459.038	163.56
459.258	109.56
459.478	93.56
459.698	86.56
459.918	90.56
460.138	90.56
460.358	90.56
460.578	64.56
460.798	85.56
461.018	93.56
461.238	88.56
461.458	94.56
461.678	90.56
461.898	84.56
462.118	90.56
462.338	95.56
462.558	70.56
462.777	83.56
462.997	93.56
463.217	104.56
463.437	73.56
463.657	91.56
463.876	87.56
464.096	80.56
464.316	90.56
464.536	98.56
464.755	95.56
464.975	108.56
465.195	190.56
465.414	171.56
465.634	98.56
465.854	85.56
466.073	92.56
466.293	97.56
466.512	85.56
466.732	90.56
466.951	83.56
467.171	101.56
467.391	92.56
467.61	112.56
467.829	122.56
468.049	241.56
468.268	321.56
468.488	117.56
468.707	111.56
468.927	86.56
469.146	89.56
469.365	92.56
469.585	99.56
469.804	109.56
470.023	98.56
470.243	97.56
470.462	92.56
470.681	130.56
470.901	105.56
471.12	95.56
471.339	105.56
471.558	93.56
471.777	116.56
471.997	145.56
472.216	429.56
472.435	866.56
472.654	252.56
472.873	110.56
473.092	89.56
473.311	76.56
473.53	85.56
473.749	95.56
473.968	87.56
474.187	107.56
474.406	107.56
474.625	91.56
474.844	87.56
475.063	93.56
475.282	93.56
475.501	89.56
475.72	92.56
475.939	93.56
476.158	84.56
476.377	93.56
476.596	77.56
476.814	95.56
477.033	84.56
477.252	94.56
477.471	85.56
477.69	100.56
477.908	102.56
478.127	82.56
478.346	112.56
478.564	88.56
478.783	101.56
479.002	100.56
479.22	116.56
479.439	104.56
479.658	106.56
479.876	101.56
480.095	97.56
480.313	97.56
480.532	112.56
480.751	141.56
480.969	408.56
481.188	1418.56
481.406	883.56
481.624	181.56
481.843	106.56
482.061	83.56
482.28	107.56
482.498	87.56
482.717	78.56
482.935	88.56
483.153	97.56
483.372	84.56
483.59	97.56
483.808	100.56
484.027	99.56
484.245	95.56
484.463	94.56
484.681	104.56
484.9	95.56
485.118	98.56
485.336	95.56
485.554	100.56
485.772	99.56
485.99	114.56
486.209	118.56
486.427	99.56
486.645	126.56
486.863	113.56
487.081	122.56
487.299	72.56
487.517	91.56
487.735	83.56
487.953	93.56
488.171	97.56
488.389	97.56
488.607	105.56
488.825	88.56
489.043	98.56
489.261	92.56
489.479	99.56
489.696	98.56
489.914	86.56
490.132	79.56
490.35	91.56
490.568	90.56
490.786	92.56
491.003	87.56
491.221	85.56
491.439	94.56
491.657	104.56
491.874	95.56
492.092	90.56
492.31	101.56
492.527	100.56
492.745	105.56
492.963	97.56
493.18	69.56
493.398	101.56
493.615	104.56
493.833	88.56
494.05	87.56
494.268	89.56
494.485	83.56
494.703	99.56
494.92	86.56
495.138	108.56
495.355	94.56
495.573	93.56
495.79	99.56
496.008	87.56
496.225	92.56
496.442	95.56
496.66	82.56
496.877	78.56
497.094	91.56
497.312	77.56
497.529	90.56
497.746	90.56
497.963	94.56
498.181	90.56
498.398	98.56
498.615	108.56
498.832	85.56
499.049	88.56
499.267	91.56
499.484	93.56
499.701	84.56
499.918	103.56
500.135	89.56
500.352	87.56
500.569	97.56
500.786	93.56
501.003	98.56
501.22	75.56
501.437	105.56
501.654	84.56
501.871	106.56
502.088	91.56
502.305	100.56
502.522	101.56
502.739	90.56
502.956	88.56
503.172	89.56
503.389	103.56
503.606	107.56
503.823	96.56
504.04	81.56
504.256	94.56
504.473	100.56
504.69	82.56
504.907	108.56
505.123	100.56
505.34	75.56
505.557	92.56
505.773	94.56
505.99	86.56
506.207	80.56
506.423	85.56
506.64	85.56
506.856	98.56
507.073	82.56
507.289	88.56
507.506	91.56
507.722	95.56
507.939	122.56
508.155	105.56
508.372	92.56
508.588	86.56
508.805	98.56
509.021	95.56
509.238	104.56
509.454	103.56
509.67	102.56
509.887	103.56
510.103	109.56
510.319	194.56
510.536	701.56
510.752	2349.56
510.968	681.56
511.184	145.56
511.401	110.56
511.617	94.56
511.833	100.56
512.049	96.56
512.265	85.56
512.481	90.56
512.698	91.56
512.914	90.56
513.13	97.56
513.346	107.56
513.562	105.56
513.778	87.56
513.994	93.56
