Data from Circ_2000_H10_HRD10591_00035.txt Node
Date: Wed Jan 03 10:49:40 EST 2024
User: Yrep
Spectrometer: HR+D1059
Trigger mode: 1
Integration Time (sec): 1.000000E-1
Scans to average: 1
Electric dark correction enabled: true
Nonlinearity correction enabled: false
Boxcar width: 0
XAxis mode: Wavelengths
Number of Pixels in Spectrum: 2048
>>>>>Begin Spectral Data<<<<<
223.165	-35.88
223.4	-35.88
223.635	-35.88
223.869	-29.88
224.104	-4.88
224.338	-14.88
224.573	-15.88
224.808	-12.88
225.042	-9.88
225.277	-11.88
225.511	9.12
225.746	-0.88
225.98	19.12
226.215	10.12
226.449	8.12
226.683	24.12
226.918	27.12
227.152	39.12
227.387	29.12
227.621	46.12
227.856	34.12
228.09	44.12
228.324	44.12
228.559	53.12
228.793	66.12
229.027	63.12
229.262	68.12
229.496	77.12
229.73	91.12
229.964	83.12
230.199	82.12
230.433	70.12
230.667	76.12
230.901	83.12
231.136	74.12
231.37	82.12
231.604	75.12
231.838	84.12
232.072	87.12
232.306	92.12
232.541	75.12
232.775	75.12
233.009	85.12
233.243	96.12
233.477	79.12
233.711	89.12
233.945	77.12
234.179	68.12
234.413	75.12
234.647	75.12
234.881	67.12
235.115	80.12
235.349	82.12
235.583	77.12
235.817	93.12
236.051	74.12
236.285	70.12
236.519	83.12
236.753	78.12
236.987	69.12
237.221	95.12
237.455	91.12
237.689	73.12
237.922	60.12
238.156	66.12
238.39	66.12
238.624	75.12
238.858	74.12
239.091	69.12
239.325	78.12
239.559	92.12
239.793	76.12
240.027	69.12
240.26	78.12
240.494	70.12
240.728	87.12
240.961	75.12
241.195	81.12
241.429	77.12
241.662	76.12
241.896	72.12
242.13	60.12
242.363	70.12
242.597	78.12
242.83	73.12
243.064	77.12
243.298	70.12
243.531	85.12
243.765	78.12
243.998	73.12
244.232	70.12
244.465	79.12
244.699	95.12
244.932	87.12
245.166	78.12
245.399	75.12
245.633	83.12
245.866	86.12
246.099	62.12
246.333	76.12
246.566	90.12
246.8	81.12
247.033	81.12
247.266	77.12
247.5	84.12
247.733	76.12
247.966	67.12
248.2	92.12
248.433	79.12
248.666	77.12
248.899	79.12
249.133	80.12
249.366	116.12
249.599	100.12
249.832	93.12
250.066	78.12
250.299	86.12
250.532	84.12
250.765	79.12
250.998	81.12
251.231	80.12
251.465	98.12
251.698	81.12
251.931	77.12
252.164	84.12
252.397	81.12
252.63	70.12
252.863	94.12
253.096	82.12
253.329	95.12
253.562	78.12
253.795	76.12
254.028	77.12
254.261	70.12
254.494	90.12
254.727	81.12
254.96	78.12
255.193	87.12
255.426	92.12
255.659	94.12
255.892	90.12
256.124	88.12
256.357	82.12
256.59	88.12
256.823	73.12
257.056	81.12
257.289	81.12
257.521	74.12
257.754	82.12
257.987	78.12
258.22	87.12
258.452	78.12
258.685	97.12
258.918	83.12
259.151	83.12
259.383	74.12
259.616	77.12
259.849	91.12
260.081	98.12
260.314	89.12
260.547	75.12
260.779	94.12
261.012	74.12
261.244	94.12
261.477	95.12
261.71	99.12
261.942	110.12
262.175	132.12
262.407	90.12
262.64	89.12
262.872	82.12
263.105	84.12
263.337	97.12
263.57	79.12
263.802	80.12
264.035	84.12
264.267	85.12
264.499	78.12
264.732	85.12
264.964	87.12
265.197	88.12
265.429	83.12
265.661	73.12
265.894	87.12
266.126	65.12
266.358	69.12
266.591	84.12
266.823	98.12
267.055	60.12
267.287	82.12
267.52	70.12
267.752	78.12
267.984	106.12
268.216	82.12
268.448	84.12
268.681	86.12
268.913	96.12
269.145	87.12
269.377	71.12
269.609	97.12
269.841	85.12
270.073	86.12
270.306	80.12
270.538	77.12
270.77	92.12
271.002	90.12
271.234	81.12
271.466	90.12
271.698	89.12
271.93	78.12
272.162	89.12
272.394	82.12
272.626	89.12
272.858	88.12
273.09	91.12
273.322	87.12
273.553	79.12
273.785	78.12
274.017	96.12
274.249	83.12
274.481	66.12
274.713	79.12
274.945	79.12
275.176	81.12
275.408	95.12
275.64	90.12
275.872	105.12
276.104	86.12
276.335	94.12
276.567	104.12
276.799	104.12
277.031	130.12
277.262	135.12
277.494	120.12
277.726	105.12
277.957	79.12
278.189	97.12
278.421	83.12
278.652	86.12
278.884	89.12
279.115	84.12
279.347	95.12
279.579	93.12
279.81	100.12
280.042	134.12
280.273	161.12
280.505	124.12
280.736	82.12
280.968	90.12
281.199	89.12
281.431	90.12
281.662	87.12
281.894	99.12
282.125	118.12
282.356	128.12
282.588	151.12
282.819	124.12
283.051	91.12
283.282	75.12
283.513	74.12
283.745	91.12
283.976	83.12
284.207	85.12
284.439	80.12
284.67	77.12
284.901	89.12
285.132	87.12
285.364	98.12
285.595	96.12
285.826	97.12
286.057	97.12
286.288	84.12
286.52	90.12
286.751	81.12
286.982	90.12
287.213	82.12
287.444	82.12
287.675	92.12
287.906	96.12
288.138	97.12
288.369	81.12
288.6	77.12
288.831	78.12
289.062	96.12
289.293	86.12
289.524	82.12
289.755	91.12
289.986	103.12
290.217	88.12
290.448	79.12
290.679	84.12
290.91	87.12
291.141	94.12
291.371	82.12
291.602	89.12
291.833	90.12
292.064	92.12
292.295	91.12
292.526	88.12
292.757	100.12
292.987	90.12
293.218	80.12
293.449	74.12
293.68	88.12
293.91	102.12
294.141	100.12
294.372	83.12
294.603	78.12
294.833	80.12
295.064	75.12
295.295	83.12
295.525	102.12
295.756	100.12
295.987	124.12
296.217	172.12
296.448	144.12
296.679	88.12
296.909	82.12
297.14	86.12
297.37	85.12
297.601	82.12
297.831	88.12
298.062	98.12
298.292	85.12
298.523	94.12
298.753	79.12
298.984	87.12
299.214	88.12
299.445	90.12
299.675	91.12
299.905	98.12
300.136	95.12
300.366	88.12
300.597	81.12
300.827	101.12
301.057	99.12
301.288	87.12
301.518	92.12
301.748	87.12
301.979	116.12
302.209	103.12
302.439	91.12
302.669	89.12
302.9	100.12
303.13	95.12
303.36	107.12
303.59	106.12
303.82	127.12
304.051	96.12
304.281	86.12
304.511	90.12
304.741	79.12
304.971	78.12
305.201	83.12
305.431	95.12
305.661	91.12
305.891	88.12
306.121	91.12
306.352	109.12
306.582	98.12
306.812	101.12
307.042	107.12
307.272	126.12
307.502	120.12
307.731	112.12
307.961	99.12
308.191	86.12
308.421	107.12
308.651	84.12
308.881	104.12
309.111	98.12
309.341	93.12
309.571	107.12
309.8	100.12
310.03	94.12
310.26	111.12
310.49	95.12
310.72	108.12
310.949	113.12
311.179	103.12
311.409	89.12
311.639	103.12
311.868	100.12
312.098	99.12
312.328	86.12
312.557	116.12
312.787	121.12
313.017	96.12
313.246	89.12
313.476	93.12
313.706	90.12
313.935	103.12
314.165	116.12
314.394	82.12
314.624	100.12
314.853	105.12
315.083	96.12
315.312	80.12
315.542	89.12
315.771	103.12
316.001	87.12
316.23	90.12
316.46	88.12
316.689	95.12
316.919	94.12
317.148	94.12
317.377	100.12
317.607	107.12
317.836	89.12
318.065	91.12
318.295	75.12
318.524	95.12
318.753	73.12
318.983	81.12
319.212	98.12
319.441	100.12
319.67	111.12
319.9	103.12
320.129	89.12
320.358	114.12
320.587	92.12
320.816	106.12
321.046	106.12
321.275	106.12
321.504	96.12
321.733	107.12
321.962	98.12
322.191	122.12
322.42	115.12
322.649	105.12
322.878	112.12
323.108	128.12
323.337	129.12
323.566	142.12
323.795	181.12
324.024	227.12
324.253	454.12
324.482	932.12
324.71	1933.12
324.939	2511.12
325.168	943.12
325.397	280.12
325.626	163.12
325.855	130.12
326.084	142.12
326.313	155.12
326.542	173.12
326.77	260.12
326.999	480.12
327.228	1011.12
327.457	1869.12
327.686	1487.12
327.914	464.12
328.143	325.12
328.372	364.12
328.6	228.12
328.829	138.12
329.058	157.12
329.287	171.12
329.515	134.12
329.744	182.12
329.972	289.12
330.201	518.12
330.43	727.12
330.658	378.12
330.887	224.12
331.115	153.12
331.344	118.12
331.572	106.12
331.801	116.12
332.03	117.12
332.258	111.12
332.486	95.12
332.715	103.12
332.943	108.12
333.172	106.12
333.4	111.12
333.629	134.12
333.857	164.12
334.085	264.12
334.314	502.12
334.542	900.12
334.771	849.12
334.999	252.12
335.227	136.12
335.455	113.12
335.684	107.12
335.912	99.12
336.14	105.12
336.369	113.12
336.597	94.12
336.825	103.12
337.053	91.12
337.281	98.12
337.51	95.12
337.738	90.12
337.966	91.12
338.194	114.12
338.422	104.12
338.65	106.12
338.878	98.12
339.106	82.12
339.334	106.12
339.562	99.12
339.79	102.12
340.018	100.12
340.246	85.12
340.474	92.12
340.702	82.12
340.93	97.12
341.158	98.12
341.386	106.12
341.614	96.12
341.842	100.12
342.07	95.12
342.298	96.12
342.526	99.12
342.754	81.12
342.981	94.12
343.209	89.12
343.437	90.12
343.665	85.12
343.893	80.12
344.12	95.12
344.348	79.12
344.576	89.12
344.804	93.12
345.031	106.12
345.259	110.12
345.487	87.12
345.714	82.12
345.942	105.12
346.17	102.12
346.397	85.12
346.625	87.12
346.853	84.12
347.08	96.12
347.308	88.12
347.535	99.12
347.763	96.12
347.99	112.12
348.218	121.12
348.445	101.12
348.673	103.12
348.9	102.12
349.128	88.12
349.355	78.12
349.583	101.12
349.81	95.12
350.037	94.12
350.265	98.12
350.492	76.12
350.72	96.12
350.947	101.12
351.174	101.12
351.402	120.12
351.629	103.12
351.856	96.12
352.083	99.12
352.311	110.12
352.538	111.12
352.765	106.12
352.992	105.12
353.22	110.12
353.447	97.12
353.674	92.12
353.901	95.12
354.128	104.12
354.355	104.12
354.583	107.12
354.81	98.12
355.037	94.12
355.264	99.12
355.491	92.12
355.718	90.12
355.945	89.12
356.172	99.12
356.399	87.12
356.626	89.12
356.853	90.12
357.08	96.12
357.307	95.12
357.534	75.12
357.761	82.12
357.988	90.12
358.215	87.12
358.441	104.12
358.668	85.12
358.895	84.12
359.122	85.12
359.349	78.12
359.576	102.12
359.802	106.12
360.029	123.12
360.256	119.12
360.483	108.12
360.709	87.12
360.936	91.12
361.163	101.12
361.39	85.12
361.616	89.12
361.843	92.12
362.07	102.12
362.296	91.12
362.523	100.12
362.749	104.12
362.976	97.12
363.203	92.12
363.429	85.12
363.656	89.12
363.882	80.12
364.109	101.12
364.335	89.12
364.562	97.12
364.788	100.12
365.015	86.12
365.241	104.12
365.468	98.12
365.694	97.12
365.92	105.12
366.147	96.12
366.373	87.12
366.599	78.12
366.826	96.12
367.052	97.12
367.278	83.12
367.505	90.12
367.731	105.12
367.957	86.12
368.184	87.12
368.41	92.12
368.636	127.12
368.862	132.12
369.089	119.12
369.315	94.12
369.541	88.12
369.767	80.12
369.993	100.12
370.219	91.12
370.445	78.12
370.672	95.12
370.898	87.12
371.124	75.12
371.35	88.12
371.576	81.12
371.802	78.12
372.028	55.12
372.254	86.12
372.48	76.12
372.706	84.12
372.932	88.12
373.158	88.12
373.384	89.12
373.61	87.12
373.835	94.12
374.061	85.12
374.287	83.12
374.513	91.12
374.739	94.12
374.965	91.12
375.191	90.12
375.416	94.12
375.642	95.12
375.868	89.12
376.094	84.12
376.319	89.12
376.545	85.12
376.771	84.12
376.997	94.12
377.222	90.12
377.448	87.12
377.674	80.12
377.899	78.12
378.125	84.12
378.35	101.12
378.576	89.12
378.802	90.12
379.027	87.12
379.253	100.12
379.478	96.12
379.704	83.12
379.929	86.12
380.155	93.12
380.38	95.12
380.606	105.12
380.831	88.12
381.057	99.12
381.282	98.12
381.507	95.12
381.733	95.12
381.958	99.12
382.184	103.12
382.409	98.12
382.634	100.12
382.86	97.12
383.085	117.12
383.31	106.12
383.535	100.12
383.761	93.12
383.986	88.12
384.211	111.12
384.436	101.12
384.662	115.12
384.887	107.12
385.112	112.12
385.337	101.12
385.562	106.12
385.787	100.12
386.013	105.12
386.238	128.12
386.463	93.12
386.688	120.12
386.913	101.12
387.138	105.12
387.363	89.12
387.588	102.12
387.813	92.12
388.038	110.12
388.263	102.12
388.488	109.12
388.713	96.12
388.938	84.12
389.163	96.12
389.387	96.12
389.612	86.12
389.837	78.12
390.062	82.12
390.287	94.12
390.512	85.12
390.736	80.12
390.961	87.12
391.186	88.12
391.411	95.12
391.636	91.12
391.86	81.12
392.085	78.12
392.31	78.12
392.534	84.12
392.759	75.12
392.984	91.12
393.208	91.12
393.433	100.12
393.658	97.12
393.882	85.12
394.107	76.12
394.331	91.12
394.556	73.12
394.78	93.12
395.005	85.12
395.229	80.12
395.454	84.12
395.678	84.12
395.903	86.12
396.127	83.12
396.352	75.12
396.576	98.12
396.801	84.12
397.025	97.12
397.249	92.12
397.474	84.12
397.698	87.12
397.922	88.12
398.147	84.12
398.371	88.12
398.595	96.12
398.82	86.12
399.044	90.12
399.268	83.12
399.492	79.12
399.717	85.12
399.941	90.12
400.165	84.12
400.389	96.12
400.613	97.12
400.837	98.12
401.062	98.12
401.286	91.12
401.51	78.12
401.734	106.12
401.958	106.12
402.182	134.12
402.406	182.12
402.63	137.12
402.854	87.12
403.078	87.12
403.302	95.12
403.526	81.12
403.75	86.12
403.974	95.12
404.198	91.12
404.422	92.12
404.645	83.12
404.869	93.12
405.093	101.12
405.317	124.12
405.541	122.12
405.765	111.12
405.988	147.12
406.212	196.12
406.436	273.12
406.66	182.12
406.883	117.12
407.107	101.12
407.331	96.12
407.555	110.12
407.778	102.12
408.002	91.12
408.226	103.12
408.449	81.12
408.673	106.12
408.896	95.12
409.12	91.12
409.344	97.12
409.567	96.12
409.791	91.12
410.014	95.12
410.238	98.12
410.461	87.12
410.685	88.12
410.908	80.12
411.132	98.12
411.355	86.12
411.578	91.12
411.802	82.12
412.025	92.12
412.249	105.12
412.472	104.12
412.695	111.12
412.919	98.12
413.142	86.12
413.365	94.12
413.589	95.12
413.812	93.12
414.035	78.12
414.258	84.12
414.482	89.12
414.705	96.12
414.928	92.12
415.151	78.12
415.374	74.12
415.597	88.12
415.821	81.12
416.044	87.12
416.267	99.12
416.49	88.12
416.713	87.12
416.936	83.12
417.159	74.12
417.382	87.12
417.605	110.12
417.828	115.12
418.051	87.12
418.274	90.12
418.497	83.12
418.72	78.12
418.943	95.12
419.166	89.12
419.389	83.12
419.611	84.12
419.834	89.12
420.057	86.12
420.28	92.12
420.503	90.12
420.726	81.12
420.948	84.12
421.171	98.12
421.394	90.12
421.617	90.12
421.839	79.12
422.062	94.12
422.285	104.12
422.507	109.12
422.73	98.12
422.953	87.12
423.175	95.12
423.398	99.12
423.621	98.12
423.843	80.12
424.066	92.12
424.288	87.12
424.511	81.12
424.733	98.12
424.956	124.12
425.178	102.12
425.401	105.12
425.623	113.12
425.846	99.12
426.068	97.12
426.291	87.12
426.513	85.12
426.735	94.12
426.958	85.12
427.18	113.12
427.402	177.12
427.625	225.12
427.847	207.12
428.069	178.12
428.292	99.12
428.514	78.12
428.736	91.12
428.958	84.12
429.181	86.12
429.403	90.12
429.625	103.12
429.847	97.12
430.069	96.12
430.292	84.12
430.514	95.12
430.736	75.12
430.958	78.12
431.18	78.12
431.402	66.12
431.624	78.12
431.846	81.12
432.068	88.12
432.29	90.12
432.512	103.12
432.734	74.12
432.956	87.12
433.178	94.12
433.4	110.12
433.622	86.12
433.844	81.12
434.066	79.12
434.287	90.12
434.509	87.12
434.731	66.12
434.953	89.12
435.175	75.12
435.397	89.12
435.618	84.12
435.84	119.12
436.062	123.12
436.284	124.12
436.505	101.12
436.727	110.12
436.949	86.12
437.17	107.12
437.392	84.12
437.614	98.12
437.835	114.12
438.057	147.12
438.278	92.12
438.5	96.12
438.721	115.12
438.943	124.12
439.165	99.12
439.386	83.12
439.608	90.12
439.829	115.12
440.05	156.12
440.272	162.12
440.493	104.12
440.715	90.12
440.936	94.12
441.158	93.12
441.379	92.12
441.6	105.12
441.822	100.12
442.043	106.12
442.264	98.12
442.486	108.12
442.707	84.12
442.928	126.12
443.149	152.12
443.371	164.12
443.592	123.12
443.813	118.12
444.034	119.12
444.255	87.12
444.476	74.12
444.698	81.12
444.919	83.12
445.14	120.12
445.361	133.12
445.582	126.12
445.803	170.12
446.024	177.12
446.245	168.12
446.466	115.12
446.687	106.12
446.908	90.12
447.129	88.12
447.35	89.12
447.571	79.12
447.792	95.12
448.013	104.12
448.234	98.12
448.455	111.12
448.675	115.12
448.896	127.12
449.117	102.12
449.338	121.12
449.559	135.12
449.779	146.12
450	86.12
450.221	105.12
450.442	85.12
450.662	92.12
450.883	123.12
451.104	134.12
451.324	88.12
451.545	76.12
451.766	83.12
451.986	71.12
452.207	86.12
452.428	85.12
452.648	101.12
452.869	141.12
453.089	142.12
453.31	129.12
453.53	98.12
453.751	91.12
453.971	98.12
454.192	139.12
454.412	103.12
454.633	82.12
454.853	78.12
455.073	91.12
455.294	96.12
455.514	94.12
455.734	92.12
455.955	86.12
456.175	85.12
456.395	76.12
456.616	103.12
456.836	87.12
457.056	83.12
457.276	78.12
457.497	86.12
457.717	84.12
457.937	85.12
458.157	87.12
458.377	99.12
458.598	101.12
458.818	204.12
459.038	210.12
459.258	142.12
459.478	99.12
459.698	82.12
459.918	76.12
460.138	79.12
460.358	79.12
460.578	103.12
460.798	86.12
461.018	88.12
461.238	87.12
461.458	84.12
461.678	79.12
461.898	82.12
462.118	88.12
462.338	64.12
462.558	78.12
462.777	102.12
462.997	86.12
463.217	87.12
463.437	83.12
463.657	80.12
463.876	73.12
464.096	95.12
464.316	98.12
464.536	103.12
464.755	87.12
464.975	116.12
465.195	204.12
465.414	191.12
465.634	93.12
465.854	92.12
466.073	101.12
466.293	100.12
466.512	84.12
466.732	76.12
466.951	92.12
467.171	101.12
467.391	103.12
467.61	122.12
467.829	147.12
468.049	290.12
468.268	430.12
468.488	138.12
468.707	93.12
468.927	96.12
469.146	87.12
469.365	85.12
469.585	102.12
469.804	104.12
470.023	109.12
470.243	104.12
470.462	113.12
470.681	114.12
470.901	100.12
471.12	101.12
471.339	101.12
471.558	99.12
471.777	113.12
471.997	190.12
472.216	552.12
472.435	1171.12
472.654	314.12
472.873	129.12
473.092	101.12
473.311	88.12
473.53	99.12
473.749	99.12
473.968	92.12
474.187	113.12
474.406	98.12
474.625	63.12
474.844	98.12
475.063	83.12
475.282	70.12
475.501	66.12
475.72	83.12
475.939	84.12
476.158	79.12
476.377	91.12
476.596	83.12
476.814	98.12
477.033	96.12
477.252	76.12
477.471	74.12
477.69	83.12
477.908	84.12
478.127	85.12
478.346	86.12
478.564	84.12
478.783	95.12
479.002	101.12
479.22	89.12
479.439	118.12
479.658	113.12
479.876	106.12
480.095	99.12
480.313	116.12
480.532	94.12
480.751	170.12
480.969	498.12
481.188	2035.12
481.406	1190.12
481.624	232.12
481.843	104.12
482.061	97.12
482.28	102.12
482.498	88.12
482.717	81.12
482.935	80.12
483.153	90.12
483.372	90.12
483.59	85.12
483.808	94.12
484.027	84.12
484.245	99.12
484.463	90.12
484.681	102.12
484.9	100.12
485.118	99.12
485.336	78.12
485.554	105.12
485.772	107.12
485.99	92.12
486.209	107.12
486.427	101.12
486.645	114.12
486.863	131.12
487.081	107.12
487.299	106.12
487.517	94.12
487.735	82.12
487.953	88.12
488.171	86.12
488.389	92.12
488.607	103.12
488.825	94.12
489.043	95.12
489.261	85.12
489.479	90.12
489.696	97.12
489.914	88.12
490.132	83.12
490.35	88.12
490.568	87.12
490.786	74.12
491.003	86.12
491.221	88.12
491.439	104.12
491.657	80.12
491.874	103.12
492.092	90.12
492.31	88.12
492.527	97.12
492.745	90.12
492.963	85.12
493.18	96.12
493.398	87.12
493.615	93.12
493.833	88.12
494.05	70.12
494.268	95.12
494.485	88.12
494.703	81.12
494.92	89.12
495.138	92.12
495.355	91.12
495.573	88.12
495.79	90.12
496.008	91.12
496.225	90.12
496.442	85.12
496.66	82.12
496.877	79.12
497.094	85.12
497.312	79.12
497.529	93.12
497.746	91.12
497.963	89.12
498.181	94.12
498.398	103.12
498.615	117.12
498.832	109.12
499.049	77.12
499.267	80.12
499.484	84.12
499.701	85.12
499.918	83.12
500.135	85.12
500.352	83.12
500.569	82.12
500.786	87.12
501.003	84.12
501.22	78.12
501.437	83.12
501.654	92.12
501.871	119.12
502.088	92.12
502.305	99.12
502.522	106.12
502.739	84.12
502.956	86.12
503.172	82.12
503.389	108.12
503.606	110.12
503.823	104.12
504.04	87.12
504.256	103.12
504.473	96.12
504.69	82.12
504.907	68.12
505.123	71.12
505.34	88.12
505.557	99.12
505.773	72.12
505.99	88.12
506.207	88.12
506.423	90.12
506.64	78.12
506.856	98.12
507.073	105.12
507.289	111.12
507.506	95.12
507.722	119.12
507.939	126.12
508.155	113.12
508.372	93.12
508.588	92.12
508.805	101.12
509.021	99.12
509.238	86.12
509.454	103.12
509.67	110.12
509.887	105.12
510.103	136.12
510.319	241.12
510.536	859.12
510.752	2990.12
510.968	814.12
511.184	154.12
511.401	128.12
511.617	99.12
511.833	106.12
512.049	100.12
512.265	95.12
512.481	105.12
512.698	79.12
512.914	80.12
513.13	87.12
513.346	86.12
513.562	98.12
513.778	97.12
513.994	95.12
514.21	113.12
514.426	139.12
