Data from Circ_2000_H10_HRD10591_00071.txt Node
Date: Wed Jan 03 10:49:48 EST 2024
User: Yrep
Spectrometer: HR+D1059
Trigger mode: 1
Integration Time (sec): 1.000000E-1
Scans to average: 1
Electric dark correction enabled: true
Nonlinearity correction enabled: false
Boxcar width: 0
XAxis mode: Wavelengths
Number of Pixels in Spectrum: 2048
>>>>>Begin Spectral Data<<<<<
223.165	-22.19
223.4	-22.19
223.635	-22.19
223.869	-26.19
224.104	-6.19
224.338	-19.19
224.573	-18.19
224.808	-15.19
225.042	-11.19
225.277	-8.19
225.511	-10.19
225.746	11.81
225.98	9.81
226.215	13.81
226.449	11.81
226.683	28.81
226.918	28.81
227.152	31.81
227.387	36.81
227.621	23.81
227.856	35.81
228.09	32.81
228.324	46.81
228.559	61.81
228.793	53.81
229.027	68.81
229.262	63.81
229.496	80.81
229.73	90.81
229.964	75.81
230.199	72.81
230.433	75.81
230.667	82.81
230.901	69.81
231.136	73.81
231.37	69.81
231.604	74.81
231.838	83.81
232.072	74.81
232.306	79.81
232.541	95.81
232.775	89.81
233.009	84.81
233.243	74.81
233.477	75.81
233.711	65.81
233.945	83.81
234.179	85.81
234.413	80.81
234.647	79.81
234.881	87.81
235.115	86.81
235.349	71.81
235.583	81.81
235.817	82.81
236.051	86.81
236.285	60.81
236.519	77.81
236.753	87.81
236.987	85.81
237.221	89.81
237.455	79.81
237.689	78.81
237.922	82.81
238.156	66.81
238.39	61.81
238.624	73.81
238.858	92.81
239.091	79.81
239.325	75.81
239.559	74.81
239.793	77.81
240.027	80.81
240.26	69.81
240.494	75.81
240.728	88.81
240.961	73.81
241.195	60.81
241.429	78.81
241.662	87.81
241.896	77.81
242.13	78.81
242.363	87.81
242.597	77.81
242.83	71.81
243.064	73.81
243.298	67.81
243.531	71.81
243.765	84.81
243.998	79.81
244.232	79.81
244.465	77.81
244.699	85.81
244.932	69.81
245.166	76.81
245.399	93.81
245.633	88.81
245.866	85.81
246.099	81.81
246.333	76.81
246.566	82.81
246.8	78.81
247.033	73.81
247.266	58.81
247.5	72.81
247.733	76.81
247.966	85.81
248.2	80.81
248.433	86.81
248.666	75.81
248.899	70.81
249.133	83.81
249.366	96.81
249.599	98.81
249.832	87.81
250.066	79.81
250.299	79.81
250.532	80.81
250.765	81.81
250.998	77.81
251.231	84.81
251.465	79.81
251.698	91.81
251.931	72.81
252.164	74.81
252.397	83.81
252.63	85.81
252.863	91.81
253.096	85.81
253.329	72.81
253.562	72.81
253.795	88.81
254.028	71.81
254.261	77.81
254.494	90.81
254.727	80.81
254.96	63.81
255.193	85.81
255.426	84.81
255.659	86.81
255.892	89.81
256.124	73.81
256.357	87.81
256.59	78.81
256.823	79.81
257.056	85.81
257.289	97.81
257.521	78.81
257.754	90.81
257.987	84.81
258.22	85.81
258.452	85.81
258.685	87.81
258.918	87.81
259.151	67.81
259.383	81.81
259.616	82.81
259.849	77.81
260.081	89.81
260.314	85.81
260.547	85.81
260.779	100.81
261.012	100.81
261.244	103.81
261.477	94.81
261.71	103.81
261.942	118.81
262.175	130.81
262.407	86.81
262.64	87.81
262.872	99.81
263.105	84.81
263.337	86.81
263.57	87.81
263.802	89.81
264.035	91.81
264.267	87.81
264.499	99.81
264.732	83.81
264.964	83.81
265.197	84.81
265.429	77.81
265.661	84.81
265.894	69.81
266.126	77.81
266.358	88.81
266.591	85.81
266.823	89.81
267.055	84.81
267.287	88.81
267.52	81.81
267.752	69.81
267.984	84.81
268.216	69.81
268.448	92.81
268.681	76.81
268.913	84.81
269.145	85.81
269.377	91.81
269.609	90.81
269.841	76.81
270.073	90.81
270.306	82.81
270.538	99.81
270.77	86.81
271.002	76.81
271.234	71.81
271.466	96.81
271.698	87.81
271.93	83.81
272.162	87.81
272.394	93.81
272.626	88.81
272.858	84.81
273.09	90.81
273.322	84.81
273.553	79.81
273.785	71.81
274.017	69.81
274.249	89.81
274.481	77.81
274.713	80.81
274.945	96.81
275.176	100.81
275.408	91.81
275.64	87.81
275.872	92.81
276.104	105.81
276.335	93.81
276.567	106.81
276.799	110.81
277.031	135.81
277.262	163.81
277.494	113.81
277.726	99.81
277.957	67.81
278.189	89.81
278.421	91.81
278.652	97.81
278.884	79.81
279.115	85.81
279.347	87.81
279.579	97.81
279.81	107.81
280.042	129.81
280.273	180.81
280.505	128.81
280.736	87.81
280.968	90.81
281.199	73.81
281.431	83.81
281.662	83.81
281.894	92.81
282.125	83.81
282.356	112.81
282.588	160.81
282.819	119.81
283.051	82.81
283.282	94.81
283.513	88.81
283.745	99.81
283.976	79.81
284.207	83.81
284.439	75.81
284.67	84.81
284.901	68.81
285.132	79.81
285.364	89.81
285.595	97.81
285.826	87.81
286.057	98.81
286.288	94.81
286.52	78.81
286.751	85.81
286.982	84.81
287.213	90.81
287.444	90.81
287.675	88.81
287.906	82.81
288.138	81.81
288.369	107.81
288.6	88.81
288.831	87.81
289.062	103.81
289.293	83.81
289.524	73.81
289.755	76.81
289.986	99.81
290.217	81.81
290.448	77.81
290.679	91.81
290.91	99.81
291.141	81.81
291.371	81.81
291.602	90.81
291.833	81.81
292.064	87.81
292.295	87.81
292.526	96.81
292.757	105.81
292.987	98.81
293.218	87.81
293.449	87.81
293.68	85.81
293.91	78.81
294.141	101.81
294.372	94.81
294.603	99.81
294.833	82.81
295.064	93.81
295.295	97.81
295.525	93.81
295.756	113.81
295.987	116.81
296.217	161.81
296.448	129.81
296.679	103.81
296.909	97.81
297.14	87.81
297.37	83.81
297.601	83.81
297.831	98.81
298.062	103.81
298.292	84.81
298.523	95.81
298.753	87.81
298.984	96.81
299.214	102.81
299.445	99.81
299.675	99.81
299.905	72.81
300.136	78.81
300.366	84.81
300.597	96.81
300.827	98.81
301.057	103.81
301.288	113.81
301.518	94.81
301.748	94.81
301.979	117.81
302.209	89.81
302.439	99.81
302.669	91.81
302.9	82.81
303.13	99.81
303.36	112.81
303.59	124.81
303.82	139.81
304.051	108.81
304.281	85.81
304.511	74.81
304.741	103.81
304.971	96.81
305.201	95.81
305.431	96.81
305.661	90.81
305.891	87.81
306.121	88.81
306.352	92.81
306.582	118.81
306.812	109.81
307.042	102.81
307.272	116.81
307.502	150.81
307.731	153.81
307.961	125.81
308.191	81.81
308.421	84.81
308.651	99.81
308.881	97.81
309.111	89.81
309.341	99.81
309.571	97.81
309.8	90.81
310.03	99.81
310.26	100.81
310.49	96.81
310.72	105.81
310.949	111.81
311.179	100.81
311.409	106.81
311.639	102.81
311.868	106.81
312.098	84.81
312.328	98.81
312.557	99.81
312.787	122.81
313.017	117.81
313.246	98.81
313.476	98.81
313.706	96.81
313.935	104.81
314.165	107.81
314.394	106.81
314.624	120.81
314.853	105.81
315.083	101.81
315.312	88.81
315.542	96.81
315.771	94.81
316.001	88.81
316.23	85.81
316.46	98.81
316.689	85.81
316.919	86.81
317.148	103.81
317.377	100.81
317.607	118.81
317.836	93.81
318.065	97.81
318.295	95.81
318.524	92.81
318.753	95.81
318.983	99.81
319.212	119.81
319.441	111.81
319.67	100.81
319.9	96.81
320.129	92.81
320.358	87.81
320.587	103.81
320.816	97.81
321.046	103.81
321.275	107.81
321.504	91.81
321.733	101.81
321.962	94.81
322.191	99.81
322.42	108.81
322.649	109.81
322.878	121.81
323.108	129.81
323.337	149.81
323.566	141.81
323.795	173.81
324.024	226.81
324.253	473.81
324.482	959.81
324.71	1987.81
324.939	2683.81
325.168	974.81
325.397	291.81
325.626	157.81
325.855	134.81
326.084	147.81
326.313	168.81
326.542	171.81
326.77	241.81
326.999	514.81
327.228	1075.81
327.457	1954.81
327.686	1572.81
327.914	483.81
328.143	361.81
328.372	445.81
328.6	272.81
328.829	166.81
329.058	168.81
329.287	174.81
329.515	148.81
329.744	192.81
329.972	296.81
330.201	581.81
330.43	843.81
330.658	416.81
330.887	227.81
331.115	168.81
331.344	121.81
331.572	111.81
331.801	114.81
332.03	114.81
332.258	111.81
332.486	88.81
332.715	99.81
332.943	93.81
333.172	105.81
333.4	117.81
333.629	128.81
333.857	178.81
334.085	293.81
334.314	554.81
334.542	1019.81
334.771	1005.81
334.999	307.81
335.227	145.81
335.455	114.81
335.684	110.81
335.912	93.81
336.14	99.81
336.369	96.81
336.597	118.81
336.825	98.81
337.053	85.81
337.281	97.81
337.51	105.81
337.738	100.81
337.966	101.81
338.194	107.81
338.422	93.81
338.65	91.81
338.878	102.81
339.106	88.81
339.334	112.81
339.562	104.81
339.79	92.81
340.018	93.81
340.246	101.81
340.474	100.81
340.702	94.81
340.93	101.81
341.158	124.81
341.386	99.81
341.614	98.81
341.842	104.81
342.07	91.81
342.298	100.81
342.526	107.81
342.754	93.81
342.981	103.81
343.209	98.81
343.437	91.81
343.665	92.81
343.893	85.81
344.12	92.81
344.348	80.81
344.576	83.81
344.804	84.81
345.031	114.81
345.259	103.81
345.487	102.81
345.714	95.81
345.942	97.81
346.17	87.81
346.397	94.81
346.625	90.81
346.853	81.81
347.08	91.81
347.308	94.81
347.535	95.81
347.763	110.81
347.99	103.81
348.218	96.81
348.445	100.81
348.673	112.81
348.9	90.81
349.128	108.81
349.355	106.81
349.583	105.81
349.81	93.81
350.037	79.81
350.265	87.81
350.492	92.81
350.72	93.81
350.947	121.81
351.174	124.81
351.402	124.81
351.629	107.81
351.856	104.81
352.083	93.81
352.311	100.81
352.538	109.81
352.765	111.81
352.992	111.81
353.22	112.81
353.447	115.81
353.674	116.81
353.901	93.81
354.128	87.81
354.355	83.81
354.583	104.81
354.81	91.81
355.037	88.81
355.264	97.81
355.491	91.81
355.718	79.81
355.945	88.81
356.172	85.81
356.399	99.81
356.626	83.81
356.853	115.81
357.08	82.81
357.307	81.81
357.534	88.81
357.761	99.81
357.988	105.81
358.215	105.81
358.441	87.81
358.668	98.81
358.895	94.81
359.122	90.81
359.349	97.81
359.576	99.81
359.802	119.81
360.029	132.81
360.256	132.81
360.483	93.81
360.709	94.81
360.936	92.81
361.163	101.81
361.39	84.81
361.616	98.81
361.843	92.81
362.07	96.81
362.296	108.81
362.523	83.81
362.749	100.81
362.976	90.81
363.203	96.81
363.429	77.81
363.656	90.81
363.882	80.81
364.109	98.81
364.335	95.81
364.562	83.81
364.788	92.81
365.015	93.81
365.241	101.81
365.468	108.81
365.694	105.81
365.92	104.81
366.147	90.81
366.373	78.81
366.599	91.81
366.826	87.81
367.052	85.81
367.278	102.81
367.505	88.81
367.731	83.81
367.957	106.81
368.184	96.81
368.41	112.81
368.636	119.81
368.862	119.81
369.089	122.81
369.315	108.81
369.541	95.81
369.767	97.81
369.993	93.81
370.219	94.81
370.445	90.81
370.672	105.81
370.898	87.81
371.124	81.81
371.35	93.81
371.576	92.81
371.802	93.81
372.028	80.81
372.254	77.81
372.48	67.81
372.706	104.81
372.932	91.81
373.158	90.81
373.384	93.81
373.61	83.81
373.835	93.81
374.061	92.81
374.287	94.81
374.513	84.81
374.739	85.81
374.965	99.81
375.191	94.81
375.416	101.81
375.642	97.81
375.868	83.81
376.094	76.81
376.319	84.81
376.545	77.81
376.771	90.81
376.997	82.81
377.222	82.81
377.448	79.81
377.674	89.81
377.899	87.81
378.125	95.81
378.35	88.81
378.576	102.81
378.802	88.81
379.027	95.81
379.253	80.81
379.478	85.81
379.704	96.81
379.929	98.81
380.155	95.81
380.38	88.81
380.606	97.81
380.831	85.81
381.057	83.81
381.282	83.81
381.507	88.81
381.733	102.81
381.958	88.81
382.184	100.81
382.409	96.81
382.634	93.81
382.86	108.81
383.085	107.81
383.31	82.81
383.535	108.81
383.761	117.81
383.986	105.81
384.211	107.81
384.436	103.81
384.662	100.81
384.887	89.81
385.112	93.81
385.337	109.81
385.562	84.81
385.787	102.81
386.013	111.81
386.238	106.81
386.463	111.81
386.688	120.81
386.913	102.81
387.138	92.81
387.363	93.81
387.588	115.81
387.813	95.81
388.038	109.81
388.263	106.81
388.488	113.81
388.713	113.81
388.938	83.81
389.163	96.81
389.387	82.81
389.612	86.81
389.837	75.81
390.062	85.81
390.287	74.81
390.512	86.81
390.736	101.81
390.961	89.81
391.186	82.81
391.411	85.81
391.636	84.81
391.86	78.81
392.085	81.81
392.31	93.81
392.534	103.81
392.759	98.81
392.984	94.81
393.208	88.81
393.433	88.81
393.658	102.81
393.882	88.81
394.107	92.81
394.331	101.81
394.556	89.81
394.78	103.81
395.005	87.81
395.229	81.81
395.454	87.81
395.678	73.81
395.903	92.81
396.127	80.81
396.352	80.81
396.576	86.81
396.801	76.81
397.025	77.81
397.249	86.81
397.474	75.81
397.698	83.81
397.922	99.81
398.147	92.81
398.371	97.81
398.595	87.81
398.82	82.81
399.044	83.81
399.268	100.81
399.492	80.81
399.717	91.81
399.941	83.81
400.165	86.81
400.389	94.81
400.613	80.81
400.837	97.81
401.062	83.81
401.286	77.81
401.51	95.81
401.734	87.81
401.958	115.81
402.182	144.81
402.406	190.81
402.63	124.81
402.854	97.81
403.078	89.81
403.302	98.81
403.526	89.81
403.75	93.81
403.974	98.81
404.198	102.81
404.422	98.81
404.645	81.81
404.869	89.81
405.093	120.81
405.317	134.81
405.541	136.81
405.765	110.81
405.988	134.81
406.212	183.81
406.436	283.81
406.66	178.81
406.883	116.81
407.107	98.81
407.331	98.81
407.555	106.81
407.778	104.81
408.002	96.81
408.226	90.81
408.449	84.81
408.673	84.81
408.896	99.81
409.12	99.81
409.344	93.81
409.567	80.81
409.791	93.81
410.014	82.81
410.238	77.81
410.461	102.81
410.685	88.81
410.908	89.81
411.132	105.81
411.355	86.81
411.578	80.81
411.802	86.81
412.025	96.81
412.249	102.81
412.472	122.81
412.695	120.81
412.919	87.81
413.142	88.81
413.365	91.81
413.589	83.81
413.812	95.81
414.035	88.81
414.258	83.81
414.482	91.81
414.705	91.81
414.928	77.81
415.151	88.81
415.374	89.81
415.597	97.81
415.821	95.81
416.044	92.81
416.267	85.81
416.49	92.81
416.713	92.81
416.936	89.81
417.159	97.81
417.382	92.81
417.605	110.81
417.828	94.81
418.051	99.81
418.274	93.81
418.497	85.81
418.72	87.81
418.943	88.81
419.166	83.81
419.389	76.81
419.611	99.81
419.834	91.81
420.057	98.81
420.28	100.81
420.503	80.81
420.726	100.81
420.948	77.81
421.171	83.81
421.394	104.81
421.617	83.81
421.839	84.81
422.062	96.81
422.285	80.81
422.507	85.81
422.73	107.81
422.953	92.81
423.175	84.81
423.398	91.81
423.621	105.81
423.843	85.81
424.066	85.81
424.288	81.81
424.511	87.81
424.733	89.81
424.956	117.81
425.178	114.81
425.401	92.81
425.623	99.81
425.846	96.81
426.068	107.81
426.291	92.81
426.513	89.81
426.735	91.81
426.958	104.81
427.18	117.81
427.402	169.81
427.625	229.81
427.847	184.81
428.069	183.81
428.292	118.81
428.514	81.81
428.736	80.81
428.958	91.81
429.181	83.81
429.403	97.81
429.625	93.81
429.847	80.81
430.069	102.81
430.292	103.81
430.514	69.81
430.736	77.81
430.958	78.81
431.18	80.81
431.402	76.81
431.624	76.81
431.846	91.81
432.068	88.81
432.29	90.81
432.512	81.81
432.734	94.81
432.956	84.81
433.178	91.81
433.4	95.81
433.622	82.81
433.844	92.81
434.066	85.81
434.287	90.81
434.509	82.81
434.731	89.81
434.953	83.81
435.175	74.81
435.397	81.81
435.618	103.81
435.84	111.81
436.062	128.81
436.284	129.81
436.505	111.81
436.727	106.81
436.949	99.81
437.17	93.81
437.392	90.81
437.614	104.81
437.835	121.81
438.057	153.81
438.278	109.81
438.5	114.81
438.721	131.81
438.943	106.81
439.165	85.81
439.386	93.81
439.608	81.81
439.829	105.81
440.05	140.81
440.272	157.81
440.493	106.81
440.715	103.81
440.936	88.81
441.158	88.81
441.379	88.81
441.6	110.81
441.822	99.81
442.043	91.81
442.264	114.81
442.486	99.81
442.707	93.81
442.928	121.81
443.149	169.81
443.371	158.81
443.592	111.81
443.813	102.81
444.034	105.81
444.255	104.81
444.476	91.81
444.698	83.81
444.919	73.81
445.14	130.81
445.361	135.81
445.582	131.81
445.803	160.81
446.024	162.81
446.245	149.81
446.466	105.81
446.687	101.81
446.908	92.81
447.129	98.81
447.35	86.81
447.571	104.81
447.792	108.81
448.013	112.81
448.234	131.81
448.455	124.81
448.675	133.81
448.896	122.81
449.117	109.81
449.338	110.81
449.559	155.81
449.779	147.81
450	100.81
450.221	90.81
450.442	87.81
450.662	91.81
450.883	111.81
451.104	143.81
451.324	108.81
451.545	75.81
451.766	81.81
451.986	73.81
452.207	103.81
452.428	109.81
452.648	99.81
452.869	112.81
453.089	136.81
453.31	116.81
453.53	105.81
453.751	88.81
453.971	116.81
454.192	131.81
454.412	89.81
454.633	76.81
454.853	81.81
455.073	69.81
455.294	88.81
455.514	89.81
455.734	85.81
455.955	73.81
456.175	78.81
456.395	87.81
456.616	82.81
456.836	99.81
457.056	75.81
457.276	80.81
457.497	79.81
457.717	84.81
457.937	97.81
458.157	100.81
458.377	88.81
458.598	106.81
458.818	181.81
459.038	212.81
459.258	135.81
459.478	85.81
459.698	95.81
459.918	87.81
460.138	77.81
460.358	75.81
460.578	89.81
460.798	87.81
461.018	82.81
461.238	97.81
461.458	92.81
461.678	76.81
461.898	80.81
462.118	96.81
462.338	75.81
462.558	77.81
462.777	71.81
462.997	81.81
463.217	92.81
463.437	103.81
463.657	108.81
463.876	97.81
464.096	101.81
464.316	96.81
464.536	95.81
464.755	102.81
464.975	108.81
465.195	227.81
465.414	198.81
465.634	122.81
465.854	80.81
466.073	93.81
466.293	80.81
466.512	85.81
466.732	91.81
466.951	97.81
467.171	99.81
467.391	100.81
467.61	117.81
467.829	156.81
468.049	354.81
468.268	519.81
468.488	153.81
468.707	90.81
468.927	75.81
469.146	87.81
469.365	94.81
469.585	92.81
469.804	116.81
470.023	108.81
470.243	102.81
470.462	106.81
470.681	131.81
470.901	93.81
471.12	93.81
471.339	95.81
471.558	110.81
471.777	120.81
471.997	199.81
472.216	689.81
472.435	1445.81
472.654	375.81
472.873	131.81
473.092	104.81
473.311	110.81
473.53	90.81
473.749	102.81
473.968	111.81
474.187	108.81
474.406	111.81
474.625	92.81
474.844	88.81
475.063	90.81
475.282	91.81
475.501	92.81
475.72	76.81
475.939	76.81
476.158	84.81
476.377	81.81
476.596	113.81
476.814	106.81
477.033	95.81
477.252	93.81
477.471	91.81
477.69	93.81
477.908	93.81
478.127	92.81
478.346	81.81
478.564	75.81
478.783	107.81
479.002	96.81
479.22	108.81
479.439	112.81
479.658	125.81
479.876	109.81
480.095	99.81
480.313	121.81
480.532	131.81
480.751	207.81
480.969	604.81
481.188	2503.81
481.406	1465.81
481.624	252.81
481.843	108.81
482.061	90.81
482.28	96.81
482.498	96.81
482.717	93.81
482.935	86.81
483.153	90.81
483.372	94.81
483.59	89.81
483.808	88.81
484.027	89.81
484.245	84.81
484.463	94.81
484.681	82.81
484.9	87.81
485.118	92.81
485.336	90.81
485.554	99.81
485.772	112.81
485.99	101.81
486.209	106.81
486.427	107.81
486.645	115.81
486.863	127.81
487.081	108.81
487.299	95.81
487.517	88.81
487.735	85.81
487.953	95.81
488.171	98.81
488.389	99.81
488.607	105.81
488.825	91.81
489.043	88.81
489.261	87.81
489.479	86.81
489.696	74.81
489.914	86.81
490.132	91.81
490.35	83.81
490.568	88.81
490.786	88.81
491.003	92.81
491.221	91.81
491.439	81.81
491.657	99.81
491.874	81.81
492.092	86.81
492.31	98.81
492.527	92.81
492.745	93.81
492.963	98.81
493.18	87.81
493.398	97.81
493.615	94.81
493.833	95.81
494.05	86.81
494.268	94.81
494.485	101.81
494.703	93.81
494.92	104.81
495.138	75.81
495.355	97.81
495.573	95.81
495.79	92.81
496.008	88.81
496.225	94.81
496.442	101.81
496.66	89.81
496.877	95.81
497.094	97.81
497.312	101.81
497.529	91.81
497.746	89.81
497.963	91.81
498.181	98.81
498.398	93.81
498.615	105.81
498.832	99.81
499.049	90.81
499.267	88.81
499.484	81.81
499.701	106.81
499.918	93.81
500.135	93.81
500.352	85.81
500.569	97.81
500.786	86.81
501.003	87.81
501.22	74.81
501.437	92.81
501.654	107.81
501.871	124.81
502.088	95.81
502.305	92.81
502.522	87.81
502.739	99.81
502.956	88.81
503.172	114.81
503.389	90.81
503.606	117.81
503.823	99.81
504.04	91.81
504.256	100.81
504.473	82.81
504.69	93.81
504.907	80.81
505.123	74.81
505.34	82.81
505.557	93.81
505.773	92.81
505.99	86.81
506.207	83.81
506.423	86.81
506.64	111.81
506.856	82.81
507.073	97.81
507.289	94.81
507.506	95.81
507.722	109.81
507.939	125.81
508.155	87.81
508.372	96.81
508.588	90.81
508.805	81.81
509.021	92.81
509.238	94.81
509.454	90.81
509.67	109.81
509.887	122.81
510.103	146.81
510.319	225.81
510.536	863.81
510.752	2988.81
510.968	817.81
511.184	179.81
511.401	118.81
511.617	111.81
511.833	113.81
512.049	98.81
512.265	99.81
512.481	92.81
512.698	82.81
512.914	92.81
513.13	79.81
513.346	97.81
513.562	90.81
513.778	110.81
513.994	95.81
514.21	115.81
