Data from Circ_2000_H10_HRD10591_00060.txt Node
Date: Wed Jan 03 10:49:45 EST 2024
User: Yrep
Spectrometer: HR+D1059
Trigger mode: 1
Integration Time (sec): 1.000000E-1
Scans to average: 1
Electric dark correction enabled: true
Nonlinearity correction enabled: false
Boxcar width: 0
XAxis mode: Wavelengths
Number of Pixels in Spectrum: 2048
>>>>>Begin Spectral Data<<<<<
223.165	-25.81
223.4	-25.81
223.635	-25.81
223.869	-8.81
224.104	-16.81
224.338	-20.81
224.573	-20.81
224.808	-12.81
225.042	-24.81
225.277	-6.81
225.511	2.19
225.746	7.19
225.98	9.19
226.215	9.19
226.449	22.19
226.683	26.19
226.918	31.19
227.152	30.19
227.387	27.19
227.621	52.19
227.856	50.19
228.09	44.19
228.324	50.19
228.559	47.19
228.793	49.19
229.027	61.19
229.262	87.19
229.496	70.19
229.73	102.19
229.964	104.19
230.199	78.19
230.433	63.19
230.667	94.19
230.901	89.19
231.136	67.19
231.37	80.19
231.604	82.19
231.838	86.19
232.072	84.19
232.306	79.19
232.541	69.19
232.775	76.19
233.009	86.19
233.243	84.19
233.477	94.19
233.711	81.19
233.945	85.19
234.179	86.19
234.413	62.19
234.647	101.19
234.881	80.19
235.115	88.19
235.349	89.19
235.583	87.19
235.817	85.19
236.051	87.19
236.285	86.19
236.519	94.19
236.753	74.19
236.987	79.19
237.221	86.19
237.455	84.19
237.689	77.19
237.922	93.19
238.156	75.19
238.39	73.19
238.624	83.19
238.858	81.19
239.091	90.19
239.325	86.19
239.559	91.19
239.793	90.19
240.027	75.19
240.26	79.19
240.494	83.19
240.728	88.19
240.961	86.19
241.195	85.19
241.429	73.19
241.662	66.19
241.896	77.19
242.13	78.19
242.363	80.19
242.597	84.19
242.83	74.19
243.064	87.19
243.298	93.19
243.531	85.19
243.765	77.19
243.998	83.19
244.232	84.19
244.465	90.19
244.699	80.19
244.932	80.19
245.166	68.19
245.399	75.19
245.633	89.19
245.866	62.19
246.099	78.19
246.333	76.19
246.566	95.19
246.8	73.19
247.033	85.19
247.266	82.19
247.5	82.19
247.733	83.19
247.966	87.19
248.2	88.19
248.433	86.19
248.666	76.19
248.899	81.19
249.133	91.19
249.366	106.19
249.599	112.19
249.832	95.19
250.066	76.19
250.299	84.19
250.532	85.19
250.765	94.19
250.998	79.19
251.231	79.19
251.465	85.19
251.698	82.19
251.931	84.19
252.164	79.19
252.397	83.19
252.63	83.19
252.863	74.19
253.096	96.19
253.329	88.19
253.562	86.19
253.795	85.19
254.028	88.19
254.261	89.19
254.494	89.19
254.727	92.19
254.96	88.19
255.193	82.19
255.426	92.19
255.659	87.19
255.892	90.19
256.124	77.19
256.357	100.19
256.59	98.19
256.823	84.19
257.056	74.19
257.289	82.19
257.521	92.19
257.754	78.19
257.987	76.19
258.22	102.19
258.452	95.19
258.685	86.19
258.918	93.19
259.151	83.19
259.383	74.19
259.616	83.19
259.849	83.19
260.081	85.19
260.314	79.19
260.547	86.19
260.779	86.19
261.012	95.19
261.244	90.19
261.477	90.19
261.71	113.19
261.942	127.19
262.175	124.19
262.407	96.19
262.64	82.19
262.872	106.19
263.105	78.19
263.337	84.19
263.57	90.19
263.802	79.19
264.035	87.19
264.267	90.19
264.499	93.19
264.732	82.19
264.964	96.19
265.197	89.19
265.429	80.19
265.661	79.19
265.894	74.19
266.126	84.19
266.358	78.19
266.591	81.19
266.823	100.19
267.055	87.19
267.287	85.19
267.52	77.19
267.752	86.19
267.984	82.19
268.216	79.19
268.448	88.19
268.681	76.19
268.913	90.19
269.145	94.19
269.377	84.19
269.609	88.19
269.841	86.19
270.073	83.19
270.306	83.19
270.538	85.19
270.77	76.19
271.002	88.19
271.234	86.19
271.466	88.19
271.698	84.19
271.93	81.19
272.162	93.19
272.394	95.19
272.626	87.19
272.858	83.19
273.09	77.19
273.322	94.19
273.553	86.19
273.785	89.19
274.017	96.19
274.249	67.19
274.481	92.19
274.713	91.19
274.945	95.19
275.176	89.19
275.408	95.19
275.64	111.19
275.872	103.19
276.104	108.19
276.335	96.19
276.567	107.19
276.799	136.19
277.031	132.19
277.262	128.19
277.494	124.19
277.726	104.19
277.957	91.19
278.189	88.19
278.421	74.19
278.652	91.19
278.884	88.19
279.115	87.19
279.347	85.19
279.579	100.19
279.81	102.19
280.042	124.19
280.273	176.19
280.505	135.19
280.736	112.19
280.968	89.19
281.199	99.19
281.431	92.19
281.662	84.19
281.894	94.19
282.125	105.19
282.356	149.19
282.588	175.19
282.819	134.19
283.051	99.19
283.282	90.19
283.513	95.19
283.745	94.19
283.976	88.19
284.207	83.19
284.439	96.19
284.67	85.19
284.901	81.19
285.132	89.19
285.364	90.19
285.595	86.19
285.826	95.19
286.057	99.19
286.288	93.19
286.52	102.19
286.751	101.19
286.982	103.19
287.213	96.19
287.444	93.19
287.675	97.19
287.906	75.19
288.138	95.19
288.369	103.19
288.6	102.19
288.831	86.19
289.062	92.19
289.293	92.19
289.524	78.19
289.755	77.19
289.986	75.19
290.217	89.19
290.448	79.19
290.679	102.19
290.91	99.19
291.141	95.19
291.371	93.19
291.602	89.19
291.833	83.19
292.064	90.19
292.295	93.19
292.526	91.19
292.757	99.19
292.987	111.19
293.218	91.19
293.449	86.19
293.68	90.19
293.91	76.19
294.141	82.19
294.372	90.19
294.603	91.19
294.833	81.19
295.064	94.19
295.295	97.19
295.525	94.19
295.756	110.19
295.987	130.19
296.217	171.19
296.448	142.19
296.679	103.19
296.909	99.19
297.14	104.19
297.37	89.19
297.601	68.19
297.831	94.19
298.062	95.19
298.292	90.19
298.523	93.19
298.753	92.19
298.984	102.19
299.214	92.19
299.445	91.19
299.675	96.19
299.905	95.19
300.136	82.19
300.366	85.19
300.597	100.19
300.827	84.19
301.057	109.19
301.288	107.19
301.518	78.19
301.748	92.19
301.979	107.19
302.209	96.19
302.439	110.19
302.669	87.19
302.9	76.19
303.13	90.19
303.36	95.19
303.59	118.19
303.82	141.19
304.051	103.19
304.281	97.19
304.511	86.19
304.741	96.19
304.971	86.19
305.201	78.19
305.431	84.19
305.661	94.19
305.891	114.19
306.121	91.19
306.352	119.19
306.582	121.19
306.812	90.19
307.042	107.19
307.272	125.19
307.502	146.19
307.731	130.19
307.961	100.19
308.191	106.19
308.421	93.19
308.651	96.19
308.881	101.19
309.111	103.19
309.341	105.19
309.571	92.19
309.8	103.19
310.03	109.19
310.26	117.19
310.49	113.19
310.72	100.19
310.949	119.19
311.179	116.19
311.409	104.19
311.639	100.19
311.868	91.19
312.098	90.19
312.328	105.19
312.557	118.19
312.787	121.19
313.017	110.19
313.246	97.19
313.476	100.19
313.706	101.19
313.935	96.19
314.165	114.19
314.394	111.19
314.624	105.19
314.853	95.19
315.083	103.19
315.312	100.19
315.542	101.19
315.771	86.19
316.001	97.19
316.23	95.19
316.46	100.19
316.689	98.19
316.919	103.19
317.148	96.19
317.377	96.19
317.607	93.19
317.836	90.19
318.065	110.19
318.295	84.19
318.524	87.19
318.753	110.19
318.983	111.19
319.212	92.19
319.441	120.19
319.67	120.19
319.9	111.19
320.129	99.19
320.358	93.19
320.587	103.19
320.816	97.19
321.046	112.19
321.275	100.19
321.504	104.19
321.733	105.19
321.962	101.19
322.191	114.19
322.42	127.19
322.649	121.19
322.878	124.19
323.108	133.19
323.337	144.19
323.566	144.19
323.795	175.19
324.024	237.19
324.253	454.19
324.482	1014.19
324.71	2016.19
324.939	2648.19
325.168	966.19
325.397	260.19
325.626	174.19
325.855	141.19
326.084	150.19
326.313	129.19
326.542	177.19
326.77	264.19
326.999	527.19
327.228	1093.19
327.457	1965.19
327.686	1561.19
327.914	496.19
328.143	382.19
328.372	422.19
328.6	267.19
328.829	142.19
329.058	166.19
329.287	193.19
329.515	136.19
329.744	187.19
329.972	322.19
330.201	604.19
330.43	865.19
330.658	434.19
330.887	247.19
331.115	181.19
331.344	127.19
331.572	115.19
331.801	126.19
332.03	115.19
332.258	103.19
332.486	109.19
332.715	104.19
332.943	98.19
333.172	104.19
333.4	121.19
333.629	150.19
333.857	174.19
334.085	326.19
334.314	586.19
334.542	1075.19
334.771	1030.19
334.999	308.19
335.227	155.19
335.455	112.19
335.684	100.19
335.912	99.19
336.14	97.19
336.369	109.19
336.597	116.19
336.825	110.19
337.053	120.19
337.281	103.19
337.51	86.19
337.738	82.19
337.966	101.19
338.194	100.19
338.422	110.19
338.65	106.19
338.878	96.19
339.106	101.19
339.334	90.19
339.562	100.19
339.79	92.19
340.018	103.19
340.246	89.19
340.474	96.19
340.702	107.19
340.93	91.19
341.158	91.19
341.386	83.19
341.614	95.19
341.842	109.19
342.07	78.19
342.298	106.19
342.526	93.19
342.754	109.19
342.981	89.19
343.209	84.19
343.437	95.19
343.665	94.19
343.893	81.19
344.12	94.19
344.348	99.19
344.576	88.19
344.804	84.19
345.031	97.19
345.259	100.19
345.487	105.19
345.714	118.19
345.942	88.19
346.17	105.19
346.397	96.19
346.625	96.19
346.853	97.19
347.08	84.19
347.308	107.19
347.535	106.19
347.763	108.19
347.99	108.19
348.218	108.19
348.445	108.19
348.673	120.19
348.9	108.19
349.128	93.19
349.355	100.19
349.583	99.19
349.81	106.19
350.037	99.19
350.265	99.19
350.492	83.19
350.72	101.19
350.947	116.19
351.174	109.19
351.402	116.19
351.629	103.19
351.856	110.19
352.083	112.19
352.311	107.19
352.538	127.19
352.765	108.19
352.992	117.19
353.22	110.19
353.447	118.19
353.674	108.19
353.901	97.19
354.128	103.19
354.355	95.19
354.583	102.19
354.81	96.19
355.037	93.19
355.264	103.19
355.491	89.19
355.718	103.19
355.945	102.19
356.172	96.19
356.399	107.19
356.626	88.19
356.853	90.19
357.08	89.19
357.307	98.19
357.534	98.19
357.761	101.19
357.988	91.19
358.215	78.19
358.441	85.19
358.668	90.19
358.895	102.19
359.122	100.19
359.349	91.19
359.576	102.19
359.802	110.19
360.029	141.19
360.256	136.19
360.483	125.19
360.709	102.19
360.936	88.19
361.163	103.19
361.39	116.19
361.616	113.19
361.843	94.19
362.07	107.19
362.296	98.19
362.523	99.19
362.749	106.19
362.976	88.19
363.203	98.19
363.429	82.19
363.656	103.19
363.882	98.19
364.109	95.19
364.335	93.19
364.562	107.19
364.788	102.19
365.015	97.19
365.241	92.19
365.468	111.19
365.694	134.19
365.92	119.19
366.147	92.19
366.373	84.19
366.599	93.19
366.826	91.19
367.052	95.19
367.278	88.19
367.505	95.19
367.731	90.19
367.957	102.19
368.184	95.19
368.41	92.19
368.636	118.19
368.862	135.19
369.089	134.19
369.315	110.19
369.541	109.19
369.767	90.19
369.993	96.19
370.219	103.19
370.445	90.19
370.672	90.19
370.898	101.19
371.124	78.19
371.35	95.19
371.576	93.19
371.802	106.19
372.028	78.19
372.254	91.19
372.48	87.19
372.706	103.19
372.932	93.19
373.158	92.19
373.384	84.19
373.61	111.19
373.835	94.19
374.061	98.19
374.287	79.19
374.513	104.19
374.739	83.19
374.965	98.19
375.191	91.19
375.416	95.19
375.642	94.19
375.868	95.19
376.094	92.19
376.319	78.19
376.545	99.19
376.771	101.19
376.997	77.19
377.222	91.19
377.448	94.19
377.674	84.19
377.899	79.19
378.125	111.19
378.35	93.19
378.576	92.19
378.802	88.19
379.027	79.19
379.253	88.19
379.478	91.19
379.704	87.19
379.929	96.19
380.155	101.19
380.38	108.19
380.606	107.19
380.831	99.19
381.057	104.19
381.282	99.19
381.507	100.19
381.733	89.19
381.958	99.19
382.184	97.19
382.409	110.19
382.634	106.19
382.86	112.19
383.085	115.19
383.31	99.19
383.535	100.19
383.761	95.19
383.986	98.19
384.211	98.19
384.436	92.19
384.662	89.19
384.887	107.19
385.112	119.19
385.337	114.19
385.562	100.19
385.787	115.19
386.013	112.19
386.238	122.19
386.463	103.19
386.688	99.19
386.913	114.19
387.138	119.19
387.363	114.19
387.588	95.19
387.813	107.19
388.038	121.19
388.263	110.19
388.488	103.19
388.713	96.19
388.938	93.19
389.163	92.19
389.387	96.19
389.612	87.19
389.837	92.19
390.062	102.19
390.287	90.19
390.512	115.19
390.736	88.19
390.961	94.19
391.186	88.19
391.411	85.19
391.636	110.19
391.86	103.19
392.085	86.19
392.31	82.19
392.534	100.19
392.759	88.19
392.984	87.19
393.208	99.19
393.433	94.19
393.658	88.19
393.882	93.19
394.107	85.19
394.331	79.19
394.556	90.19
394.78	105.19
395.005	103.19
395.229	109.19
395.454	92.19
395.678	90.19
395.903	86.19
396.127	92.19
396.352	102.19
396.576	96.19
396.801	87.19
397.025	85.19
397.249	96.19
397.474	108.19
397.698	95.19
397.922	91.19
398.147	70.19
398.371	75.19
398.595	79.19
398.82	105.19
399.044	86.19
399.268	83.19
399.492	89.19
399.717	90.19
399.941	112.19
400.165	89.19
400.389	104.19
400.613	96.19
400.837	88.19
401.062	104.19
401.286	99.19
401.51	99.19
401.734	96.19
401.958	100.19
402.182	142.19
402.406	189.19
402.63	135.19
402.854	98.19
403.078	84.19
403.302	100.19
403.526	97.19
403.75	87.19
403.974	74.19
404.198	92.19
404.422	86.19
404.645	97.19
404.869	90.19
405.093	114.19
405.317	131.19
405.541	122.19
405.765	116.19
405.988	138.19
406.212	214.19
406.436	308.19
406.66	174.19
406.883	125.19
407.107	106.19
407.331	115.19
407.555	111.19
407.778	95.19
408.002	94.19
408.226	95.19
408.449	96.19
408.673	87.19
408.896	98.19
409.12	106.19
409.344	91.19
409.567	86.19
409.791	87.19
410.014	92.19
410.238	89.19
410.461	97.19
410.685	100.19
410.908	118.19
411.132	113.19
411.355	112.19
411.578	100.19
411.802	82.19
412.025	91.19
412.249	106.19
412.472	112.19
412.695	126.19
412.919	114.19
413.142	100.19
413.365	87.19
413.589	81.19
413.812	87.19
414.035	98.19
414.258	91.19
414.482	111.19
414.705	89.19
414.928	109.19
415.151	101.19
415.374	85.19
415.597	78.19
415.821	82.19
416.044	99.19
416.267	106.19
416.49	84.19
416.713	92.19
416.936	106.19
417.159	94.19
417.382	109.19
417.605	103.19
417.828	97.19
418.051	94.19
418.274	108.19
418.497	87.19
418.72	92.19
418.943	109.19
419.166	96.19
419.389	86.19
419.611	104.19
419.834	86.19
420.057	101.19
420.28	92.19
420.503	80.19
420.726	99.19
420.948	108.19
421.171	96.19
421.394	105.19
421.617	96.19
421.839	83.19
422.062	96.19
422.285	116.19
422.507	110.19
422.73	110.19
422.953	103.19
423.175	107.19
423.398	88.19
423.621	88.19
423.843	95.19
424.066	96.19
424.288	94.19
424.511	106.19
424.733	110.19
424.956	119.19
425.178	103.19
425.401	106.19
425.623	106.19
425.846	101.19
426.068	114.19
426.291	96.19
426.513	106.19
426.735	84.19
426.958	108.19
427.18	138.19
427.402	156.19
427.625	233.19
427.847	221.19
428.069	195.19
428.292	114.19
428.514	96.19
428.736	83.19
428.958	74.19
429.181	96.19
429.403	94.19
429.625	102.19
429.847	92.19
430.069	107.19
430.292	95.19
430.514	94.19
430.736	83.19
430.958	101.19
431.18	94.19
431.402	73.19
431.624	80.19
431.846	82.19
432.068	96.19
432.29	82.19
432.512	82.19
432.734	99.19
432.956	91.19
433.178	96.19
433.4	99.19
433.622	104.19
433.844	109.19
434.066	113.19
434.287	109.19
434.509	95.19
434.731	96.19
434.953	95.19
435.175	74.19
435.397	95.19
435.618	111.19
435.84	112.19
436.062	147.19
436.284	128.19
436.505	107.19
436.727	113.19
436.949	106.19
437.17	96.19
437.392	104.19
437.614	99.19
437.835	134.19
438.057	150.19
438.278	135.19
438.5	128.19
438.721	134.19
438.943	100.19
439.165	99.19
439.386	91.19
439.608	102.19
439.829	102.19
440.05	155.19
440.272	169.19
440.493	117.19
440.715	92.19
440.936	93.19
441.158	100.19
441.379	102.19
441.6	96.19
441.822	102.19
442.043	109.19
442.264	102.19
442.486	114.19
442.707	111.19
442.928	123.19
443.149	186.19
443.371	170.19
443.592	138.19
443.813	137.19
444.034	126.19
444.255	87.19
444.476	82.19
444.698	84.19
444.919	105.19
445.14	138.19
445.361	138.19
445.582	148.19
445.803	176.19
446.024	177.19
446.245	166.19
446.466	122.19
446.687	95.19
446.908	82.19
447.129	75.19
447.35	99.19
447.571	101.19
447.792	99.19
448.013	111.19
448.234	124.19
448.455	102.19
448.675	143.19
448.896	134.19
449.117	112.19
449.338	108.19
449.559	149.19
449.779	157.19
450	114.19
450.221	89.19
450.442	87.19
450.662	105.19
450.883	130.19
451.104	128.19
451.324	93.19
451.545	84.19
451.766	99.19
451.986	86.19
452.207	87.19
452.428	90.19
452.648	100.19
452.869	123.19
453.089	124.19
453.31	138.19
453.53	96.19
453.751	98.19
453.971	114.19
454.192	115.19
454.412	93.19
454.633	88.19
454.853	83.19
455.073	94.19
455.294	103.19
455.514	118.19
455.734	97.19
455.955	79.19
456.175	87.19
456.395	86.19
456.616	86.19
456.836	93.19
457.056	93.19
457.276	95.19
457.497	98.19
457.717	92.19
457.937	112.19
458.157	79.19
458.377	89.19
458.598	119.19
458.818	194.19
459.038	212.19
459.258	145.19
459.478	99.19
459.698	84.19
459.918	92.19
460.138	88.19
460.358	92.19
460.578	94.19
460.798	95.19
461.018	100.19
461.238	96.19
461.458	99.19
461.678	90.19
461.898	90.19
462.118	92.19
462.338	88.19
462.558	75.19
462.777	89.19
462.997	101.19
463.217	100.19
463.437	95.19
463.657	95.19
463.876	89.19
464.096	105.19
464.316	102.19
464.536	100.19
464.755	110.19
464.975	120.19
465.195	218.19
465.414	226.19
465.634	99.19
465.854	81.19
466.073	102.19
466.293	89.19
466.512	100.19
466.732	84.19
466.951	81.19
467.171	107.19
467.391	104.19
467.61	132.19
467.829	161.19
468.049	357.19
468.268	500.19
468.488	153.19
468.707	112.19
468.927	90.19
469.146	95.19
469.365	97.19
469.585	106.19
469.804	111.19
470.023	115.19
470.243	101.19
470.462	123.19
470.681	146.19
470.901	103.19
471.12	97.19
471.339	96.19
471.558	120.19
471.777	123.19
471.997	205.19
472.216	643.19
472.435	1440.19
472.654	364.19
472.873	126.19
473.092	118.19
473.311	87.19
473.53	103.19
473.749	82.19
473.968	110.19
474.187	124.19
474.406	108.19
474.625	89.19
474.844	90.19
475.063	87.19
475.282	90.19
475.501	97.19
475.72	94.19
475.939	92.19
476.158	93.19
476.377	99.19
476.596	102.19
476.814	119.19
477.033	108.19
477.252	94.19
477.471	86.19
477.69	98.19
477.908	103.19
478.127	99.19
478.346	102.19
478.564	118.19
478.783	113.19
479.002	106.19
479.22	99.19
479.439	125.19
479.658	128.19
479.876	120.19
480.095	107.19
480.313	122.19
480.532	117.19
480.751	203.19
480.969	619.19
481.188	2438.19
481.406	1478.19
481.624	250.19
481.843	114.19
482.061	90.19
482.28	97.19
482.498	105.19
482.717	93.19
482.935	97.19
483.153	97.19
483.372	90.19
483.59	95.19
483.808	103.19
484.027	108.19
484.245	118.19
484.463	93.19
484.681	96.19
484.9	88.19
485.118	93.19
485.336	101.19
485.554	100.19
485.772	102.19
485.99	120.19
486.209	103.19
486.427	109.19
486.645	119.19
486.863	118.19
487.081	106.19
487.299	104.19
487.517	98.19
487.735	113.19
487.953	107.19
488.171	85.19
488.389	91.19
488.607	110.19
488.825	96.19
489.043	84.19
489.261	85.19
489.479	86.19
489.696	97.19
489.914	102.19
490.132	104.19
490.35	96.19
490.568	98.19
490.786	85.19
491.003	87.19
491.221	99.19
491.439	111.19
491.657	94.19
491.874	84.19
492.092	95.19
492.31	103.19
492.527	99.19
492.745	105.19
492.963	100.19
493.18	76.19
493.398	106.19
493.615	98.19
493.833	100.19
494.05	91.19
494.268	102.19
494.485	100.19
494.703	96.19
494.92	92.19
495.138	102.19
495.355	94.19
495.573	104.19
495.79	78.19
496.008	96.19
496.225	92.19
496.442	89.19
496.66	102.19
496.877	97.19
497.094	106.19
497.312	97.19
497.529	92.19
497.746	90.19
497.963	95.19
498.181	88.19
498.398	102.19
498.615	115.19
498.832	101.19
499.049	90.19
499.267	93.19
499.484	87.19
499.701	82.19
499.918	95.19
500.135	101.19
500.352	107.19
500.569	98.19
500.786	99.19
501.003	96.19
501.22	92.19
501.437	109.19
501.654	109.19
501.871	121.19
502.088	105.19
502.305	94.19
502.522	116.19
502.739	96.19
502.956	94.19
503.172	90.19
503.389	108.19
503.606	128.19
503.823	114.19
504.04	99.19
504.256	107.19
504.473	102.19
504.69	93.19
504.907	94.19
505.123	95.19
505.34	94.19
505.557	84.19
505.773	92.19
505.99	84.19
506.207	105.19
506.423	88.19
506.64	91.19
506.856	90.19
507.073	94.19
507.289	90.19
507.506	105.19
507.722	128.19
507.939	128.19
508.155	92.19
508.372	84.19
508.588	96.19
508.805	91.19
509.021	104.19
509.238	110.19
509.454	94.19
509.67	94.19
509.887	115.19
510.103	139.19
510.319	234.19
510.536	863.19
510.752	2952.19
510.968	800.19
511.184	171.19
511.401	114.19
511.617	120.19
511.833	106.19
512.049	99.19
512.265	90.19
