Data from Circ_2000_H10_HRD10591_00006.txt Node
Date: Wed Jan 03 10:49:35 EST 2024
User: Yrep
Spectrometer: HR+D1059
Trigger mode: 1
Integration Time (sec): 1.000000E-1
Scans to average: 1
Electric dark correction enabled: true
Nonlinearity correction enabled: false
Boxcar width: 0
XAxis mode: Wavelengths
Number of Pixels in Spectrum: 2048
>>>>>Begin Spectral Data<<<<<
223.165	-16.56
223.4	-16.56
223.635	-16.56
223.869	-37.56
224.104	-15.56
224.338	-11.56
224.573	-16.56
224.808	-19.56
225.042	-12.56
225.277	-5.56
225.511	5.44
225.746	5.44
225.98	-0.56
226.215	17.44
226.449	26.44
226.683	27.44
226.918	25.44
227.152	28.44
227.387	37.44
227.621	29.44
227.856	48.44
228.09	42.44
228.324	60.44
228.559	50.44
228.793	59.44
229.027	56.44
229.262	72.44
229.496	78.44
229.73	82.44
229.964	69.44
230.199	78.44
230.433	73.44
230.667	69.44
230.901	105.44
231.136	69.44
231.37	77.44
231.604	79.44
231.838	77.44
232.072	82.44
232.306	85.44
232.541	81.44
232.775	81.44
233.009	91.44
233.243	76.44
233.477	78.44
233.711	62.44
233.945	72.44
234.179	70.44
234.413	80.44
234.647	81.44
234.881	86.44
235.115	82.44
235.349	87.44
235.583	81.44
235.817	75.44
236.051	85.44
236.285	87.44
236.519	74.44
236.753	86.44
236.987	84.44
237.221	69.44
237.455	88.44
237.689	79.44
237.922	82.44
238.156	81.44
238.39	71.44
238.624	71.44
238.858	77.44
239.091	86.44
239.325	66.44
239.559	78.44
239.793	78.44
240.027	66.44
240.26	77.44
240.494	77.44
240.728	76.44
240.961	74.44
241.195	78.44
241.429	72.44
241.662	90.44
241.896	69.44
242.13	74.44
242.363	75.44
242.597	74.44
242.83	61.44
243.064	91.44
243.298	79.44
243.531	76.44
243.765	75.44
243.998	90.44
244.232	70.44
244.465	93.44
244.699	85.44
244.932	80.44
245.166	68.44
245.399	79.44
245.633	75.44
245.866	73.44
246.099	69.44
246.333	83.44
246.566	82.44
246.8	81.44
247.033	69.44
247.266	68.44
247.5	84.44
247.733	80.44
247.966	89.44
248.2	93.44
248.433	83.44
248.666	85.44
248.899	81.44
249.133	78.44
249.366	92.44
249.599	93.44
249.832	80.44
250.066	78.44
250.299	79.44
250.532	86.44
250.765	92.44
250.998	81.44
251.231	76.44
251.465	66.44
251.698	65.44
251.931	79.44
252.164	74.44
252.397	75.44
252.63	85.44
252.863	80.44
253.096	80.44
253.329	79.44
253.562	83.44
253.795	82.44
254.028	86.44
254.261	85.44
254.494	82.44
254.727	77.44
254.96	83.44
255.193	86.44
255.426	88.44
255.659	90.44
255.892	80.44
256.124	70.44
256.357	80.44
256.59	78.44
256.823	87.44
257.056	80.44
257.289	76.44
257.521	76.44
257.754	73.44
257.987	84.44
258.22	77.44
258.452	93.44
258.685	105.44
258.918	88.44
259.151	81.44
259.383	77.44
259.616	84.44
259.849	85.44
260.081	75.44
260.314	80.44
260.547	92.44
260.779	85.44
261.012	70.44
261.244	91.44
261.477	93.44
261.71	102.44
261.942	107.44
262.175	118.44
262.407	83.44
262.64	94.44
262.872	87.44
263.105	94.44
263.337	87.44
263.57	83.44
263.802	77.44
264.035	87.44
264.267	81.44
264.499	76.44
264.732	73.44
264.964	73.44
265.197	81.44
265.429	92.44
265.661	81.44
265.894	93.44
266.126	81.44
266.358	88.44
266.591	81.44
266.823	82.44
267.055	86.44
267.287	98.44
267.52	80.44
267.752	70.44
267.984	70.44
268.216	69.44
268.448	83.44
268.681	76.44
268.913	86.44
269.145	86.44
269.377	75.44
269.609	94.44
269.841	89.44
270.073	101.44
270.306	91.44
270.538	95.44
270.77	87.44
271.002	73.44
271.234	93.44
271.466	85.44
271.698	83.44
271.93	77.44
272.162	87.44
272.394	84.44
272.626	90.44
272.858	90.44
273.09	95.44
273.322	82.44
273.553	80.44
273.785	95.44
274.017	75.44
274.249	90.44
274.481	89.44
274.713	78.44
274.945	92.44
275.176	81.44
275.408	78.44
275.64	79.44
275.872	86.44
276.104	75.44
276.335	87.44
276.567	105.44
276.799	107.44
277.031	95.44
277.262	94.44
277.494	82.44
277.726	96.44
277.957	87.44
278.189	80.44
278.421	86.44
278.652	86.44
278.884	93.44
279.115	79.44
279.347	80.44
279.579	83.44
279.81	80.44
280.042	95.44
280.273	110.44
280.505	96.44
280.736	83.44
280.968	96.44
281.199	87.44
281.431	90.44
281.662	69.44
281.894	86.44
282.125	92.44
282.356	129.44
282.588	125.44
282.819	108.44
283.051	87.44
283.282	85.44
283.513	91.44
283.745	102.44
283.976	97.44
284.207	81.44
284.439	85.44
284.67	77.44
284.901	83.44
285.132	84.44
285.364	85.44
285.595	78.44
285.826	95.44
286.057	83.44
286.288	87.44
286.52	98.44
286.751	83.44
286.982	87.44
287.213	93.44
287.444	93.44
287.675	98.44
287.906	85.44
288.138	80.44
288.369	91.44
288.6	85.44
288.831	85.44
289.062	101.44
289.293	86.44
289.524	87.44
289.755	92.44
289.986	90.44
290.217	75.44
290.448	83.44
290.679	89.44
290.91	94.44
291.141	79.44
291.371	85.44
291.602	81.44
291.833	79.44
292.064	95.44
292.295	97.44
292.526	99.44
292.757	95.44
292.987	77.44
293.218	86.44
293.449	81.44
293.68	88.44
293.91	93.44
294.141	107.44
294.372	90.44
294.603	95.44
294.833	95.44
295.064	82.44
295.295	75.44
295.525	92.44
295.756	103.44
295.987	104.44
296.217	145.44
296.448	123.44
296.679	95.44
296.909	101.44
297.14	102.44
297.37	101.44
297.601	91.44
297.831	97.44
298.062	93.44
298.292	79.44
298.523	89.44
298.753	85.44
298.984	94.44
299.214	97.44
299.445	90.44
299.675	82.44
299.905	88.44
300.136	100.44
300.366	87.44
300.597	95.44
300.827	108.44
301.057	85.44
301.288	94.44
301.518	96.44
301.748	88.44
301.979	93.44
302.209	102.44
302.439	93.44
302.669	87.44
302.9	87.44
303.13	98.44
303.36	85.44
303.59	95.44
303.82	92.44
304.051	97.44
304.281	98.44
304.511	86.44
304.741	91.44
304.971	91.44
305.201	92.44
305.431	103.44
305.661	90.44
305.891	89.44
306.121	100.44
306.352	111.44
306.582	100.44
306.812	84.44
307.042	100.44
307.272	98.44
307.502	108.44
307.731	105.44
307.961	89.44
308.191	91.44
308.421	84.44
308.651	84.44
308.881	94.44
309.111	102.44
309.341	95.44
309.571	101.44
309.8	86.44
310.03	105.44
310.26	93.44
310.49	103.44
310.72	99.44
310.949	102.44
311.179	98.44
311.409	88.44
311.639	93.44
311.868	99.44
312.098	93.44
312.328	101.44
312.557	91.44
312.787	104.44
313.017	98.44
313.246	101.44
313.476	100.44
313.706	88.44
313.935	85.44
314.165	95.44
314.394	98.44
314.624	90.44
314.853	105.44
315.083	96.44
315.312	84.44
315.542	92.44
315.771	91.44
316.001	87.44
316.23	103.44
316.46	83.44
316.689	92.44
316.919	85.44
317.148	97.44
317.377	104.44
317.607	102.44
317.836	79.44
318.065	93.44
318.295	101.44
318.524	92.44
318.753	95.44
318.983	91.44
319.212	106.44
319.441	98.44
319.67	88.44
319.9	92.44
320.129	76.44
320.358	90.44
320.587	99.44
320.816	87.44
321.046	92.44
321.275	96.44
321.504	82.44
321.733	87.44
321.962	94.44
322.191	103.44
322.42	98.44
322.649	107.44
322.878	110.44
323.108	108.44
323.337	116.44
323.566	140.44
323.795	150.44
324.024	186.44
324.253	385.44
324.482	817.44
324.71	1707.44
324.939	2234.44
325.168	807.44
325.397	239.44
325.626	134.44
325.855	145.44
326.084	114.44
326.313	125.44
326.542	145.44
326.77	237.44
326.999	455.44
327.228	951.44
327.457	1738.44
327.686	1359.44
327.914	378.44
328.143	223.44
328.372	200.44
328.6	154.44
328.829	105.44
329.058	115.44
329.287	134.44
329.515	100.44
329.744	132.44
329.972	134.44
330.201	210.44
330.43	277.44
330.658	182.44
330.887	145.44
331.115	122.44
331.344	105.44
331.572	100.44
331.801	76.44
332.03	103.44
332.258	97.44
332.486	90.44
332.715	87.44
332.943	90.44
333.172	92.44
333.4	103.44
333.629	116.44
333.857	132.44
334.085	174.44
334.314	223.44
334.542	316.44
334.771	294.44
334.999	149.44
335.227	101.44
335.455	87.44
335.684	94.44
335.912	94.44
336.14	105.44
336.369	103.44
336.597	94.44
336.825	105.44
337.053	105.44
337.281	91.44
337.51	92.44
337.738	106.44
337.966	92.44
338.194	83.44
338.422	87.44
338.65	94.44
338.878	95.44
339.106	92.44
339.334	90.44
339.562	91.44
339.79	95.44
340.018	102.44
340.246	85.44
340.474	104.44
340.702	98.44
340.93	83.44
341.158	97.44
341.386	82.44
341.614	89.44
341.842	99.44
342.07	89.44
342.298	85.44
342.526	91.44
342.754	88.44
342.981	96.44
343.209	84.44
343.437	102.44
343.665	76.44
343.893	86.44
344.12	99.44
344.348	96.44
344.576	98.44
344.804	87.44
345.031	84.44
345.259	93.44
345.487	95.44
345.714	83.44
345.942	99.44
346.17	96.44
346.397	94.44
346.625	99.44
346.853	88.44
347.08	94.44
347.308	108.44
347.535	107.44
347.763	103.44
347.99	101.44
348.218	99.44
348.445	101.44
348.673	105.44
348.9	92.44
349.128	86.44
349.355	91.44
349.583	106.44
349.81	86.44
350.037	103.44
350.265	94.44
350.492	101.44
350.72	97.44
350.947	109.44
351.174	104.44
351.402	106.44
351.629	102.44
351.856	99.44
352.083	106.44
352.311	110.44
352.538	100.44
352.765	106.44
352.992	120.44
353.22	113.44
353.447	115.44
353.674	106.44
353.901	102.44
354.128	98.44
354.355	108.44
354.583	100.44
354.81	101.44
355.037	88.44
355.264	100.44
355.491	97.44
355.718	94.44
355.945	92.44
356.172	92.44
356.399	88.44
356.626	101.44
356.853	86.44
357.08	103.44
357.307	95.44
357.534	97.44
357.761	87.44
357.988	101.44
358.215	106.44
358.441	106.44
358.668	92.44
358.895	97.44
359.122	97.44
359.349	94.44
359.576	95.44
359.802	106.44
360.029	108.44
360.256	102.44
360.483	101.44
360.709	83.44
360.936	77.44
361.163	95.44
361.39	97.44
361.616	83.44
361.843	97.44
362.07	86.44
362.296	93.44
362.523	92.44
362.749	90.44
362.976	91.44
363.203	101.44
363.429	89.44
363.656	87.44
363.882	90.44
364.109	84.44
364.335	96.44
364.562	87.44
364.788	99.44
365.015	100.44
365.241	97.44
365.468	97.44
365.694	111.44
365.92	99.44
366.147	81.44
366.373	77.44
366.599	94.44
366.826	92.44
367.052	86.44
367.278	87.44
367.505	99.44
367.731	94.44
367.957	81.44
368.184	99.44
368.41	100.44
368.636	108.44
368.862	121.44
369.089	118.44
369.315	85.44
369.541	86.44
369.767	84.44
369.993	85.44
370.219	101.44
370.445	87.44
370.672	80.44
370.898	95.44
371.124	93.44
371.35	88.44
371.576	97.44
371.802	95.44
372.028	88.44
372.254	76.44
372.48	95.44
372.706	73.44
372.932	77.44
373.158	101.44
373.384	99.44
373.61	75.44
373.835	78.44
374.061	100.44
374.287	84.44
374.513	93.44
374.739	93.44
374.965	105.44
375.191	101.44
375.416	84.44
375.642	75.44
375.868	92.44
376.094	89.44
376.319	98.44
376.545	102.44
376.771	101.44
376.997	100.44
377.222	101.44
377.448	103.44
377.674	94.44
377.899	96.44
378.125	101.44
378.35	90.44
378.576	109.44
378.802	90.44
379.027	95.44
379.253	91.44
379.478	95.44
379.704	97.44
379.929	106.44
380.155	102.44
380.38	97.44
380.606	92.44
380.831	89.44
381.057	105.44
381.282	95.44
381.507	99.44
381.733	104.44
381.958	110.44
382.184	104.44
382.409	115.44
382.634	124.44
382.86	99.44
383.085	112.44
383.31	109.44
383.535	119.44
383.761	114.44
383.986	100.44
384.211	110.44
384.436	98.44
384.662	112.44
384.887	118.44
385.112	122.44
385.337	132.44
385.562	135.44
385.787	113.44
386.013	130.44
386.238	137.44
386.463	130.44
386.688	123.44
386.913	116.44
387.138	121.44
387.363	108.44
387.588	97.44
387.813	108.44
388.038	131.44
388.263	143.44
388.488	132.44
388.713	120.44
388.938	88.44
389.163	91.44
389.387	103.44
389.612	89.44
389.837	92.44
390.062	87.44
390.287	92.44
390.512	93.44
390.736	94.44
390.961	93.44
391.186	91.44
391.411	98.44
391.636	97.44
391.86	94.44
392.085	81.44
392.31	107.44
392.534	91.44
392.759	87.44
392.984	83.44
393.208	83.44
393.433	93.44
393.658	99.44
393.882	98.44
394.107	82.44
394.331	94.44
394.556	94.44
394.78	93.44
395.005	100.44
395.229	84.44
395.454	98.44
395.678	84.44
395.903	93.44
396.127	89.44
396.352	87.44
396.576	75.44
396.801	100.44
397.025	93.44
397.249	91.44
397.474	87.44
397.698	82.44
397.922	93.44
398.147	79.44
398.371	82.44
398.595	85.44
398.82	61.44
399.044	84.44
399.268	77.44
399.492	92.44
399.717	93.44
399.941	113.44
400.165	86.44
400.389	92.44
400.613	97.44
400.837	88.44
401.062	93.44
401.286	93.44
401.51	82.44
401.734	83.44
401.958	87.44
402.182	121.44
402.406	160.44
402.63	120.44
402.854	103.44
403.078	93.44
403.302	84.44
403.526	101.44
403.75	94.44
403.974	99.44
404.198	80.44
404.422	85.44
404.645	99.44
404.869	99.44
405.093	82.44
405.317	105.44
405.541	114.44
405.765	95.44
405.988	123.44
406.212	167.44
406.436	213.44
406.66	144.44
406.883	104.44
407.107	93.44
407.331	99.44
407.555	101.44
407.778	83.44
408.002	84.44
408.226	93.44
408.449	91.44
408.673	86.44
408.896	102.44
409.12	79.44
409.344	92.44
409.567	91.44
409.791	74.44
410.014	82.44
410.238	93.44
410.461	89.44
410.685	83.44
410.908	110.44
411.132	92.44
411.355	102.44
411.578	102.44
411.802	89.44
412.025	101.44
412.249	96.44
412.472	113.44
412.695	117.44
412.919	99.44
413.142	94.44
413.365	90.44
413.589	95.44
413.812	96.44
414.035	105.44
414.258	99.44
414.482	97.44
414.705	92.44
414.928	93.44
415.151	92.44
415.374	93.44
415.597	107.44
415.821	99.44
416.044	90.44
416.267	94.44
416.49	84.44
416.713	98.44
416.936	94.44
417.159	84.44
417.382	87.44
417.605	101.44
417.828	94.44
418.051	93.44
418.274	86.44
418.497	86.44
418.72	81.44
418.943	104.44
419.166	93.44
419.389	103.44
419.611	93.44
419.834	91.44
420.057	82.44
420.28	84.44
420.503	77.44
420.726	88.44
420.948	103.44
421.171	104.44
421.394	96.44
421.617	97.44
421.839	84.44
422.062	103.44
422.285	89.44
422.507	100.44
422.73	97.44
422.953	101.44
423.175	77.44
423.398	101.44
423.621	103.44
423.843	92.44
424.066	76.44
424.288	82.44
424.511	91.44
424.733	94.44
424.956	114.44
425.178	99.44
425.401	89.44
425.623	89.44
425.846	96.44
426.068	100.44
426.291	98.44
426.513	90.44
426.735	108.44
426.958	90.44
427.18	107.44
427.402	131.44
427.625	163.44
427.847	154.44
428.069	126.44
428.292	98.44
428.514	92.44
428.736	83.44
428.958	89.44
429.181	94.44
429.403	83.44
429.625	95.44
429.847	95.44
430.069	97.44
430.292	92.44
430.514	88.44
430.736	79.44
430.958	86.44
431.18	83.44
431.402	87.44
431.624	87.44
431.846	85.44
432.068	91.44
432.29	87.44
432.512	110.44
432.734	80.44
432.956	107.44
433.178	87.44
433.4	108.44
433.622	80.44
433.844	103.44
434.066	95.44
434.287	97.44
434.509	87.44
434.731	85.44
434.953	81.44
435.175	77.44
435.397	108.44
435.618	98.44
435.84	101.44
436.062	114.44
436.284	119.44
436.505	104.44
436.727	104.44
436.949	101.44
437.17	100.44
437.392	99.44
437.614	87.44
437.835	102.44
438.057	122.44
438.278	111.44
438.5	95.44
438.721	116.44
438.943	95.44
439.165	75.44
439.386	95.44
439.608	90.44
439.829	101.44
440.05	127.44
440.272	132.44
440.493	106.44
440.715	83.44
440.936	96.44
441.158	84.44
441.379	96.44
441.6	92.44
441.822	115.44
442.043	92.44
442.264	93.44
442.486	107.44
442.707	99.44
442.928	98.44
443.149	131.44
443.371	117.44
443.592	98.44
443.813	121.44
444.034	94.44
444.255	86.44
444.476	93.44
444.698	94.44
444.919	99.44
445.14	143.44
445.361	137.44
445.582	97.44
445.803	126.44
446.024	144.44
446.245	140.44
446.466	104.44
446.687	82.44
446.908	85.44
447.129	78.44
447.35	83.44
447.571	98.44
447.792	98.44
448.013	99.44
448.234	104.44
448.455	84.44
448.675	95.44
448.896	115.44
449.117	92.44
449.338	107.44
449.559	125.44
449.779	119.44
450	109.44
450.221	84.44
450.442	102.44
450.662	93.44
450.883	110.44
451.104	109.44
451.324	94.44
451.545	75.44
451.766	82.44
451.986	101.44
452.207	107.44
452.428	100.44
452.648	85.44
452.869	105.44
453.089	101.44
453.31	118.44
453.53	87.44
453.751	105.44
453.971	103.44
454.192	101.44
454.412	86.44
454.633	76.44
454.853	82.44
455.073	101.44
455.294	88.44
455.514	86.44
455.734	94.44
455.955	80.44
456.175	90.44
456.395	90.44
456.616	101.44
456.836	85.44
457.056	85.44
457.276	77.44
457.497	91.44
457.717	90.44
457.937	110.44
458.157	89.44
458.377	93.44
458.598	93.44
458.818	148.44
459.038	149.44
459.258	100.44
459.478	91.44
459.698	93.44
459.918	92.44
460.138	92.44
460.358	87.44
460.578	78.44
460.798	96.44
461.018	100.44
461.238	86.44
461.458	81.44
461.678	85.44
461.898	86.44
462.118	93.44
462.338	78.44
462.558	83.44
462.777	101.44
462.997	89.44
463.217	93.44
463.437	91.44
463.657	88.44
463.876	106.44
464.096	95.44
464.316	102.44
464.536	99.44
464.755	95.44
464.975	98.44
465.195	148.44
465.414	155.44
465.634	116.44
465.854	88.44
466.073	92.44
466.293	96.44
466.512	84.44
466.732	82.44
466.951	85.44
467.171	99.44
467.391	100.44
467.61	109.44
467.829	100.44
468.049	142.44
468.268	191.44
468.488	106.44
468.707	89.44
468.927	95.44
469.146	93.44
469.365	82.44
469.585	91.44
469.804	82.44
470.023	93.44
470.243	102.44
470.462	103.44
470.681	109.44
470.901	96.44
471.12	99.44
471.339	93.44
471.558	89.44
471.777	84.44
471.997	122.44
472.216	221.44
472.435	411.44
472.654	162.44
472.873	110.44
473.092	95.44
473.311	80.44
473.53	91.44
473.749	88.44
473.968	88.44
474.187	94.44
474.406	87.44
474.625	96.44
474.844	84.44
475.063	102.44
475.282	89.44
475.501	81.44
475.72	92.44
475.939	80.44
476.158	85.44
476.377	77.44
476.596	94.44
476.814	100.44
477.033	97.44
477.252	100.44
477.471	99.44
477.69	89.44
477.908	94.44
478.127	96.44
478.346	75.44
478.564	90.44
478.783	90.44
479.002	102.44
479.22	95.44
479.439	101.44
479.658	104.44
479.876	98.44
480.095	87.44
480.313	104.44
480.532	109.44
480.751	115.44
480.969	234.44
481.188	689.44
481.406	446.44
481.624	130.44
481.843	91.44
482.061	94.44
482.28	90.44
482.498	74.44
482.717	89.44
482.935	93.44
483.153	87.44
483.372	106.44
483.59	90.44
483.808	99.44
484.027	92.44
484.245	104.44
484.463	90.44
484.681	108.44
484.9	93.44
485.118	112.44
485.336	102.44
485.554	103.44
485.772	110.44
485.99	118.44
486.209	100.44
486.427	108.44
486.645	105.44
486.863	112.44
487.081	116.44
487.299	91.44
487.517	97.44
487.735	101.44
487.953	90.44
488.171	92.44
488.389	96.44
488.607	97.44
488.825	101.44
489.043	86.44
489.261	104.44
489.479	78.44
489.696	94.44
489.914	86.44
490.132	79.44
490.35	91.44
490.568	88.44
490.786	89.44
491.003	95.44
491.221	87.44
491.439	85.44
491.657	99.44
491.874	100.44
492.092	82.44
492.31	101.44
492.527	92.44
492.745	88.44
492.963	99.44
493.18	82.44
493.398	83.44
493.615	96.44
493.833	92.44
494.05	86.44
494.268	90.44
494.485	81.44
494.703	87.44
494.92	93.44
495.138	95.44
495.355	88.44
495.573	87.44
495.79	90.44
496.008	109.44
496.225	83.44
496.442	77.44
496.66	83.44
496.877	89.44
497.094	88.44
497.312	88.44
497.529	79.44
497.746	83.44
497.963	92.44
498.181	99.44
498.398	94.44
498.615	89.44
498.832	105.44
499.049	98.44
499.267	92.44
499.484	89.44
499.701	92.44
499.918	101.44
500.135	86.44
500.352	95.44
500.569	81.44
500.786	104.44
501.003	68.44
501.22	86.44
501.437	98.44
501.654	105.44
501.871	98.44
502.088	90.44
502.305	94.44
502.522	78.44
502.739	81.44
502.956	93.44
503.172	100.44
503.389	103.44
503.606	90.44
503.823	94.44
504.04	78.44
504.256	85.44
504.473	85.44
504.69	84.44
504.907	93.44
505.123	73.44
505.34	84.44
505.557	83.44
505.773	75.44
505.99	86.44
506.207	83.44
506.423	83.44
506.64	86.44
506.856	85.44
507.073	88.44
507.289	89.44
507.506	118.44
507.722	102.44
507.939	123.44
508.155	86.44
508.372	86.44
508.588	92.44
508.805	96.44
509.021	95.44
509.238	101.44
509.454	101.44
509.67	106.44
509.887	95.44
510.103	108.44
510.319	193.44
510.536	714.44
510.752	2332.44
510.968	647.44
511.184	147.44
511.401	113.44
511.617	83.44
511.833	91.44
512.049	100.44
512.265	103.44
512.481	86.44
512.698	98.44
512.914	95.44
513.13	107.44
513.346	105.44
513.562	99.44
513.778	90.44
513.994	105.44
514.21	108.44
514.426	124.44
514.642	117.44
