Data from Circ_2000_H10_HRD10591_00058.txt Node
Date: Wed Jan 03 10:49:45 EST 2024
User: Yrep
Spectrometer: HR+D1059
Trigger mode: 1
Integration Time (sec): 1.000000E-1
Scans to average: 1
Electric dark correction enabled: true
Nonlinearity correction enabled: false
Boxcar width: 0
XAxis mode: Wavelengths
Number of Pixels in Spectrum: 2048
>>>>>Begin Spectral Data<<<<<
223.165	-9.19
223.4	-9.19
223.635	-9.19
223.869	-19.19
224.104	-16.19
224.338	-25.19
224.573	-11.19
224.808	-17.19
225.042	-12.19
225.277	-6.19
225.511	3.81
225.746	13.81
225.98	13.81
226.215	14.81
226.449	13.81
226.683	12.81
226.918	19.81
227.152	23.81
227.387	35.81
227.621	24.81
227.856	39.81
228.09	49.81
228.324	46.81
228.559	53.81
228.793	49.81
229.027	55.81
229.262	75.81
229.496	78.81
229.73	73.81
229.964	93.81
230.199	76.81
230.433	67.81
230.667	69.81
230.901	65.81
231.136	75.81
231.37	75.81
231.604	68.81
231.838	73.81
232.072	80.81
232.306	74.81
232.541	76.81
232.775	75.81
233.009	87.81
233.243	77.81
233.477	84.81
233.711	83.81
233.945	77.81
234.179	72.81
234.413	80.81
234.647	77.81
234.881	80.81
235.115	75.81
235.349	60.81
235.583	55.81
235.817	73.81
236.051	86.81
236.285	75.81
236.519	72.81
236.753	82.81
236.987	90.81
237.221	90.81
237.455	85.81
237.689	68.81
237.922	78.81
238.156	71.81
238.39	85.81
238.624	69.81
238.858	79.81
239.091	72.81
239.325	68.81
239.559	87.81
239.793	68.81
240.027	71.81
240.26	75.81
240.494	75.81
240.728	67.81
240.961	68.81
241.195	72.81
241.429	67.81
241.662	70.81
241.896	68.81
242.13	69.81
242.363	65.81
242.597	75.81
242.83	84.81
243.064	76.81
243.298	67.81
243.531	79.81
243.765	76.81
243.998	83.81
244.232	75.81
244.465	73.81
244.699	85.81
244.932	63.81
245.166	66.81
245.399	70.81
245.633	74.81
245.866	93.81
246.099	63.81
246.333	95.81
246.566	82.81
246.8	82.81
247.033	64.81
247.266	72.81
247.5	76.81
247.733	86.81
247.966	68.81
248.2	76.81
248.433	81.81
248.666	71.81
248.899	76.81
249.133	90.81
249.366	91.81
249.599	90.81
249.832	75.81
250.066	87.81
250.299	92.81
250.532	77.81
250.765	87.81
250.998	73.81
251.231	88.81
251.465	77.81
251.698	76.81
251.931	85.81
252.164	68.81
252.397	70.81
252.63	83.81
252.863	79.81
253.096	79.81
253.329	76.81
253.562	79.81
253.795	88.81
254.028	84.81
254.261	93.81
254.494	92.81
254.727	83.81
254.96	67.81
255.193	73.81
255.426	68.81
255.659	74.81
255.892	82.81
256.124	79.81
256.357	90.81
256.59	84.81
256.823	82.81
257.056	91.81
257.289	78.81
257.521	77.81
257.754	82.81
257.987	77.81
258.22	86.81
258.452	92.81
258.685	79.81
258.918	77.81
259.151	85.81
259.383	73.81
259.616	84.81
259.849	81.81
260.081	88.81
260.314	75.81
260.547	76.81
260.779	94.81
261.012	109.81
261.244	96.81
261.477	93.81
261.71	89.81
261.942	112.81
262.175	125.81
262.407	93.81
262.64	92.81
262.872	96.81
263.105	75.81
263.337	85.81
263.57	83.81
263.802	71.81
264.035	93.81
264.267	90.81
264.499	74.81
264.732	79.81
264.964	93.81
265.197	77.81
265.429	83.81
265.661	88.81
265.894	73.81
266.126	90.81
266.358	81.81
266.591	86.81
266.823	101.81
267.055	81.81
267.287	86.81
267.52	77.81
267.752	85.81
267.984	77.81
268.216	80.81
268.448	80.81
268.681	86.81
268.913	85.81
269.145	85.81
269.377	83.81
269.609	79.81
269.841	84.81
270.073	69.81
270.306	76.81
270.538	77.81
270.77	71.81
271.002	83.81
271.234	92.81
271.466	89.81
271.698	85.81
271.93	85.81
272.162	82.81
272.394	92.81
272.626	86.81
272.858	83.81
273.09	76.81
273.322	89.81
273.553	71.81
273.785	81.81
274.017	87.81
274.249	75.81
274.481	88.81
274.713	86.81
274.945	88.81
275.176	87.81
275.408	98.81
275.64	103.81
275.872	96.81
276.104	103.81
276.335	101.81
276.567	118.81
276.799	137.81
277.031	130.81
277.262	142.81
277.494	98.81
277.726	77.81
277.957	93.81
278.189	84.81
278.421	77.81
278.652	87.81
278.884	105.81
279.115	99.81
279.347	80.81
279.579	81.81
279.81	111.81
280.042	132.81
280.273	165.81
280.505	129.81
280.736	86.81
280.968	88.81
281.199	100.81
281.431	73.81
281.662	93.81
281.894	93.81
282.125	88.81
282.356	121.81
282.588	155.81
282.819	101.81
283.051	92.81
283.282	105.81
283.513	82.81
283.745	95.81
283.976	93.81
284.207	92.81
284.439	71.81
284.67	84.81
284.901	86.81
285.132	89.81
285.364	84.81
285.595	82.81
285.826	82.81
286.057	86.81
286.288	88.81
286.52	85.81
286.751	84.81
286.982	83.81
287.213	96.81
287.444	89.81
287.675	97.81
287.906	88.81
288.138	83.81
288.369	87.81
288.6	97.81
288.831	91.81
289.062	72.81
289.293	86.81
289.524	73.81
289.755	83.81
289.986	81.81
290.217	86.81
290.448	84.81
290.679	101.81
290.91	86.81
291.141	85.81
291.371	94.81
291.602	84.81
291.833	58.81
292.064	89.81
292.295	99.81
292.526	106.81
292.757	91.81
292.987	83.81
293.218	83.81
293.449	81.81
293.68	99.81
293.91	96.81
294.141	97.81
294.372	92.81
294.603	75.81
294.833	86.81
295.064	106.81
295.295	90.81
295.525	88.81
295.756	109.81
295.987	117.81
296.217	153.81
296.448	138.81
296.679	89.81
296.909	89.81
297.14	100.81
297.37	81.81
297.601	90.81
297.831	91.81
298.062	74.81
298.292	85.81
298.523	94.81
298.753	91.81
298.984	89.81
299.214	81.81
299.445	97.81
299.675	85.81
299.905	92.81
300.136	99.81
300.366	106.81
300.597	86.81
300.827	93.81
301.057	90.81
301.288	108.81
301.518	99.81
301.748	85.81
301.979	99.81
302.209	79.81
302.439	80.81
302.669	93.81
302.9	74.81
303.13	85.81
303.36	93.81
303.59	113.81
303.82	136.81
304.051	105.81
304.281	93.81
304.511	84.81
304.741	81.81
304.971	99.81
305.201	86.81
305.431	103.81
305.661	84.81
305.891	88.81
306.121	103.81
306.352	114.81
306.582	106.81
306.812	85.81
307.042	96.81
307.272	108.81
307.502	128.81
307.731	140.81
307.961	107.81
308.191	96.81
308.421	93.81
308.651	93.81
308.881	90.81
309.111	97.81
309.341	111.81
309.571	83.81
309.8	110.81
310.03	93.81
310.26	88.81
310.49	100.81
310.72	110.81
310.949	108.81
311.179	104.81
311.409	92.81
311.639	93.81
311.868	93.81
312.098	84.81
312.328	97.81
312.557	93.81
312.787	106.81
313.017	100.81
313.246	91.81
313.476	81.81
313.706	94.81
313.935	95.81
314.165	109.81
314.394	104.81
314.624	90.81
314.853	97.81
315.083	87.81
315.312	89.81
315.542	81.81
315.771	96.81
316.001	89.81
316.23	84.81
316.46	96.81
316.689	90.81
316.919	113.81
317.148	89.81
317.377	104.81
317.607	92.81
317.836	92.81
318.065	76.81
318.295	90.81
318.524	100.81
318.753	86.81
318.983	99.81
319.212	98.81
319.441	119.81
319.67	108.81
319.9	83.81
320.129	93.81
320.358	107.81
320.587	82.81
320.816	111.81
321.046	114.81
321.275	85.81
321.504	103.81
321.733	105.81
321.962	89.81
322.191	98.81
322.42	103.81
322.649	111.81
322.878	104.81
323.108	118.81
323.337	124.81
323.566	142.81
323.795	168.81
324.024	221.81
324.253	465.81
324.482	990.81
324.71	2116.81
324.939	2761.81
325.168	993.81
325.397	276.81
325.626	177.81
325.855	147.81
326.084	139.81
326.313	152.81
326.542	169.81
326.77	268.81
326.999	537.81
327.228	1122.81
327.457	2061.81
327.686	1611.81
327.914	486.81
328.143	348.81
328.372	401.81
328.6	226.81
328.829	149.81
329.058	163.81
329.287	167.81
329.515	147.81
329.744	173.81
329.972	298.81
330.201	559.81
330.43	762.81
330.658	402.81
330.887	235.81
331.115	167.81
331.344	109.81
331.572	125.81
331.801	100.81
332.03	124.81
332.258	100.81
332.486	90.81
332.715	105.81
332.943	113.81
333.172	108.81
333.4	116.81
333.629	139.81
333.857	183.81
334.085	276.81
334.314	529.81
334.542	978.81
334.771	899.81
334.999	275.81
335.227	135.81
335.455	111.81
335.684	99.81
335.912	96.81
336.14	101.81
336.369	109.81
336.597	105.81
336.825	104.81
337.053	99.81
337.281	95.81
337.51	86.81
337.738	92.81
337.966	107.81
338.194	107.81
338.422	104.81
338.65	93.81
338.878	88.81
339.106	80.81
339.334	91.81
339.562	88.81
339.79	103.81
340.018	89.81
340.246	85.81
340.474	108.81
340.702	108.81
340.93	83.81
341.158	92.81
341.386	93.81
341.614	76.81
341.842	98.81
342.07	83.81
342.298	102.81
342.526	86.81
342.754	100.81
342.981	93.81
343.209	85.81
343.437	91.81
343.665	81.81
343.893	98.81
344.12	93.81
344.348	91.81
344.576	86.81
344.804	94.81
345.031	93.81
345.259	103.81
345.487	81.81
345.714	83.81
345.942	92.81
346.17	100.81
346.397	83.81
346.625	96.81
346.853	107.81
347.08	80.81
347.308	91.81
347.535	107.81
347.763	111.81
347.99	95.81
348.218	94.81
348.445	112.81
348.673	104.81
348.9	88.81
349.128	101.81
349.355	90.81
349.583	103.81
349.81	99.81
350.037	97.81
350.265	77.81
350.492	91.81
350.72	107.81
350.947	109.81
351.174	113.81
351.402	103.81
351.629	113.81
351.856	104.81
352.083	118.81
352.311	106.81
352.538	115.81
352.765	102.81
352.992	120.81
353.22	111.81
353.447	108.81
353.674	115.81
353.901	97.81
354.128	102.81
354.355	94.81
354.583	103.81
354.81	95.81
355.037	82.81
355.264	99.81
355.491	74.81
355.718	85.81
355.945	89.81
356.172	94.81
356.399	92.81
356.626	101.81
356.853	101.81
357.08	92.81
357.307	107.81
357.534	90.81
357.761	84.81
357.988	95.81
358.215	95.81
358.441	87.81
358.668	87.81
358.895	89.81
359.122	103.81
359.349	81.81
359.576	94.81
359.802	103.81
360.029	123.81
360.256	116.81
360.483	113.81
360.709	84.81
360.936	95.81
361.163	87.81
361.39	116.81
361.616	102.81
361.843	91.81
362.07	87.81
362.296	89.81
362.523	91.81
362.749	86.81
362.976	97.81
363.203	92.81
363.429	90.81
363.656	80.81
363.882	90.81
364.109	85.81
364.335	89.81
364.562	91.81
364.788	95.81
365.015	103.81
365.241	100.81
365.468	104.81
365.694	115.81
365.92	106.81
366.147	98.81
366.373	86.81
366.599	83.81
366.826	80.81
367.052	75.81
367.278	73.81
367.505	90.81
367.731	87.81
367.957	93.81
368.184	98.81
368.41	111.81
368.636	126.81
368.862	134.81
369.089	115.81
369.315	96.81
369.541	98.81
369.767	91.81
369.993	87.81
370.219	79.81
370.445	79.81
370.672	79.81
370.898	92.81
371.124	85.81
371.35	85.81
371.576	95.81
371.802	74.81
372.028	91.81
372.254	88.81
372.48	92.81
372.706	96.81
372.932	88.81
373.158	83.81
373.384	93.81
373.61	102.81
373.835	83.81
374.061	91.81
374.287	76.81
374.513	92.81
374.739	96.81
374.965	79.81
375.191	83.81
375.416	77.81
375.642	66.81
375.868	93.81
376.094	74.81
376.319	78.81
376.545	103.81
376.771	83.81
376.997	95.81
377.222	103.81
377.448	97.81
377.674	86.81
377.899	93.81
378.125	91.81
378.35	87.81
378.576	100.81
378.802	95.81
379.027	101.81
379.253	86.81
379.478	111.81
379.704	86.81
379.929	100.81
380.155	98.81
380.38	92.81
380.606	100.81
380.831	90.81
381.057	76.81
381.282	80.81
381.507	92.81
381.733	92.81
381.958	83.81
382.184	112.81
382.409	93.81
382.634	105.81
382.86	98.81
383.085	83.81
383.31	90.81
383.535	97.81
383.761	82.81
383.986	88.81
384.211	89.81
384.436	102.81
384.662	99.81
384.887	92.81
385.112	101.81
385.337	99.81
385.562	93.81
385.787	108.81
386.013	113.81
386.238	122.81
386.463	119.81
386.688	105.81
386.913	102.81
387.138	107.81
387.363	95.81
387.588	102.81
387.813	93.81
388.038	94.81
388.263	120.81
388.488	107.81
388.713	97.81
388.938	94.81
389.163	90.81
389.387	90.81
389.612	74.81
389.837	82.81
390.062	92.81
390.287	94.81
390.512	97.81
390.736	89.81
390.961	84.81
391.186	90.81
391.411	88.81
391.636	85.81
391.86	88.81
392.085	79.81
392.31	84.81
392.534	80.81
392.759	86.81
392.984	85.81
393.208	92.81
393.433	86.81
393.658	81.81
393.882	73.81
394.107	74.81
394.331	81.81
394.556	75.81
394.78	71.81
395.005	83.81
395.229	92.81
395.454	90.81
395.678	83.81
395.903	91.81
396.127	84.81
396.352	87.81
396.576	76.81
396.801	84.81
397.025	84.81
397.249	84.81
397.474	84.81
397.698	99.81
397.922	89.81
398.147	83.81
398.371	81.81
398.595	89.81
398.82	87.81
399.044	89.81
399.268	82.81
399.492	79.81
399.717	89.81
399.941	97.81
400.165	97.81
400.389	98.81
400.613	82.81
400.837	82.81
401.062	80.81
401.286	80.81
401.51	86.81
401.734	86.81
401.958	112.81
402.182	135.81
402.406	164.81
402.63	135.81
402.854	109.81
403.078	93.81
403.302	99.81
403.526	91.81
403.75	88.81
403.974	91.81
404.198	81.81
404.422	75.81
404.645	89.81
404.869	99.81
405.093	121.81
405.317	121.81
405.541	105.81
405.765	116.81
405.988	134.81
406.212	195.81
406.436	248.81
406.66	156.81
406.883	116.81
407.107	91.81
407.331	89.81
407.555	96.81
407.778	92.81
408.002	101.81
408.226	94.81
408.449	84.81
408.673	93.81
408.896	101.81
409.12	101.81
409.344	98.81
409.567	87.81
409.791	88.81
410.014	88.81
410.238	82.81
410.461	89.81
410.685	96.81
410.908	91.81
411.132	98.81
411.355	100.81
411.578	91.81
411.802	92.81
412.025	90.81
412.249	96.81
412.472	101.81
412.695	127.81
412.919	112.81
413.142	92.81
413.365	65.81
413.589	99.81
413.812	76.81
414.035	90.81
414.258	92.81
414.482	85.81
414.705	82.81
414.928	85.81
415.151	89.81
415.374	94.81
415.597	90.81
415.821	98.81
416.044	85.81
416.267	72.81
416.49	88.81
416.713	79.81
416.936	76.81
417.159	72.81
417.382	88.81
417.605	92.81
417.828	101.81
418.051	93.81
418.274	87.81
418.497	80.81
418.72	72.81
418.943	99.81
419.166	88.81
419.389	81.81
419.611	96.81
419.834	101.81
420.057	80.81
420.28	93.81
420.503	72.81
420.726	97.81
420.948	102.81
421.171	109.81
421.394	84.81
421.617	99.81
421.839	96.81
422.062	83.81
422.285	90.81
422.507	89.81
422.73	106.81
422.953	98.81
423.175	86.81
423.398	101.81
423.621	78.81
423.843	91.81
424.066	82.81
424.288	97.81
424.511	98.81
424.733	103.81
424.956	122.81
425.178	113.81
425.401	100.81
425.623	116.81
425.846	87.81
426.068	99.81
426.291	94.81
426.513	85.81
426.735	100.81
426.958	92.81
427.18	112.81
427.402	168.81
427.625	215.81
427.847	201.81
428.069	196.81
428.292	109.81
428.514	102.81
428.736	100.81
428.958	76.81
429.181	84.81
429.403	95.81
429.625	95.81
429.847	97.81
430.069	106.81
430.292	83.81
430.514	93.81
430.736	77.81
430.958	84.81
431.18	97.81
431.402	77.81
431.624	79.81
431.846	73.81
432.068	79.81
432.29	97.81
432.512	96.81
432.734	86.81
432.956	91.81
433.178	97.81
433.4	94.81
433.622	77.81
433.844	102.81
434.066	78.81
434.287	83.81
434.509	103.81
434.731	101.81
434.953	88.81
435.175	97.81
435.397	96.81
435.618	70.81
435.84	104.81
436.062	146.81
436.284	131.81
436.505	103.81
436.727	94.81
436.949	91.81
437.17	79.81
437.392	92.81
437.614	87.81
437.835	133.81
438.057	142.81
438.278	114.81
438.5	109.81
438.721	126.81
438.943	114.81
439.165	93.81
439.386	93.81
439.608	87.81
439.829	107.81
440.05	137.81
440.272	170.81
440.493	122.81
440.715	103.81
440.936	73.81
441.158	88.81
441.379	104.81
441.6	101.81
441.822	91.81
442.043	98.81
442.264	110.81
442.486	118.81
442.707	96.81
442.928	98.81
443.149	143.81
443.371	157.81
443.592	113.81
443.813	115.81
444.034	124.81
444.255	99.81
444.476	94.81
444.698	99.81
444.919	96.81
445.14	127.81
445.361	133.81
445.582	122.81
445.803	152.81
446.024	161.81
446.245	157.81
446.466	119.81
446.687	81.81
446.908	81.81
447.129	95.81
447.35	87.81
447.571	98.81
447.792	91.81
448.013	100.81
448.234	113.81
448.455	101.81
448.675	124.81
448.896	121.81
449.117	108.81
449.338	105.81
449.559	140.81
449.779	155.81
450	106.81
450.221	89.81
450.442	102.81
450.662	98.81
450.883	112.81
451.104	116.81
451.324	88.81
451.545	92.81
451.766	90.81
451.986	80.81
452.207	89.81
452.428	103.81
452.648	108.81
452.869	134.81
453.089	124.81
453.31	124.81
453.53	89.81
453.751	92.81
453.971	108.81
454.192	115.81
454.412	84.81
454.633	89.81
454.853	80.81
455.073	71.81
455.294	81.81
455.514	110.81
455.734	96.81
455.955	91.81
456.175	88.81
456.395	95.81
456.616	98.81
456.836	91.81
457.056	84.81
457.276	87.81
457.497	81.81
457.717	73.81
457.937	87.81
458.157	90.81
458.377	92.81
458.598	120.81
458.818	174.81
459.038	197.81
459.258	139.81
459.478	88.81
459.698	93.81
459.918	95.81
460.138	87.81
460.358	84.81
460.578	80.81
460.798	100.81
461.018	95.81
461.238	86.81
461.458	72.81
461.678	74.81
461.898	83.81
462.118	73.81
462.338	78.81
462.558	88.81
462.777	80.81
462.997	104.81
463.217	96.81
463.437	90.81
463.657	89.81
463.876	91.81
464.096	84.81
464.316	102.81
464.536	97.81
464.755	107.81
464.975	118.81
465.195	210.81
465.414	189.81
465.634	96.81
465.854	93.81
466.073	95.81
466.293	92.81
466.512	87.81
466.732	91.81
466.951	89.81
467.171	102.81
467.391	97.81
467.61	119.81
467.829	146.81
468.049	335.81
468.268	447.81
468.488	145.81
468.707	90.81
468.927	98.81
469.146	100.81
469.365	80.81
469.585	112.81
469.804	110.81
470.023	109.81
470.243	93.81
470.462	96.81
470.681	115.81
470.901	95.81
471.12	96.81
471.339	97.81
471.558	102.81
471.777	112.81
471.997	177.81
472.216	603.81
472.435	1249.81
472.654	328.81
472.873	123.81
473.092	89.81
473.311	97.81
473.53	79.81
473.749	112.81
473.968	95.81
474.187	104.81
474.406	88.81
474.625	93.81
474.844	90.81
475.063	103.81
475.282	95.81
475.501	90.81
475.72	103.81
475.939	75.81
476.158	87.81
476.377	108.81
476.596	99.81
476.814	92.81
477.033	91.81
477.252	84.81
477.471	71.81
477.69	76.81
477.908	87.81
478.127	93.81
478.346	108.81
478.564	96.81
478.783	89.81
479.002	90.81
479.22	107.81
479.439	116.81
479.658	127.81
479.876	101.81
480.095	112.81
480.313	110.81
480.532	120.81
480.751	188.81
480.969	574.81
481.188	2234.81
481.406	1295.81
481.624	230.81
481.843	105.81
482.061	101.81
482.28	99.81
482.498	79.81
482.717	79.81
482.935	85.81
483.153	85.81
483.372	84.81
483.59	89.81
483.808	89.81
484.027	93.81
484.245	99.81
484.463	104.81
484.681	106.81
484.9	94.81
485.118	105.81
485.336	86.81
485.554	86.81
485.772	98.81
485.99	122.81
486.209	106.81
486.427	92.81
486.645	93.81
486.863	133.81
487.081	112.81
487.299	93.81
487.517	103.81
487.735	100.81
487.953	93.81
488.171	93.81
488.389	110.81
488.607	89.81
488.825	104.81
489.043	90.81
489.261	74.81
489.479	89.81
489.696	95.81
489.914	90.81
490.132	89.81
490.35	98.81
490.568	92.81
490.786	86.81
491.003	101.81
491.221	97.81
491.439	92.81
491.657	108.81
491.874	92.81
492.092	91.81
492.31	109.81
492.527	94.81
492.745	82.81
492.963	87.81
493.18	100.81
493.398	91.81
493.615	90.81
493.833	94.81
494.05	89.81
494.268	97.81
494.485	93.81
494.703	85.81
494.92	76.81
495.138	93.81
495.355	80.81
495.573	90.81
495.79	84.81
496.008	87.81
496.225	82.81
496.442	93.81
496.66	105.81
496.877	91.81
497.094	90.81
497.312	75.81
497.529	81.81
497.746	98.81
497.963	81.81
498.181	101.81
498.398	93.81
498.615	105.81
498.832	96.81
499.049	90.81
499.267	87.81
499.484	88.81
499.701	100.81
499.918	85.81
500.135	85.81
500.352	86.81
500.569	79.81
500.786	98.81
501.003	85.81
501.22	88.81
501.437	92.81
501.654	108.81
501.871	113.81
502.088	87.81
502.305	95.81
502.522	98.81
502.739	76.81
502.956	64.81
503.172	89.81
503.389	89.81
503.606	107.81
503.823	98.81
504.04	85.81
504.256	97.81
504.473	85.81
504.69	79.81
504.907	98.81
505.123	75.81
505.34	80.81
505.557	89.81
505.773	89.81
505.99	79.81
506.207	91.81
506.423	83.81
506.64	102.81
506.856	89.81
507.073	91.81
507.289	98.81
507.506	88.81
507.722	114.81
507.939	117.81
508.155	92.81
508.372	91.81
508.588	103.81
508.805	89.81
509.021	90.81
509.238	89.81
509.454	107.81
509.67	92.81
509.887	101.81
510.103	145.81
510.319	218.81
510.536	802.81
510.752	2644.81
510.968	714.81
511.184	172.81
511.401	118.81
511.617	109.81
511.833	103.81
512.049	102.81
512.265	104.81
512.481	94.81
512.698	96.81
512.914	96.81
513.13	86.81
513.346	84.81
513.562	92.81
513.778	102.81
513.994	90.81
514.21	109.81
514.426	132.81
