Data from Circ_2000_H10_HRD10591_00031.txt Node
Date: Wed Jan 03 10:49:40 EST 2024
User: Yrep
Spectrometer: HR+D1059
Trigger mode: 1
Integration Time (sec): 1.000000E-1
Scans to average: 1
Electric dark correction enabled: true
Nonlinearity correction enabled: false
Boxcar width: 0
XAxis mode: Wavelengths
Number of Pixels in Spectrum: 2048
>>>>>Begin Spectral Data<<<<<
223.165	-16.5
223.4	-16.5
223.635	-16.5
223.869	-14.5
224.104	-13.5
224.338	-9.5
224.573	-5.5
224.808	-10.5
225.042	-8.5
225.277	-6.5
225.511	-5.5
225.746	5.5
225.98	-0.5
226.215	-2.5
226.449	28.5
226.683	24.5
226.918	16.5
227.152	18.5
227.387	38.5
227.621	47.5
227.856	50.5
228.09	48.5
228.324	47.5
228.559	56.5
228.793	52.5
229.027	50.5
229.262	59.5
229.496	79.5
229.73	86.5
229.964	91.5
230.199	67.5
230.433	75.5
230.667	85.5
230.901	79.5
231.136	94.5
231.37	82.5
231.604	86.5
231.838	82.5
232.072	85.5
232.306	87.5
232.541	75.5
232.775	75.5
233.009	96.5
233.243	88.5
233.477	92.5
233.711	84.5
233.945	90.5
234.179	85.5
234.413	74.5
234.647	80.5
234.881	72.5
235.115	68.5
235.349	83.5
235.583	76.5
235.817	85.5
236.051	97.5
236.285	86.5
236.519	72.5
236.753	83.5
236.987	77.5
237.221	87.5
237.455	82.5
237.689	80.5
237.922	83.5
238.156	84.5
238.39	76.5
238.624	77.5
238.858	79.5
239.091	79.5
239.325	86.5
239.559	83.5
239.793	76.5
240.027	89.5
240.26	69.5
240.494	87.5
240.728	69.5
240.961	85.5
241.195	94.5
241.429	84.5
241.662	78.5
241.896	74.5
242.13	78.5
242.363	86.5
242.597	69.5
242.83	76.5
243.064	63.5
243.298	58.5
243.531	61.5
243.765	96.5
243.998	102.5
244.232	82.5
244.465	90.5
244.699	83.5
244.932	90.5
245.166	77.5
245.399	82.5
245.633	76.5
245.866	80.5
246.099	77.5
246.333	83.5
246.566	81.5
246.8	93.5
247.033	87.5
247.266	89.5
247.5	77.5
247.733	80.5
247.966	75.5
248.2	97.5
248.433	95.5
248.666	74.5
248.899	80.5
249.133	75.5
249.366	101.5
249.599	89.5
249.832	97.5
250.066	85.5
250.299	86.5
250.532	86.5
250.765	91.5
250.998	87.5
251.231	90.5
251.465	85.5
251.698	89.5
251.931	79.5
252.164	74.5
252.397	85.5
252.63	88.5
252.863	78.5
253.096	87.5
253.329	86.5
253.562	86.5
253.795	89.5
254.028	78.5
254.261	74.5
254.494	80.5
254.727	88.5
254.96	87.5
255.193	86.5
255.426	79.5
255.659	76.5
255.892	98.5
256.124	101.5
256.357	78.5
256.59	81.5
256.823	78.5
257.056	88.5
257.289	94.5
257.521	78.5
257.754	87.5
257.987	81.5
258.22	77.5
258.452	120.5
258.685	90.5
258.918	92.5
259.151	80.5
259.383	88.5
259.616	79.5
259.849	76.5
260.081	76.5
260.314	77.5
260.547	79.5
260.779	83.5
261.012	93.5
261.244	79.5
261.477	83.5
261.71	90.5
261.942	111.5
262.175	134.5
262.407	84.5
262.64	82.5
262.872	99.5
263.105	76.5
263.337	78.5
263.57	94.5
263.802	78.5
264.035	76.5
264.267	81.5
264.499	90.5
264.732	73.5
264.964	83.5
265.197	92.5
265.429	75.5
265.661	72.5
265.894	77.5
266.126	74.5
266.358	98.5
266.591	98.5
266.823	87.5
267.055	90.5
267.287	89.5
267.52	72.5
267.752	98.5
267.984	89.5
268.216	82.5
268.448	94.5
268.681	90.5
268.913	75.5
269.145	75.5
269.377	86.5
269.609	89.5
269.841	101.5
270.073	71.5
270.306	85.5
270.538	95.5
270.77	91.5
271.002	89.5
271.234	78.5
271.466	88.5
271.698	80.5
271.93	104.5
272.162	91.5
272.394	88.5
272.626	85.5
272.858	95.5
273.09	82.5
273.322	89.5
273.553	75.5
273.785	72.5
274.017	79.5
274.249	90.5
274.481	94.5
274.713	85.5
274.945	80.5
275.176	99.5
275.408	92.5
275.64	111.5
275.872	99.5
276.104	108.5
276.335	95.5
276.567	112.5
276.799	121.5
277.031	110.5
277.262	108.5
277.494	101.5
277.726	83.5
277.957	78.5
278.189	99.5
278.421	88.5
278.652	87.5
278.884	100.5
279.115	87.5
279.347	80.5
279.579	110.5
279.81	100.5
280.042	114.5
280.273	124.5
280.505	106.5
280.736	100.5
280.968	79.5
281.199	94.5
281.431	87.5
281.662	78.5
281.894	92.5
282.125	94.5
282.356	131.5
282.588	149.5
282.819	113.5
283.051	92.5
283.282	73.5
283.513	95.5
283.745	93.5
283.976	99.5
284.207	99.5
284.439	84.5
284.67	93.5
284.901	93.5
285.132	93.5
285.364	86.5
285.595	86.5
285.826	92.5
286.057	89.5
286.288	84.5
286.52	82.5
286.751	82.5
286.982	93.5
287.213	76.5
287.444	94.5
287.675	104.5
287.906	91.5
288.138	98.5
288.369	90.5
288.6	104.5
288.831	85.5
289.062	86.5
289.293	93.5
289.524	76.5
289.755	84.5
289.986	83.5
290.217	87.5
290.448	104.5
290.679	95.5
290.91	88.5
291.141	85.5
291.371	90.5
291.602	74.5
291.833	86.5
292.064	87.5
292.295	91.5
292.526	103.5
292.757	86.5
292.987	83.5
293.218	87.5
293.449	89.5
293.68	89.5
293.91	93.5
294.141	93.5
294.372	96.5
294.603	91.5
294.833	84.5
295.064	83.5
295.295	79.5
295.525	81.5
295.756	99.5
295.987	119.5
296.217	150.5
296.448	130.5
296.679	100.5
296.909	90.5
297.14	95.5
297.37	94.5
297.601	78.5
297.831	86.5
298.062	93.5
298.292	99.5
298.523	80.5
298.753	70.5
298.984	85.5
299.214	100.5
299.445	91.5
299.675	91.5
299.905	89.5
300.136	101.5
300.366	86.5
300.597	78.5
300.827	85.5
301.057	116.5
301.288	123.5
301.518	98.5
301.748	88.5
301.979	89.5
302.209	92.5
302.439	100.5
302.669	93.5
302.9	82.5
303.13	85.5
303.36	87.5
303.59	107.5
303.82	109.5
304.051	94.5
304.281	89.5
304.511	87.5
304.741	102.5
304.971	97.5
305.201	103.5
305.431	104.5
305.661	81.5
305.891	91.5
306.121	85.5
306.352	100.5
306.582	103.5
306.812	102.5
307.042	99.5
307.272	120.5
307.502	121.5
307.731	106.5
307.961	108.5
308.191	96.5
308.421	95.5
308.651	96.5
308.881	91.5
309.111	97.5
309.341	92.5
309.571	92.5
309.8	99.5
310.03	106.5
310.26	86.5
310.49	93.5
310.72	91.5
310.949	99.5
311.179	111.5
311.409	99.5
311.639	96.5
311.868	85.5
312.098	87.5
312.328	96.5
312.557	103.5
312.787	121.5
313.017	104.5
313.246	107.5
313.476	80.5
313.706	106.5
313.935	99.5
314.165	110.5
314.394	109.5
314.624	116.5
314.853	110.5
315.083	95.5
315.312	84.5
315.542	102.5
315.771	100.5
316.001	99.5
316.23	83.5
316.46	98.5
316.689	91.5
316.919	95.5
317.148	109.5
317.377	84.5
317.607	101.5
317.836	97.5
318.065	98.5
318.295	106.5
318.524	89.5
318.753	101.5
318.983	88.5
319.212	114.5
319.441	109.5
319.67	94.5
319.9	103.5
320.129	96.5
320.358	107.5
320.587	103.5
320.816	115.5
321.046	93.5
321.275	96.5
321.504	101.5
321.733	94.5
321.962	103.5
322.191	108.5
322.42	104.5
322.649	107.5
322.878	119.5
323.108	131.5
323.337	143.5
323.566	134.5
323.795	159.5
324.024	223.5
324.253	440.5
324.482	903.5
324.71	1825.5
324.939	2431.5
325.168	888.5
325.397	269.5
325.626	154.5
325.855	130.5
326.084	132.5
326.313	140.5
326.542	167.5
326.77	257.5
326.999	501.5
327.228	1042.5
327.457	1898.5
327.686	1480.5
327.914	431.5
328.143	283.5
328.372	294.5
328.6	189.5
328.829	148.5
329.058	158.5
329.287	151.5
329.515	131.5
329.744	150.5
329.972	212.5
330.201	374.5
330.43	516.5
330.658	282.5
330.887	189.5
331.115	152.5
331.344	106.5
331.572	102.5
331.801	113.5
332.03	98.5
332.258	107.5
332.486	90.5
332.715	99.5
332.943	105.5
333.172	102.5
333.4	109.5
333.629	131.5
333.857	148.5
334.085	228.5
334.314	352.5
334.542	615.5
334.771	577.5
334.999	206.5
335.227	122.5
335.455	103.5
335.684	120.5
335.912	110.5
336.14	97.5
336.369	104.5
336.597	103.5
336.825	113.5
337.053	93.5
337.281	90.5
337.51	114.5
337.738	106.5
337.966	89.5
338.194	99.5
338.422	90.5
338.65	92.5
338.878	90.5
339.106	87.5
339.334	77.5
339.562	94.5
339.79	91.5
340.018	85.5
340.246	99.5
340.474	92.5
340.702	88.5
340.93	111.5
341.158	96.5
341.386	89.5
341.614	98.5
341.842	90.5
342.07	92.5
342.298	102.5
342.526	73.5
342.754	87.5
342.981	101.5
343.209	101.5
343.437	99.5
343.665	95.5
343.893	109.5
344.12	92.5
344.348	83.5
344.576	95.5
344.804	102.5
345.031	108.5
345.259	112.5
345.487	98.5
345.714	100.5
345.942	98.5
346.17	79.5
346.397	94.5
346.625	106.5
346.853	83.5
347.08	89.5
347.308	109.5
347.535	100.5
347.763	106.5
347.99	83.5
348.218	102.5
348.445	105.5
348.673	100.5
348.9	90.5
349.128	118.5
349.355	96.5
349.583	94.5
349.81	95.5
350.037	95.5
350.265	90.5
350.492	96.5
350.72	98.5
350.947	101.5
351.174	115.5
351.402	117.5
351.629	101.5
351.856	92.5
352.083	108.5
352.311	106.5
352.538	116.5
352.765	113.5
352.992	130.5
353.22	110.5
353.447	122.5
353.674	103.5
353.901	111.5
354.128	105.5
354.355	83.5
354.583	96.5
354.81	111.5
355.037	94.5
355.264	86.5
355.491	101.5
355.718	100.5
355.945	100.5
356.172	105.5
356.399	111.5
356.626	88.5
356.853	104.5
357.08	110.5
357.307	99.5
357.534	100.5
357.761	101.5
357.988	104.5
358.215	88.5
358.441	102.5
358.668	89.5
358.895	94.5
359.122	101.5
359.349	79.5
359.576	87.5
359.802	108.5
360.029	124.5
360.256	117.5
360.483	88.5
360.709	90.5
360.936	108.5
361.163	99.5
361.39	84.5
361.616	110.5
361.843	91.5
362.07	100.5
362.296	106.5
362.523	84.5
362.749	111.5
362.976	91.5
363.203	96.5
363.429	88.5
363.656	91.5
363.882	91.5
364.109	91.5
364.335	86.5
364.562	98.5
364.788	93.5
365.015	84.5
365.241	92.5
365.468	101.5
365.694	109.5
365.92	102.5
366.147	104.5
366.373	99.5
366.599	96.5
366.826	112.5
367.052	90.5
367.278	102.5
367.505	87.5
367.731	90.5
367.957	90.5
368.184	86.5
368.41	100.5
368.636	113.5
368.862	107.5
369.089	106.5
369.315	97.5
369.541	92.5
369.767	82.5
369.993	99.5
370.219	94.5
370.445	91.5
370.672	96.5
370.898	91.5
371.124	94.5
371.35	94.5
371.576	87.5
371.802	90.5
372.028	89.5
372.254	86.5
372.48	88.5
372.706	86.5
372.932	89.5
373.158	93.5
373.384	85.5
373.61	90.5
373.835	94.5
374.061	99.5
374.287	92.5
374.513	84.5
374.739	91.5
374.965	85.5
375.191	93.5
375.416	82.5
375.642	78.5
375.868	104.5
376.094	113.5
376.319	95.5
376.545	76.5
376.771	86.5
376.997	96.5
377.222	106.5
377.448	93.5
377.674	79.5
377.899	87.5
378.125	87.5
378.35	94.5
378.576	108.5
378.802	83.5
379.027	92.5
379.253	92.5
379.478	82.5
379.704	77.5
379.929	102.5
380.155	108.5
380.38	95.5
380.606	87.5
380.831	110.5
381.057	94.5
381.282	88.5
381.507	107.5
381.733	111.5
381.958	104.5
382.184	98.5
382.409	113.5
382.634	110.5
382.86	96.5
383.085	116.5
383.31	93.5
383.535	103.5
383.761	111.5
383.986	104.5
384.211	109.5
384.436	102.5
384.662	102.5
384.887	106.5
385.112	106.5
385.337	103.5
385.562	112.5
385.787	103.5
386.013	119.5
386.238	132.5
386.463	119.5
386.688	124.5
386.913	114.5
387.138	98.5
387.363	114.5
387.588	109.5
387.813	95.5
388.038	127.5
388.263	113.5
388.488	109.5
388.713	100.5
388.938	84.5
389.163	100.5
389.387	105.5
389.612	99.5
389.837	82.5
390.062	101.5
390.287	88.5
390.512	99.5
390.736	92.5
390.961	97.5
391.186	107.5
391.411	101.5
391.636	90.5
391.86	72.5
392.085	89.5
392.31	83.5
392.534	85.5
392.759	100.5
392.984	79.5
393.208	83.5
393.433	95.5
393.658	102.5
393.882	88.5
394.107	79.5
394.331	92.5
394.556	82.5
394.78	79.5
395.005	95.5
395.229	98.5
395.454	88.5
395.678	102.5
395.903	74.5
396.127	94.5
396.352	61.5
396.576	70.5
396.801	95.5
397.025	93.5
397.249	100.5
397.474	94.5
397.698	74.5
397.922	86.5
398.147	80.5
398.371	91.5
398.595	84.5
398.82	91.5
399.044	76.5
399.268	85.5
399.492	94.5
399.717	83.5
399.941	87.5
400.165	108.5
400.389	84.5
400.613	85.5
400.837	86.5
401.062	88.5
401.286	79.5
401.51	99.5
401.734	91.5
401.958	103.5
402.182	128.5
402.406	146.5
402.63	111.5
402.854	93.5
403.078	96.5
403.302	88.5
403.526	87.5
403.75	97.5
403.974	85.5
404.198	90.5
404.422	98.5
404.645	100.5
404.869	104.5
405.093	111.5
405.317	136.5
405.541	128.5
405.765	103.5
405.988	119.5
406.212	167.5
406.436	245.5
406.66	169.5
406.883	115.5
407.107	95.5
407.331	104.5
407.555	114.5
407.778	121.5
408.002	96.5
408.226	95.5
408.449	97.5
408.673	100.5
408.896	88.5
409.12	97.5
409.344	86.5
409.567	93.5
409.791	101.5
410.014	95.5
410.238	86.5
410.461	103.5
410.685	90.5
410.908	92.5
411.132	106.5
411.355	104.5
411.578	95.5
411.802	86.5
412.025	104.5
412.249	86.5
412.472	121.5
412.695	115.5
412.919	91.5
413.142	90.5
413.365	96.5
413.589	88.5
413.812	93.5
414.035	90.5
414.258	88.5
414.482	86.5
414.705	95.5
414.928	92.5
415.151	82.5
415.374	95.5
415.597	101.5
415.821	84.5
416.044	87.5
416.267	94.5
416.49	87.5
416.713	82.5
416.936	99.5
417.159	87.5
417.382	98.5
417.605	107.5
417.828	99.5
418.051	80.5
418.274	85.5
418.497	95.5
418.72	99.5
418.943	107.5
419.166	81.5
419.389	93.5
419.611	88.5
419.834	94.5
420.057	78.5
420.28	98.5
420.503	89.5
420.726	95.5
420.948	93.5
421.171	101.5
421.394	98.5
421.617	89.5
421.839	74.5
422.062	96.5
422.285	96.5
422.507	99.5
422.73	97.5
422.953	92.5
423.175	83.5
423.398	92.5
423.621	87.5
423.843	71.5
424.066	102.5
424.288	86.5
424.511	91.5
424.733	100.5
424.956	116.5
425.178	95.5
425.401	106.5
425.623	108.5
425.846	87.5
426.068	92.5
426.291	86.5
426.513	99.5
426.735	82.5
426.958	96.5
427.18	120.5
427.402	142.5
427.625	190.5
427.847	181.5
428.069	166.5
428.292	114.5
428.514	113.5
428.736	86.5
428.958	98.5
429.181	79.5
429.403	96.5
429.625	90.5
429.847	91.5
430.069	92.5
430.292	98.5
430.514	84.5
430.736	81.5
430.958	79.5
431.18	91.5
431.402	90.5
431.624	79.5
431.846	76.5
432.068	82.5
432.29	82.5
432.512	90.5
432.734	82.5
432.956	85.5
433.178	95.5
433.4	110.5
433.622	80.5
433.844	103.5
434.066	85.5
434.287	111.5
434.509	99.5
434.731	86.5
434.953	93.5
435.175	94.5
435.397	94.5
435.618	96.5
435.84	115.5
436.062	127.5
436.284	134.5
436.505	117.5
436.727	113.5
436.949	89.5
437.17	87.5
437.392	93.5
437.614	92.5
437.835	103.5
438.057	132.5
438.278	113.5
438.5	104.5
438.721	126.5
438.943	105.5
439.165	92.5
439.386	93.5
439.608	108.5
439.829	107.5
440.05	130.5
440.272	160.5
440.493	116.5
440.715	95.5
440.936	78.5
441.158	83.5
441.379	79.5
441.6	96.5
441.822	114.5
442.043	91.5
442.264	91.5
442.486	113.5
442.707	87.5
442.928	97.5
443.149	136.5
443.371	130.5
443.592	122.5
443.813	133.5
444.034	120.5
444.255	101.5
444.476	101.5
444.698	94.5
444.919	82.5
445.14	139.5
445.361	134.5
445.582	129.5
445.803	144.5
446.024	164.5
446.245	146.5
446.466	125.5
446.687	99.5
446.908	93.5
447.129	83.5
447.35	94.5
447.571	97.5
447.792	99.5
448.013	111.5
448.234	115.5
448.455	113.5
448.675	127.5
448.896	123.5
449.117	92.5
449.338	118.5
449.559	138.5
449.779	148.5
450	101.5
450.221	90.5
450.442	86.5
450.662	91.5
450.883	115.5
451.104	127.5
451.324	93.5
451.545	82.5
451.766	96.5
451.986	84.5
452.207	92.5
452.428	90.5
452.648	100.5
452.869	107.5
453.089	116.5
453.31	112.5
453.53	116.5
453.751	95.5
453.971	112.5
454.192	96.5
454.412	94.5
454.633	97.5
454.853	83.5
455.073	89.5
455.294	88.5
455.514	116.5
455.734	95.5
455.955	103.5
456.175	86.5
456.395	89.5
456.616	95.5
456.836	87.5
457.056	73.5
457.276	87.5
457.497	85.5
457.717	85.5
457.937	84.5
458.157	101.5
458.377	91.5
458.598	119.5
458.818	170.5
459.038	181.5
459.258	122.5
459.478	101.5
459.698	90.5
459.918	84.5
460.138	85.5
460.358	80.5
460.578	94.5
460.798	95.5
461.018	90.5
461.238	105.5
461.458	90.5
461.678	79.5
461.898	95.5
462.118	85.5
462.338	95.5
462.558	90.5
462.777	99.5
462.997	82.5
463.217	88.5
463.437	85.5
463.657	80.5
463.876	99.5
464.096	112.5
464.316	94.5
464.536	110.5
464.755	111.5
464.975	114.5
465.195	182.5
465.414	188.5
465.634	120.5
465.854	84.5
466.073	89.5
466.293	73.5
466.512	90.5
466.732	83.5
466.951	102.5
467.171	94.5
467.391	95.5
467.61	101.5
467.829	132.5
468.049	229.5
468.268	286.5
468.488	128.5
468.707	76.5
468.927	76.5
469.146	90.5
469.365	93.5
469.585	98.5
469.804	103.5
470.023	100.5
470.243	96.5
470.462	104.5
470.681	102.5
470.901	101.5
471.12	85.5
471.339	104.5
471.558	109.5
471.777	99.5
471.997	135.5
472.216	405.5
472.435	831.5
472.654	245.5
472.873	104.5
473.092	90.5
473.311	81.5
473.53	99.5
473.749	104.5
473.968	115.5
474.187	116.5
474.406	100.5
474.625	96.5
474.844	90.5
475.063	94.5
475.282	79.5
475.501	88.5
475.72	88.5
475.939	101.5
476.158	95.5
476.377	98.5
476.596	98.5
476.814	103.5
477.033	104.5
477.252	98.5
477.471	97.5
477.69	91.5
477.908	94.5
478.127	82.5
478.346	79.5
478.564	92.5
478.783	91.5
479.002	101.5
479.22	85.5
479.439	114.5
479.658	109.5
479.876	95.5
480.095	110.5
480.313	95.5
480.532	111.5
480.751	147.5
480.969	382.5
481.188	1382.5
481.406	869.5
481.624	186.5
481.843	102.5
482.061	110.5
482.28	102.5
482.498	79.5
482.717	71.5
482.935	91.5
483.153	92.5
483.372	79.5
483.59	82.5
483.808	100.5
484.027	82.5
484.245	90.5
484.463	99.5
484.681	106.5
484.9	86.5
485.118	93.5
485.336	95.5
485.554	90.5
485.772	104.5
485.99	105.5
486.209	111.5
486.427	102.5
486.645	118.5
486.863	115.5
487.081	110.5
487.299	94.5
487.517	103.5
487.735	86.5
487.953	97.5
488.171	94.5
488.389	98.5
488.607	104.5
488.825	96.5
489.043	79.5
489.261	88.5
489.479	83.5
489.696	95.5
489.914	91.5
490.132	100.5
490.35	93.5
490.568	84.5
490.786	103.5
491.003	97.5
491.221	98.5
491.439	88.5
491.657	94.5
491.874	93.5
492.092	94.5
492.31	93.5
492.527	95.5
492.745	92.5
492.963	98.5
493.18	79.5
493.398	103.5
493.615	108.5
493.833	96.5
494.05	90.5
494.268	98.5
494.485	103.5
494.703	67.5
494.92	103.5
495.138	86.5
495.355	89.5
495.573	93.5
495.79	90.5
496.008	98.5
496.225	87.5
496.442	89.5
496.66	94.5
496.877	75.5
497.094	103.5
497.312	86.5
497.529	74.5
497.746	84.5
497.963	93.5
498.181	89.5
498.398	80.5
498.615	109.5
498.832	96.5
499.049	95.5
499.267	95.5
499.484	93.5
499.701	106.5
499.918	98.5
500.135	93.5
500.352	96.5
500.569	100.5
500.786	95.5
501.003	104.5
501.22	96.5
501.437	97.5
501.654	92.5
501.871	107.5
502.088	92.5
502.305	75.5
502.522	99.5
502.739	84.5
502.956	103.5
503.172	92.5
503.389	95.5
503.606	109.5
503.823	113.5
504.04	91.5
504.256	89.5
504.473	102.5
504.69	91.5
504.907	87.5
505.123	98.5
505.34	96.5
505.557	93.5
505.773	92.5
505.99	82.5
506.207	66.5
506.423	90.5
506.64	94.5
506.856	94.5
507.073	91.5
507.289	89.5
507.506	102.5
507.722	117.5
507.939	112.5
508.155	97.5
508.372	87.5
508.588	94.5
508.805	97.5
509.021	97.5
509.238	102.5
509.454	102.5
509.67	94.5
509.887	110.5
510.103	134.5
510.319	229.5
510.536	756.5
510.752	2517.5
510.968	703.5
511.184	157.5
511.401	119.5
511.617	96.5
511.833	100.5
512.049	87.5
512.265	94.5
512.481	102.5
512.698	100.5
512.914	96.5
513.13	109.5
513.346	91.5
513.562	94.5
513.778	106.5
513.994	112.5
514.21	107.5
514.426	130.5
514.642	150.5
514.858	135.5
515.074	176.5
515.29	505.5
515.506	1695.5
515.721	626.5
515.937	172.5
516.153	125.5
516.369	91.5
516.585	87.5
516.801	88.5
517.016	94.5
517.232	90.5
517.448	100.5
517.664	96.5
517.879	91.5
518.095	86.5
518.311	95.5
518.527	94.5
518.742	95.5
518.958	91.5
519.173	100.5
519.389	102.5
519.605	106.5
519.82	100.5
520.036	98.5
520.251	124.5
520.467	133.5
520.682	112.5
520.898	107.5
521.113	116.5
521.329	152.5
521.544	224.5
521.76	654.5
521.975	2842.5
522.19	1697.5
522.406	376.5
522.621	142.5
522.836	116.5
523.052	94.5
523.267	102.5
523.482	98.5
523.698	108.5
523.913	107.5
524.128	110.5
524.343	80.5
524.559	106.5
524.774	89.5
524.989	94.5
525.204	109.5
525.419	94.5
525.634	103.5
525.849	93.5
526.064	97.5
526.28	93.5
526.495	87.5
526.71	90.5
526.925	83.5
527.14	83.5
527.355	109.5
527.57	104.5
527.785	99.5
527.999	102.5
528.214	87.5
528.429	95.5
528.644	81.5
528.859	92.5
529.074	96.5
529.289	138.5
529.503	207.5
529.718	122.5
529.933	86.5
530.148	89.5
530.363	94.5
530.577	87.5
530.792	86.5
531.007	84.5
531.221	96.5
531.436	99.5
531.651	80.5
531.865	88.5
532.08	93.5
532.295	85.5
532.509	101.5
532.724	94.5
532.938	102.5
