Data from Circ_2000_H10_HRD10591_00008.txt Node
Date: Wed Jan 03 10:49:35 EST 2024
User: Yrep
Spectrometer: HR+D1059
Trigger mode: 1
Integration Time (sec): 1.000000E-1
Scans to average: 1
Electric dark correction enabled: true
Nonlinearity correction enabled: false
Boxcar width: 0
XAxis mode: Wavelengths
Number of Pixels in Spectrum: 2048
>>>>>Begin Spectral Data<<<<<
223.165	-16.56
223.4	-16.56
223.635	-16.56
223.869	-8.56
224.104	-24.56
224.338	-18.56
224.573	-24.56
224.808	-1.56
225.042	-7.56
225.277	-9.56
225.511	-8.56
225.746	0.44
225.98	4.44
226.215	20.44
226.449	22.44
226.683	16.44
226.918	27.44
227.152	28.44
227.387	25.44
227.621	40.44
227.856	35.44
228.09	34.44
228.324	57.44
228.559	39.44
228.793	154.44
229.027	427.44
229.262	471.44
229.496	576.44
229.73	745.44
229.964	794.44
230.199	507.44
230.433	443.44
230.667	462.44
230.901	438.44
231.136	428.44
231.37	439.44
231.604	440.44
231.838	438.44
232.072	441.44
232.306	447.44
232.541	451.44
232.775	454.44
233.009	456.44
233.243	462.44
233.477	465.44
233.711	480.44
233.945	488.44
234.179	514.44
234.413	500.44
234.647	486.44
234.881	528.44
235.115	505.44
235.349	552.44
235.583	561.44
235.817	580.44
236.051	588.44
236.285	600.44
236.519	610.44
236.753	688.44
236.987	867.44
237.221	1320.44
237.455	1396.44
237.689	834.44
237.922	709.44
238.156	709.44
238.39	635.44
238.624	634.44
238.858	612.44
239.091	634.44
239.325	648.44
239.559	673.44
239.793	669.44
240.027	738.44
240.26	864.44
240.494	928.44
240.728	888.44
240.961	873.44
241.195	786.44
241.429	762.44
241.662	754.44
241.896	733.44
242.13	767.44
242.363	771.44
242.597	779.44
242.83	800.44
243.064	810.44
243.298	813.44
243.531	803.44
243.765	785.44
243.998	834.44
244.232	824.44
244.465	856.44
244.699	875.44
244.932	865.44
245.166	871.44
245.399	899.44
245.633	872.44
245.866	894.44
246.099	887.44
246.333	942.44
246.566	934.44
246.8	953.44
247.033	990.44
247.266	1015.44
247.5	1057.44
247.733	1116.44
247.966	1113.44
248.2	1113.44
248.433	1116.44
248.666	1181.44
248.899	1300.44
249.133	1402.44
249.366	1399.44
249.599	1319.44
249.832	1264.44
250.066	1384.44
250.299	1602.44
250.532	1911.44
250.765	1974.44
250.998	1850.44
251.231	1646.44
251.465	1495.44
251.698	1372.44
251.931	1398.44
252.164	1342.44
252.397	1391.44
252.63	1438.44
252.863	1474.44
253.096	1590.44
253.329	1646.44
253.562	1572.44
253.795	1475.44
254.028	1527.44
254.261	1563.44
254.494	1742.44
254.727	2054.44
254.96	2109.44
255.193	1884.44
255.426	1882.44
255.659	2002.44
255.892	2581.44
256.124	3113.44
256.357	2630.44
256.59	2075.44
256.823	1809.44
257.056	1701.44
257.289	1617.44
257.521	1602.44
257.754	1547.44
257.987	1570.44
258.22	1555.44
258.452	1535.44
258.685	1604.44
258.918	1552.44
259.151	1571.44
259.383	1642.44
259.616	1664.44
259.849	1721.44
260.081	1884.44
260.314	2007.44
260.547	1961.44
260.779	1792.44
261.012	1728.44
261.244	1696.44
261.477	1636.44
261.71	1680.44
261.942	1735.44
262.175	1776.44
262.407	1680.44
262.64	1611.44
262.872	1587.44
263.105	1573.44
263.337	1648.44
263.57	1616.44
263.802	1654.44
264.035	1643.44
264.267	1669.44
264.499	1645.44
264.732	1670.44
264.964	1687.44
265.197	1692.44
265.429	1695.44
265.661	1663.44
265.894	1678.44
266.126	1719.44
266.358	1723.44
266.591	1762.44
266.823	1815.44
267.055	1839.44
267.287	1852.44
267.52	1803.44
267.752	1798.44
267.984	1823.44
268.216	1861.44
268.448	1909.44
268.681	1958.44
268.913	2053.44
269.145	2209.44
269.377	2288.44
269.609	2178.44
269.841	2181.44
270.073	2278.44
270.306	2549.44
270.538	2633.44
270.77	2521.44
271.002	2387.44
271.234	2374.44
271.466	2515.44
271.698	2632.44
271.93	2605.44
272.162	2641.44
272.394	2530.44
272.626	2438.44
272.858	2281.44
273.09	2208.44
273.322	2227.44
273.553	2168.44
273.785	2180.44
274.017	2208.44
274.249	2231.44
274.481	2201.44
274.713	2249.44
274.945	2297.44
275.176	2268.44
275.408	2304.44
275.64	2256.44
275.872	2289.44
276.104	2363.44
276.335	2356.44
276.567	2461.44
276.799	2604.44
277.031	2852.44
277.262	2934.44
277.494	2804.44
277.726	2619.44
277.957	2501.44
278.189	2447.44
278.421	2409.44
278.652	2481.44
278.884	2371.44
279.115	2407.44
279.347	2418.44
279.579	2491.44
279.81	2494.44
280.042	2610.44
280.273	2676.44
280.505	2650.44
280.736	2531.44
280.968	2523.44
281.199	2441.44
281.431	2500.44
281.662	2474.44
281.894	2468.44
282.125	2577.44
282.356	2727.44
282.588	2826.44
282.819	2668.44
283.051	2555.44
283.282	2517.44
283.513	2544.44
283.745	2594.44
283.976	2680.44
284.207	2640.44
284.439	2624.44
284.67	2621.44
284.901	2648.44
285.132	2686.44
285.364	2627.44
285.595	2622.44
285.826	2640.44
286.057	2669.44
286.288	2638.44
286.52	2665.44
286.751	2742.44
286.982	2699.44
287.213	2675.44
287.444	2702.44
287.675	2836.44
287.906	2842.44
288.138	2928.44
288.369	2869.44
288.6	2916.44
288.831	2850.44
289.062	2798.44
289.293	2832.44
289.524	2778.44
289.755	2779.44
289.986	2810.44
290.217	2827.44
290.448	2834.44
290.679	2817.44
290.91	2790.44
291.141	2825.44
291.371	2820.44
291.602	2786.44
291.833	2803.44
292.064	2808.44
292.295	2796.44
292.526	2815.44
292.757	2784.44
292.987	2763.44
293.218	2782.44
293.449	2849.44
293.68	2805.44
293.91	2789.44
294.141	2843.44
294.372	2800.44
294.603	2848.44
294.833	2832.44
295.064	2840.44
295.295	2880.44
295.525	2859.44
295.756	2979.44
295.987	3039.44
296.217	3185.44
296.448	3131.44
296.679	2945.44
296.909	2940.44
297.14	2962.44
297.37	3012.44
297.601	3066.44
297.831	3000.44
298.062	3031.44
298.292	3055.44
298.523	3109.44
298.753	3070.44
298.984	3103.44
299.214	3128.44
299.445	3086.44
299.675	3072.44
299.905	3118.44
300.136	3111.44
300.366	3196.44
300.597	3153.44
300.827	3307.44
301.057	3314.44
301.288	3342.44
301.518	3332.44
301.748	3401.44
301.979	3403.44
302.209	3446.44
302.439	3408.44
302.669	3374.44
302.9	3289.44
303.13	3289.44
303.36	3301.44
303.59	3392.44
303.82	3458.44
304.051	3387.44
304.281	3368.44
304.511	3271.44
304.741	3255.44
304.971	3231.44
305.201	3252.44
305.431	3272.44
305.661	3254.44
305.891	3265.44
306.121	3246.44
306.352	3296.44
306.582	3283.44
306.812	3244.44
307.042	3302.44
307.272	3403.44
307.502	3370.44
307.731	3384.44
307.961	3354.44
308.191	3294.44
308.421	3286.44
308.651	3330.44
308.881	3228.44
309.111	3311.44
309.341	3372.44
309.571	3479.44
309.8	3483.44
310.03	3583.44
310.26	3616.44
310.49	3573.44
310.72	3744.44
310.949	3757.44
311.179	3772.44
311.409	3630.44
311.639	3628.44
311.868	3643.44
312.098	3667.44
312.328	3825.44
312.557	3916.44
312.787	3980.44
313.017	3849.44
313.246	3794.44
313.476	3692.44
313.706	3760.44
313.935	3904.44
314.165	3909.44
314.394	3985.44
314.624	3890.44
314.853	3812.44
315.083	3838.44
315.312	3812.44
315.542	3703.44
315.771	3650.44
316.001	3656.44
316.23	3700.44
316.46	3638.44
316.689	3677.44
316.919	3746.44
317.148	3797.44
317.377	3768.44
317.607	3732.44
317.836	3806.44
318.065	3734.44
318.295	3726.44
318.524	3696.44
318.753	3675.44
318.983	3653.44
319.212	3637.44
319.441	3736.44
319.67	3799.44
319.9	3675.44
320.129	3706.44
320.358	3738.44
320.587	3765.44
320.816	3816.44
321.046	3814.44
321.275	3807.44
321.504	3883.44
321.733	3882.44
321.962	3927.44
322.191	4082.44
322.42	4187.44
322.649	4234.44
322.878	4288.44
323.108	4386.44
323.337	4671.44
323.566	4826.44
323.795	5079.44
324.024	5716.44
324.253	7524.44
324.482	11457.44
324.71	15532.44
324.939	15612.44
325.168	13230.44
325.397	6681.44
325.626	5353.44
325.855	4986.44
326.084	4833.44
326.313	4930.44
326.542	5123.44
326.77	5796.44
326.999	7352.44
327.228	10929.44
327.457	14752.44
327.686	13982.44
327.914	8192.44
328.143	7112.44
328.372	7054.44
328.6	6326.44
328.829	5871.44
329.058	6005.44
329.287	6047.44
329.515	5921.44
329.744	6120.44
329.972	7203.44
330.201	8750.44
330.43	9412.44
330.658	7682.44
330.887	6862.44
331.115	6040.44
331.344	5452.44
331.572	5299.44
331.801	5390.44
332.03	5258.44
332.258	5351.44
332.486	5299.44
332.715	5415.44
332.943	5668.44
333.172	5919.44
333.4	6157.44
333.629	6502.44
333.857	7266.44
334.085	8239.44
334.314	10122.44
334.542	11838.44
334.771	10686.44
334.999	7443.44
335.227	6358.44
335.455	5856.44
335.684	5571.44
335.912	5377.44
336.14	5278.44
336.369	5226.44
336.597	5223.44
336.825	5137.44
337.053	5021.44
337.281	4882.44
337.51	4895.44
337.738	4824.44
337.966	4866.44
338.194	4790.44
338.422	4684.44
338.65	4639.44
338.878	4580.44
339.106	4504.44
339.334	4537.44
339.562	4419.44
339.79	4418.44
340.018	4504.44
340.246	4414.44
340.474	4448.44
340.702	4439.44
340.93	4467.44
341.158	4386.44
341.386	4437.44
341.614	4392.44
341.842	4353.44
342.07	4322.44
342.298	4297.44
342.526	4303.44
342.754	4218.44
342.981	4372.44
343.209	4402.44
343.437	4656.44
343.665	4897.44
343.893	5134.44
344.12	5145.44
344.348	4964.44
344.576	4825.44
344.804	4744.44
345.031	4659.44
345.259	4600.44
345.487	4462.44
345.714	4357.44
345.942	4220.44
346.17	4149.44
346.397	4176.44
346.625	4146.44
346.853	4167.44
347.08	4118.44
347.308	4250.44
347.535	4272.44
347.763	4313.44
347.99	4241.44
348.218	4366.44
348.445	4375.44
348.673	4212.44
348.9	4169.44
349.128	4145.44
349.355	4079.44
349.583	4085.44
349.81	4010.44
350.037	4027.44
350.265	4034.44
350.492	4074.44
350.72	4048.44
350.947	4134.44
351.174	4197.44
351.402	4257.44
351.629	4246.44
351.856	4211.44
352.083	4261.44
352.311	4301.44
352.538	4253.44
352.765	4203.44
352.992	4170.44
353.22	4119.44
353.447	4106.44
353.674	4073.44
353.901	3972.44
354.128	3948.44
354.355	3970.44
354.583	4051.44
354.81	4050.44
355.037	3971.44
355.264	3919.44
355.491	3930.44
355.718	3995.44
355.945	3944.44
356.172	3966.44
356.399	3953.44
356.626	3950.44
356.853	3941.44
357.08	3888.44
357.307	3922.44
357.534	3947.44
357.761	3961.44
357.988	3958.44
358.215	3958.44
358.441	4000.44
358.668	4050.44
358.895	4091.44
359.122	4066.44
359.349	4199.44
359.576	4251.44
359.802	4432.44
360.029	4702.44
360.256	4642.44
360.483	4408.44
360.709	4228.44
360.936	4185.44
361.163	4212.44
361.39	4240.44
361.616	4239.44
361.843	4109.44
362.07	4182.44
362.296	4244.44
362.523	4179.44
362.749	4179.44
362.976	4153.44
363.203	4097.44
363.429	4026.44
363.656	4073.44
363.882	4084.44
364.109	4072.44
364.335	4051.44
364.562	4068.44
364.788	4045.44
365.015	4114.44
365.241	4103.44
365.468	4124.44
365.694	4122.44
365.92	4056.44
366.147	4061.44
366.373	4056.44
366.599	4047.44
366.826	3969.44
367.052	3979.44
367.278	4043.44
367.505	4056.44
367.731	4141.44
367.957	4149.44
368.184	4111.44
368.41	4234.44
368.636	4231.44
368.862	4194.44
369.089	4175.44
369.315	4115.44
369.541	4128.44
369.767	4227.44
369.993	4170.44
370.219	4164.44
370.445	4146.44
370.672	4223.44
370.898	4231.44
371.124	4249.44
371.35	4350.44
371.576	4266.44
371.802	4218.44
372.028	4215.44
372.254	4261.44
372.48	4347.44
372.706	4426.44
372.932	4459.44
373.158	4423.44
373.384	4335.44
373.61	4348.44
373.835	4380.44
374.061	4345.44
374.287	4437.44
374.513	4504.44
374.739	4630.44
374.965	4769.44
375.191	4682.44
375.416	4586.44
375.642	4473.44
375.868	4498.44
376.094	4430.44
376.319	4308.44
376.545	4358.44
376.771	4329.44
376.997	4300.44
377.222	4334.44
377.448	4299.44
377.674	4335.44
377.899	4296.44
378.125	4231.44
378.35	4238.44
378.576	4260.44
378.802	4275.44
379.027	4255.44
379.253	4254.44
379.478	4262.44
379.704	4260.44
379.929	4262.44
380.155	4252.44
380.38	4270.44
380.606	4352.44
380.831	4256.44
381.057	4362.44
381.282	4351.44
381.507	4380.44
381.733	4402.44
381.958	4394.44
382.184	4482.44
382.409	4505.44
382.634	4508.44
382.86	4536.44
383.085	4631.44
383.31	4662.44
383.535	4769.44
383.761	4814.44
383.986	4858.44
384.211	4952.44
384.436	5039.44
384.662	5037.44
384.887	5151.44
385.112	5155.44
385.337	5215.44
385.562	5182.44
385.787	5194.44
386.013	5354.44
386.238	5358.44
386.463	5307.44
386.688	5268.44
386.913	5122.44
387.138	5115.44
387.363	5144.44
387.588	5099.44
387.813	5097.44
388.038	5141.44
388.263	5171.44
388.488	5241.44
388.713	5177.44
388.938	5133.44
389.163	5106.44
389.387	5103.44
389.612	4954.44
389.837	5033.44
390.062	5046.44
390.287	5077.44
390.512	5064.44
390.736	5112.44
390.961	5253.44
391.186	5249.44
391.411	5428.44
391.636	5674.44
391.86	5748.44
392.085	5763.44
392.31	5646.44
392.534	5497.44
392.759	5412.44
392.984	5367.44
393.208	5412.44
393.433	5320.44
393.658	5330.44
393.882	5310.44
394.107	5322.44
394.331	5378.44
394.556	5368.44
394.78	5472.44
395.005	5457.44
395.229	5489.44
395.454	5667.44
395.678	5791.44
395.903	5751.44
396.127	5794.44
396.352	5590.44
396.576	5472.44
396.801	5504.44
397.025	5536.44
397.249	5686.44
397.474	5744.44
397.698	5847.44
397.922	5962.44
398.147	5962.44
398.371	6020.44
398.595	6268.44
398.82	6594.44
399.044	7055.44
399.268	7839.44
399.492	8850.44
399.717	9530.44
399.941	9305.44
400.165	8635.44
400.389	8025.44
400.613	7235.44
400.837	6713.44
401.062	6598.44
401.286	6523.44
401.51	6511.44
401.734	6441.44
401.958	6686.44
402.182	6704.44
402.406	6768.44
402.63	6872.44
402.854	6908.44
403.078	7050.44
403.302	7192.44
403.526	7271.44
403.75	7345.44
403.974	7406.44
404.198	7453.44
404.422	7614.44
404.645	7568.44
404.869	7668.44
405.093	8209.44
405.317	8564.44
405.541	8428.44
405.765	7774.44
405.988	7501.44
406.212	7498.44
406.436	7577.44
406.66	7785.44
406.883	7702.44
407.107	8289.44
407.331	8859.44
407.555	9318.44
407.778	8942.44
408.002	8258.44
408.226	7820.44
408.449	7708.44
408.673	7636.44
408.896	7832.44
409.12	7900.44
409.344	7498.44
409.567	7153.44
409.791	7194.44
410.014	6943.44
410.238	6903.44
410.461	7042.44
410.685	7089.44
410.908	7073.44
411.132	7392.44
411.355	7337.44
411.578	7036.44
411.802	6800.44
412.025	6963.44
412.249	7391.44
412.472	7855.44
412.695	8289.44
412.919	7550.44
413.142	7174.44
413.365	6929.44
413.589	6712.44
413.812	6514.44
414.035	6438.44
414.258	6486.44
414.482	6433.44
414.705	6555.44
414.928	6470.44
415.151	6406.44
415.374	6501.44
415.597	6305.44
415.821	6253.44
416.044	6328.44
416.267	6248.44
416.49	6206.44
416.713	6146.44
416.936	6313.44
417.159	6267.44
417.382	6457.44
417.605	6404.44
417.828	6633.44
418.051	6646.44
418.274	6590.44
418.497	6435.44
418.72	6521.44
418.943	6434.44
419.166	6886.44
419.389	7341.44
419.611	7250.44
419.834	7162.44
420.057	7174.44
420.28	7341.44
420.503	7087.44
420.726	6949.44
420.948	7016.44
421.171	7112.44
421.394	7090.44
421.617	6531.44
421.839	6563.44
422.062	6649.44
422.285	6757.44
422.507	7413.44
422.73	7957.44
422.953	7326.44
423.175	6850.44
423.398	7032.44
423.621	6971.44
423.843	7179.44
424.066	7026.44
424.288	7069.44
424.511	7238.44
424.733	7642.44
424.956	8038.44
425.178	7705.44
425.401	7720.44
425.623	7603.44
425.846	6732.44
426.068	6686.44
426.291	6505.44
426.513	6467.44
426.735	6645.44
426.958	7127.44
427.18	7874.44
427.402	9038.44
427.625	9273.44
427.847	8371.44
428.069	7861.44
428.292	6867.44
428.514	6121.44
428.736	6024.44
428.958	5988.44
429.181	5800.44
429.403	5737.44
429.625	5958.44
429.847	6217.44
430.069	6700.44
430.292	6294.44
430.514	5702.44
430.736	5782.44
430.958	5737.44
431.18	5640.44
431.402	5701.44
431.624	5674.44
431.846	5743.44
432.068	5637.44
432.29	5814.44
432.512	5762.44
432.734	5820.44
432.956	5651.44
433.178	5784.44
433.4	5747.44
433.622	5674.44
433.844	5720.44
434.066	5803.44
434.287	5845.44
434.509	6079.44
434.731	6281.44
434.953	6322.44
435.175	6486.44
435.397	6550.44
435.618	6535.44
435.84	6908.44
436.062	7720.44
436.284	7512.44
436.505	6494.44
436.727	6176.44
436.949	5916.44
437.17	5778.44
437.392	5745.44
437.614	5936.44
437.835	6281.44
438.057	7271.44
438.278	7753.44
438.5	7754.44
438.721	8443.44
438.943	7373.44
439.165	6276.44
439.386	6069.44
439.608	6133.44
439.829	6356.44
440.05	6636.44
440.272	7064.44
440.493	6392.44
440.715	6080.44
440.936	6085.44
441.158	6081.44
441.379	6188.44
441.6	6537.44
441.822	6770.44
442.043	7235.44
442.264	7950.44
442.486	7611.44
442.707	6784.44
442.928	6666.44
443.149	6871.44
443.371	7114.44
443.592	7498.44
443.813	8458.44
444.034	8402.44
444.255	7421.44
444.476	7306.44
444.698	7475.44
444.919	7519.44
445.14	7316.44
445.361	7286.44
445.582	7417.44
445.803	8041.44
446.024	8585.44
446.245	8260.44
446.466	7347.44
446.687	6346.44
446.908	6054.44
447.129	5761.44
447.35	5634.44
447.571	5636.44
447.792	5525.44
448.013	5550.44
448.234	5819.44
448.455	6417.44
448.675	7628.44
448.896	7943.44
449.117	6521.44
449.338	6802.44
449.559	8098.44
449.779	8215.44
450	6338.44
450.221	5708.44
450.442	5490.44
450.662	5416.44
450.883	5556.44
451.104	5664.44
451.324	5408.44
451.545	5274.44
451.766	5192.44
451.986	5079.44
452.207	4973.44
452.428	4992.44
452.648	5044.44
452.869	5074.44
453.089	5077.44
453.31	5201.44
453.53	4994.44
453.751	4939.44
453.971	5088.44
454.192	5160.44
454.412	4970.44
454.633	4958.44
454.853	4904.44
455.073	4947.44
455.294	5290.44
455.514	5794.44
455.734	5305.44
455.955	4767.44
456.175	4644.44
456.395	4618.44
456.616	4684.44
456.836	4658.44
457.056	4613.44
457.276	4605.44
457.497	4764.44
457.717	4713.44
457.937	4750.44
458.157	4820.44
458.377	4972.44
458.598	5334.44
458.818	6003.44
459.038	6826.44
459.258	6662.44
459.478	5962.44
459.698	5859.44
459.918	5828.44
460.138	6049.44
460.358	6230.44
460.578	6313.44
460.798	6335.44
461.018	6372.44
461.238	6226.44
461.458	6217.44
461.678	6170.44
461.898	6362.44
462.118	6419.44
462.338	6682.44
462.558	6902.44
462.777	7097.44
462.997	7689.44
463.217	8164.44
463.437	8035.44
463.657	7309.44
463.876	7195.44
464.096	7162.44
464.316	7158.44
464.536	7233.44
464.755	6981.44
464.975	6870.44
465.195	7082.44
465.414	7138.44
465.634	6244.44
465.854	5901.44
466.073	5733.44
466.293	5476.44
466.512	5322.44
466.732	5230.44
466.951	5269.44
467.171	5267.44
467.391	5394.44
467.61	5438.44
467.829	5552.44
468.049	5900.44
468.268	6210.44
468.488	5621.44
468.707	5276.44
468.927	5142.44
469.146	5067.44
469.365	5146.44
469.585	5178.44
469.804	5374.44
470.023	5505.44
470.243	5563.44
470.462	5675.44
470.681	5693.44
470.901	5617.44
471.12	5557.44
471.339	5434.44
471.558	5398.44
471.777	5428.44
471.997	5536.44
472.216	6784.44
472.435	8776.44
472.654	7164.44
472.873	5922.44
473.092	5603.44
473.311	5392.44
473.53	5285.44
473.749	5361.44
473.968	5879.44
474.187	6809.44
474.406	6276.44
474.625	5358.44
474.844	5127.44
475.063	5083.44
475.282	5062.44
475.501	5175.44
475.72	5231.44
475.939	5248.44
476.158	5235.44
476.377	5247.44
476.596	5270.44
476.814	5370.44
477.033	5431.44
477.252	5454.44
477.471	5664.44
477.69	5733.44
477.908	5784.44
478.127	5953.44
478.346	6044.44
478.564	6137.44
478.783	6255.44
479.002	6396.44
479.22	6449.44
479.439	6538.44
479.658	6737.44
479.876	6708.44
480.095	6882.44
480.313	7496.44
480.532	7459.44
480.751	7450.44
480.969	8710.44
481.188	12628.44
481.406	12452.44
481.624	8817.44
481.843	7563.44
482.061	6968.44
482.28	6658.44
482.498	6474.44
482.717	6312.44
482.935	6220.44
483.153	6159.44
483.372	6086.44
483.59	6106.44
483.808	6096.44
484.027	6086.44
484.245	6180.44
484.463	6140.44
484.681	6272.44
484.9	6233.44
485.118	6227.44
485.336	6387.44
485.554	6414.44
485.772	6381.44
485.99	6422.44
486.209	6501.44
486.427	6479.44
486.645	6540.44
486.863	6703.44
487.081	6617.44
487.299	6513.44
487.517	6482.44
487.735	6499.44
