Data from Circ_2000_H10_HRD10591_00043.txt Node
Date: Wed Jan 03 10:49:42 EST 2024
User: Yrep
Spectrometer: HR+D1059
Trigger mode: 1
Integration Time (sec): 1.000000E-1
Scans to average: 1
Electric dark correction enabled: true
Nonlinearity correction enabled: false
Boxcar width: 0
XAxis mode: Wavelengths
Number of Pixels in Spectrum: 2048
>>>>>Begin Spectral Data<<<<<
223.165	-26.75
223.4	-26.75
223.635	-26.75
223.869	-9.75
224.104	-26.75
224.338	-19.75
224.573	-16.75
224.808	-8.75
225.042	-13.75
225.277	-8.75
225.511	3.25
225.746	-1.75
225.98	20.25
226.215	19.25
226.449	17.25
226.683	18.25
226.918	22.25
227.152	32.25
227.387	35.25
227.621	40.25
227.856	33.25
228.09	59.25
228.324	59.25
228.559	57.25
228.793	57.25
229.027	72.25
229.262	60.25
229.496	75.25
229.73	110.25
229.964	104.25
230.199	71.25
230.433	68.25
230.667	89.25
230.901	66.25
231.136	77.25
231.37	79.25
231.604	80.25
231.838	81.25
232.072	72.25
232.306	70.25
232.541	85.25
232.775	87.25
233.009	87.25
233.243	83.25
233.477	83.25
233.711	92.25
233.945	79.25
234.179	79.25
234.413	83.25
234.647	82.25
234.881	85.25
235.115	87.25
235.349	93.25
235.583	76.25
235.817	90.25
236.051	78.25
236.285	86.25
236.519	78.25
236.753	86.25
236.987	77.25
237.221	86.25
237.455	94.25
237.689	78.25
237.922	79.25
238.156	92.25
238.39	82.25
238.624	72.25
238.858	85.25
239.091	79.25
239.325	76.25
239.559	79.25
239.793	87.25
240.027	96.25
240.26	89.25
240.494	75.25
240.728	75.25
240.961	88.25
241.195	77.25
241.429	71.25
241.662	78.25
241.896	70.25
242.13	83.25
242.363	66.25
242.597	85.25
242.83	78.25
243.064	73.25
243.298	79.25
243.531	78.25
243.765	87.25
243.998	92.25
244.232	92.25
244.465	102.25
244.699	86.25
244.932	70.25
245.166	80.25
245.399	78.25
245.633	85.25
245.866	79.25
246.099	90.25
246.333	85.25
246.566	75.25
246.8	87.25
247.033	75.25
247.266	84.25
247.5	83.25
247.733	84.25
247.966	96.25
248.2	95.25
248.433	93.25
248.666	99.25
248.899	82.25
249.133	77.25
249.366	82.25
249.599	110.25
249.832	100.25
250.066	91.25
250.299	88.25
250.532	92.25
250.765	85.25
250.998	87.25
251.231	85.25
251.465	82.25
251.698	89.25
251.931	86.25
252.164	86.25
252.397	80.25
252.63	74.25
252.863	86.25
253.096	68.25
253.329	88.25
253.562	82.25
253.795	78.25
254.028	82.25
254.261	90.25
254.494	90.25
254.727	88.25
254.96	98.25
255.193	76.25
255.426	98.25
255.659	90.25
255.892	94.25
256.124	95.25
256.357	77.25
256.59	77.25
256.823	92.25
257.056	82.25
257.289	92.25
257.521	86.25
257.754	77.25
257.987	88.25
258.22	85.25
258.452	91.25
258.685	89.25
258.918	88.25
259.151	94.25
259.383	79.25
259.616	78.25
259.849	82.25
260.081	89.25
260.314	101.25
260.547	97.25
260.779	99.25
261.012	93.25
261.244	92.25
261.477	94.25
261.71	91.25
261.942	117.25
262.175	128.25
262.407	104.25
262.64	79.25
262.872	76.25
263.105	90.25
263.337	95.25
263.57	88.25
263.802	77.25
264.035	90.25
264.267	76.25
264.499	77.25
264.732	82.25
264.964	82.25
265.197	82.25
265.429	77.25
265.661	79.25
265.894	95.25
266.126	91.25
266.358	88.25
266.591	76.25
266.823	77.25
267.055	75.25
267.287	81.25
267.52	87.25
267.752	89.25
267.984	85.25
268.216	95.25
268.448	93.25
268.681	87.25
268.913	85.25
269.145	82.25
269.377	82.25
269.609	91.25
269.841	88.25
270.073	84.25
270.306	82.25
270.538	79.25
270.77	76.25
271.002	79.25
271.234	83.25
271.466	88.25
271.698	90.25
271.93	95.25
272.162	84.25
272.394	82.25
272.626	94.25
272.858	89.25
273.09	84.25
273.322	80.25
273.553	78.25
273.785	77.25
274.017	95.25
274.249	85.25
274.481	86.25
274.713	90.25
274.945	111.25
275.176	88.25
275.408	93.25
275.64	109.25
275.872	96.25
276.104	87.25
276.335	104.25
276.567	111.25
276.799	148.25
277.031	120.25
277.262	135.25
277.494	111.25
277.726	92.25
277.957	96.25
278.189	83.25
278.421	95.25
278.652	84.25
278.884	94.25
279.115	86.25
279.347	77.25
279.579	84.25
279.81	109.25
280.042	137.25
280.273	150.25
280.505	114.25
280.736	102.25
280.968	109.25
281.199	96.25
281.431	95.25
281.662	96.25
281.894	87.25
282.125	93.25
282.356	134.25
282.588	156.25
282.819	120.25
283.051	106.25
283.282	82.25
283.513	99.25
283.745	76.25
283.976	89.25
284.207	91.25
284.439	98.25
284.67	88.25
284.901	95.25
285.132	92.25
285.364	81.25
285.595	95.25
285.826	88.25
286.057	82.25
286.288	89.25
286.52	88.25
286.751	106.25
286.982	85.25
287.213	81.25
287.444	91.25
287.675	80.25
287.906	104.25
288.138	92.25
288.369	91.25
288.6	103.25
288.831	94.25
289.062	98.25
289.293	92.25
289.524	95.25
289.755	97.25
289.986	97.25
290.217	107.25
290.448	88.25
290.679	84.25
290.91	92.25
291.141	86.25
291.371	98.25
291.602	96.25
291.833	99.25
292.064	93.25
292.295	91.25
292.526	88.25
292.757	107.25
292.987	88.25
293.218	80.25
293.449	77.25
293.68	83.25
293.91	91.25
294.141	98.25
294.372	97.25
294.603	78.25
294.833	95.25
295.064	96.25
295.295	87.25
295.525	94.25
295.756	105.25
295.987	120.25
296.217	153.25
296.448	131.25
296.679	83.25
296.909	84.25
297.14	90.25
297.37	90.25
297.601	89.25
297.831	93.25
298.062	89.25
298.292	94.25
298.523	106.25
298.753	95.25
298.984	105.25
299.214	98.25
299.445	82.25
299.675	88.25
299.905	112.25
300.136	90.25
300.366	90.25
300.597	107.25
300.827	105.25
301.057	123.25
301.288	110.25
301.518	102.25
301.748	95.25
301.979	99.25
302.209	110.25
302.439	102.25
302.669	104.25
302.9	83.25
303.13	95.25
303.36	103.25
303.59	109.25
303.82	119.25
304.051	92.25
304.281	103.25
304.511	93.25
304.741	94.25
304.971	81.25
305.201	95.25
305.431	91.25
305.661	97.25
305.891	87.25
306.121	102.25
306.352	119.25
306.582	120.25
306.812	106.25
307.042	102.25
307.272	109.25
307.502	133.25
307.731	122.25
307.961	112.25
308.191	99.25
308.421	102.25
308.651	93.25
308.881	82.25
309.111	93.25
309.341	81.25
309.571	89.25
309.8	96.25
310.03	102.25
310.26	91.25
310.49	101.25
310.72	104.25
310.949	116.25
311.179	97.25
311.409	85.25
311.639	97.25
311.868	100.25
312.098	103.25
312.328	95.25
312.557	111.25
312.787	101.25
313.017	93.25
313.246	100.25
313.476	99.25
313.706	88.25
313.935	91.25
314.165	104.25
314.394	103.25
314.624	105.25
314.853	114.25
315.083	96.25
315.312	95.25
315.542	92.25
315.771	79.25
316.001	104.25
316.23	94.25
316.46	82.25
316.689	106.25
316.919	95.25
317.148	94.25
317.377	102.25
317.607	99.25
317.836	90.25
318.065	102.25
318.295	101.25
318.524	96.25
318.753	101.25
318.983	101.25
319.212	110.25
319.441	113.25
319.67	117.25
319.9	89.25
320.129	100.25
320.358	87.25
320.587	102.25
320.816	99.25
321.046	116.25
321.275	99.25
321.504	91.25
321.733	100.25
321.962	94.25
322.191	98.25
322.42	114.25
322.649	109.25
322.878	123.25
323.108	125.25
323.337	127.25
323.566	148.25
323.795	178.25
324.024	237.25
324.253	469.25
324.482	1030.25
324.71	2108.25
324.939	2820.25
325.168	1002.25
325.397	270.25
325.626	152.25
325.855	146.25
326.084	136.25
326.313	142.25
326.542	202.25
326.77	267.25
326.999	548.25
327.228	1125.25
327.457	2092.25
327.686	1686.25
327.914	525.25
328.143	354.25
328.372	362.25
328.6	224.25
328.829	170.25
329.058	161.25
329.287	149.25
329.515	132.25
329.744	180.25
329.972	278.25
330.201	496.25
330.43	694.25
330.658	354.25
330.887	231.25
331.115	149.25
331.344	116.25
331.572	115.25
331.801	107.25
332.03	121.25
332.258	113.25
332.486	94.25
332.715	100.25
332.943	109.25
333.172	104.25
333.4	126.25
333.629	128.25
333.857	167.25
334.085	269.25
334.314	494.25
334.542	873.25
334.771	837.25
334.999	252.25
335.227	134.25
335.455	120.25
335.684	120.25
335.912	112.25
336.14	107.25
336.369	109.25
336.597	98.25
336.825	114.25
337.053	106.25
337.281	88.25
337.51	96.25
337.738	102.25
337.966	99.25
338.194	94.25
338.422	107.25
338.65	95.25
338.878	98.25
339.106	94.25
339.334	69.25
339.562	85.25
339.79	93.25
340.018	88.25
340.246	99.25
340.474	87.25
340.702	96.25
340.93	92.25
341.158	91.25
341.386	102.25
341.614	107.25
341.842	92.25
342.07	93.25
342.298	104.25
342.526	101.25
342.754	90.25
342.981	84.25
343.209	94.25
343.437	106.25
343.665	87.25
343.893	90.25
344.12	101.25
344.348	89.25
344.576	97.25
344.804	104.25
345.031	101.25
345.259	115.25
345.487	101.25
345.714	100.25
345.942	85.25
346.17	96.25
346.397	115.25
346.625	102.25
346.853	92.25
347.08	84.25
347.308	98.25
347.535	99.25
347.763	107.25
347.99	95.25
348.218	112.25
348.445	112.25
348.673	96.25
348.9	100.25
349.128	84.25
349.355	108.25
349.583	94.25
349.81	90.25
350.037	105.25
350.265	111.25
350.492	115.25
350.72	116.25
350.947	102.25
351.174	107.25
351.402	103.25
351.629	111.25
351.856	122.25
352.083	126.25
352.311	101.25
352.538	117.25
352.765	116.25
352.992	132.25
353.22	111.25
353.447	109.25
353.674	115.25
353.901	93.25
354.128	88.25
354.355	101.25
354.583	92.25
354.81	98.25
355.037	116.25
355.264	104.25
355.491	98.25
355.718	90.25
355.945	87.25
356.172	82.25
356.399	110.25
356.626	102.25
356.853	87.25
357.08	97.25
357.307	101.25
357.534	105.25
357.761	88.25
357.988	98.25
358.215	95.25
358.441	110.25
358.668	93.25
358.895	99.25
359.122	76.25
359.349	82.25
359.576	109.25
359.802	122.25
360.029	128.25
360.256	135.25
360.483	120.25
360.709	83.25
360.936	95.25
361.163	93.25
361.39	106.25
361.616	101.25
361.843	79.25
362.07	114.25
362.296	105.25
362.523	98.25
362.749	89.25
362.976	90.25
363.203	95.25
363.429	88.25
363.656	87.25
363.882	89.25
364.109	92.25
364.335	94.25
364.562	107.25
364.788	114.25
365.015	99.25
365.241	87.25
365.468	119.25
365.694	108.25
365.92	112.25
366.147	92.25
366.373	90.25
366.599	97.25
366.826	99.25
367.052	93.25
367.278	90.25
367.505	98.25
367.731	95.25
367.957	98.25
368.184	91.25
368.41	108.25
368.636	119.25
368.862	116.25
369.089	111.25
369.315	104.25
369.541	91.25
369.767	82.25
369.993	104.25
370.219	82.25
370.445	80.25
370.672	81.25
370.898	89.25
371.124	107.25
371.35	92.25
371.576	84.25
371.802	86.25
372.028	90.25
372.254	100.25
372.48	98.25
372.706	92.25
372.932	85.25
373.158	84.25
373.384	88.25
373.61	96.25
373.835	88.25
374.061	98.25
374.287	92.25
374.513	92.25
374.739	91.25
374.965	95.25
375.191	83.25
375.416	81.25
375.642	78.25
375.868	90.25
376.094	95.25
376.319	89.25
376.545	87.25
376.771	84.25
376.997	83.25
377.222	101.25
377.448	86.25
377.674	82.25
377.899	111.25
378.125	80.25
378.35	92.25
378.576	104.25
378.802	92.25
379.027	104.25
379.253	100.25
379.478	86.25
379.704	96.25
379.929	94.25
380.155	75.25
380.38	104.25
380.606	108.25
380.831	83.25
381.057	100.25
381.282	98.25
381.507	100.25
381.733	111.25
381.958	81.25
382.184	116.25
382.409	100.25
382.634	112.25
382.86	105.25
383.085	117.25
383.31	96.25
383.535	87.25
383.761	91.25
383.986	107.25
384.211	95.25
384.436	87.25
384.662	109.25
384.887	110.25
385.112	97.25
385.337	101.25
385.562	116.25
385.787	111.25
386.013	120.25
386.238	107.25
386.463	109.25
386.688	123.25
386.913	108.25
387.138	115.25
387.363	94.25
387.588	109.25
387.813	99.25
388.038	101.25
388.263	125.25
388.488	98.25
388.713	103.25
388.938	96.25
389.163	92.25
389.387	106.25
389.612	101.25
389.837	89.25
390.062	93.25
390.287	90.25
390.512	83.25
390.736	97.25
390.961	90.25
391.186	98.25
391.411	96.25
391.636	100.25
391.86	88.25
392.085	94.25
392.31	86.25
392.534	88.25
392.759	82.25
392.984	89.25
393.208	79.25
393.433	84.25
393.658	90.25
393.882	82.25
394.107	84.25
394.331	109.25
394.556	94.25
394.78	82.25
395.005	95.25
395.229	91.25
395.454	96.25
395.678	78.25
395.903	89.25
396.127	90.25
396.352	87.25
396.576	98.25
396.801	87.25
397.025	93.25
397.249	100.25
397.474	95.25
397.698	91.25
397.922	102.25
398.147	84.25
398.371	91.25
398.595	100.25
398.82	79.25
399.044	82.25
399.268	82.25
399.492	82.25
399.717	93.25
399.941	83.25
400.165	96.25
400.389	94.25
400.613	76.25
400.837	87.25
401.062	90.25
401.286	104.25
401.51	94.25
401.734	110.25
401.958	101.25
402.182	150.25
402.406	187.25
402.63	126.25
402.854	96.25
403.078	92.25
403.302	96.25
403.526	106.25
403.75	108.25
403.974	95.25
404.198	79.25
404.422	89.25
404.645	89.25
404.869	90.25
405.093	114.25
405.317	128.25
405.541	133.25
405.765	101.25
405.988	121.25
406.212	202.25
406.436	281.25
406.66	178.25
406.883	117.25
407.107	107.25
407.331	101.25
407.555	120.25
407.778	116.25
408.002	95.25
408.226	96.25
408.449	94.25
408.673	96.25
408.896	100.25
409.12	116.25
409.344	103.25
409.567	108.25
409.791	85.25
410.014	92.25
410.238	87.25
410.461	92.25
410.685	91.25
410.908	79.25
411.132	106.25
411.355	105.25
411.578	88.25
411.802	96.25
412.025	95.25
412.249	105.25
412.472	124.25
412.695	124.25
412.919	102.25
413.142	111.25
413.365	95.25
413.589	97.25
413.812	88.25
414.035	89.25
414.258	98.25
414.482	95.25
414.705	94.25
414.928	87.25
415.151	96.25
415.374	87.25
415.597	90.25
415.821	102.25
416.044	81.25
416.267	95.25
416.49	89.25
416.713	87.25
416.936	86.25
417.159	105.25
417.382	93.25
417.605	106.25
417.828	103.25
418.051	86.25
418.274	96.25
418.497	101.25
418.72	79.25
418.943	95.25
419.166	97.25
419.389	88.25
419.611	107.25
419.834	93.25
420.057	87.25
420.28	90.25
420.503	89.25
420.726	99.25
420.948	94.25
421.171	89.25
421.394	90.25
421.617	99.25
421.839	92.25
422.062	82.25
422.285	95.25
422.507	92.25
422.73	111.25
422.953	95.25
423.175	84.25
423.398	95.25
423.621	106.25
423.843	76.25
424.066	93.25
424.288	80.25
424.511	93.25
424.733	109.25
424.956	114.25
425.178	110.25
425.401	108.25
425.623	105.25
425.846	109.25
426.068	95.25
426.291	91.25
426.513	91.25
426.735	91.25
426.958	102.25
427.18	116.25
427.402	166.25
427.625	221.25
427.847	211.25
428.069	167.25
428.292	122.25
428.514	92.25
428.736	104.25
428.958	100.25
429.181	101.25
429.403	85.25
429.625	86.25
429.847	99.25
430.069	111.25
430.292	106.25
430.514	97.25
430.736	76.25
430.958	86.25
431.18	92.25
431.402	101.25
431.624	92.25
431.846	96.25
432.068	105.25
432.29	108.25
432.512	95.25
432.734	96.25
432.956	80.25
433.178	94.25
433.4	106.25
433.622	101.25
433.844	97.25
434.066	107.25
434.287	86.25
434.509	83.25
434.731	90.25
434.953	88.25
435.175	104.25
435.397	101.25
435.618	104.25
435.84	121.25
436.062	143.25
436.284	125.25
436.505	108.25
436.727	106.25
436.949	107.25
437.17	79.25
437.392	93.25
437.614	100.25
437.835	126.25
438.057	132.25
438.278	120.25
438.5	115.25
438.721	131.25
438.943	100.25
439.165	89.25
439.386	93.25
439.608	95.25
439.829	110.25
440.05	148.25
440.272	191.25
440.493	113.25
440.715	107.25
440.936	86.25
441.158	90.25
441.379	93.25
441.6	106.25
441.822	102.25
442.043	119.25
442.264	120.25
442.486	106.25
442.707	100.25
442.928	107.25
443.149	142.25
443.371	179.25
443.592	114.25
443.813	120.25
444.034	123.25
444.255	97.25
444.476	90.25
444.698	84.25
444.919	87.25
445.14	127.25
445.361	137.25
445.582	118.25
445.803	162.25
446.024	152.25
446.245	164.25
446.466	110.25
446.687	95.25
446.908	89.25
447.129	89.25
447.35	101.25
447.571	104.25
447.792	104.25
448.013	108.25
448.234	123.25
448.455	111.25
448.675	127.25
448.896	131.25
449.117	116.25
449.338	108.25
449.559	141.25
449.779	146.25
450	95.25
450.221	93.25
450.442	95.25
450.662	98.25
450.883	123.25
451.104	135.25
451.324	95.25
451.545	94.25
451.766	92.25
451.986	78.25
452.207	91.25
452.428	80.25
452.648	110.25
452.869	117.25
453.089	120.25
453.31	124.25
453.53	91.25
453.751	105.25
453.971	115.25
454.192	132.25
454.412	104.25
454.633	99.25
454.853	91.25
455.073	103.25
455.294	108.25
455.514	99.25
455.734	80.25
455.955	98.25
456.175	78.25
456.395	83.25
456.616	87.25
456.836	87.25
457.056	96.25
457.276	91.25
457.497	82.25
457.717	104.25
457.937	88.25
458.157	96.25
458.377	100.25
458.598	119.25
458.818	175.25
459.038	208.25
459.258	136.25
459.478	104.25
459.698	86.25
459.918	69.25
460.138	90.25
460.358	80.25
460.578	94.25
460.798	96.25
461.018	114.25
461.238	84.25
461.458	90.25
461.678	70.25
461.898	74.25
462.118	99.25
462.338	83.25
462.558	91.25
462.777	84.25
462.997	87.25
463.217	95.25
463.437	84.25
463.657	79.25
463.876	91.25
464.096	108.25
464.316	104.25
464.536	104.25
464.755	115.25
464.975	123.25
465.195	200.25
465.414	200.25
465.634	111.25
465.854	106.25
466.073	95.25
466.293	86.25
466.512	94.25
466.732	95.25
466.951	86.25
467.171	101.25
467.391	117.25
467.61	140.25
467.829	140.25
468.049	289.25
468.268	418.25
468.488	135.25
468.707	94.25
468.927	103.25
469.146	104.25
469.365	76.25
469.585	86.25
469.804	108.25
470.023	104.25
470.243	93.25
470.462	109.25
470.681	123.25
470.901	107.25
471.12	100.25
471.339	86.25
471.558	96.25
471.777	117.25
471.997	182.25
472.216	538.25
472.435	1138.25
472.654	313.25
472.873	101.25
473.092	97.25
473.311	84.25
473.53	84.25
473.749	96.25
473.968	99.25
474.187	116.25
474.406	103.25
474.625	90.25
474.844	100.25
475.063	92.25
475.282	86.25
475.501	98.25
475.72	102.25
475.939	106.25
476.158	99.25
476.377	87.25
476.596	93.25
476.814	88.25
477.033	101.25
477.252	92.25
477.471	93.25
477.69	104.25
477.908	120.25
478.127	120.25
478.346	89.25
478.564	86.25
478.783	96.25
479.002	96.25
479.22	102.25
479.439	107.25
479.658	131.25
479.876	125.25
480.095	114.25
480.313	124.25
480.532	137.25
480.751	185.25
480.969	500.25
481.188	2023.25
481.406	1166.25
481.624	220.25
481.843	118.25
482.061	92.25
482.28	94.25
482.498	98.25
482.717	83.25
482.935	112.25
483.153	76.25
483.372	93.25
483.59	91.25
483.808	102.25
484.027	93.25
484.245	83.25
484.463	90.25
484.681	95.25
484.9	85.25
485.118	91.25
485.336	99.25
485.554	84.25
485.772	100.25
485.99	104.25
486.209	100.25
486.427	96.25
486.645	114.25
486.863	111.25
487.081	101.25
487.299	107.25
487.517	108.25
487.735	93.25
487.953	90.25
488.171	97.25
488.389	92.25
488.607	103.25
488.825	95.25
489.043	92.25
489.261	100.25
489.479	74.25
489.696	90.25
489.914	77.25
490.132	70.25
490.35	102.25
490.568	107.25
490.786	92.25
491.003	97.25
491.221	106.25
491.439	110.25
491.657	105.25
491.874	90.25
492.092	88.25
492.31	92.25
492.527	103.25
492.745	94.25
492.963	95.25
493.18	107.25
493.398	92.25
493.615	94.25
493.833	111.25
494.05	100.25
494.268	100.25
494.485	95.25
494.703	90.25
494.92	93.25
495.138	82.25
495.355	95.25
495.573	93.25
495.79	90.25
496.008	103.25
496.225	94.25
496.442	91.25
496.66	96.25
496.877	91.25
497.094	89.25
497.312	99.25
497.529	86.25
497.746	90.25
497.963	89.25
498.181	91.25
498.398	93.25
498.615	122.25
498.832	118.25
499.049	96.25
499.267	99.25
499.484	85.25
499.701	96.25
499.918	107.25
500.135	86.25
500.352	94.25
500.569	95.25
500.786	103.25
501.003	103.25
501.22	99.25
501.437	95.25
501.654	109.25
501.871	122.25
502.088	98.25
502.305	92.25
502.522	92.25
502.739	105.25
502.956	97.25
503.172	91.25
503.389	100.25
503.606	123.25
503.823	109.25
504.04	101.25
504.256	96.25
504.473	98.25
504.69	98.25
504.907	108.25
505.123	103.25
505.34	107.25
505.557	94.25
505.773	104.25
505.99	99.25
506.207	103.25
506.423	102.25
506.64	72.25
506.856	90.25
507.073	104.25
507.289	104.25
507.506	98.25
507.722	125.25
507.939	131.25
508.155	101.25
508.372	86.25
508.588	100.25
508.805	87.25
509.021	96.25
509.238	97.25
509.454	122.25
509.67	90.25
509.887	108.25
510.103	148.25
510.319	238.25
510.536	884.25
510.752	2982.25
510.968	810.25
511.184	175.25
511.401	117.25
511.617	105.25
511.833	109.25
512.049	120.25
512.265	103.25
512.481	106.25
512.698	98.25
