Data from Circ_2000_H10_HRD10591_00030.txt Node
Date: Wed Jan 03 10:49:39 EST 2024
User: Yrep
Spectrometer: HR+D1059
Trigger mode: 1
Integration Time (sec): 1.000000E-1
Scans to average: 1
Electric dark correction enabled: true
Nonlinearity correction enabled: false
Boxcar width: 0
XAxis mode: Wavelengths
Number of Pixels in Spectrum: 2048
>>>>>Begin Spectral Data<<<<<
223.165	-6.25
223.4	-6.25
223.635	-6.25
223.869	-18.25
224.104	-34.25
224.338	-19.25
224.573	-23.25
224.808	-10.25
225.042	-4.25
225.277	-1.25
225.511	-1.25
225.746	4.75
225.98	9.75
226.215	17.75
226.449	6.75
226.683	19.75
226.918	29.75
227.152	29.75
227.387	32.75
227.621	40.75
227.856	46.75
228.09	42.75
228.324	59.75
228.559	60.75
228.793	51.75
229.027	72.75
229.262	80.75
229.496	98.75
229.73	88.75
229.964	73.75
230.199	58.75
230.433	92.75
230.667	70.75
230.901	72.75
231.136	82.75
231.37	84.75
231.604	77.75
231.838	77.75
232.072	80.75
232.306	71.75
232.541	83.75
232.775	87.75
233.009	77.75
233.243	76.75
233.477	91.75
233.711	83.75
233.945	92.75
234.179	85.75
234.413	97.75
234.647	82.75
234.881	71.75
235.115	75.75
235.349	74.75
235.583	81.75
235.817	76.75
236.051	64.75
236.285	71.75
236.519	76.75
236.753	85.75
236.987	81.75
237.221	83.75
237.455	76.75
237.689	86.75
237.922	75.75
238.156	78.75
238.39	78.75
238.624	75.75
238.858	84.75
239.091	74.75
239.325	75.75
239.559	72.75
239.793	90.75
240.027	67.75
240.26	70.75
240.494	86.75
240.728	74.75
240.961	81.75
241.195	78.75
241.429	72.75
241.662	85.75
241.896	82.75
242.13	79.75
242.363	81.75
242.597	80.75
242.83	69.75
243.064	75.75
243.298	85.75
243.531	77.75
243.765	84.75
243.998	72.75
244.232	85.75
244.465	83.75
244.699	75.75
244.932	79.75
245.166	78.75
245.399	80.75
245.633	67.75
245.866	84.75
246.099	71.75
246.333	89.75
246.566	85.75
246.8	82.75
247.033	75.75
247.266	72.75
247.5	78.75
247.733	84.75
247.966	75.75
248.2	73.75
248.433	80.75
248.666	74.75
248.899	84.75
249.133	95.75
249.366	95.75
249.599	94.75
249.832	86.75
250.066	81.75
250.299	86.75
250.532	69.75
250.765	79.75
250.998	91.75
251.231	77.75
251.465	78.75
251.698	74.75
251.931	90.75
252.164	81.75
252.397	77.75
252.63	78.75
252.863	82.75
253.096	64.75
253.329	82.75
253.562	85.75
253.795	77.75
254.028	96.75
254.261	78.75
254.494	75.75
254.727	85.75
254.96	81.75
255.193	82.75
255.426	67.75
255.659	85.75
255.892	86.75
256.124	76.75
256.357	90.75
256.59	90.75
256.823	83.75
257.056	79.75
257.289	78.75
257.521	84.75
257.754	76.75
257.987	75.75
258.22	79.75
258.452	86.75
258.685	82.75
258.918	79.75
259.151	93.75
259.383	89.75
259.616	79.75
259.849	83.75
260.081	79.75
260.314	79.75
260.547	77.75
260.779	83.75
261.012	95.75
261.244	87.75
261.477	104.75
261.71	89.75
261.942	108.75
262.175	112.75
262.407	80.75
262.64	86.75
262.872	74.75
263.105	79.75
263.337	84.75
263.57	91.75
263.802	90.75
264.035	78.75
264.267	83.75
264.499	71.75
264.732	84.75
264.964	86.75
265.197	72.75
265.429	93.75
265.661	81.75
265.894	81.75
266.126	83.75
266.358	101.75
266.591	75.75
266.823	71.75
267.055	80.75
267.287	83.75
267.52	82.75
267.752	78.75
267.984	85.75
268.216	79.75
268.448	80.75
268.681	87.75
268.913	83.75
269.145	85.75
269.377	77.75
269.609	75.75
269.841	84.75
270.073	86.75
270.306	92.75
270.538	72.75
270.77	77.75
271.002	88.75
271.234	89.75
271.466	95.75
271.698	83.75
271.93	86.75
272.162	87.75
272.394	83.75
272.626	96.75
272.858	66.75
273.09	99.75
273.322	92.75
273.553	86.75
273.785	90.75
274.017	95.75
274.249	62.75
274.481	90.75
274.713	91.75
274.945	94.75
275.176	98.75
275.408	91.75
275.64	90.75
275.872	86.75
276.104	93.75
276.335	83.75
276.567	92.75
276.799	122.75
277.031	118.75
277.262	96.75
277.494	92.75
277.726	89.75
277.957	89.75
278.189	98.75
278.421	82.75
278.652	105.75
278.884	90.75
279.115	85.75
279.347	99.75
279.579	71.75
279.81	100.75
280.042	103.75
280.273	119.75
280.505	98.75
280.736	87.75
280.968	84.75
281.199	86.75
281.431	72.75
281.662	95.75
281.894	94.75
282.125	87.75
282.356	120.75
282.588	134.75
282.819	127.75
283.051	89.75
283.282	112.75
283.513	88.75
283.745	97.75
283.976	103.75
284.207	95.75
284.439	99.75
284.67	88.75
284.901	97.75
285.132	86.75
285.364	88.75
285.595	85.75
285.826	88.75
286.057	90.75
286.288	80.75
286.52	83.75
286.751	90.75
286.982	89.75
287.213	79.75
287.444	99.75
287.675	100.75
287.906	94.75
288.138	89.75
288.369	89.75
288.6	96.75
288.831	70.75
289.062	85.75
289.293	87.75
289.524	82.75
289.755	76.75
289.986	91.75
290.217	99.75
290.448	89.75
290.679	93.75
290.91	84.75
291.141	83.75
291.371	86.75
291.602	77.75
291.833	94.75
292.064	86.75
292.295	76.75
292.526	79.75
292.757	86.75
292.987	86.75
293.218	75.75
293.449	78.75
293.68	100.75
293.91	83.75
294.141	86.75
294.372	93.75
294.603	91.75
294.833	89.75
295.064	85.75
295.295	92.75
295.525	100.75
295.756	110.75
295.987	107.75
296.217	137.75
296.448	121.75
296.679	88.75
296.909	47.75
297.14	90.75
297.37	86.75
297.601	88.75
297.831	88.75
298.062	80.75
298.292	88.75
298.523	87.75
298.753	76.75
298.984	81.75
299.214	75.75
299.445	86.75
299.675	77.75
299.905	95.75
300.136	93.75
300.366	79.75
300.597	83.75
300.827	107.75
301.057	96.75
301.288	100.75
301.518	102.75
301.748	91.75
301.979	101.75
302.209	79.75
302.439	81.75
302.669	86.75
302.9	84.75
303.13	90.75
303.36	97.75
303.59	101.75
303.82	119.75
304.051	106.75
304.281	99.75
304.511	113.75
304.741	85.75
304.971	100.75
305.201	77.75
305.431	75.75
305.661	72.75
305.891	88.75
306.121	101.75
306.352	101.75
306.582	98.75
306.812	89.75
307.042	97.75
307.272	99.75
307.502	94.75
307.731	114.75
307.961	100.75
308.191	75.75
308.421	76.75
308.651	90.75
308.881	92.75
309.111	86.75
309.341	83.75
309.571	100.75
309.8	94.75
310.03	97.75
310.26	102.75
310.49	95.75
310.72	100.75
310.949	93.75
311.179	106.75
311.409	83.75
311.639	100.75
311.868	106.75
312.098	94.75
312.328	97.75
312.557	109.75
312.787	115.75
313.017	102.75
313.246	101.75
313.476	90.75
313.706	100.75
313.935	86.75
314.165	98.75
314.394	89.75
314.624	98.75
314.853	83.75
315.083	77.75
315.312	94.75
315.542	93.75
315.771	89.75
316.001	84.75
316.23	108.75
316.46	89.75
316.689	95.75
316.919	103.75
317.148	97.75
317.377	94.75
317.607	93.75
317.836	102.75
318.065	95.75
318.295	93.75
318.524	95.75
318.753	78.75
318.983	102.75
319.212	113.75
319.441	97.75
319.67	100.75
319.9	97.75
320.129	103.75
320.358	96.75
320.587	98.75
320.816	87.75
321.046	113.75
321.275	84.75
321.504	78.75
321.733	94.75
321.962	96.75
322.191	99.75
322.42	95.75
322.649	100.75
322.878	101.75
323.108	123.75
323.337	126.75
323.566	132.75
323.795	153.75
324.024	203.75
324.253	354.75
324.482	789.75
324.71	1597.75
324.939	2096.75
325.168	777.75
325.397	249.75
325.626	145.75
325.855	126.75
326.084	127.75
326.313	125.75
326.542	163.75
326.77	219.75
326.999	444.75
327.228	873.75
327.457	1610.75
327.686	1334.75
327.914	374.75
328.143	255.75
328.372	257.75
328.6	185.75
328.829	126.75
329.058	141.75
329.287	138.75
329.515	124.75
329.744	138.75
329.972	204.75
330.201	287.75
330.43	385.75
330.658	229.75
330.887	153.75
331.115	126.75
331.344	92.75
331.572	105.75
331.801	98.75
332.03	101.75
332.258	114.75
332.486	95.75
332.715	90.75
332.943	98.75
333.172	103.75
333.4	99.75
333.629	121.75
333.857	137.75
334.085	185.75
334.314	259.75
334.542	476.75
334.771	478.75
334.999	166.75
335.227	114.75
335.455	101.75
335.684	95.75
335.912	98.75
336.14	91.75
336.369	110.75
336.597	109.75
336.825	109.75
337.053	99.75
337.281	106.75
337.51	101.75
337.738	83.75
337.966	101.75
338.194	101.75
338.422	107.75
338.65	106.75
338.878	89.75
339.106	96.75
339.334	108.75
339.562	94.75
339.79	101.75
340.018	94.75
340.246	90.75
340.474	100.75
340.702	103.75
340.93	97.75
341.158	89.75
341.386	91.75
341.614	93.75
341.842	93.75
342.07	95.75
342.298	100.75
342.526	94.75
342.754	100.75
342.981	82.75
343.209	93.75
343.437	113.75
343.665	85.75
343.893	103.75
344.12	94.75
344.348	88.75
344.576	86.75
344.804	93.75
345.031	97.75
345.259	106.75
345.487	89.75
345.714	92.75
345.942	82.75
346.17	90.75
346.397	98.75
346.625	97.75
346.853	90.75
347.08	105.75
347.308	100.75
347.535	98.75
347.763	90.75
347.99	109.75
348.218	100.75
348.445	106.75
348.673	85.75
348.9	109.75
349.128	91.75
349.355	87.75
349.583	89.75
349.81	89.75
350.037	106.75
350.265	94.75
350.492	92.75
350.72	87.75
350.947	98.75
351.174	95.75
351.402	98.75
351.629	107.75
351.856	108.75
352.083	85.75
352.311	111.75
352.538	114.75
352.765	116.75
352.992	110.75
353.22	116.75
353.447	110.75
353.674	106.75
353.901	102.75
354.128	83.75
354.355	100.75
354.583	99.75
354.81	84.75
355.037	91.75
355.264	84.75
355.491	86.75
355.718	79.75
355.945	87.75
356.172	97.75
356.399	106.75
356.626	93.75
356.853	85.75
357.08	86.75
357.307	110.75
357.534	78.75
357.761	96.75
357.988	101.75
358.215	110.75
358.441	72.75
358.668	93.75
358.895	87.75
359.122	91.75
359.349	82.75
359.576	101.75
359.802	111.75
360.029	105.75
360.256	116.75
360.483	110.75
360.709	98.75
360.936	104.75
361.163	95.75
361.39	80.75
361.616	77.75
361.843	91.75
362.07	85.75
362.296	103.75
362.523	87.75
362.749	95.75
362.976	91.75
363.203	93.75
363.429	108.75
363.656	94.75
363.882	103.75
364.109	87.75
364.335	78.75
364.562	99.75
364.788	100.75
365.015	92.75
365.241	112.75
365.468	105.75
365.694	113.75
365.92	102.75
366.147	93.75
366.373	77.75
366.599	95.75
366.826	89.75
367.052	89.75
367.278	90.75
367.505	96.75
367.731	90.75
367.957	85.75
368.184	87.75
368.41	88.75
368.636	92.75
368.862	105.75
369.089	101.75
369.315	94.75
369.541	93.75
369.767	89.75
369.993	90.75
370.219	84.75
370.445	89.75
370.672	85.75
370.898	81.75
371.124	102.75
371.35	90.75
371.576	81.75
371.802	102.75
372.028	89.75
372.254	101.75
372.48	86.75
372.706	89.75
372.932	99.75
373.158	79.75
373.384	93.75
373.61	81.75
373.835	87.75
374.061	84.75
374.287	76.75
374.513	74.75
374.739	89.75
374.965	90.75
375.191	81.75
375.416	94.75
375.642	86.75
375.868	76.75
376.094	93.75
376.319	91.75
376.545	82.75
376.771	83.75
376.997	82.75
377.222	94.75
377.448	100.75
377.674	82.75
377.899	92.75
378.125	96.75
378.35	90.75
378.576	82.75
378.802	94.75
379.027	92.75
379.253	86.75
379.478	87.75
379.704	87.75
379.929	94.75
380.155	95.75
380.38	93.75
380.606	82.75
380.831	97.75
381.057	113.75
381.282	98.75
381.507	93.75
381.733	94.75
381.958	97.75
382.184	106.75
382.409	93.75
382.634	106.75
382.86	111.75
383.085	100.75
383.31	99.75
383.535	98.75
383.761	118.75
383.986	92.75
384.211	103.75
384.436	109.75
384.662	112.75
384.887	114.75
385.112	105.75
385.337	119.75
385.562	105.75
385.787	110.75
386.013	108.75
386.238	113.75
386.463	125.75
386.688	110.75
386.913	112.75
387.138	117.75
387.363	111.75
387.588	106.75
387.813	103.75
388.038	106.75
388.263	120.75
388.488	112.75
388.713	95.75
388.938	94.75
389.163	98.75
389.387	99.75
389.612	78.75
389.837	97.75
390.062	112.75
390.287	85.75
390.512	95.75
390.736	99.75
390.961	75.75
391.186	104.75
391.411	77.75
391.636	97.75
391.86	101.75
392.085	95.75
392.31	90.75
392.534	101.75
392.759	75.75
392.984	85.75
393.208	87.75
393.433	95.75
393.658	87.75
393.882	93.75
394.107	85.75
394.331	98.75
394.556	80.75
394.78	79.75
395.005	85.75
395.229	95.75
395.454	97.75
395.678	100.75
395.903	89.75
396.127	90.75
396.352	78.75
396.576	94.75
396.801	91.75
397.025	83.75
397.249	90.75
397.474	89.75
397.698	84.75
397.922	91.75
398.147	94.75
398.371	78.75
398.595	98.75
398.82	105.75
399.044	83.75
399.268	89.75
399.492	98.75
399.717	98.75
399.941	103.75
400.165	85.75
400.389	84.75
400.613	81.75
400.837	83.75
401.062	91.75
401.286	91.75
401.51	106.75
401.734	101.75
401.958	93.75
402.182	133.75
402.406	149.75
402.63	126.75
402.854	87.75
403.078	78.75
403.302	94.75
403.526	97.75
403.75	91.75
403.974	90.75
404.198	94.75
404.422	79.75
404.645	90.75
404.869	92.75
405.093	99.75
405.317	97.75
405.541	106.75
405.765	104.75
405.988	113.75
406.212	173.75
406.436	239.75
406.66	147.75
406.883	98.75
407.107	102.75
407.331	92.75
407.555	92.75
407.778	90.75
408.002	74.75
408.226	65.75
408.449	86.75
408.673	90.75
408.896	101.75
409.12	95.75
409.344	93.75
409.567	98.75
409.791	83.75
410.014	88.75
410.238	109.75
410.461	83.75
410.685	90.75
410.908	103.75
411.132	104.75
411.355	81.75
411.578	94.75
411.802	86.75
412.025	83.75
412.249	101.75
412.472	112.75
412.695	120.75
412.919	99.75
413.142	87.75
413.365	86.75
413.589	82.75
413.812	80.75
414.035	98.75
414.258	99.75
414.482	77.75
414.705	84.75
414.928	75.75
415.151	86.75
415.374	79.75
415.597	92.75
415.821	90.75
416.044	63.75
416.267	94.75
416.49	88.75
416.713	84.75
416.936	99.75
417.159	99.75
417.382	90.75
417.605	91.75
417.828	111.75
418.051	93.75
418.274	75.75
418.497	93.75
418.72	72.75
418.943	83.75
419.166	85.75
419.389	87.75
419.611	87.75
419.834	89.75
420.057	84.75
420.28	72.75
420.503	100.75
420.726	100.75
420.948	84.75
421.171	96.75
421.394	90.75
421.617	81.75
421.839	82.75
422.062	94.75
422.285	88.75
422.507	114.75
422.73	105.75
422.953	87.75
423.175	87.75
423.398	86.75
423.621	91.75
423.843	100.75
424.066	83.75
424.288	93.75
424.511	85.75
424.733	91.75
424.956	108.75
425.178	105.75
425.401	108.75
425.623	104.75
425.846	101.75
426.068	86.75
426.291	81.75
426.513	93.75
426.735	80.75
426.958	70.75
427.18	101.75
427.402	126.75
427.625	169.75
427.847	150.75
428.069	145.75
428.292	95.75
428.514	93.75
428.736	90.75
428.958	73.75
429.181	84.75
429.403	82.75
429.625	105.75
429.847	91.75
430.069	106.75
430.292	94.75
430.514	94.75
430.736	102.75
430.958	94.75
431.18	85.75
431.402	100.75
431.624	95.75
431.846	84.75
432.068	66.75
432.29	83.75
432.512	82.75
432.734	87.75
432.956	83.75
433.178	94.75
433.4	94.75
433.622	88.75
433.844	93.75
434.066	78.75
434.287	97.75
434.509	92.75
434.731	88.75
434.953	84.75
435.175	80.75
435.397	95.75
435.618	94.75
435.84	102.75
436.062	115.75
436.284	115.75
436.505	89.75
436.727	103.75
436.949	86.75
437.17	87.75
437.392	90.75
437.614	92.75
437.835	109.75
438.057	99.75
438.278	101.75
438.5	93.75
438.721	113.75
438.943	102.75
439.165	89.75
439.386	86.75
439.608	84.75
439.829	117.75
440.05	124.75
440.272	144.75
440.493	85.75
440.715	106.75
440.936	91.75
441.158	75.75
441.379	84.75
441.6	95.75
441.822	101.75
442.043	89.75
442.264	95.75
442.486	91.75
442.707	103.75
442.928	101.75
443.149	129.75
443.371	121.75
443.592	109.75
443.813	115.75
444.034	110.75
444.255	102.75
444.476	93.75
444.698	76.75
444.919	89.75
445.14	127.75
445.361	121.75
445.582	121.75
445.803	125.75
446.024	130.75
446.245	120.75
446.466	95.75
446.687	95.75
446.908	86.75
447.129	84.75
447.35	95.75
447.571	106.75
447.792	82.75
448.013	115.75
448.234	108.75
448.455	98.75
448.675	109.75
448.896	127.75
449.117	106.75
449.338	95.75
449.559	129.75
449.779	113.75
450	92.75
450.221	99.75
450.442	84.75
450.662	99.75
450.883	107.75
451.104	112.75
451.324	95.75
451.545	99.75
451.766	98.75
451.986	75.75
452.207	94.75
452.428	106.75
452.648	106.75
452.869	95.75
453.089	115.75
453.31	118.75
453.53	87.75
453.751	95.75
453.971	100.75
454.192	114.75
454.412	83.75
454.633	89.75
454.853	90.75
455.073	93.75
455.294	91.75
455.514	96.75
455.734	93.75
455.955	88.75
456.175	87.75
456.395	78.75
456.616	72.75
456.836	101.75
457.056	91.75
457.276	67.75
457.497	87.75
457.717	83.75
457.937	96.75
458.157	79.75
458.377	81.75
458.598	110.75
458.818	133.75
459.038	163.75
459.258	115.75
459.478	91.75
459.698	88.75
459.918	89.75
460.138	79.75
460.358	84.75
460.578	90.75
460.798	87.75
461.018	82.75
461.238	85.75
461.458	85.75
461.678	93.75
461.898	82.75
462.118	82.75
462.338	93.75
462.558	103.75
462.777	84.75
462.997	91.75
463.217	93.75
463.437	92.75
463.657	74.75
463.876	94.75
464.096	87.75
464.316	94.75
464.536	99.75
464.755	93.75
464.975	103.75
465.195	171.75
465.414	154.75
465.634	101.75
465.854	76.75
466.073	83.75
466.293	76.75
466.512	85.75
466.732	89.75
466.951	83.75
467.171	95.75
467.391	93.75
467.61	105.75
467.829	115.75
468.049	183.75
468.268	260.75
468.488	126.75
468.707	95.75
468.927	86.75
469.146	75.75
469.365	86.75
469.585	77.75
469.804	95.75
470.023	80.75
470.243	83.75
470.462	91.75
470.681	109.75
470.901	87.75
471.12	82.75
471.339	87.75
471.558	82.75
471.777	93.75
471.997	155.75
472.216	331.75
472.435	710.75
472.654	210.75
472.873	100.75
473.092	90.75
473.311	94.75
473.53	101.75
473.749	93.75
473.968	102.75
474.187	99.75
474.406	101.75
474.625	78.75
474.844	84.75
475.063	83.75
475.282	97.75
475.501	85.75
475.72	95.75
475.939	94.75
476.158	90.75
476.377	84.75
476.596	94.75
476.814	81.75
477.033	103.75
477.252	91.75
477.471	89.75
477.69	86.75
477.908	86.75
478.127	83.75
478.346	84.75
478.564	84.75
478.783	101.75
479.002	110.75
479.22	97.75
479.439	103.75
479.658	98.75
479.876	117.75
480.095	94.75
480.313	94.75
480.532	113.75
480.751	140.75
480.969	319.75
481.188	1114.75
481.406	685.75
481.624	161.75
481.843	110.75
482.061	86.75
482.28	83.75
482.498	93.75
482.717	92.75
482.935	98.75
483.153	93.75
483.372	86.75
483.59	78.75
483.808	94.75
484.027	92.75
484.245	95.75
484.463	101.75
484.681	91.75
484.9	82.75
485.118	99.75
485.336	92.75
485.554	103.75
485.772	94.75
485.99	108.75
486.209	107.75
486.427	95.75
486.645	100.75
486.863	101.75
487.081	102.75
487.299	107.75
487.517	92.75
487.735	88.75
487.953	90.75
488.171	93.75
488.389	94.75
488.607	107.75
488.825	101.75
489.043	98.75
489.261	101.75
489.479	69.75
489.696	80.75
489.914	104.75
490.132	90.75
490.35	87.75
490.568	71.75
490.786	99.75
491.003	83.75
491.221	83.75
491.439	92.75
491.657	78.75
491.874	78.75
492.092	86.75
492.31	85.75
492.527	102.75
492.745	87.75
492.963	95.75
493.18	90.75
493.398	96.75
493.615	102.75
493.833	100.75
494.05	98.75
494.268	92.75
494.485	90.75
494.703	88.75
494.92	91.75
495.138	91.75
495.355	97.75
495.573	77.75
495.79	101.75
496.008	82.75
496.225	93.75
496.442	95.75
496.66	85.75
496.877	80.75
497.094	91.75
497.312	99.75
497.529	102.75
497.746	97.75
497.963	101.75
498.181	95.75
498.398	94.75
498.615	119.75
498.832	102.75
499.049	87.75
499.267	93.75
499.484	89.75
499.701	87.75
499.918	83.75
500.135	81.75
500.352	84.75
500.569	90.75
500.786	90.75
501.003	95.75
501.22	102.75
501.437	94.75
501.654	103.75
501.871	115.75
502.088	85.75
502.305	91.75
502.522	89.75
502.739	90.75
502.956	107.75
503.172	91.75
503.389	81.75
503.606	79.75
503.823	103.75
504.04	94.75
504.256	80.75
504.473	92.75
504.69	86.75
504.907	107.75
505.123	99.75
505.34	79.75
505.557	101.75
505.773	105.75
505.99	86.75
506.207	95.75
506.423	93.75
506.64	96.75
506.856	108.75
507.073	89.75
507.289	99.75
507.506	93.75
507.722	107.75
507.939	103.75
508.155	109.75
508.372	96.75
508.588	91.75
508.805	104.75
509.021	100.75
509.238	94.75
509.454	101.75
509.67	109.75
509.887	112.75
510.103	129.75
510.319	201.75
510.536	713.75
510.752	2305.75
510.968	663.75
511.184	161.75
511.401	108.75
511.617	108.75
511.833	115.75
512.049	101.75
512.265	99.75
512.481	76.75
512.698	90.75
512.914	99.75
513.13	90.75
513.346	98.75
513.562	99.75
513.778	99.75
513.994	95.75
514.21	111.75
514.426	119.75
514.642	133.75
514.858	135.75
