Data from Circ_2000_H10_HRD10591_00083.txt Node
Date: Wed Jan 03 10:49:50 EST 2024
User: Yrep
Spectrometer: HR+D1059
Trigger mode: 1
Integration Time (sec): 1.000000E-1
Scans to average: 1
Electric dark correction enabled: true
Nonlinearity correction enabled: false
Boxcar width: 0
XAxis mode: Wavelengths
Number of Pixels in Spectrum: 2048
>>>>>Begin Spectral Data<<<<<
223.165	-14.19
223.4	-14.19
223.635	-14.19
223.869	-26.19
224.104	-5.19
224.338	-15.19
224.573	-12.19
224.808	-23.19
225.042	4.81
225.277	-5.19
225.511	-2.19
225.746	-1.19
225.98	7.81
226.215	4.81
226.449	12.81
226.683	14.81
226.918	16.81
227.152	42.81
227.387	34.81
227.621	44.81
227.856	34.81
228.09	42.81
228.324	45.81
228.559	52.81
228.793	49.81
229.027	62.81
229.262	81.81
229.496	69.81
229.73	89.81
229.964	90.81
230.199	76.81
230.433	72.81
230.667	74.81
230.901	83.81
231.136	88.81
231.37	81.81
231.604	96.81
231.838	85.81
232.072	72.81
232.306	75.81
232.541	90.81
232.775	73.81
233.009	75.81
233.243	74.81
233.477	72.81
233.711	83.81
233.945	75.81
234.179	81.81
234.413	82.81
234.647	73.81
234.881	81.81
235.115	81.81
235.349	80.81
235.583	75.81
235.817	65.81
236.051	82.81
236.285	71.81
236.519	81.81
236.753	77.81
236.987	80.81
237.221	77.81
237.455	92.81
237.689	81.81
237.922	72.81
238.156	84.81
238.39	72.81
238.624	65.81
238.858	98.81
239.091	67.81
239.325	74.81
239.559	82.81
239.793	88.81
240.027	82.81
240.26	78.81
240.494	96.81
240.728	76.81
240.961	68.81
241.195	87.81
241.429	72.81
241.662	84.81
241.896	72.81
242.13	78.81
242.363	80.81
242.597	68.81
242.83	84.81
243.064	73.81
243.298	82.81
243.531	81.81
243.765	81.81
243.998	77.81
244.232	90.81
244.465	93.81
244.699	73.81
244.932	65.81
245.166	86.81
245.399	78.81
245.633	94.81
245.866	78.81
246.099	80.81
246.333	86.81
246.566	71.81
246.8	83.81
247.033	79.81
247.266	74.81
247.5	78.81
247.733	88.81
247.966	92.81
248.2	79.81
248.433	74.81
248.666	74.81
248.899	74.81
249.133	81.81
249.366	105.81
249.599	110.81
249.832	78.81
250.066	82.81
250.299	89.81
250.532	88.81
250.765	75.81
250.998	72.81
251.231	64.81
251.465	81.81
251.698	82.81
251.931	85.81
252.164	94.81
252.397	91.81
252.63	81.81
252.863	82.81
253.096	82.81
253.329	68.81
253.562	97.81
253.795	74.81
254.028	86.81
254.261	78.81
254.494	85.81
254.727	91.81
254.96	88.81
255.193	70.81
255.426	90.81
255.659	61.81
255.892	93.81
256.124	82.81
256.357	92.81
256.59	73.81
256.823	86.81
257.056	82.81
257.289	90.81
257.521	82.81
257.754	87.81
257.987	79.81
258.22	98.81
258.452	85.81
258.685	95.81
258.918	78.81
259.151	84.81
259.383	83.81
259.616	93.81
259.849	82.81
260.081	73.81
260.314	81.81
260.547	81.81
260.779	101.81
261.012	104.81
261.244	109.81
261.477	109.81
261.71	99.81
261.942	138.81
262.175	165.81
262.407	101.81
262.64	94.81
262.872	87.81
263.105	84.81
263.337	82.81
263.57	91.81
263.802	81.81
264.035	86.81
264.267	85.81
264.499	91.81
264.732	85.81
264.964	82.81
265.197	74.81
265.429	80.81
265.661	99.81
265.894	83.81
266.126	76.81
266.358	87.81
266.591	86.81
266.823	88.81
267.055	100.81
267.287	93.81
267.52	68.81
267.752	74.81
267.984	76.81
268.216	89.81
268.448	90.81
268.681	75.81
268.913	85.81
269.145	89.81
269.377	84.81
269.609	74.81
269.841	76.81
270.073	93.81
270.306	101.81
270.538	90.81
270.77	94.81
271.002	87.81
271.234	80.81
271.466	89.81
271.698	98.81
271.93	83.81
272.162	77.81
272.394	84.81
272.626	84.81
272.858	93.81
273.09	101.81
273.322	73.81
273.553	79.81
273.785	76.81
274.017	86.81
274.249	84.81
274.481	92.81
274.713	97.81
274.945	99.81
275.176	106.81
275.408	95.81
275.64	105.81
275.872	114.81
276.104	102.81
276.335	109.81
276.567	120.81
276.799	144.81
277.031	173.81
277.262	176.81
277.494	141.81
277.726	105.81
277.957	100.81
278.189	106.81
278.421	106.81
278.652	86.81
278.884	76.81
279.115	82.81
279.347	93.81
279.579	97.81
279.81	116.81
280.042	177.81
280.273	229.81
280.505	178.81
280.736	108.81
280.968	91.81
281.199	99.81
281.431	101.81
281.662	97.81
281.894	97.81
282.125	116.81
282.356	165.81
282.588	200.81
282.819	145.81
283.051	101.81
283.282	69.81
283.513	97.81
283.745	85.81
283.976	98.81
284.207	102.81
284.439	83.81
284.67	86.81
284.901	103.81
285.132	93.81
285.364	110.81
285.595	101.81
285.826	77.81
286.057	84.81
286.288	89.81
286.52	97.81
286.751	100.81
286.982	84.81
287.213	86.81
287.444	83.81
287.675	91.81
287.906	82.81
288.138	94.81
288.369	112.81
288.6	92.81
288.831	86.81
289.062	81.81
289.293	99.81
289.524	89.81
289.755	90.81
289.986	91.81
290.217	84.81
290.448	77.81
290.679	80.81
290.91	83.81
291.141	86.81
291.371	75.81
291.602	75.81
291.833	94.81
292.064	88.81
292.295	89.81
292.526	94.81
292.757	86.81
292.987	92.81
293.218	87.81
293.449	98.81
293.68	91.81
293.91	91.81
294.141	77.81
294.372	89.81
294.603	91.81
294.833	91.81
295.064	91.81
295.295	94.81
295.525	106.81
295.756	120.81
295.987	138.81
296.217	187.81
296.448	142.81
296.679	110.81
296.909	85.81
297.14	87.81
297.37	84.81
297.601	94.81
297.831	97.81
298.062	102.81
298.292	100.81
298.523	90.81
298.753	85.81
298.984	82.81
299.214	98.81
299.445	101.81
299.675	90.81
299.905	93.81
300.136	94.81
300.366	101.81
300.597	95.81
300.827	111.81
301.057	110.81
301.288	114.81
301.518	98.81
301.748	92.81
301.979	107.81
302.209	104.81
302.439	101.81
302.669	91.81
302.9	93.81
303.13	113.81
303.36	114.81
303.59	134.81
303.82	152.81
304.051	104.81
304.281	106.81
304.511	100.81
304.741	84.81
304.971	89.81
305.201	94.81
305.431	107.81
305.661	81.81
305.891	106.81
306.121	102.81
306.352	100.81
306.582	130.81
306.812	102.81
307.042	117.81
307.272	148.81
307.502	151.81
307.731	152.81
307.961	112.81
308.191	103.81
308.421	100.81
308.651	90.81
308.881	92.81
309.111	87.81
309.341	103.81
309.571	102.81
309.8	96.81
310.03	115.81
310.26	109.81
310.49	97.81
310.72	104.81
310.949	124.81
311.179	106.81
311.409	95.81
311.639	125.81
311.868	113.81
312.098	104.81
312.328	113.81
312.557	117.81
312.787	114.81
313.017	115.81
313.246	103.81
313.476	89.81
313.706	93.81
313.935	101.81
314.165	100.81
314.394	108.81
314.624	121.81
314.853	100.81
315.083	99.81
315.312	99.81
315.542	94.81
315.771	87.81
316.001	76.81
316.23	96.81
316.46	95.81
316.689	105.81
316.919	100.81
317.148	107.81
317.377	103.81
317.607	112.81
317.836	98.81
318.065	90.81
318.295	105.81
318.524	88.81
318.753	98.81
318.983	100.81
319.212	94.81
319.441	119.81
319.67	116.81
319.9	93.81
320.129	105.81
320.358	103.81
320.587	105.81
320.816	123.81
321.046	111.81
321.275	118.81
321.504	102.81
321.733	95.81
321.962	98.81
322.191	118.81
322.42	116.81
322.649	120.81
322.878	130.81
323.108	144.81
323.337	140.81
323.566	173.81
323.795	211.81
324.024	281.81
324.253	594.81
324.482	1263.81
324.71	2696.81
324.939	3503.81
325.168	1254.81
325.397	352.81
325.626	189.81
325.855	144.81
326.084	149.81
326.313	162.81
326.542	202.81
326.77	300.81
326.999	645.81
327.228	1361.81
327.457	2568.81
327.686	2012.81
327.914	645.81
328.143	525.81
328.372	647.81
328.6	371.81
328.829	202.81
329.058	221.81
329.287	217.81
329.515	183.81
329.744	249.81
329.972	433.81
330.201	888.81
330.43	1274.81
330.658	624.81
330.887	294.81
331.115	221.81
331.344	126.81
331.572	118.81
331.801	123.81
332.03	141.81
332.258	129.81
332.486	103.81
332.715	114.81
332.943	114.81
333.172	121.81
333.4	120.81
333.629	150.81
333.857	238.81
334.085	418.81
334.314	835.81
334.542	1589.81
334.771	1512.81
334.999	402.81
335.227	172.81
335.455	126.81
335.684	123.81
335.912	102.81
336.14	108.81
336.369	116.81
336.597	128.81
336.825	126.81
337.053	97.81
337.281	100.81
337.51	88.81
337.738	92.81
337.966	105.81
338.194	104.81
338.422	110.81
338.65	106.81
338.878	103.81
339.106	86.81
339.334	83.81
339.562	83.81
339.79	99.81
340.018	109.81
340.246	103.81
340.474	112.81
340.702	84.81
340.93	99.81
341.158	99.81
341.386	102.81
341.614	108.81
341.842	109.81
342.07	109.81
342.298	112.81
342.526	101.81
342.754	105.81
342.981	91.81
343.209	93.81
343.437	84.81
343.665	100.81
343.893	88.81
344.12	87.81
344.348	94.81
344.576	94.81
344.804	109.81
345.031	101.81
345.259	125.81
345.487	112.81
345.714	104.81
345.942	107.81
346.17	100.81
346.397	89.81
346.625	107.81
346.853	98.81
347.08	105.81
347.308	108.81
347.535	104.81
347.763	108.81
347.99	82.81
348.218	120.81
348.445	128.81
348.673	122.81
348.9	111.81
349.128	107.81
349.355	96.81
349.583	104.81
349.81	100.81
350.037	107.81
350.265	93.81
350.492	115.81
350.72	117.81
350.947	117.81
351.174	122.81
351.402	127.81
351.629	124.81
351.856	101.81
352.083	116.81
352.311	114.81
352.538	144.81
352.765	137.81
352.992	120.81
353.22	140.81
353.447	119.81
353.674	115.81
353.901	104.81
354.128	93.81
354.355	99.81
354.583	100.81
354.81	100.81
355.037	101.81
355.264	86.81
355.491	95.81
355.718	95.81
355.945	90.81
356.172	99.81
356.399	86.81
356.626	101.81
356.853	77.81
357.08	83.81
357.307	93.81
357.534	83.81
357.761	74.81
357.988	102.81
358.215	93.81
358.441	80.81
358.668	89.81
358.895	95.81
359.122	98.81
359.349	103.81
359.576	99.81
359.802	128.81
360.029	153.81
360.256	158.81
360.483	120.81
360.709	92.81
360.936	109.81
361.163	105.81
361.39	109.81
361.616	120.81
361.843	99.81
362.07	111.81
362.296	103.81
362.523	115.81
362.749	103.81
362.976	103.81
363.203	101.81
363.429	104.81
363.656	88.81
363.882	97.81
364.109	104.81
364.335	103.81
364.562	117.81
364.788	100.81
365.015	100.81
365.241	132.81
365.468	112.81
365.694	131.81
365.92	102.81
366.147	103.81
366.373	107.81
366.599	74.81
366.826	104.81
367.052	92.81
367.278	97.81
367.505	90.81
367.731	99.81
367.957	100.81
368.184	99.81
368.41	109.81
368.636	133.81
368.862	143.81
369.089	118.81
369.315	103.81
369.541	99.81
369.767	100.81
369.993	98.81
370.219	86.81
370.445	102.81
370.672	88.81
370.898	80.81
371.124	83.81
371.35	88.81
371.576	81.81
371.802	83.81
372.028	91.81
372.254	92.81
372.48	80.81
372.706	85.81
372.932	94.81
373.158	84.81
373.384	96.81
373.61	96.81
373.835	94.81
374.061	114.81
374.287	94.81
374.513	87.81
374.739	89.81
374.965	96.81
375.191	80.81
375.416	92.81
375.642	78.81
375.868	97.81
376.094	100.81
376.319	91.81
376.545	92.81
376.771	97.81
376.997	82.81
377.222	84.81
377.448	98.81
377.674	90.81
377.899	91.81
378.125	95.81
378.35	93.81
378.576	93.81
378.802	91.81
379.027	88.81
379.253	96.81
379.478	90.81
379.704	99.81
379.929	95.81
380.155	100.81
380.38	101.81
380.606	101.81
380.831	101.81
381.057	93.81
381.282	109.81
381.507	99.81
381.733	97.81
381.958	86.81
382.184	99.81
382.409	101.81
382.634	112.81
382.86	112.81
383.085	99.81
383.31	96.81
383.535	110.81
383.761	96.81
383.986	100.81
384.211	93.81
384.436	105.81
384.662	101.81
384.887	86.81
385.112	92.81
385.337	109.81
385.562	104.81
385.787	111.81
386.013	110.81
386.238	124.81
386.463	115.81
386.688	119.81
386.913	101.81
387.138	89.81
387.363	88.81
387.588	109.81
387.813	112.81
388.038	107.81
388.263	93.81
388.488	94.81
388.713	99.81
388.938	92.81
389.163	100.81
389.387	96.81
389.612	92.81
389.837	98.81
390.062	84.81
390.287	77.81
390.512	73.81
390.736	100.81
390.961	97.81
391.186	88.81
391.411	91.81
391.636	73.81
391.86	97.81
392.085	91.81
392.31	90.81
392.534	78.81
392.759	93.81
392.984	96.81
393.208	87.81
393.433	90.81
393.658	93.81
393.882	84.81
394.107	89.81
394.331	90.81
394.556	84.81
394.78	88.81
395.005	90.81
395.229	90.81
395.454	94.81
395.678	75.81
395.903	86.81
396.127	76.81
396.352	98.81
396.576	92.81
396.801	94.81
397.025	84.81
397.249	98.81
397.474	86.81
397.698	95.81
397.922	86.81
398.147	83.81
398.371	81.81
398.595	81.81
398.82	94.81
399.044	81.81
399.268	101.81
399.492	82.81
399.717	78.81
399.941	83.81
400.165	84.81
400.389	90.81
400.613	87.81
400.837	94.81
401.062	110.81
401.286	101.81
401.51	93.81
401.734	103.81
401.958	122.81
402.182	163.81
402.406	234.81
402.63	164.81
402.854	107.81
403.078	98.81
403.302	99.81
403.526	91.81
403.75	76.81
403.974	92.81
404.198	92.81
404.422	87.81
404.645	104.81
404.869	107.81
405.093	109.81
405.317	136.81
405.541	142.81
405.765	128.81
405.988	148.81
406.212	249.81
406.436	372.81
406.66	246.81
406.883	133.81
407.107	117.81
407.331	109.81
407.555	122.81
407.778	119.81
408.002	107.81
408.226	97.81
408.449	86.81
408.673	88.81
408.896	86.81
409.12	98.81
409.344	90.81
409.567	89.81
409.791	83.81
410.014	97.81
410.238	93.81
410.461	92.81
410.685	78.81
410.908	94.81
411.132	116.81
411.355	97.81
411.578	108.81
411.802	102.81
412.025	98.81
412.249	93.81
412.472	116.81
412.695	120.81
412.919	97.81
413.142	101.81
413.365	93.81
413.589	80.81
413.812	91.81
414.035	104.81
414.258	100.81
414.482	98.81
414.705	92.81
414.928	84.81
415.151	96.81
415.374	89.81
415.597	95.81
415.821	70.81
416.044	92.81
416.267	92.81
416.49	96.81
416.713	106.81
416.936	101.81
417.159	98.81
417.382	101.81
417.605	112.81
417.828	110.81
418.051	95.81
418.274	91.81
418.497	100.81
418.72	87.81
418.943	82.81
419.166	96.81
419.389	109.81
419.611	92.81
419.834	100.81
420.057	93.81
420.28	103.81
420.503	82.81
420.726	88.81
420.948	92.81
421.171	97.81
421.394	104.81
421.617	104.81
421.839	80.81
422.062	88.81
422.285	83.81
422.507	97.81
422.73	118.81
422.953	89.81
423.175	83.81
423.398	88.81
423.621	89.81
423.843	85.81
424.066	97.81
424.288	106.81
424.511	98.81
424.733	98.81
424.956	135.81
425.178	116.81
425.401	114.81
425.623	106.81
425.846	87.81
426.068	114.81
426.291	92.81
426.513	72.81
426.735	95.81
426.958	110.81
427.18	121.81
427.402	200.81
427.625	271.81
427.847	266.81
428.069	226.81
428.292	109.81
428.514	105.81
428.736	103.81
428.958	86.81
429.181	83.81
429.403	81.81
429.625	100.81
429.847	108.81
430.069	117.81
430.292	99.81
430.514	95.81
430.736	92.81
430.958	92.81
431.18	86.81
431.402	81.81
431.624	80.81
431.846	86.81
432.068	85.81
432.29	89.81
432.512	101.81
432.734	86.81
432.956	96.81
433.178	98.81
433.4	98.81
433.622	92.81
433.844	97.81
434.066	96.81
434.287	93.81
434.509	100.81
434.731	84.81
434.953	87.81
435.175	94.81
435.397	91.81
435.618	80.81
435.84	134.81
436.062	125.81
436.284	131.81
436.505	112.81
436.727	101.81
436.949	95.81
437.17	96.81
437.392	90.81
437.614	99.81
437.835	125.81
438.057	174.81
438.278	152.81
438.5	108.81
438.721	144.81
438.943	127.81
439.165	83.81
439.386	98.81
439.608	98.81
439.829	116.81
440.05	161.81
440.272	204.81
440.493	124.81
440.715	102.81
440.936	100.81
441.158	106.81
441.379	87.81
441.6	88.81
441.822	107.81
442.043	107.81
442.264	132.81
442.486	135.81
442.707	103.81
442.928	123.81
443.149	190.81
443.371	182.81
443.592	138.81
443.813	134.81
444.034	130.81
444.255	90.81
444.476	96.81
444.698	75.81
444.919	89.81
445.14	140.81
445.361	126.81
445.582	152.81
445.803	197.81
446.024	198.81
446.245	189.81
446.466	140.81
446.687	88.81
446.908	96.81
447.129	100.81
447.35	97.81
447.571	104.81
447.792	120.81
448.013	114.81
448.234	128.81
448.455	108.81
448.675	124.81
448.896	144.81
449.117	121.81
449.338	109.81
449.559	172.81
449.779	168.81
450	115.81
450.221	89.81
450.442	100.81
450.662	116.81
450.883	116.81
451.104	134.81
451.324	98.81
451.545	100.81
451.766	87.81
451.986	86.81
452.207	111.81
452.428	78.81
452.648	110.81
452.869	129.81
453.089	155.81
453.31	157.81
453.53	96.81
453.751	108.81
453.971	124.81
454.192	142.81
454.412	105.81
454.633	98.81
454.853	94.81
455.073	93.81
455.294	99.81
455.514	110.81
455.734	105.81
455.955	96.81
456.175	84.81
456.395	97.81
456.616	100.81
456.836	84.81
457.056	90.81
457.276	87.81
457.497	77.81
457.717	86.81
457.937	91.81
458.157	96.81
458.377	97.81
458.598	137.81
458.818	244.81
459.038	292.81
459.258	162.81
459.478	103.81
459.698	92.81
459.918	90.81
460.138	96.81
460.358	88.81
460.578	86.81
460.798	94.81
461.018	95.81
461.238	90.81
461.458	92.81
461.678	86.81
461.898	95.81
462.118	93.81
462.338	87.81
462.558	81.81
462.777	93.81
462.997	104.81
463.217	107.81
463.437	80.81
463.657	85.81
463.876	87.81
464.096	108.81
464.316	99.81
464.536	103.81
464.755	97.81
464.975	140.81
465.195	283.81
465.414	278.81
465.634	98.81
465.854	96.81
466.073	97.81
466.293	86.81
466.512	89.81
466.732	86.81
466.951	98.81
467.171	103.81
467.391	128.81
467.61	144.81
467.829	207.81
468.049	496.81
468.268	751.81
468.488	205.81
468.707	101.81
468.927	86.81
469.146	85.81
469.365	79.81
469.585	105.81
469.804	117.81
470.023	130.81
470.243	115.81
470.462	123.81
470.681	155.81
470.901	106.81
471.12	110.81
471.339	106.81
471.558	102.81
471.777	165.81
471.997	280.81
472.216	970.81
472.435	2202.81
472.654	552.81
472.873	168.81
473.092	102.81
473.311	106.81
473.53	97.81
473.749	101.81
473.968	113.81
474.187	132.81
474.406	117.81
474.625	106.81
474.844	90.81
475.063	92.81
475.282	77.81
475.501	96.81
475.72	85.81
475.939	85.81
476.158	96.81
476.377	99.81
476.596	108.81
476.814	102.81
477.033	108.81
477.252	97.81
477.471	81.81
477.69	89.81
477.908	86.81
478.127	99.81
478.346	93.81
478.564	100.81
478.783	112.81
479.002	121.81
479.22	111.81
479.439	146.81
479.658	143.81
479.876	120.81
480.095	125.81
480.313	134.81
480.532	162.81
480.751	264.81
480.969	885.81
481.188	3820.81
481.406	2202.81
481.624	342.81
481.843	142.81
482.061	107.81
482.28	114.81
482.498	80.81
482.717	97.81
482.935	108.81
483.153	106.81
483.372	102.81
483.59	99.81
483.808	102.81
484.027	114.81
484.245	99.81
484.463	107.81
484.681	89.81
484.9	83.81
485.118	87.81
485.336	96.81
485.554	94.81
485.772	98.81
485.99	101.81
486.209	105.81
486.427	100.81
486.645	122.81
486.863	143.81
487.081	111.81
487.299	103.81
487.517	92.81
487.735	100.81
487.953	96.81
488.171	94.81
488.389	107.81
488.607	122.81
488.825	85.81
489.043	81.81
489.261	101.81
489.479	96.81
489.696	84.81
489.914	88.81
490.132	100.81
490.35	87.81
490.568	81.81
490.786	92.81
491.003	94.81
491.221	89.81
491.439	100.81
491.657	104.81
491.874	97.81
492.092	84.81
492.31	95.81
492.527	84.81
492.745	102.81
492.963	77.81
493.18	86.81
493.398	92.81
493.615	94.81
493.833	104.81
494.05	84.81
494.268	90.81
494.485	95.81
494.703	88.81
494.92	92.81
495.138	87.81
495.355	101.81
495.573	97.81
495.79	83.81
496.008	105.81
496.225	86.81
496.442	90.81
496.66	98.81
496.877	89.81
497.094	90.81
497.312	94.81
497.529	82.81
497.746	87.81
497.963	88.81
498.181	83.81
498.398	98.81
498.615	123.81
498.832	105.81
499.049	104.81
499.267	89.81
499.484	85.81
499.701	93.81
499.918	90.81
500.135	87.81
500.352	91.81
500.569	92.81
500.786	109.81
501.003	88.81
501.22	110.81
501.437	89.81
501.654	92.81
501.871	120.81
502.088	99.81
502.305	93.81
502.522	87.81
502.739	85.81
502.956	97.81
503.172	115.81
503.389	95.81
503.606	113.81
503.823	110.81
504.04	82.81
504.256	95.81
504.473	95.81
504.69	96.81
504.907	93.81
505.123	91.81
505.34	93.81
505.557	100.81
505.773	103.81
505.99	100.81
506.207	98.81
506.423	83.81
506.64	100.81
506.856	97.81
507.073	103.81
507.289	106.81
507.506	105.81
507.722	162.81
507.939	142.81
508.155	103.81
508.372	107.81
508.588	86.81
508.805	100.81
509.021	101.81
509.238	95.81
509.454	108.81
509.67	107.81
509.887	121.81
510.103	142.81
510.319	253.81
510.536	1085.81
510.752	3768.81
510.968	1006.81
511.184	198.81
511.401	128.81
511.617	101.81
511.833	101.81
512.049	103.81
