Data from Circ_2000_H10_HRD10591_00040.txt Node
Date: Wed Jan 03 10:49:41 EST 2024
User: Yrep
Spectrometer: HR+D1059
Trigger mode: 1
Integration Time (sec): 1.000000E-1
Scans to average: 1
Electric dark correction enabled: true
Nonlinearity correction enabled: false
Boxcar width: 0
XAxis mode: Wavelengths
Number of Pixels in Spectrum: 2048
>>>>>Begin Spectral Data<<<<<
223.165	-12.88
223.4	-12.88
223.635	-12.88
223.869	-26.88
224.104	-19.88
224.338	-15.88
224.573	-11.88
224.808	-17.88
225.042	-4.88
225.277	-16.88
225.511	0.12
225.746	-2.88
225.98	10.12
226.215	8.12
226.449	22.12
226.683	17.12
226.918	38.12
227.152	34.12
227.387	25.12
227.621	40.12
227.856	46.12
228.09	51.12
228.324	48.12
228.559	78.12
228.793	67.12
229.027	76.12
229.262	66.12
229.496	70.12
229.73	83.12
229.964	92.12
230.199	78.12
230.433	76.12
230.667	92.12
230.901	91.12
231.136	86.12
231.37	80.12
231.604	73.12
231.838	58.12
232.072	93.12
232.306	78.12
232.541	84.12
232.775	77.12
233.009	88.12
233.243	93.12
233.477	90.12
233.711	96.12
233.945	69.12
234.179	83.12
234.413	74.12
234.647	67.12
234.881	86.12
235.115	77.12
235.349	77.12
235.583	85.12
235.817	87.12
236.051	88.12
236.285	83.12
236.519	81.12
236.753	62.12
236.987	76.12
237.221	80.12
237.455	87.12
237.689	80.12
237.922	80.12
238.156	80.12
238.39	79.12
238.624	73.12
238.858	66.12
239.091	85.12
239.325	74.12
239.559	87.12
239.793	80.12
240.027	91.12
240.26	95.12
240.494	83.12
240.728	74.12
240.961	82.12
241.195	92.12
241.429	69.12
241.662	68.12
241.896	74.12
242.13	82.12
242.363	74.12
242.597	77.12
242.83	74.12
243.064	78.12
243.298	75.12
243.531	72.12
243.765	74.12
243.998	70.12
244.232	84.12
244.465	85.12
244.699	71.12
244.932	73.12
245.166	77.12
245.399	74.12
245.633	92.12
245.866	77.12
246.099	98.12
246.333	83.12
246.566	83.12
246.8	74.12
247.033	92.12
247.266	84.12
247.5	80.12
247.733	80.12
247.966	69.12
248.2	76.12
248.433	82.12
248.666	61.12
248.899	98.12
249.133	96.12
249.366	94.12
249.599	120.12
249.832	87.12
250.066	75.12
250.299	89.12
250.532	81.12
250.765	83.12
250.998	78.12
251.231	80.12
251.465	70.12
251.698	73.12
251.931	84.12
252.164	72.12
252.397	88.12
252.63	77.12
252.863	83.12
253.096	96.12
253.329	72.12
253.562	84.12
253.795	75.12
254.028	67.12
254.261	85.12
254.494	93.12
254.727	86.12
254.96	73.12
255.193	88.12
255.426	62.12
255.659	89.12
255.892	94.12
256.124	83.12
256.357	94.12
256.59	89.12
256.823	70.12
257.056	99.12
257.289	93.12
257.521	87.12
257.754	81.12
257.987	83.12
258.22	89.12
258.452	86.12
258.685	68.12
258.918	76.12
259.151	85.12
259.383	84.12
259.616	87.12
259.849	78.12
260.081	86.12
260.314	92.12
260.547	84.12
260.779	104.12
261.012	93.12
261.244	102.12
261.477	92.12
261.71	77.12
261.942	128.12
262.175	142.12
262.407	103.12
262.64	85.12
262.872	84.12
263.105	78.12
263.337	93.12
263.57	82.12
263.802	94.12
264.035	82.12
264.267	73.12
264.499	88.12
264.732	88.12
264.964	82.12
265.197	68.12
265.429	75.12
265.661	78.12
265.894	90.12
266.126	80.12
266.358	85.12
266.591	84.12
266.823	91.12
267.055	102.12
267.287	86.12
267.52	93.12
267.752	81.12
267.984	83.12
268.216	76.12
268.448	89.12
268.681	77.12
268.913	87.12
269.145	72.12
269.377	78.12
269.609	76.12
269.841	81.12
270.073	91.12
270.306	86.12
270.538	83.12
270.77	86.12
271.002	87.12
271.234	73.12
271.466	100.12
271.698	96.12
271.93	81.12
272.162	92.12
272.394	90.12
272.626	91.12
272.858	101.12
273.09	97.12
273.322	82.12
273.553	98.12
273.785	88.12
274.017	69.12
274.249	71.12
274.481	77.12
274.713	89.12
274.945	92.12
275.176	96.12
275.408	92.12
275.64	94.12
275.872	105.12
276.104	91.12
276.335	93.12
276.567	101.12
276.799	121.12
277.031	151.12
277.262	148.12
277.494	117.12
277.726	99.12
277.957	84.12
278.189	97.12
278.421	83.12
278.652	95.12
278.884	94.12
279.115	89.12
279.347	87.12
279.579	70.12
279.81	106.12
280.042	116.12
280.273	172.12
280.505	127.12
280.736	102.12
280.968	99.12
281.199	94.12
281.431	89.12
281.662	80.12
281.894	95.12
282.125	106.12
282.356	135.12
282.588	182.12
282.819	126.12
283.051	94.12
283.282	90.12
283.513	94.12
283.745	89.12
283.976	85.12
284.207	82.12
284.439	88.12
284.67	83.12
284.901	92.12
285.132	80.12
285.364	98.12
285.595	96.12
285.826	87.12
286.057	87.12
286.288	83.12
286.52	90.12
286.751	93.12
286.982	76.12
287.213	90.12
287.444	96.12
287.675	97.12
287.906	85.12
288.138	102.12
288.369	85.12
288.6	98.12
288.831	94.12
289.062	88.12
289.293	90.12
289.524	72.12
289.755	88.12
289.986	82.12
290.217	81.12
290.448	87.12
290.679	94.12
290.91	87.12
291.141	104.12
291.371	66.12
291.602	92.12
291.833	83.12
292.064	78.12
292.295	80.12
292.526	77.12
292.757	86.12
292.987	84.12
293.218	80.12
293.449	107.12
293.68	98.12
293.91	88.12
294.141	74.12
294.372	98.12
294.603	91.12
294.833	91.12
295.064	97.12
295.295	97.12
295.525	93.12
295.756	106.12
295.987	135.12
296.217	150.12
296.448	152.12
296.679	85.12
296.909	91.12
297.14	86.12
297.37	99.12
297.601	98.12
297.831	84.12
298.062	90.12
298.292	93.12
298.523	86.12
298.753	100.12
298.984	72.12
299.214	99.12
299.445	96.12
299.675	93.12
299.905	98.12
300.136	85.12
300.366	92.12
300.597	91.12
300.827	89.12
301.057	92.12
301.288	120.12
301.518	103.12
301.748	80.12
301.979	99.12
302.209	101.12
302.439	82.12
302.669	82.12
302.9	98.12
303.13	102.12
303.36	98.12
303.59	101.12
303.82	130.12
304.051	106.12
304.281	105.12
304.511	98.12
304.741	89.12
304.971	82.12
305.201	99.12
305.431	92.12
305.661	89.12
305.891	98.12
306.121	100.12
306.352	113.12
306.582	111.12
306.812	85.12
307.042	103.12
307.272	119.12
307.502	135.12
307.731	136.12
307.961	108.12
308.191	88.12
308.421	94.12
308.651	101.12
308.881	99.12
309.111	95.12
309.341	106.12
309.571	98.12
309.8	114.12
310.03	96.12
310.26	115.12
310.49	102.12
310.72	113.12
310.949	109.12
311.179	112.12
311.409	110.12
311.639	109.12
311.868	117.12
312.098	109.12
312.328	100.12
312.557	116.12
312.787	103.12
313.017	106.12
313.246	109.12
313.476	105.12
313.706	99.12
313.935	84.12
314.165	98.12
314.394	105.12
314.624	94.12
314.853	99.12
315.083	75.12
315.312	99.12
315.542	96.12
315.771	99.12
316.001	91.12
316.23	99.12
316.46	83.12
316.689	95.12
316.919	92.12
317.148	92.12
317.377	107.12
317.607	97.12
317.836	94.12
318.065	90.12
318.295	110.12
318.524	92.12
318.753	85.12
318.983	96.12
319.212	88.12
319.441	118.12
319.67	121.12
319.9	89.12
320.129	101.12
320.358	102.12
320.587	96.12
320.816	105.12
321.046	104.12
321.275	95.12
321.504	95.12
321.733	105.12
321.962	101.12
322.191	109.12
322.42	109.12
322.649	132.12
322.878	122.12
323.108	131.12
323.337	139.12
323.566	148.12
323.795	179.12
324.024	228.12
324.253	479.12
324.482	1035.12
324.71	2185.12
324.939	2886.12
325.168	1052.12
325.397	300.12
325.626	183.12
325.855	137.12
326.084	153.12
326.313	137.12
326.542	194.12
326.77	237.12
326.999	542.12
327.228	1160.12
327.457	2152.12
327.686	1679.12
327.914	504.12
328.143	386.12
328.372	425.12
328.6	265.12
328.829	165.12
329.058	180.12
329.287	172.12
329.515	151.12
329.744	186.12
329.972	324.12
330.201	544.12
330.43	814.12
330.658	415.12
330.887	249.12
331.115	180.12
331.344	134.12
331.572	102.12
331.801	126.12
332.03	112.12
332.258	112.12
332.486	93.12
332.715	118.12
332.943	114.12
333.172	112.12
333.4	103.12
333.629	141.12
333.857	192.12
334.085	284.12
334.314	532.12
334.542	969.12
334.771	954.12
334.999	272.12
335.227	148.12
335.455	126.12
335.684	105.12
335.912	93.12
336.14	95.12
336.369	117.12
336.597	96.12
336.825	108.12
337.053	102.12
337.281	101.12
337.51	99.12
337.738	89.12
337.966	89.12
338.194	96.12
338.422	95.12
338.65	93.12
338.878	90.12
339.106	91.12
339.334	94.12
339.562	109.12
339.79	84.12
340.018	96.12
340.246	95.12
340.474	87.12
340.702	95.12
340.93	101.12
341.158	87.12
341.386	108.12
341.614	94.12
341.842	92.12
342.07	83.12
342.298	94.12
342.526	83.12
342.754	85.12
342.981	88.12
343.209	99.12
343.437	99.12
343.665	84.12
343.893	87.12
344.12	90.12
344.348	105.12
344.576	88.12
344.804	99.12
345.031	96.12
345.259	93.12
345.487	117.12
345.714	97.12
345.942	82.12
346.17	97.12
346.397	103.12
346.625	97.12
346.853	94.12
347.08	90.12
347.308	106.12
347.535	93.12
347.763	107.12
347.99	92.12
348.218	107.12
348.445	106.12
348.673	104.12
348.9	91.12
349.128	98.12
349.355	101.12
349.583	92.12
349.81	84.12
350.037	105.12
350.265	103.12
350.492	80.12
350.72	102.12
350.947	100.12
351.174	124.12
351.402	118.12
351.629	109.12
351.856	108.12
352.083	118.12
352.311	108.12
352.538	112.12
352.765	127.12
352.992	109.12
353.22	118.12
353.447	112.12
353.674	109.12
353.901	91.12
354.128	94.12
354.355	91.12
354.583	97.12
354.81	98.12
355.037	89.12
355.264	106.12
355.491	84.12
355.718	94.12
355.945	91.12
356.172	99.12
356.399	101.12
356.626	98.12
356.853	77.12
357.08	92.12
357.307	79.12
357.534	82.12
357.761	78.12
357.988	90.12
358.215	94.12
358.441	106.12
358.668	89.12
358.895	83.12
359.122	102.12
359.349	85.12
359.576	101.12
359.802	95.12
360.029	136.12
360.256	120.12
360.483	108.12
360.709	87.12
360.936	86.12
361.163	103.12
361.39	93.12
361.616	106.12
361.843	101.12
362.07	114.12
362.296	99.12
362.523	92.12
362.749	98.12
362.976	93.12
363.203	106.12
363.429	88.12
363.656	90.12
363.882	82.12
364.109	87.12
364.335	91.12
364.562	101.12
364.788	96.12
365.015	109.12
365.241	114.12
365.468	101.12
365.694	124.12
365.92	97.12
366.147	106.12
366.373	100.12
366.599	82.12
366.826	83.12
367.052	89.12
367.278	91.12
367.505	94.12
367.731	106.12
367.957	98.12
368.184	97.12
368.41	107.12
368.636	128.12
368.862	146.12
369.089	128.12
369.315	103.12
369.541	88.12
369.767	113.12
369.993	92.12
370.219	92.12
370.445	80.12
370.672	83.12
370.898	95.12
371.124	92.12
371.35	94.12
371.576	90.12
371.802	73.12
372.028	100.12
372.254	90.12
372.48	81.12
372.706	86.12
372.932	89.12
373.158	83.12
373.384	89.12
373.61	87.12
373.835	82.12
374.061	85.12
374.287	96.12
374.513	96.12
374.739	82.12
374.965	80.12
375.191	85.12
375.416	83.12
375.642	98.12
375.868	94.12
376.094	77.12
376.319	83.12
376.545	77.12
376.771	87.12
376.997	86.12
377.222	86.12
377.448	113.12
377.674	83.12
377.899	92.12
378.125	94.12
378.35	92.12
378.576	93.12
378.802	86.12
379.027	101.12
379.253	96.12
379.478	88.12
379.704	111.12
379.929	105.12
380.155	91.12
380.38	88.12
380.606	84.12
380.831	100.12
381.057	105.12
381.282	99.12
381.507	98.12
381.733	89.12
381.958	97.12
382.184	112.12
382.409	101.12
382.634	93.12
382.86	104.12
383.085	108.12
383.31	89.12
383.535	90.12
383.761	94.12
383.986	92.12
384.211	104.12
384.436	102.12
384.662	91.12
384.887	108.12
385.112	98.12
385.337	111.12
385.562	116.12
385.787	105.12
386.013	125.12
386.238	132.12
386.463	118.12
386.688	134.12
386.913	113.12
387.138	112.12
387.363	103.12
387.588	113.12
387.813	92.12
388.038	122.12
388.263	125.12
388.488	110.12
388.713	92.12
388.938	86.12
389.163	99.12
389.387	84.12
389.612	106.12
389.837	106.12
390.062	87.12
390.287	91.12
390.512	102.12
390.736	92.12
390.961	93.12
391.186	87.12
391.411	82.12
391.636	86.12
391.86	61.12
392.085	77.12
392.31	85.12
392.534	94.12
392.759	75.12
392.984	89.12
393.208	89.12
393.433	97.12
393.658	84.12
393.882	86.12
394.107	86.12
394.331	83.12
394.556	88.12
394.78	95.12
395.005	89.12
395.229	85.12
395.454	87.12
395.678	82.12
395.903	98.12
396.127	94.12
396.352	94.12
396.576	96.12
396.801	86.12
397.025	78.12
397.249	83.12
397.474	81.12
397.698	90.12
397.922	84.12
398.147	93.12
398.371	96.12
398.595	84.12
398.82	93.12
399.044	78.12
399.268	82.12
399.492	86.12
399.717	100.12
399.941	92.12
400.165	101.12
400.389	93.12
400.613	76.12
400.837	82.12
401.062	91.12
401.286	95.12
401.51	86.12
401.734	108.12
401.958	105.12
402.182	154.12
402.406	186.12
402.63	144.12
402.854	85.12
403.078	102.12
403.302	89.12
403.526	94.12
403.75	83.12
403.974	73.12
404.198	81.12
404.422	97.12
404.645	83.12
404.869	85.12
405.093	120.12
405.317	132.12
405.541	120.12
405.765	115.12
405.988	133.12
406.212	202.12
406.436	295.12
406.66	188.12
406.883	114.12
407.107	99.12
407.331	100.12
407.555	100.12
407.778	97.12
408.002	87.12
408.226	104.12
408.449	98.12
408.673	99.12
408.896	108.12
409.12	96.12
409.344	87.12
409.567	86.12
409.791	81.12
410.014	107.12
410.238	86.12
410.461	88.12
410.685	80.12
410.908	82.12
411.132	93.12
411.355	107.12
411.578	87.12
411.802	82.12
412.025	89.12
412.249	85.12
412.472	113.12
412.695	119.12
412.919	102.12
413.142	83.12
413.365	103.12
413.589	97.12
413.812	93.12
414.035	90.12
414.258	107.12
414.482	95.12
414.705	94.12
414.928	95.12
415.151	113.12
415.374	91.12
415.597	93.12
415.821	96.12
416.044	85.12
416.267	77.12
416.49	92.12
416.713	80.12
416.936	86.12
417.159	108.12
417.382	89.12
417.605	100.12
417.828	108.12
418.051	103.12
418.274	86.12
418.497	85.12
418.72	81.12
418.943	73.12
419.166	84.12
419.389	91.12
419.611	79.12
419.834	91.12
420.057	106.12
420.28	98.12
420.503	92.12
420.726	80.12
420.948	94.12
421.171	104.12
421.394	85.12
421.617	97.12
421.839	94.12
422.062	107.12
422.285	88.12
422.507	100.12
422.73	105.12
422.953	110.12
423.175	85.12
423.398	98.12
423.621	106.12
423.843	85.12
424.066	98.12
424.288	74.12
424.511	88.12
424.733	84.12
424.956	120.12
425.178	93.12
425.401	93.12
425.623	96.12
425.846	100.12
426.068	109.12
426.291	97.12
426.513	94.12
426.735	74.12
426.958	83.12
427.18	117.12
427.402	174.12
427.625	226.12
427.847	205.12
428.069	192.12
428.292	108.12
428.514	106.12
428.736	88.12
428.958	92.12
429.181	79.12
429.403	94.12
429.625	85.12
429.847	96.12
430.069	101.12
430.292	88.12
430.514	80.12
430.736	73.12
430.958	83.12
431.18	66.12
431.402	95.12
431.624	85.12
431.846	75.12
432.068	87.12
432.29	92.12
432.512	82.12
432.734	96.12
432.956	92.12
433.178	88.12
433.4	111.12
433.622	105.12
433.844	81.12
434.066	91.12
434.287	83.12
434.509	93.12
434.731	102.12
434.953	88.12
435.175	101.12
435.397	92.12
435.618	98.12
435.84	99.12
436.062	122.12
436.284	108.12
436.505	106.12
436.727	99.12
436.949	88.12
437.17	90.12
437.392	99.12
437.614	106.12
437.835	116.12
438.057	141.12
438.278	115.12
438.5	111.12
438.721	148.12
438.943	112.12
439.165	85.12
439.386	77.12
439.608	84.12
439.829	104.12
440.05	145.12
440.272	180.12
440.493	109.12
440.715	97.12
440.936	100.12
441.158	81.12
441.379	90.12
441.6	102.12
441.822	101.12
442.043	96.12
442.264	117.12
442.486	112.12
442.707	95.12
442.928	131.12
443.149	171.12
443.371	169.12
443.592	141.12
443.813	122.12
444.034	120.12
444.255	105.12
444.476	80.12
444.698	92.12
444.919	87.12
445.14	130.12
445.361	120.12
445.582	136.12
445.803	169.12
446.024	184.12
446.245	163.12
446.466	120.12
446.687	91.12
446.908	106.12
447.129	93.12
447.35	106.12
447.571	83.12
447.792	108.12
448.013	99.12
448.234	124.12
448.455	116.12
448.675	116.12
448.896	142.12
449.117	111.12
449.338	125.12
449.559	132.12
449.779	149.12
450	95.12
450.221	82.12
450.442	104.12
450.662	102.12
450.883	140.12
451.104	135.12
451.324	87.12
451.545	102.12
451.766	85.12
451.986	108.12
452.207	102.12
452.428	108.12
452.648	113.12
452.869	129.12
453.089	132.12
453.31	135.12
453.53	114.12
453.751	100.12
453.971	116.12
454.192	117.12
454.412	95.12
454.633	90.12
454.853	91.12
455.073	99.12
455.294	92.12
455.514	100.12
455.734	88.12
455.955	91.12
456.175	70.12
456.395	84.12
456.616	85.12
456.836	76.12
457.056	85.12
457.276	74.12
457.497	87.12
457.717	98.12
457.937	93.12
458.157	86.12
458.377	97.12
458.598	113.12
458.818	201.12
459.038	208.12
459.258	148.12
459.478	90.12
459.698	93.12
459.918	76.12
460.138	83.12
460.358	86.12
460.578	102.12
460.798	101.12
461.018	89.12
461.238	83.12
461.458	85.12
461.678	100.12
461.898	86.12
462.118	89.12
462.338	92.12
462.558	90.12
462.777	96.12
462.997	90.12
463.217	100.12
463.437	85.12
463.657	83.12
463.876	95.12
464.096	93.12
464.316	100.12
464.536	96.12
464.755	119.12
464.975	113.12
465.195	214.12
465.414	226.12
465.634	101.12
465.854	94.12
466.073	96.12
466.293	100.12
466.512	89.12
466.732	76.12
466.951	96.12
467.171	94.12
467.391	100.12
467.61	124.12
467.829	172.12
468.049	341.12
468.268	486.12
468.488	155.12
468.707	104.12
468.927	78.12
469.146	85.12
469.365	92.12
469.585	91.12
469.804	111.12
470.023	104.12
470.243	107.12
470.462	122.12
470.681	131.12
470.901	90.12
471.12	92.12
471.339	101.12
471.558	112.12
471.777	123.12
471.997	204.12
472.216	611.12
472.435	1340.12
472.654	356.12
472.873	132.12
473.092	100.12
473.311	97.12
473.53	75.12
473.749	95.12
473.968	108.12
474.187	115.12
474.406	88.12
474.625	85.12
474.844	93.12
475.063	84.12
475.282	95.12
475.501	80.12
475.72	97.12
475.939	89.12
476.158	98.12
476.377	104.12
476.596	89.12
476.814	110.12
477.033	106.12
477.252	93.12
477.471	95.12
477.69	107.12
477.908	101.12
478.127	93.12
478.346	106.12
478.564	96.12
478.783	116.12
479.002	117.12
479.22	107.12
479.439	115.12
479.658	105.12
479.876	131.12
480.095	89.12
480.313	108.12
480.532	122.12
480.751	196.12
480.969	579.12
481.188	2282.12
481.406	1360.12
481.624	252.12
481.843	117.12
482.061	101.12
482.28	98.12
482.498	99.12
482.717	95.12
482.935	93.12
483.153	91.12
483.372	92.12
483.59	89.12
483.808	97.12
484.027	79.12
484.245	100.12
484.463	84.12
484.681	105.12
484.9	96.12
485.118	90.12
485.336	97.12
485.554	93.12
485.772	108.12
485.99	106.12
486.209	106.12
486.427	105.12
486.645	134.12
486.863	125.12
487.081	119.12
487.299	101.12
487.517	85.12
487.735	87.12
487.953	100.12
488.171	105.12
488.389	113.12
488.607	94.12
488.825	99.12
489.043	89.12
489.261	101.12
489.479	96.12
489.696	85.12
489.914	95.12
490.132	78.12
490.35	96.12
490.568	96.12
490.786	100.12
491.003	85.12
491.221	92.12
491.439	95.12
491.657	105.12
491.874	104.12
492.092	97.12
492.31	107.12
492.527	94.12
492.745	93.12
492.963	87.12
493.18	91.12
493.398	97.12
493.615	105.12
493.833	93.12
494.05	83.12
494.268	97.12
494.485	112.12
494.703	95.12
494.92	90.12
495.138	88.12
495.355	108.12
495.573	93.12
495.79	96.12
496.008	103.12
496.225	79.12
496.442	111.12
496.66	100.12
496.877	98.12
497.094	82.12
497.312	81.12
497.529	85.12
497.746	83.12
497.963	98.12
498.181	87.12
498.398	103.12
498.615	105.12
498.832	106.12
499.049	91.12
499.267	88.12
499.484	101.12
499.701	111.12
499.918	92.12
500.135	98.12
500.352	83.12
500.569	105.12
500.786	82.12
501.003	83.12
501.22	88.12
501.437	95.12
501.654	112.12
501.871	125.12
502.088	95.12
502.305	102.12
502.522	98.12
502.739	74.12
502.956	88.12
503.172	98.12
503.389	105.12
503.606	112.12
503.823	117.12
504.04	92.12
504.256	88.12
504.473	88.12
504.69	84.12
504.907	93.12
505.123	95.12
505.34	93.12
505.557	100.12
505.773	106.12
505.99	80.12
506.207	86.12
506.423	88.12
506.64	103.12
506.856	87.12
507.073	89.12
507.289	91.12
507.506	101.12
507.722	130.12
507.939	128.12
508.155	104.12
508.372	109.12
508.588	94.12
508.805	113.12
509.021	119.12
509.238	106.12
509.454	100.12
509.67	98.12
509.887	102.12
510.103	134.12
510.319	245.12
510.536	925.12
510.752	3176.12
510.968	864.12
511.184	192.12
511.401	110.12
511.617	114.12
511.833	107.12
512.049	81.12
512.265	84.12
512.481	95.12
512.698	104.12
512.914	92.12
513.13	92.12
513.346	103.12
