Data from Circ_2000_H10_HRD10591_00015.txt Node
Date: Wed Jan 03 10:49:36 EST 2024
User: Yrep
Spectrometer: HR+D1059
Trigger mode: 1
Integration Time (sec): 1.000000E-1
Scans to average: 1
Electric dark correction enabled: true
Nonlinearity correction enabled: false
Boxcar width: 0
XAxis mode: Wavelengths
Number of Pixels in Spectrum: 2048
>>>>>Begin Spectral Data<<<<<
223.165	-31.44
223.4	-31.44
223.635	-31.44
223.869	-19.44
224.104	-16.44
224.338	-11.44
224.573	-18.44
224.808	-9.44
225.042	-18.44
225.277	-5.44
225.511	-3.44
225.746	-5.44
225.98	-8.44
226.215	17.56
226.449	31.56
226.683	37.56
226.918	26.56
227.152	34.56
227.387	27.56
227.621	44.56
227.856	47.56
228.09	56.56
228.324	53.56
228.559	54.56
228.793	53.56
229.027	74.56
229.262	72.56
229.496	75.56
229.73	82.56
229.964	89.56
230.199	63.56
230.433	71.56
230.667	85.56
230.901	71.56
231.136	89.56
231.37	82.56
231.604	87.56
231.838	70.56
232.072	73.56
232.306	82.56
232.541	87.56
232.775	71.56
233.009	85.56
233.243	89.56
233.477	75.56
233.711	59.56
233.945	77.56
234.179	84.56
234.413	96.56
234.647	86.56
234.881	83.56
235.115	90.56
235.349	102.56
235.583	83.56
235.817	77.56
236.051	82.56
236.285	75.56
236.519	77.56
236.753	86.56
236.987	64.56
237.221	79.56
237.455	85.56
237.689	75.56
237.922	69.56
238.156	82.56
238.39	94.56
238.624	86.56
238.858	88.56
239.091	75.56
239.325	78.56
239.559	74.56
239.793	78.56
240.027	67.56
240.26	70.56
240.494	81.56
240.728	76.56
240.961	78.56
241.195	86.56
241.429	77.56
241.662	72.56
241.896	77.56
242.13	78.56
242.363	75.56
242.597	70.56
242.83	77.56
243.064	71.56
243.298	87.56
243.531	85.56
243.765	74.56
243.998	60.56
244.232	76.56
244.465	74.56
244.699	80.56
244.932	79.56
245.166	84.56
245.399	61.56
245.633	86.56
245.866	70.56
246.099	72.56
246.333	83.56
246.566	78.56
246.8	86.56
247.033	75.56
247.266	80.56
247.5	82.56
247.733	74.56
247.966	79.56
248.2	86.56
248.433	74.56
248.666	77.56
248.899	103.56
249.133	78.56
249.366	95.56
249.599	100.56
249.832	99.56
250.066	90.56
250.299	86.56
250.532	88.56
250.765	96.56
250.998	76.56
251.231	86.56
251.465	99.56
251.698	88.56
251.931	69.56
252.164	77.56
252.397	88.56
252.63	76.56
252.863	73.56
253.096	76.56
253.329	89.56
253.562	68.56
253.795	82.56
254.028	80.56
254.261	76.56
254.494	82.56
254.727	87.56
254.96	84.56
255.193	85.56
255.426	96.56
255.659	76.56
255.892	95.56
256.124	93.56
256.357	91.56
256.59	88.56
256.823	74.56
257.056	94.56
257.289	73.56
257.521	95.56
257.754	76.56
257.987	81.56
258.22	101.56
258.452	76.56
258.685	92.56
258.918	71.56
259.151	88.56
259.383	75.56
259.616	80.56
259.849	78.56
260.081	77.56
260.314	83.56
260.547	83.56
260.779	92.56
261.012	87.56
261.244	91.56
261.477	83.56
261.71	103.56
261.942	108.56
262.175	105.56
262.407	83.56
262.64	83.56
262.872	86.56
263.105	85.56
263.337	79.56
263.57	93.56
263.802	84.56
264.035	79.56
264.267	76.56
264.499	75.56
264.732	74.56
264.964	76.56
265.197	89.56
265.429	94.56
265.661	87.56
265.894	93.56
266.126	80.56
266.358	83.56
266.591	83.56
266.823	77.56
267.055	84.56
267.287	84.56
267.52	91.56
267.752	85.56
267.984	78.56
268.216	78.56
268.448	90.56
268.681	97.56
268.913	89.56
269.145	87.56
269.377	87.56
269.609	72.56
269.841	76.56
270.073	76.56
270.306	84.56
270.538	75.56
270.77	93.56
271.002	94.56
271.234	97.56
271.466	90.56
271.698	90.56
271.93	81.56
272.162	83.56
272.394	86.56
272.626	85.56
272.858	76.56
273.09	82.56
273.322	90.56
273.553	83.56
273.785	99.56
274.017	79.56
274.249	93.56
274.481	91.56
274.713	90.56
274.945	96.56
275.176	68.56
275.408	76.56
275.64	69.56
275.872	94.56
276.104	76.56
276.335	100.56
276.567	93.56
276.799	109.56
277.031	99.56
277.262	100.56
277.494	113.56
277.726	78.56
277.957	76.56
278.189	71.56
278.421	67.56
278.652	92.56
278.884	73.56
279.115	95.56
279.347	82.56
279.579	87.56
279.81	88.56
280.042	93.56
280.273	80.56
280.505	101.56
280.736	80.56
280.968	84.56
281.199	84.56
281.431	79.56
281.662	103.56
281.894	87.56
282.125	99.56
282.356	112.56
282.588	132.56
282.819	118.56
283.051	88.56
283.282	101.56
283.513	82.56
283.745	90.56
283.976	89.56
284.207	77.56
284.439	96.56
284.67	78.56
284.901	75.56
285.132	78.56
285.364	84.56
285.595	84.56
285.826	92.56
286.057	82.56
286.288	85.56
286.52	87.56
286.751	81.56
286.982	87.56
287.213	87.56
287.444	90.56
287.675	89.56
287.906	83.56
288.138	86.56
288.369	84.56
288.6	98.56
288.831	97.56
289.062	86.56
289.293	97.56
289.524	91.56
289.755	82.56
289.986	103.56
290.217	85.56
290.448	78.56
290.679	91.56
290.91	91.56
291.141	88.56
291.371	93.56
291.602	78.56
291.833	84.56
292.064	89.56
292.295	100.56
292.526	84.56
292.757	100.56
292.987	94.56
293.218	82.56
293.449	93.56
293.68	83.56
293.91	94.56
294.141	101.56
294.372	99.56
294.603	82.56
294.833	92.56
295.064	87.56
295.295	96.56
295.525	87.56
295.756	102.56
295.987	102.56
296.217	126.56
296.448	120.56
296.679	103.56
296.909	98.56
297.14	93.56
297.37	92.56
297.601	90.56
297.831	94.56
298.062	100.56
298.292	90.56
298.523	92.56
298.753	90.56
298.984	93.56
299.214	104.56
299.445	100.56
299.675	96.56
299.905	93.56
300.136	103.56
300.366	87.56
300.597	84.56
300.827	91.56
301.057	94.56
301.288	97.56
301.518	93.56
301.748	103.56
301.979	100.56
302.209	91.56
302.439	93.56
302.669	96.56
302.9	83.56
303.13	78.56
303.36	91.56
303.59	108.56
303.82	112.56
304.051	92.56
304.281	85.56
304.511	85.56
304.741	93.56
304.971	103.56
305.201	94.56
305.431	86.56
305.661	87.56
305.891	98.56
306.121	80.56
306.352	95.56
306.582	100.56
306.812	111.56
307.042	80.56
307.272	97.56
307.502	114.56
307.731	101.56
307.961	91.56
308.191	87.56
308.421	99.56
308.651	88.56
308.881	93.56
309.111	96.56
309.341	87.56
309.571	91.56
309.8	87.56
310.03	87.56
310.26	91.56
310.49	104.56
310.72	90.56
310.949	104.56
311.179	107.56
311.409	93.56
311.639	84.56
311.868	90.56
312.098	90.56
312.328	97.56
312.557	106.56
312.787	98.56
313.017	93.56
313.246	104.56
313.476	100.56
313.706	96.56
313.935	101.56
314.165	107.56
314.394	110.56
314.624	95.56
314.853	95.56
315.083	90.56
315.312	98.56
315.542	95.56
315.771	78.56
316.001	88.56
316.23	84.56
316.46	83.56
316.689	97.56
316.919	80.56
317.148	100.56
317.377	97.56
317.607	89.56
317.836	94.56
318.065	88.56
318.295	105.56
318.524	79.56
318.753	89.56
318.983	107.56
319.212	103.56
319.441	95.56
319.67	101.56
319.9	97.56
320.129	93.56
320.358	90.56
320.587	97.56
320.816	96.56
321.046	96.56
321.275	103.56
321.504	92.56
321.733	101.56
321.962	108.56
322.191	95.56
322.42	118.56
322.649	107.56
322.878	109.56
323.108	114.56
323.337	116.56
323.566	125.56
323.795	127.56
324.024	182.56
324.253	351.56
324.482	706.56
324.71	1411.56
324.939	1850.56
325.168	697.56
325.397	219.56
325.626	149.56
325.855	112.56
326.084	111.56
326.313	146.56
326.542	144.56
326.77	207.56
326.999	396.56
327.228	812.56
327.457	1424.56
327.686	1143.56
327.914	336.56
328.143	196.56
328.372	175.56
328.6	136.56
328.829	110.56
329.058	121.56
329.287	130.56
329.515	120.56
329.744	132.56
329.972	136.56
330.201	186.56
330.43	229.56
330.658	150.56
330.887	150.56
331.115	106.56
331.344	108.56
331.572	110.56
331.801	106.56
332.03	99.56
332.258	86.56
332.486	97.56
332.715	104.56
332.943	104.56
333.172	93.56
333.4	110.56
333.629	106.56
333.857	112.56
334.085	144.56
334.314	178.56
334.542	253.56
334.771	244.56
334.999	137.56
335.227	116.56
335.455	92.56
335.684	100.56
335.912	93.56
336.14	107.56
336.369	97.56
336.597	92.56
336.825	97.56
337.053	97.56
337.281	92.56
337.51	92.56
337.738	95.56
337.966	101.56
338.194	109.56
338.422	93.56
338.65	96.56
338.878	102.56
339.106	92.56
339.334	82.56
339.562	84.56
339.79	92.56
340.018	94.56
340.246	85.56
340.474	93.56
340.702	94.56
340.93	85.56
341.158	89.56
341.386	97.56
341.614	106.56
341.842	91.56
342.07	87.56
342.298	98.56
342.526	92.56
342.754	87.56
342.981	93.56
343.209	92.56
343.437	89.56
343.665	106.56
343.893	96.56
344.12	96.56
344.348	80.56
344.576	94.56
344.804	94.56
345.031	98.56
345.259	91.56
345.487	107.56
345.714	93.56
345.942	99.56
346.17	88.56
346.397	98.56
346.625	97.56
346.853	98.56
347.08	94.56
347.308	93.56
347.535	98.56
347.763	98.56
347.99	106.56
348.218	100.56
348.445	93.56
348.673	100.56
348.9	97.56
349.128	86.56
349.355	91.56
349.583	89.56
349.81	100.56
350.037	102.56
350.265	99.56
350.492	90.56
350.72	87.56
350.947	99.56
351.174	113.56
351.402	104.56
351.629	96.56
351.856	97.56
352.083	102.56
352.311	92.56
352.538	108.56
352.765	108.56
352.992	107.56
353.22	113.56
353.447	111.56
353.674	103.56
353.901	91.56
354.128	91.56
354.355	85.56
354.583	101.56
354.81	86.56
355.037	98.56
355.264	108.56
355.491	109.56
355.718	96.56
355.945	96.56
356.172	95.56
356.399	100.56
356.626	101.56
356.853	103.56
357.08	98.56
357.307	99.56
357.534	95.56
357.761	89.56
357.988	99.56
358.215	92.56
358.441	101.56
358.668	116.56
358.895	85.56
359.122	96.56
359.349	95.56
359.576	102.56
359.802	103.56
360.029	95.56
360.256	99.56
360.483	93.56
360.709	94.56
360.936	99.56
361.163	90.56
361.39	108.56
361.616	102.56
361.843	81.56
362.07	94.56
362.296	99.56
362.523	93.56
362.749	92.56
362.976	92.56
363.203	95.56
363.429	86.56
363.656	76.56
363.882	98.56
364.109	90.56
364.335	100.56
364.562	100.56
364.788	88.56
365.015	96.56
365.241	94.56
365.468	104.56
365.694	102.56
365.92	90.56
366.147	90.56
366.373	85.56
366.599	88.56
366.826	93.56
367.052	90.56
367.278	82.56
367.505	93.56
367.731	82.56
367.957	104.56
368.184	85.56
368.41	110.56
368.636	93.56
368.862	112.56
369.089	99.56
369.315	90.56
369.541	92.56
369.767	78.56
369.993	91.56
370.219	96.56
370.445	95.56
370.672	95.56
370.898	93.56
371.124	71.56
371.35	67.56
371.576	100.56
371.802	99.56
372.028	85.56
372.254	86.56
372.48	95.56
372.706	85.56
372.932	82.56
373.158	97.56
373.384	99.56
373.61	91.56
373.835	84.56
374.061	80.56
374.287	96.56
374.513	95.56
374.739	89.56
374.965	84.56
375.191	99.56
375.416	108.56
375.642	103.56
375.868	95.56
376.094	83.56
376.319	86.56
376.545	104.56
376.771	97.56
376.997	93.56
377.222	91.56
377.448	105.56
377.674	96.56
377.899	86.56
378.125	88.56
378.35	93.56
378.576	97.56
378.802	94.56
379.027	92.56
379.253	109.56
379.478	104.56
379.704	112.56
379.929	105.56
380.155	96.56
380.38	94.56
380.606	111.56
380.831	99.56
381.057	108.56
381.282	88.56
381.507	95.56
381.733	108.56
381.958	110.56
382.184	91.56
382.409	110.56
382.634	101.56
382.86	124.56
383.085	111.56
383.31	129.56
383.535	107.56
383.761	102.56
383.986	106.56
384.211	105.56
384.436	115.56
384.662	97.56
384.887	127.56
385.112	114.56
385.337	117.56
385.562	135.56
385.787	108.56
386.013	121.56
386.238	123.56
386.463	119.56
386.688	132.56
386.913	113.56
387.138	126.56
387.363	125.56
387.588	115.56
387.813	117.56
388.038	122.56
388.263	130.56
388.488	126.56
388.713	93.56
388.938	96.56
389.163	96.56
389.387	93.56
389.612	95.56
389.837	94.56
390.062	98.56
390.287	99.56
390.512	92.56
390.736	88.56
390.961	97.56
391.186	98.56
391.411	109.56
391.636	99.56
391.86	89.56
392.085	90.56
392.31	90.56
392.534	91.56
392.759	104.56
392.984	97.56
393.208	86.56
393.433	102.56
393.658	83.56
393.882	84.56
394.107	76.56
394.331	93.56
394.556	81.56
394.78	83.56
395.005	91.56
395.229	85.56
395.454	80.56
395.678	92.56
395.903	101.56
396.127	103.56
396.352	92.56
396.576	82.56
396.801	92.56
397.025	100.56
397.249	82.56
397.474	90.56
397.698	84.56
397.922	92.56
398.147	90.56
398.371	88.56
398.595	91.56
398.82	100.56
399.044	86.56
399.268	97.56
399.492	83.56
399.717	92.56
399.941	93.56
400.165	96.56
400.389	98.56
400.613	91.56
400.837	85.56
401.062	87.56
401.286	91.56
401.51	99.56
401.734	101.56
401.958	107.56
402.182	119.56
402.406	135.56
402.63	102.56
402.854	97.56
403.078	88.56
403.302	86.56
403.526	78.56
403.75	85.56
403.974	95.56
404.198	102.56
404.422	92.56
404.645	86.56
404.869	97.56
405.093	96.56
405.317	90.56
405.541	102.56
405.765	100.56
405.988	104.56
406.212	157.56
406.436	209.56
406.66	121.56
406.883	101.56
407.107	80.56
407.331	101.56
407.555	90.56
407.778	98.56
408.002	89.56
408.226	92.56
408.449	93.56
408.673	81.56
408.896	94.56
409.12	99.56
409.344	94.56
409.567	83.56
409.791	86.56
410.014	86.56
410.238	81.56
410.461	89.56
410.685	95.56
410.908	94.56
411.132	107.56
411.355	88.56
411.578	94.56
411.802	68.56
412.025	85.56
412.249	100.56
412.472	103.56
412.695	108.56
412.919	102.56
413.142	79.56
413.365	80.56
413.589	94.56
413.812	86.56
414.035	87.56
414.258	106.56
414.482	83.56
414.705	92.56
414.928	85.56
415.151	104.56
415.374	107.56
415.597	106.56
415.821	95.56
416.044	78.56
416.267	96.56
416.49	107.56
416.713	95.56
416.936	91.56
417.159	84.56
417.382	86.56
417.605	102.56
417.828	112.56
418.051	91.56
418.274	79.56
418.497	75.56
418.72	89.56
418.943	85.56
419.166	98.56
419.389	94.56
419.611	100.56
419.834	86.56
420.057	85.56
420.28	99.56
420.503	89.56
420.726	89.56
420.948	109.56
421.171	88.56
421.394	72.56
421.617	88.56
421.839	89.56
422.062	86.56
422.285	88.56
422.507	90.56
422.73	95.56
422.953	94.56
423.175	103.56
423.398	85.56
423.621	88.56
423.843	88.56
424.066	94.56
424.288	91.56
424.511	89.56
424.733	89.56
424.956	106.56
425.178	101.56
425.401	91.56
425.623	96.56
425.846	93.56
426.068	91.56
426.291	100.56
426.513	98.56
426.735	95.56
426.958	88.56
427.18	95.56
427.402	135.56
427.625	147.56
427.847	118.56
428.069	108.56
428.292	101.56
428.514	85.56
428.736	90.56
428.958	94.56
429.181	86.56
429.403	91.56
429.625	89.56
429.847	91.56
430.069	85.56
430.292	100.56
430.514	82.56
430.736	86.56
430.958	86.56
431.18	79.56
431.402	82.56
431.624	90.56
431.846	102.56
432.068	90.56
432.29	100.56
432.512	96.56
432.734	79.56
432.956	83.56
433.178	110.56
433.4	88.56
433.622	88.56
433.844	92.56
434.066	92.56
434.287	93.56
434.509	99.56
434.731	84.56
434.953	85.56
435.175	73.56
435.397	98.56
435.618	103.56
435.84	92.56
436.062	123.56
436.284	100.56
436.505	96.56
436.727	89.56
436.949	84.56
437.17	93.56
437.392	83.56
437.614	86.56
437.835	103.56
438.057	105.56
438.278	108.56
438.5	108.56
438.721	110.56
438.943	114.56
439.165	106.56
439.386	98.56
439.608	103.56
439.829	91.56
440.05	113.56
440.272	122.56
440.493	101.56
440.715	90.56
440.936	88.56
441.158	96.56
441.379	92.56
441.6	88.56
441.822	89.56
442.043	90.56
442.264	86.56
442.486	107.56
442.707	92.56
442.928	104.56
443.149	124.56
443.371	130.56
443.592	97.56
443.813	97.56
444.034	106.56
444.255	82.56
444.476	99.56
444.698	77.56
444.919	88.56
445.14	141.56
445.361	114.56
445.582	113.56
445.803	126.56
446.024	112.56
446.245	134.56
446.466	103.56
446.687	92.56
446.908	82.56
447.129	80.56
447.35	77.56
447.571	92.56
447.792	92.56
448.013	101.56
448.234	100.56
448.455	87.56
448.675	115.56
448.896	123.56
449.117	94.56
449.338	107.56
449.559	124.56
449.779	111.56
450	103.56
450.221	79.56
450.442	108.56
450.662	102.56
450.883	97.56
451.104	107.56
451.324	95.56
451.545	81.56
451.766	79.56
451.986	92.56
452.207	91.56
452.428	84.56
452.648	95.56
452.869	106.56
453.089	102.56
453.31	114.56
453.53	85.56
453.751	90.56
453.971	94.56
454.192	103.56
454.412	97.56
454.633	93.56
454.853	93.56
455.073	112.56
455.294	108.56
455.514	96.56
455.734	99.56
455.955	91.56
456.175	91.56
456.395	79.56
456.616	79.56
456.836	91.56
457.056	90.56
457.276	87.56
457.497	82.56
457.717	85.56
457.937	89.56
458.157	90.56
458.377	96.56
458.598	107.56
458.818	135.56
459.038	152.56
459.258	108.56
459.478	82.56
459.698	75.56
459.918	91.56
460.138	92.56
460.358	99.56
460.578	84.56
460.798	86.56
461.018	79.56
461.238	87.56
461.458	95.56
461.678	90.56
461.898	87.56
462.118	84.56
462.338	85.56
462.558	76.56
462.777	101.56
462.997	93.56
463.217	85.56
463.437	82.56
463.657	85.56
463.876	84.56
464.096	92.56
464.316	83.56
464.536	84.56
464.755	91.56
464.975	95.56
465.195	144.56
465.414	134.56
465.634	91.56
465.854	78.56
466.073	86.56
466.293	82.56
466.512	91.56
466.732	101.56
466.951	98.56
467.171	99.56
467.391	104.56
467.61	106.56
467.829	108.56
468.049	144.56
468.268	179.56
468.488	106.56
468.707	87.56
468.927	86.56
469.146	87.56
469.365	100.56
469.585	102.56
469.804	96.56
470.023	93.56
470.243	89.56
470.462	95.56
470.681	110.56
470.901	86.56
471.12	87.56
471.339	99.56
471.558	97.56
471.777	86.56
471.997	134.56
472.216	216.56
472.435	339.56
472.654	144.56
472.873	92.56
473.092	100.56
473.311	97.56
473.53	99.56
473.749	76.56
473.968	101.56
474.187	104.56
474.406	101.56
474.625	86.56
474.844	92.56
475.063	92.56
475.282	77.56
475.501	100.56
475.72	88.56
475.939	96.56
476.158	95.56
476.377	77.56
476.596	76.56
476.814	95.56
477.033	87.56
477.252	80.56
477.471	88.56
477.69	81.56
477.908	91.56
478.127	105.56
478.346	91.56
478.564	81.56
478.783	83.56
479.002	97.56
479.22	94.56
479.439	84.56
479.658	85.56
479.876	96.56
480.095	96.56
480.313	102.56
480.532	104.56
480.751	105.56
480.969	207.56
481.188	544.56
481.406	356.56
481.624	121.56
481.843	85.56
482.061	90.56
482.28	98.56
482.498	78.56
482.717	93.56
482.935	100.56
483.153	89.56
483.372	86.56
483.59	93.56
483.808	88.56
484.027	79.56
484.245	99.56
484.463	93.56
484.681	95.56
484.9	94.56
485.118	92.56
485.336	83.56
485.554	114.56
485.772	116.56
485.99	120.56
486.209	94.56
486.427	108.56
486.645	105.56
486.863	112.56
487.081	91.56
487.299	83.56
487.517	94.56
487.735	84.56
487.953	94.56
488.171	100.56
488.389	107.56
488.607	104.56
488.825	88.56
489.043	81.56
489.261	79.56
489.479	90.56
489.696	89.56
489.914	78.56
490.132	86.56
490.35	92.56
490.568	102.56
490.786	81.56
491.003	76.56
491.221	85.56
491.439	86.56
491.657	85.56
491.874	101.56
492.092	90.56
492.31	103.56
492.527	88.56
492.745	91.56
492.963	94.56
493.18	91.56
493.398	92.56
493.615	88.56
493.833	95.56
494.05	86.56
494.268	91.56
494.485	99.56
494.703	92.56
494.92	99.56
495.138	89.56
495.355	89.56
495.573	106.56
495.79	107.56
496.008	94.56
496.225	110.56
496.442	99.56
496.66	88.56
496.877	94.56
497.094	90.56
497.312	76.56
497.529	100.56
497.746	86.56
497.963	78.56
498.181	85.56
498.398	83.56
498.615	90.56
498.832	97.56
499.049	97.56
499.267	82.56
499.484	87.56
499.701	93.56
499.918	87.56
500.135	86.56
500.352	93.56
500.569	94.56
500.786	98.56
501.003	110.56
501.22	79.56
501.437	102.56
501.654	93.56
501.871	92.56
502.088	103.56
502.305	92.56
502.522	87.56
502.739	78.56
502.956	93.56
503.172	87.56
503.389	82.56
503.606	106.56
503.823	106.56
504.04	93.56
504.256	102.56
504.473	95.56
504.69	89.56
504.907	105.56
505.123	103.56
505.34	87.56
505.557	97.56
505.773	90.56
505.99	98.56
506.207	93.56
506.423	88.56
506.64	85.56
506.856	83.56
507.073	86.56
507.289	91.56
507.506	83.56
507.722	106.56
507.939	98.56
508.155	88.56
508.372	96.56
508.588	107.56
508.805	101.56
509.021	91.56
509.238	95.56
509.454	101.56
509.67	102.56
509.887	109.56
510.103	115.56
510.319	185.56
510.536	643.56
510.752	1988.56
510.968	566.56
511.184	130.56
511.401	105.56
511.617	90.56
511.833	83.56
512.049	77.56
512.265	93.56
512.481	85.56
512.698	95.56
512.914	92.56
513.13	106.56
513.346	95.56
513.562	82.56
513.778	90.56
513.994	88.56
514.21	104.56
514.426	102.56
514.642	126.56
514.858	131.56
