Data from Circ_2000_H10_HRD10591_00044.txt Node
Date: Wed Jan 03 10:49:42 EST 2024
User: Yrep
Spectrometer: HR+D1059
Trigger mode: 1
Integration Time (sec): 1.000000E-1
Scans to average: 1
Electric dark correction enabled: true
Nonlinearity correction enabled: false
Boxcar width: 0
XAxis mode: Wavelengths
Number of Pixels in Spectrum: 2048
>>>>>Begin Spectral Data<<<<<
223.165	-9
223.4	-9
223.635	-9
223.869	-18
224.104	-34
224.338	-20
224.573	-23
224.808	-7
225.042	-7
225.277	-3
225.511	2
225.746	-3
225.98	2
226.215	23
226.449	13
226.683	17
226.918	24
227.152	43
227.387	29
227.621	30
227.856	51
228.09	61
228.324	62
228.559	50
228.793	64
229.027	50
229.262	52
229.496	72
229.73	79
229.964	86
230.199	83
230.433	65
230.667	78
230.901	79
231.136	84
231.37	76
231.604	73
231.838	92
232.072	82
232.306	90
232.541	84
232.775	82
233.009	73
233.243	80
233.477	78
233.711	69
233.945	84
234.179	77
234.413	83
234.647	77
234.881	61
235.115	85
235.349	84
235.583	73
235.817	80
236.051	79
236.285	81
236.519	65
236.753	81
236.987	83
237.221	78
237.455	71
237.689	84
237.922	77
238.156	75
238.39	84
238.624	62
238.858	71
239.091	70
239.325	79
239.559	63
239.793	71
240.027	82
240.26	70
240.494	76
240.728	74
240.961	62
241.195	81
241.429	79
241.662	77
241.896	83
242.13	84
242.363	83
242.597	80
242.83	73
243.064	78
243.298	80
243.531	80
243.765	82
243.998	82
244.232	75
244.465	72
244.699	77
244.932	91
245.166	74
245.399	74
245.633	71
245.866	72
246.099	77
246.333	82
246.566	84
246.8	82
247.033	73
247.266	85
247.5	81
247.733	89
247.966	94
248.2	96
248.433	78
248.666	82
248.899	87
249.133	78
249.366	100
249.599	84
249.832	70
250.066	74
250.299	80
250.532	70
250.765	84
250.998	75
251.231	73
251.465	63
251.698	86
251.931	92
252.164	76
252.397	84
252.63	90
252.863	75
253.096	82
253.329	77
253.562	77
253.795	74
254.028	79
254.261	74
254.494	71
254.727	96
254.96	95
255.193	80
255.426	83
255.659	70
255.892	79
256.124	80
256.357	74
256.59	88
256.823	87
257.056	96
257.289	83
257.521	76
257.754	84
257.987	73
258.22	84
258.452	86
258.685	74
258.918	85
259.151	65
259.383	94
259.616	73
259.849	77
260.081	77
260.314	84
260.547	85
260.779	82
261.012	86
261.244	83
261.477	97
261.71	84
261.942	96
262.175	103
262.407	93
262.64	73
262.872	83
263.105	85
263.337	85
263.57	85
263.802	86
264.035	70
264.267	83
264.499	83
264.732	89
264.964	81
265.197	78
265.429	84
265.661	65
265.894	97
266.126	83
266.358	76
266.591	87
266.823	78
267.055	91
267.287	93
267.52	69
267.752	82
267.984	84
268.216	82
268.448	80
268.681	75
268.913	77
269.145	79
269.377	85
269.609	88
269.841	84
270.073	83
270.306	93
270.538	77
270.77	85
271.002	77
271.234	82
271.466	95
271.698	83
271.93	76
272.162	81
272.394	80
272.626	88
272.858	76
273.09	75
273.322	86
273.553	95
273.785	84
274.017	70
274.249	91
274.481	83
274.713	93
274.945	86
275.176	85
275.408	97
275.64	93
275.872	101
276.104	87
276.335	94
276.567	101
276.799	108
277.031	107
277.262	113
277.494	90
277.726	76
277.957	83
278.189	84
278.421	83
278.652	80
278.884	92
279.115	99
279.347	93
279.579	105
279.81	92
280.042	106
280.273	154
280.505	114
280.736	102
280.968	91
281.199	70
281.431	86
281.662	92
281.894	93
282.125	101
282.356	123
282.588	148
282.819	107
283.051	98
283.282	83
283.513	84
283.745	97
283.976	106
284.207	93
284.439	84
284.67	90
284.901	74
285.132	98
285.364	88
285.595	94
285.826	80
286.057	93
286.288	87
286.52	92
286.751	99
286.982	99
287.213	94
287.444	92
287.675	74
287.906	96
288.138	82
288.369	99
288.6	100
288.831	80
289.062	80
289.293	87
289.524	81
289.755	80
289.986	70
290.217	94
290.448	86
290.679	86
290.91	80
291.141	78
291.371	79
291.602	87
291.833	91
292.064	91
292.295	90
292.526	83
292.757	94
292.987	97
293.218	93
293.449	90
293.68	94
293.91	93
294.141	96
294.372	98
294.603	85
294.833	89
295.064	82
295.295	75
295.525	100
295.756	101
295.987	118
296.217	138
296.448	121
296.679	93
296.909	93
297.14	88
297.37	92
297.601	84
297.831	83
298.062	99
298.292	91
298.523	83
298.753	96
298.984	109
299.214	91
299.445	89
299.675	91
299.905	113
300.136	80
300.366	87
300.597	88
300.827	96
301.057	99
301.288	112
301.518	106
301.748	88
301.979	99
302.209	92
302.439	96
302.669	98
302.9	78
303.13	96
303.36	99
303.59	103
303.82	97
304.051	97
304.281	97
304.511	82
304.741	96
304.971	82
305.201	93
305.431	97
305.661	95
305.891	90
306.121	94
306.352	97
306.582	100
306.812	111
307.042	110
307.272	121
307.502	121
307.731	102
307.961	103
308.191	97
308.421	89
308.651	94
308.881	94
309.111	90
309.341	84
309.571	101
309.8	98
310.03	105
310.26	90
310.49	91
310.72	99
310.949	103
311.179	99
311.409	90
311.639	101
311.868	99
312.098	101
312.328	114
312.557	110
312.787	100
313.017	100
313.246	88
313.476	89
313.706	104
313.935	101
314.165	98
314.394	113
314.624	109
314.853	105
315.083	85
315.312	97
315.542	79
315.771	84
316.001	93
316.23	84
316.46	89
316.689	77
316.919	96
317.148	101
317.377	96
317.607	98
317.836	85
318.065	99
318.295	97
318.524	99
318.753	89
318.983	101
319.212	102
319.441	120
319.67	88
319.9	90
320.129	89
320.358	92
320.587	93
320.816	97
321.046	93
321.275	100
321.504	93
321.733	90
321.962	96
322.191	117
322.42	109
322.649	120
322.878	111
323.108	111
323.337	110
323.566	135
323.795	165
324.024	220
324.253	416
324.482	858
324.71	1822
324.939	2412
325.168	882
325.397	256
325.626	157
325.855	123
326.084	138
326.313	141
326.542	156
326.77	241
326.999	492
327.228	1026
327.457	1822
327.686	1444
327.914	410
328.143	275
328.372	300
328.6	207
328.829	129
329.058	145
329.287	134
329.515	126
329.744	157
329.972	221
330.201	385
330.43	526
330.658	276
330.887	180
331.115	134
331.344	98
331.572	99
331.801	114
332.03	117
332.258	109
332.486	100
332.715	101
332.943	93
333.172	94
333.4	102
333.629	118
333.857	147
334.085	225
334.314	382
334.542	675
334.771	662
334.999	216
335.227	126
335.455	104
335.684	101
335.912	100
336.14	98
336.369	92
336.597	94
336.825	101
337.053	91
337.281	77
337.51	98
337.738	87
337.966	98
338.194	86
338.422	88
338.65	101
338.878	98
339.106	84
339.334	99
339.562	88
339.79	116
340.018	88
340.246	94
340.474	101
340.702	91
340.93	95
341.158	93
341.386	97
341.614	101
341.842	88
342.07	92
342.298	88
342.526	90
342.754	86
342.981	88
343.209	97
343.437	87
343.665	78
343.893	103
344.12	94
344.348	89
344.576	90
344.804	90
345.031	85
345.259	117
345.487	93
345.714	88
345.942	114
346.17	96
346.397	92
346.625	99
346.853	95
347.08	97
347.308	87
347.535	115
347.763	101
347.99	94
348.218	92
348.445	98
348.673	100
348.9	91
349.128	87
349.355	91
349.583	88
349.81	95
350.037	93
350.265	96
350.492	96
350.72	81
350.947	99
351.174	118
351.402	101
351.629	116
351.856	101
352.083	114
352.311	107
352.538	112
352.765	110
352.992	118
353.22	122
353.447	101
353.674	104
353.901	105
354.128	110
354.355	88
354.583	105
354.81	94
355.037	72
355.264	96
355.491	102
355.718	94
355.945	84
356.172	105
356.399	95
356.626	86
356.853	80
357.08	99
357.307	93
357.534	86
357.761	104
357.988	110
358.215	92
358.441	94
358.668	98
358.895	97
359.122	99
359.349	92
359.576	86
359.802	107
360.029	100
360.256	113
360.483	100
360.709	83
360.936	83
361.163	109
361.39	91
361.616	84
361.843	97
362.07	102
362.296	100
362.523	89
362.749	82
362.976	100
363.203	102
363.429	100
363.656	93
363.882	88
364.109	88
364.335	88
364.562	84
364.788	92
365.015	89
365.241	115
365.468	108
365.694	100
365.92	86
366.147	83
366.373	88
366.599	81
366.826	90
367.052	98
367.278	91
367.505	94
367.731	91
367.957	82
368.184	87
368.41	100
368.636	99
368.862	125
369.089	116
369.315	109
369.541	88
369.767	104
369.993	96
370.219	95
370.445	87
370.672	82
370.898	101
371.124	103
371.35	84
371.576	80
371.802	93
372.028	93
372.254	91
372.48	88
372.706	85
372.932	82
373.158	94
373.384	97
373.61	100
373.835	104
374.061	86
374.287	95
374.513	78
374.739	79
374.965	89
375.191	92
375.416	88
375.642	91
375.868	94
376.094	92
376.319	94
376.545	97
376.771	90
376.997	84
377.222	92
377.448	81
377.674	91
377.899	89
378.125	103
378.35	101
378.576	92
378.802	77
379.027	83
379.253	82
379.478	92
379.704	81
379.929	79
380.155	100
380.38	94
380.606	100
380.831	89
381.057	88
381.282	86
381.507	98
381.733	101
381.958	104
382.184	100
382.409	97
382.634	105
382.86	98
383.085	107
383.31	115
383.535	101
383.761	97
383.986	93
384.211	91
384.436	98
384.662	115
384.887	107
385.112	99
385.337	116
385.562	90
385.787	117
386.013	97
386.238	134
386.463	112
386.688	109
386.913	94
387.138	114
387.363	113
387.588	103
387.813	100
388.038	98
388.263	110
388.488	108
388.713	99
388.938	94
389.163	92
389.387	104
389.612	103
389.837	87
390.062	90
390.287	104
390.512	78
390.736	87
390.961	115
391.186	79
391.411	100
391.636	104
391.86	88
392.085	98
392.31	75
392.534	84
392.759	85
392.984	94
393.208	92
393.433	98
393.658	97
393.882	92
394.107	85
394.331	86
394.556	94
394.78	79
395.005	83
395.229	82
395.454	93
395.678	85
395.903	89
396.127	93
396.352	90
396.576	94
396.801	81
397.025	98
397.249	81
397.474	89
397.698	83
397.922	93
398.147	77
398.371	85
398.595	90
398.82	85
399.044	88
399.268	95
399.492	89
399.717	82
399.941	99
400.165	98
400.389	83
400.613	84
400.837	99
401.062	79
401.286	84
401.51	89
401.734	88
401.958	112
402.182	130
402.406	168
402.63	117
402.854	114
403.078	85
403.302	85
403.526	84
403.75	81
403.974	84
404.198	94
404.422	87
404.645	96
404.869	94
405.093	111
405.317	126
405.541	132
405.765	116
405.988	128
406.212	182
406.436	251
406.66	151
406.883	107
407.107	81
407.331	102
407.555	106
407.778	87
408.002	78
408.226	85
408.449	81
408.673	82
408.896	104
409.12	85
409.344	89
409.567	93
409.791	104
410.014	101
410.238	84
410.461	95
410.685	86
410.908	96
411.132	123
411.355	107
411.578	85
411.802	83
412.025	92
412.249	94
412.472	93
412.695	118
412.919	85
413.142	80
413.365	78
413.589	88
413.812	92
414.035	91
414.258	89
414.482	84
414.705	86
414.928	86
415.151	88
415.374	87
415.597	90
415.821	98
416.044	88
416.267	82
416.49	86
416.713	101
416.936	109
417.159	80
417.382	82
417.605	86
417.828	115
418.051	108
418.274	90
418.497	97
418.72	75
418.943	93
419.166	82
419.389	91
419.611	83
419.834	70
420.057	101
420.28	97
420.503	89
420.726	94
420.948	103
421.171	98
421.394	91
421.617	97
421.839	91
422.062	85
422.285	84
422.507	94
422.73	110
422.953	106
423.175	99
423.398	91
423.621	71
423.843	86
424.066	98
424.288	103
424.511	94
424.733	92
424.956	99
425.178	95
425.401	93
425.623	113
425.846	88
426.068	109
426.291	99
426.513	94
426.735	91
426.958	107
427.18	112
427.402	149
427.625	200
427.847	177
428.069	164
428.292	109
428.514	100
428.736	89
428.958	86
429.181	87
429.403	84
429.625	87
429.847	83
430.069	89
430.292	99
430.514	86
430.736	84
430.958	83
431.18	80
431.402	92
431.624	88
431.846	86
432.068	87
432.29	82
432.512	96
432.734	84
432.956	88
433.178	102
433.4	114
433.622	90
433.844	79
434.066	91
434.287	94
434.509	92
434.731	90
434.953	80
435.175	94
435.397	86
435.618	105
435.84	116
436.062	133
436.284	123
436.505	101
436.727	93
436.949	88
437.17	100
437.392	85
437.614	101
437.835	93
438.057	136
438.278	128
438.5	113
438.721	134
438.943	90
439.165	93
439.386	84
439.608	96
439.829	112
440.05	123
440.272	158
440.493	98
440.715	87
440.936	92
441.158	85
441.379	81
441.6	84
441.822	91
442.043	106
442.264	106
442.486	97
442.707	91
442.928	111
443.149	136
443.371	132
443.592	115
443.813	113
444.034	112
444.255	85
444.476	88
444.698	80
444.919	87
445.14	133
445.361	151
445.582	120
445.803	151
446.024	156
446.245	145
446.466	112
446.687	85
446.908	76
447.129	101
447.35	103
447.571	85
447.792	93
448.013	106
448.234	98
448.455	82
448.675	115
448.896	118
449.117	107
449.338	103
449.559	141
449.779	138
450	96
450.221	88
450.442	73
450.662	92
450.883	106
451.104	114
451.324	90
451.545	82
451.766	85
451.986	99
452.207	93
452.428	86
452.648	100
452.869	109
453.089	119
453.31	124
453.53	100
453.751	91
453.971	107
454.192	112
454.412	97
454.633	76
454.853	102
455.073	92
455.294	88
455.514	97
455.734	97
455.955	74
456.175	96
456.395	90
456.616	82
456.836	91
457.056	100
457.276	92
457.497	85
457.717	84
457.937	82
458.157	86
458.377	84
458.598	101
458.818	162
459.038	182
459.258	135
459.478	81
459.698	78
459.918	81
460.138	90
460.358	89
460.578	93
460.798	98
461.018	88
461.238	89
461.458	77
461.678	97
461.898	86
462.118	88
462.338	87
462.558	85
462.777	102
462.997	85
463.217	102
463.437	99
463.657	79
463.876	78
464.096	91
464.316	93
464.536	91
464.755	81
464.975	102
465.195	169
465.414	163
465.634	96
465.854	86
466.073	72
466.293	91
466.512	89
466.732	86
466.951	96
467.171	81
467.391	100
467.61	109
467.829	146
468.049	245
468.268	322
468.488	124
468.707	87
468.927	95
469.146	88
469.365	91
469.585	104
469.804	97
470.023	100
470.243	105
470.462	99
470.681	116
470.901	93
471.12	81
471.339	80
471.558	87
471.777	98
471.997	167
472.216	429
472.435	878
472.654	249
472.873	111
473.092	84
473.311	85
473.53	93
473.749	89
473.968	100
474.187	126
474.406	98
474.625	90
474.844	89
475.063	90
475.282	69
475.501	90
475.72	76
475.939	90
476.158	106
476.377	89
476.596	86
476.814	106
477.033	97
477.252	94
477.471	93
477.69	92
477.908	89
478.127	90
478.346	89
478.564	95
478.783	109
479.002	102
479.22	93
479.439	108
479.658	113
479.876	88
480.095	93
480.313	115
480.532	114
480.751	162
480.969	459
481.188	1530
481.406	924
481.624	173
481.843	115
482.061	98
482.28	102
482.498	89
482.717	91
482.935	91
483.153	86
483.372	103
483.59	105
483.808	84
484.027	96
484.245	97
484.463	83
484.681	97
484.9	92
485.118	89
485.336	97
485.554	90
485.772	118
485.99	110
486.209	119
486.427	109
486.645	134
486.863	112
487.081	105
487.299	106
487.517	116
487.735	100
487.953	97
488.171	87
488.389	105
488.607	96
488.825	96
489.043	81
489.261	81
489.479	97
489.696	108
489.914	104
490.132	89
490.35	93
490.568	76
490.786	81
491.003	96
491.221	82
491.439	83
491.657	100
491.874	99
492.092	89
492.31	85
492.527	81
492.745	95
492.963	92
493.18	86
493.398	82
493.615	102
493.833	79
494.05	89
494.268	89
494.485	82
494.703	80
494.92	74
495.138	107
495.355	90
495.573	90
495.79	85
496.008	91
496.225	103
496.442	103
496.66	92
496.877	83
497.094	92
497.312	94
497.529	92
497.746	89
497.963	90
498.181	72
498.398	96
498.615	121
498.832	115
499.049	89
499.267	81
499.484	91
499.701	99
499.918	105
500.135	76
500.352	89
500.569	78
500.786	90
501.003	97
501.22	94
501.437	86
501.654	90
501.871	88
502.088	94
502.305	90
502.522	86
502.739	89
502.956	85
503.172	97
503.389	93
503.606	105
503.823	97
504.04	88
504.256	91
504.473	93
504.69	81
504.907	85
505.123	103
505.34	94
505.557	91
505.773	85
505.99	80
506.207	112
506.423	94
506.64	87
506.856	95
507.073	87
507.289	100
507.506	104
507.722	115
507.939	120
508.155	86
508.372	101
508.588	88
508.805	101
509.021	110
509.238	97
509.454	100
509.67	102
509.887	130
510.103	125
510.319	221
510.536	736
510.752	2477
510.968	682
511.184	159
511.401	126
511.617	106
511.833	102
512.049	93
512.265	88
512.481	102
512.698	105
512.914	94
513.13	91
513.346	75
513.562	102
513.778	94
513.994	94
514.21	114
514.426	128
514.642	129
514.858	116
515.074	168
515.29	492
515.506	1663
515.721	606
515.937	169
516.153	110
516.369	97
516.585	97
516.801	108
517.016	82
517.232	91
517.448	96
517.664	90
517.879	94
518.095	86
518.311	91
518.527	107
518.742	88
518.958	96
519.173	77
519.389	104
519.605	99
519.82	101
520.036	113
520.251	110
520.467	105
520.682	97
520.898	114
521.113	118
521.329	162
521.544	226
521.76	630
521.975	2820
522.19	1691
522.406	358
522.621	125
522.836	111
523.052	78
523.267	114
523.482	89
523.698	103
523.913	124
524.128	105
524.343	88
524.559	100
524.774	96
524.989	90
525.204	88
525.419	103
525.634	85
525.849	100
526.064	98
526.28	92
526.495	94
526.71	94
526.925	88
527.14	87
527.355	102
527.57	84
527.785	97
527.999	86
528.214	87
528.429	90
528.644	100
528.859	83
529.074	103
529.289	125
529.503	198
529.718	113
529.933	99
530.148	99
530.363	76
530.577	91
530.792	94
531.007	92
531.221	81
531.436	89
531.651	112
531.865	98
532.08	100
532.295	88
532.509	78
532.724	86
532.938	88
533.153	96
533.367	97
533.582	97
533.796	86
534.011	90
534.225	101
534.44	84
534.654	85
534.868	91
535.083	102
535.297	110
535.511	110
535.726	105
535.94	97
536.154	88
536.369	87
536.583	101
536.797	89
537.011	99
537.225	83
537.44	92
537.654	87
537.868	90
538.082	104
538.296	95
538.51	89
538.724	85
538.938	97
539.153	96
539.367	91
539.581	99
539.795	100
540.009	94
540.222	100
540.436	86
540.65	80
540.864	100
541.078	81
541.292	99
541.506	90
541.72	84
541.934	88
542.147	95
542.361	90
542.575	88
542.789	94
543.002	94
543.216	85
543.43	99
543.644	91
543.857	107
544.071	92
544.285	91
544.498	84
544.712	85
544.925	92
545.139	83
545.352	83
545.566	89
545.779	96
545.993	91
546.206	95
546.42	87
546.633	78
546.847	86
547.06	75
547.274	72
547.487	83
547.7	83
547.914	91
548.127	94
548.34	88
548.554	91
548.767	80
548.98	99
549.193	89
549.407	92
549.62	88
549.833	84
550.046	86
550.259	95
550.473	88
550.686	91
550.899	90
551.112	87
551.325	101
551.538	101
551.751	90
551.964	91
552.177	98
552.39	93
552.603	98
552.816	83
553.029	97
553.242	91
553.455	98
553.667	119
553.88	112
554.093	97
554.306	89
554.519	86
554.732	92
554.944	100
555.157	93
555.37	100
555.583	85
555.795	92
556.008	89
556.221	90
556.433	93
556.646	99
556.859	90
557.071	89
557.284	81
557.496	84
557.709	92
557.921	91
558.134	87
558.346	83
558.559	84
558.771	83
558.984	85
559.196	94
559.409	103
559.621	78
559.833	93
560.046	88
560.258	93
560.47	104
560.683	93
560.895	92
561.107	90
561.32	88
561.532	74
561.744	86
561.956	85
562.168	92
562.381	90
562.593	87
562.805	96
563.017	88
563.229	87
563.441	58
563.653	91
563.865	95
564.077	77
564.289	94
564.501	98
564.713	84
564.925	99
565.137	106
565.349	101
565.561	91
565.773	69
565.985	83
566.197	84
566.408	81
566.62	86
566.832	98
567.044	91
567.255	83
567.467	91
567.679	85
567.891	86
568.102	80
568.314	84
568.526	86
568.737	99
568.949	84
569.161	75
569.372	86
569.584	93
569.795	92
570.007	115
570.218	269
570.43	139
570.641	91
570.853	94
571.064	77
571.276	91
571.487	91
571.698	100
571.91	96
572.121	96
572.333	87
572.544	84
572.755	84
572.966	81
573.178	84
573.389	91
573.6	87
573.811	85
574.023	105
574.234	84
574.445	92
574.656	87
574.867	88
575.078	91
575.289	86
575.501	99
575.712	93
575.923	92
576.134	91
576.345	71
576.556	89
576.767	96
576.978	97
577.188	98
577.399	106
577.61	91
577.821	98
578.032	112
578.243	264
578.454	764
578.665	212
578.875	101
579.086	92
579.297	96
579.508	85
579.718	99
579.929	99
580.14	83
580.35	92
580.561	72
580.772	87
580.982	99
581.193	90
581.403	92
581.614	94
581.825	78
582.035	86
582.246	101
582.456	96
582.667	87
582.877	80
