Data from Circ_2000_H10_HRD10591_00066.txt Node
Date: Wed Jan 03 10:49:47 EST 2024
User: Yrep
Spectrometer: HR+D1059
Trigger mode: 1
Integration Time (sec): 1.000000E-1
Scans to average: 1
Electric dark correction enabled: true
Nonlinearity correction enabled: false
Boxcar width: 0
XAxis mode: Wavelengths
Number of Pixels in Spectrum: 2048
>>>>>Begin Spectral Data<<<<<
223.165	-32.88
223.4	-32.88
223.635	-32.88
223.869	-18.88
224.104	-10.88
224.338	-21.88
224.573	-22.88
224.808	2.12
225.042	-11.88
225.277	-13.88
225.511	4.12
225.746	-6.88
225.98	3.12
226.215	15.12
226.449	20.12
226.683	26.12
226.918	41.12
227.152	28.12
227.387	32.12
227.621	49.12
227.856	52.12
228.09	41.12
228.324	28.12
228.559	40.12
228.793	48.12
229.027	50.12
229.262	71.12
229.496	84.12
229.73	95.12
229.964	105.12
230.199	57.12
230.433	67.12
230.667	86.12
230.901	76.12
231.136	79.12
231.37	75.12
231.604	80.12
231.838	78.12
232.072	88.12
232.306	87.12
232.541	79.12
232.775	85.12
233.009	86.12
233.243	87.12
233.477	92.12
233.711	81.12
233.945	75.12
234.179	81.12
234.413	71.12
234.647	70.12
234.881	82.12
235.115	81.12
235.349	80.12
235.583	85.12
235.817	72.12
236.051	79.12
236.285	79.12
236.519	101.12
236.753	74.12
236.987	79.12
237.221	85.12
237.455	81.12
237.689	72.12
237.922	91.12
238.156	79.12
238.39	90.12
238.624	83.12
238.858	68.12
239.091	92.12
239.325	72.12
239.559	96.12
239.793	94.12
240.027	71.12
240.26	69.12
240.494	72.12
240.728	75.12
240.961	57.12
241.195	71.12
241.429	85.12
241.662	66.12
241.896	82.12
242.13	77.12
242.363	77.12
242.597	73.12
242.83	79.12
243.064	72.12
243.298	60.12
243.531	75.12
243.765	73.12
243.998	78.12
244.232	103.12
244.465	82.12
244.699	67.12
244.932	77.12
245.166	85.12
245.399	76.12
245.633	84.12
245.866	58.12
246.099	80.12
246.333	82.12
246.566	80.12
246.8	78.12
247.033	63.12
247.266	79.12
247.5	76.12
247.733	100.12
247.966	88.12
248.2	68.12
248.433	78.12
248.666	81.12
248.899	72.12
249.133	94.12
249.366	96.12
249.599	93.12
249.832	92.12
250.066	93.12
250.299	75.12
250.532	82.12
250.765	97.12
250.998	70.12
251.231	81.12
251.465	71.12
251.698	93.12
251.931	88.12
252.164	75.12
252.397	79.12
252.63	81.12
252.863	71.12
253.096	69.12
253.329	83.12
253.562	97.12
253.795	77.12
254.028	72.12
254.261	79.12
254.494	89.12
254.727	86.12
254.96	90.12
255.193	83.12
255.426	75.12
255.659	83.12
255.892	93.12
256.124	103.12
256.357	83.12
256.59	71.12
256.823	84.12
257.056	73.12
257.289	77.12
257.521	89.12
257.754	97.12
257.987	91.12
258.22	89.12
258.452	96.12
258.685	89.12
258.918	82.12
259.151	77.12
259.383	93.12
259.616	88.12
259.849	75.12
260.081	75.12
260.314	76.12
260.547	89.12
260.779	89.12
261.012	99.12
261.244	108.12
261.477	112.12
261.71	111.12
261.942	136.12
262.175	152.12
262.407	87.12
262.64	83.12
262.872	87.12
263.105	97.12
263.337	85.12
263.57	83.12
263.802	70.12
264.035	77.12
264.267	82.12
264.499	75.12
264.732	80.12
264.964	83.12
265.197	89.12
265.429	98.12
265.661	74.12
265.894	78.12
266.126	95.12
266.358	75.12
266.591	81.12
266.823	69.12
267.055	80.12
267.287	77.12
267.52	81.12
267.752	73.12
267.984	89.12
268.216	81.12
268.448	88.12
268.681	87.12
268.913	94.12
269.145	90.12
269.377	84.12
269.609	73.12
269.841	74.12
270.073	84.12
270.306	85.12
270.538	94.12
270.77	87.12
271.002	74.12
271.234	99.12
271.466	101.12
271.698	89.12
271.93	89.12
272.162	76.12
272.394	75.12
272.626	87.12
272.858	92.12
273.09	88.12
273.322	71.12
273.553	91.12
273.785	58.12
274.017	75.12
274.249	89.12
274.481	92.12
274.713	90.12
274.945	91.12
275.176	83.12
275.408	98.12
275.64	97.12
275.872	113.12
276.104	90.12
276.335	98.12
276.567	115.12
276.799	151.12
277.031	178.12
277.262	172.12
277.494	127.12
277.726	83.12
277.957	92.12
278.189	89.12
278.421	83.12
278.652	82.12
278.884	92.12
279.115	79.12
279.347	93.12
279.579	92.12
279.81	129.12
280.042	169.12
280.273	223.12
280.505	165.12
280.736	112.12
280.968	97.12
281.199	88.12
281.431	89.12
281.662	85.12
281.894	88.12
282.125	91.12
282.356	139.12
282.588	180.12
282.819	125.12
283.051	97.12
283.282	90.12
283.513	91.12
283.745	76.12
283.976	84.12
284.207	94.12
284.439	85.12
284.67	91.12
284.901	78.12
285.132	82.12
285.364	75.12
285.595	90.12
285.826	86.12
286.057	97.12
286.288	76.12
286.52	86.12
286.751	83.12
286.982	89.12
287.213	92.12
287.444	82.12
287.675	82.12
287.906	71.12
288.138	72.12
288.369	106.12
288.6	91.12
288.831	85.12
289.062	89.12
289.293	96.12
289.524	77.12
289.755	82.12
289.986	73.12
290.217	95.12
290.448	89.12
290.679	72.12
290.91	87.12
291.141	90.12
291.371	71.12
291.602	82.12
291.833	88.12
292.064	80.12
292.295	91.12
292.526	100.12
292.757	88.12
292.987	91.12
293.218	82.12
293.449	84.12
293.68	84.12
293.91	85.12
294.141	93.12
294.372	86.12
294.603	80.12
294.833	84.12
295.064	91.12
295.295	97.12
295.525	91.12
295.756	108.12
295.987	130.12
296.217	167.12
296.448	153.12
296.679	97.12
296.909	101.12
297.14	82.12
297.37	94.12
297.601	100.12
297.831	87.12
298.062	100.12
298.292	98.12
298.523	103.12
298.753	87.12
298.984	89.12
299.214	99.12
299.445	93.12
299.675	101.12
299.905	113.12
300.136	90.12
300.366	79.12
300.597	85.12
300.827	102.12
301.057	100.12
301.288	123.12
301.518	103.12
301.748	96.12
301.979	104.12
302.209	84.12
302.439	104.12
302.669	92.12
302.9	93.12
303.13	85.12
303.36	100.12
303.59	118.12
303.82	138.12
304.051	112.12
304.281	83.12
304.511	92.12
304.741	83.12
304.971	103.12
305.201	93.12
305.431	97.12
305.661	83.12
305.891	98.12
306.121	91.12
306.352	112.12
306.582	131.12
306.812	102.12
307.042	139.12
307.272	147.12
307.502	160.12
307.731	147.12
307.961	106.12
308.191	88.12
308.421	94.12
308.651	92.12
308.881	100.12
309.111	86.12
309.341	110.12
309.571	115.12
309.8	111.12
310.03	95.12
310.26	112.12
310.49	106.12
310.72	100.12
310.949	127.12
311.179	114.12
311.409	100.12
311.639	105.12
311.868	99.12
312.098	100.12
312.328	103.12
312.557	116.12
312.787	120.12
313.017	103.12
313.246	110.12
313.476	103.12
313.706	95.12
313.935	98.12
314.165	95.12
314.394	116.12
314.624	103.12
314.853	99.12
315.083	102.12
315.312	93.12
315.542	83.12
315.771	93.12
316.001	97.12
316.23	103.12
316.46	82.12
316.689	99.12
316.919	101.12
317.148	111.12
317.377	105.12
317.607	109.12
317.836	95.12
318.065	88.12
318.295	95.12
318.524	99.12
318.753	89.12
318.983	92.12
319.212	102.12
319.441	116.12
319.67	119.12
319.9	92.12
320.129	95.12
320.358	97.12
320.587	100.12
320.816	115.12
321.046	103.12
321.275	102.12
321.504	90.12
321.733	105.12
321.962	84.12
322.191	94.12
322.42	116.12
322.649	131.12
322.878	125.12
323.108	132.12
323.337	150.12
323.566	171.12
323.795	187.12
324.024	264.12
324.253	523.12
324.482	1127.12
324.71	2323.12
324.939	3169.12
325.168	1119.12
325.397	335.12
325.626	172.12
325.855	143.12
326.084	147.12
326.313	152.12
326.542	187.12
326.77	278.12
326.999	587.12
327.228	1178.12
327.457	2262.12
327.686	1808.12
327.914	576.12
328.143	481.12
328.372	565.12
328.6	329.12
328.829	179.12
329.058	201.12
329.287	201.12
329.515	180.12
329.744	220.12
329.972	405.12
330.201	774.12
330.43	1155.12
330.658	565.12
330.887	293.12
331.115	192.12
331.344	130.12
331.572	129.12
331.801	132.12
332.03	133.12
332.258	129.12
332.486	102.12
332.715	111.12
332.943	106.12
333.172	121.12
333.4	121.12
333.629	165.12
333.857	202.12
334.085	383.12
334.314	775.12
334.542	1476.12
334.771	1376.12
334.999	355.12
335.227	168.12
335.455	111.12
335.684	119.12
335.912	105.12
336.14	109.12
336.369	98.12
336.597	127.12
336.825	107.12
337.053	95.12
337.281	84.12
337.51	97.12
337.738	92.12
337.966	100.12
338.194	98.12
338.422	114.12
338.65	102.12
338.878	99.12
339.106	89.12
339.334	107.12
339.562	114.12
339.79	97.12
340.018	92.12
340.246	87.12
340.474	87.12
340.702	85.12
340.93	98.12
341.158	88.12
341.386	117.12
341.614	115.12
341.842	92.12
342.07	95.12
342.298	93.12
342.526	97.12
342.754	81.12
342.981	84.12
343.209	78.12
343.437	93.12
343.665	91.12
343.893	91.12
344.12	89.12
344.348	88.12
344.576	81.12
344.804	97.12
345.031	106.12
345.259	108.12
345.487	97.12
345.714	105.12
345.942	86.12
346.17	95.12
346.397	107.12
346.625	97.12
346.853	107.12
347.08	85.12
347.308	97.12
347.535	103.12
347.763	118.12
347.99	108.12
348.218	105.12
348.445	113.12
348.673	114.12
348.9	105.12
349.128	97.12
349.355	98.12
349.583	94.12
349.81	103.12
350.037	90.12
350.265	105.12
350.492	100.12
350.72	99.12
350.947	105.12
351.174	111.12
351.402	113.12
351.629	112.12
351.856	97.12
352.083	107.12
352.311	120.12
352.538	119.12
352.765	125.12
352.992	132.12
353.22	118.12
353.447	101.12
353.674	115.12
353.901	105.12
354.128	102.12
354.355	92.12
354.583	101.12
354.81	89.12
355.037	86.12
355.264	97.12
355.491	102.12
355.718	99.12
355.945	98.12
356.172	96.12
356.399	83.12
356.626	107.12
356.853	87.12
357.08	93.12
357.307	92.12
357.534	89.12
357.761	89.12
357.988	93.12
358.215	97.12
358.441	100.12
358.668	99.12
358.895	97.12
359.122	91.12
359.349	95.12
359.576	96.12
359.802	120.12
360.029	147.12
360.256	138.12
360.483	119.12
360.709	91.12
360.936	90.12
361.163	93.12
361.39	104.12
361.616	114.12
361.843	84.12
362.07	109.12
362.296	104.12
362.523	112.12
362.749	94.12
362.976	85.12
363.203	101.12
363.429	79.12
363.656	91.12
363.882	85.12
364.109	88.12
364.335	95.12
364.562	88.12
364.788	93.12
365.015	102.12
365.241	112.12
365.468	102.12
365.694	131.12
365.92	105.12
366.147	104.12
366.373	79.12
366.599	85.12
366.826	88.12
367.052	107.12
367.278	96.12
367.505	80.12
367.731	88.12
367.957	97.12
368.184	112.12
368.41	113.12
368.636	133.12
368.862	124.12
369.089	117.12
369.315	107.12
369.541	99.12
369.767	95.12
369.993	93.12
370.219	94.12
370.445	90.12
370.672	99.12
370.898	104.12
371.124	94.12
371.35	91.12
371.576	93.12
371.802	91.12
372.028	87.12
372.254	91.12
372.48	82.12
372.706	80.12
372.932	83.12
373.158	96.12
373.384	107.12
373.61	99.12
373.835	90.12
374.061	98.12
374.287	89.12
374.513	102.12
374.739	89.12
374.965	92.12
375.191	68.12
375.416	87.12
375.642	96.12
375.868	99.12
376.094	93.12
376.319	85.12
376.545	90.12
376.771	89.12
376.997	81.12
377.222	87.12
377.448	104.12
377.674	93.12
377.899	88.12
378.125	89.12
378.35	86.12
378.576	77.12
378.802	98.12
379.027	93.12
379.253	95.12
379.478	89.12
379.704	89.12
379.929	85.12
380.155	98.12
380.38	91.12
380.606	101.12
380.831	100.12
381.057	81.12
381.282	84.12
381.507	91.12
381.733	104.12
381.958	105.12
382.184	106.12
382.409	93.12
382.634	102.12
382.86	111.12
383.085	104.12
383.31	105.12
383.535	101.12
383.761	104.12
383.986	102.12
384.211	93.12
384.436	92.12
384.662	125.12
384.887	96.12
385.112	100.12
385.337	99.12
385.562	94.12
385.787	93.12
386.013	123.12
386.238	125.12
386.463	117.12
386.688	103.12
386.913	96.12
387.138	111.12
387.363	93.12
387.588	102.12
387.813	97.12
388.038	90.12
388.263	108.12
388.488	108.12
388.713	93.12
388.938	92.12
389.163	99.12
389.387	93.12
389.612	105.12
389.837	95.12
390.062	106.12
390.287	96.12
390.512	102.12
390.736	88.12
390.961	83.12
391.186	88.12
391.411	83.12
391.636	95.12
391.86	80.12
392.085	88.12
392.31	74.12
392.534	89.12
392.759	72.12
392.984	75.12
393.208	84.12
393.433	86.12
393.658	77.12
393.882	82.12
394.107	90.12
394.331	81.12
394.556	92.12
394.78	80.12
395.005	88.12
395.229	82.12
395.454	89.12
395.678	99.12
395.903	82.12
396.127	83.12
396.352	81.12
396.576	90.12
396.801	82.12
397.025	85.12
397.249	100.12
397.474	88.12
397.698	83.12
397.922	95.12
398.147	86.12
398.371	83.12
398.595	81.12
398.82	90.12
399.044	97.12
399.268	76.12
399.492	90.12
399.717	88.12
399.941	94.12
400.165	107.12
400.389	95.12
400.613	79.12
400.837	108.12
401.062	87.12
401.286	87.12
401.51	92.12
401.734	106.12
401.958	128.12
402.182	155.12
402.406	216.12
402.63	153.12
402.854	113.12
403.078	90.12
403.302	92.12
403.526	98.12
403.75	95.12
403.974	100.12
404.198	84.12
404.422	96.12
404.645	84.12
404.869	106.12
405.093	101.12
405.317	122.12
405.541	131.12
405.765	121.12
405.988	139.12
406.212	240.12
406.436	347.12
406.66	223.12
406.883	123.12
407.107	99.12
407.331	111.12
407.555	114.12
407.778	88.12
408.002	81.12
408.226	92.12
408.449	89.12
408.673	93.12
408.896	103.12
409.12	88.12
409.344	100.12
409.567	84.12
409.791	86.12
410.014	78.12
410.238	96.12
410.461	101.12
410.685	88.12
410.908	108.12
411.132	115.12
411.355	116.12
411.578	71.12
411.802	95.12
412.025	108.12
412.249	101.12
412.472	109.12
412.695	120.12
412.919	91.12
413.142	96.12
413.365	82.12
413.589	86.12
413.812	95.12
414.035	76.12
414.258	89.12
414.482	91.12
414.705	97.12
414.928	83.12
415.151	88.12
415.374	97.12
415.597	75.12
415.821	95.12
416.044	105.12
416.267	92.12
416.49	71.12
416.713	84.12
416.936	75.12
417.159	91.12
417.382	87.12
417.605	100.12
417.828	111.12
418.051	96.12
418.274	78.12
418.497	91.12
418.72	87.12
418.943	88.12
419.166	93.12
419.389	98.12
419.611	88.12
419.834	97.12
420.057	95.12
420.28	96.12
420.503	114.12
420.726	80.12
420.948	88.12
421.171	106.12
421.394	90.12
421.617	101.12
421.839	95.12
422.062	78.12
422.285	104.12
422.507	95.12
422.73	113.12
422.953	99.12
423.175	79.12
423.398	99.12
423.621	101.12
423.843	79.12
424.066	73.12
424.288	106.12
424.511	105.12
424.733	105.12
424.956	103.12
425.178	106.12
425.401	98.12
425.623	106.12
425.846	100.12
426.068	99.12
426.291	95.12
426.513	98.12
426.735	109.12
426.958	94.12
427.18	143.12
427.402	177.12
427.625	263.12
427.847	233.12
428.069	191.12
428.292	108.12
428.514	97.12
428.736	87.12
428.958	97.12
429.181	78.12
429.403	95.12
429.625	90.12
429.847	107.12
430.069	114.12
430.292	103.12
430.514	98.12
430.736	102.12
430.958	99.12
431.18	78.12
431.402	87.12
431.624	95.12
431.846	71.12
432.068	74.12
432.29	92.12
432.512	100.12
432.734	82.12
432.956	88.12
433.178	89.12
433.4	119.12
433.622	92.12
433.844	92.12
434.066	83.12
434.287	96.12
434.509	86.12
434.731	89.12
434.953	93.12
435.175	96.12
435.397	86.12
435.618	93.12
435.84	108.12
436.062	138.12
436.284	129.12
436.505	100.12
436.727	104.12
436.949	88.12
437.17	98.12
437.392	90.12
437.614	88.12
437.835	130.12
438.057	149.12
438.278	130.12
438.5	113.12
438.721	149.12
438.943	133.12
439.165	89.12
439.386	94.12
439.608	98.12
439.829	118.12
440.05	156.12
440.272	195.12
440.493	127.12
440.715	98.12
440.936	98.12
441.158	90.12
441.379	80.12
441.6	97.12
441.822	111.12
442.043	97.12
442.264	118.12
442.486	104.12
442.707	96.12
442.928	123.12
443.149	182.12
443.371	179.12
443.592	132.12
443.813	145.12
444.034	135.12
444.255	84.12
444.476	88.12
444.698	83.12
444.919	92.12
445.14	120.12
445.361	114.12
445.582	137.12
445.803	186.12
446.024	184.12
446.245	183.12
446.466	131.12
446.687	91.12
446.908	82.12
447.129	81.12
447.35	93.12
447.571	92.12
447.792	101.12
448.013	110.12
448.234	118.12
448.455	115.12
448.675	116.12
448.896	139.12
449.117	91.12
449.338	113.12
449.559	151.12
449.779	138.12
450	90.12
450.221	93.12
450.442	114.12
450.662	96.12
450.883	137.12
451.104	146.12
451.324	108.12
451.545	94.12
451.766	93.12
451.986	93.12
452.207	80.12
452.428	103.12
452.648	113.12
452.869	141.12
453.089	154.12
453.31	128.12
453.53	91.12
453.751	96.12
453.971	115.12
454.192	152.12
454.412	105.12
454.633	97.12
454.853	92.12
455.073	87.12
455.294	98.12
455.514	107.12
455.734	106.12
455.955	99.12
456.175	73.12
456.395	83.12
456.616	99.12
456.836	84.12
457.056	92.12
457.276	83.12
457.497	86.12
457.717	79.12
457.937	82.12
458.157	93.12
458.377	98.12
458.598	114.12
458.818	195.12
459.038	241.12
459.258	150.12
459.478	109.12
459.698	102.12
459.918	90.12
460.138	71.12
460.358	81.12
460.578	93.12
460.798	85.12
461.018	99.12
461.238	73.12
461.458	85.12
461.678	88.12
461.898	89.12
462.118	87.12
462.338	99.12
462.558	84.12
462.777	87.12
462.997	115.12
463.217	93.12
463.437	86.12
463.657	88.12
463.876	96.12
464.096	86.12
464.316	110.12
464.536	98.12
464.755	104.12
464.975	119.12
465.195	266.12
465.414	231.12
465.634	97.12
465.854	75.12
466.073	95.12
466.293	85.12
466.512	87.12
466.732	85.12
466.951	112.12
467.171	97.12
467.391	106.12
467.61	158.12
467.829	193.12
468.049	478.12
468.268	661.12
468.488	191.12
468.707	93.12
468.927	83.12
469.146	99.12
469.365	89.12
469.585	92.12
469.804	113.12
470.023	118.12
470.243	103.12
470.462	118.12
470.681	135.12
470.901	100.12
471.12	94.12
471.339	106.12
471.558	120.12
471.777	137.12
471.997	251.12
472.216	849.12
472.435	1997.12
472.654	505.12
472.873	156.12
473.092	113.12
473.311	77.12
473.53	100.12
473.749	120.12
473.968	100.12
474.187	124.12
474.406	113.12
474.625	94.12
474.844	88.12
475.063	94.12
475.282	90.12
475.501	91.12
475.72	88.12
475.939	87.12
476.158	86.12
476.377	68.12
476.596	85.12
476.814	110.12
477.033	106.12
477.252	83.12
477.471	100.12
477.69	83.12
477.908	83.12
478.127	100.12
478.346	102.12
478.564	100.12
478.783	103.12
479.002	103.12
479.22	109.12
479.439	117.12
479.658	135.12
479.876	119.12
480.095	128.12
480.313	126.12
480.532	177.12
480.751	250.12
480.969	813.12
481.188	3410.12
481.406	1981.12
481.624	291.12
481.843	132.12
482.061	124.12
482.28	94.12
482.498	93.12
482.717	93.12
482.935	87.12
483.153	90.12
483.372	89.12
483.59	91.12
483.808	91.12
484.027	96.12
484.245	85.12
484.463	84.12
484.681	97.12
484.9	103.12
485.118	95.12
485.336	83.12
485.554	91.12
485.772	107.12
485.99	108.12
486.209	112.12
486.427	109.12
486.645	123.12
486.863	122.12
487.081	107.12
487.299	97.12
487.517	90.12
487.735	85.12
487.953	95.12
488.171	92.12
488.389	91.12
488.607	106.12
488.825	98.12
489.043	90.12
489.261	90.12
489.479	90.12
489.696	101.12
489.914	89.12
490.132	84.12
490.35	100.12
490.568	74.12
490.786	92.12
491.003	101.12
491.221	95.12
491.439	99.12
491.657	90.12
491.874	96.12
492.092	106.12
492.31	90.12
492.527	99.12
492.745	89.12
492.963	84.12
493.18	93.12
493.398	83.12
493.615	98.12
493.833	117.12
494.05	101.12
494.268	91.12
494.485	79.12
494.703	95.12
494.92	91.12
495.138	95.12
495.355	79.12
495.573	89.12
495.79	92.12
496.008	89.12
496.225	92.12
496.442	91.12
496.66	109.12
496.877	86.12
497.094	98.12
497.312	98.12
497.529	88.12
497.746	96.12
497.963	96.12
498.181	106.12
498.398	76.12
498.615	105.12
498.832	106.12
499.049	91.12
499.267	96.12
499.484	101.12
499.701	86.12
499.918	89.12
500.135	91.12
500.352	95.12
500.569	99.12
500.786	88.12
501.003	92.12
501.22	96.12
501.437	86.12
501.654	100.12
501.871	115.12
502.088	102.12
502.305	84.12
502.522	95.12
502.739	109.12
502.956	93.12
503.172	104.12
503.389	87.12
503.606	141.12
503.823	108.12
504.04	100.12
504.256	85.12
504.473	78.12
504.69	86.12
504.907	79.12
505.123	100.12
505.34	93.12
505.557	87.12
505.773	93.12
505.99	96.12
506.207	80.12
506.423	92.12
506.64	92.12
506.856	93.12
507.073	93.12
507.289	97.12
507.506	118.12
507.722	145.12
507.939	135.12
508.155	112.12
508.372	97.12
508.588	100.12
508.805	92.12
509.021	95.12
509.238	99.12
509.454	88.12
509.67	114.12
509.887	117.12
510.103	135.12
510.319	249.12
510.536	1037.12
510.752	3507.12
510.968	967.12
511.184	201.12
511.401	132.12
511.617	106.12
511.833	113.12
512.049	109.12
512.265	84.12
512.481	105.12
512.698	99.12
512.914	99.12
513.13	99.12
