Data from Circ_2000_H10_HRD10591_00034.txt Node
Date: Wed Jan 03 10:49:40 EST 2024
User: Yrep
Spectrometer: HR+D1059
Trigger mode: 1
Integration Time (sec): 1.000000E-1
Scans to average: 1
Electric dark correction enabled: true
Nonlinearity correction enabled: false
Boxcar width: 0
XAxis mode: Wavelengths
Number of Pixels in Spectrum: 2048
>>>>>Begin Spectral Data<<<<<
223.165	-22.69
223.4	-22.69
223.635	-22.69
223.869	-9.69
224.104	-19.69
224.338	-21.69
224.573	-19.69
224.808	-15.69
225.042	-4.69
225.277	-0.69
225.511	-8.69
225.746	-0.69
225.98	17.31
226.215	10.31
226.449	19.31
226.683	22.31
226.918	21.31
227.152	33.31
227.387	27.31
227.621	33.31
227.856	46.31
228.09	35.31
228.324	51.31
228.559	73.31
228.793	37.31
229.027	64.31
229.262	71.31
229.496	81.31
229.73	87.31
229.964	74.31
230.199	74.31
230.433	95.31
230.667	78.31
230.901	86.31
231.136	77.31
231.37	78.31
231.604	84.31
231.838	98.31
232.072	68.31
232.306	92.31
232.541	86.31
232.775	75.31
233.009	81.31
233.243	79.31
233.477	80.31
233.711	86.31
233.945	74.31
234.179	78.31
234.413	86.31
234.647	89.31
234.881	85.31
235.115	77.31
235.349	89.31
235.583	90.31
235.817	83.31
236.051	86.31
236.285	73.31
236.519	83.31
236.753	80.31
236.987	92.31
237.221	89.31
237.455	77.31
237.689	82.31
237.922	80.31
238.156	83.31
238.39	67.31
238.624	67.31
238.858	73.31
239.091	92.31
239.325	91.31
239.559	85.31
239.793	75.31
240.027	97.31
240.26	83.31
240.494	79.31
240.728	91.31
240.961	85.31
241.195	83.31
241.429	81.31
241.662	76.31
241.896	83.31
242.13	83.31
242.363	89.31
242.597	95.31
242.83	93.31
243.064	73.31
243.298	89.31
243.531	81.31
243.765	79.31
243.998	87.31
244.232	80.31
244.465	86.31
244.699	76.31
244.932	75.31
245.166	79.31
245.399	72.31
245.633	83.31
245.866	71.31
246.099	86.31
246.333	97.31
246.566	68.31
246.8	86.31
247.033	73.31
247.266	70.31
247.5	76.31
247.733	73.31
247.966	76.31
248.2	79.31
248.433	89.31
248.666	85.31
248.899	93.31
249.133	79.31
249.366	87.31
249.599	87.31
249.832	89.31
250.066	72.31
250.299	86.31
250.532	79.31
250.765	80.31
250.998	91.31
251.231	86.31
251.465	82.31
251.698	68.31
251.931	90.31
252.164	72.31
252.397	70.31
252.63	83.31
252.863	88.31
253.096	61.31
253.329	84.31
253.562	87.31
253.795	89.31
254.028	86.31
254.261	87.31
254.494	91.31
254.727	77.31
254.96	86.31
255.193	76.31
255.426	85.31
255.659	77.31
255.892	79.31
256.124	77.31
256.357	77.31
256.59	69.31
256.823	76.31
257.056	76.31
257.289	82.31
257.521	89.31
257.754	94.31
257.987	82.31
258.22	90.31
258.452	71.31
258.685	84.31
258.918	84.31
259.151	86.31
259.383	73.31
259.616	81.31
259.849	78.31
260.081	87.31
260.314	82.31
260.547	87.31
260.779	83.31
261.012	80.31
261.244	91.31
261.477	88.31
261.71	91.31
261.942	103.31
262.175	105.31
262.407	101.31
262.64	91.31
262.872	93.31
263.105	78.31
263.337	93.31
263.57	85.31
263.802	87.31
264.035	91.31
264.267	60.31
264.499	67.31
264.732	93.31
264.964	77.31
265.197	86.31
265.429	80.31
265.661	94.31
265.894	90.31
266.126	89.31
266.358	84.31
266.591	84.31
266.823	89.31
267.055	92.31
267.287	88.31
267.52	80.31
267.752	95.31
267.984	72.31
268.216	86.31
268.448	86.31
268.681	77.31
268.913	100.31
269.145	98.31
269.377	90.31
269.609	93.31
269.841	74.31
270.073	88.31
270.306	78.31
270.538	74.31
270.77	86.31
271.002	92.31
271.234	91.31
271.466	78.31
271.698	81.31
271.93	89.31
272.162	91.31
272.394	87.31
272.626	75.31
272.858	79.31
273.09	84.31
273.322	86.31
273.553	83.31
273.785	74.31
274.017	80.31
274.249	77.31
274.481	92.31
274.713	76.31
274.945	91.31
275.176	96.31
275.408	97.31
275.64	98.31
275.872	91.31
276.104	84.31
276.335	85.31
276.567	116.31
276.799	117.31
277.031	110.31
277.262	101.31
277.494	108.31
277.726	89.31
277.957	78.31
278.189	95.31
278.421	89.31
278.652	88.31
278.884	91.31
279.115	90.31
279.347	87.31
279.579	91.31
279.81	86.31
280.042	96.31
280.273	121.31
280.505	109.31
280.736	86.31
280.968	90.31
281.199	74.31
281.431	92.31
281.662	104.31
281.894	86.31
282.125	105.31
282.356	116.31
282.588	125.31
282.819	114.31
283.051	95.31
283.282	85.31
283.513	91.31
283.745	93.31
283.976	85.31
284.207	74.31
284.439	78.31
284.67	86.31
284.901	87.31
285.132	85.31
285.364	79.31
285.595	86.31
285.826	86.31
286.057	96.31
286.288	98.31
286.52	93.31
286.751	92.31
286.982	87.31
287.213	85.31
287.444	89.31
287.675	82.31
287.906	82.31
288.138	97.31
288.369	78.31
288.6	92.31
288.831	82.31
289.062	101.31
289.293	107.31
289.524	83.31
289.755	83.31
289.986	102.31
290.217	96.31
290.448	106.31
290.679	94.31
290.91	96.31
291.141	80.31
291.371	84.31
291.602	93.31
291.833	78.31
292.064	90.31
292.295	96.31
292.526	95.31
292.757	102.31
292.987	86.31
293.218	91.31
293.449	104.31
293.68	92.31
293.91	95.31
294.141	92.31
294.372	82.31
294.603	76.31
294.833	98.31
295.064	80.31
295.295	81.31
295.525	86.31
295.756	96.31
295.987	98.31
296.217	123.31
296.448	104.31
296.679	85.31
296.909	84.31
297.14	96.31
297.37	93.31
297.601	83.31
297.831	88.31
298.062	86.31
298.292	96.31
298.523	92.31
298.753	76.31
298.984	91.31
299.214	91.31
299.445	99.31
299.675	97.31
299.905	104.31
300.136	82.31
300.366	82.31
300.597	90.31
300.827	95.31
301.057	100.31
301.288	101.31
301.518	99.31
301.748	102.31
301.979	92.31
302.209	92.31
302.439	90.31
302.669	106.31
302.9	84.31
303.13	95.31
303.36	85.31
303.59	119.31
303.82	117.31
304.051	91.31
304.281	91.31
304.511	93.31
304.741	100.31
304.971	76.31
305.201	96.31
305.431	88.31
305.661	93.31
305.891	99.31
306.121	90.31
306.352	106.31
306.582	103.31
306.812	100.31
307.042	98.31
307.272	107.31
307.502	110.31
307.731	106.31
307.961	92.31
308.191	74.31
308.421	103.31
308.651	104.31
308.881	97.31
309.111	93.31
309.341	92.31
309.571	111.31
309.8	104.31
310.03	100.31
310.26	86.31
310.49	98.31
310.72	115.31
310.949	97.31
311.179	107.31
311.409	95.31
311.639	110.31
311.868	109.31
312.098	95.31
312.328	85.31
312.557	100.31
312.787	97.31
313.017	100.31
313.246	92.31
313.476	82.31
313.706	95.31
313.935	95.31
314.165	106.31
314.394	99.31
314.624	103.31
314.853	101.31
315.083	102.31
315.312	97.31
315.542	84.31
315.771	99.31
316.001	92.31
316.23	109.31
316.46	91.31
316.689	104.31
316.919	92.31
317.148	108.31
317.377	101.31
317.607	116.31
317.836	87.31
318.065	83.31
318.295	96.31
318.524	97.31
318.753	88.31
318.983	100.31
319.212	114.31
319.441	108.31
319.67	117.31
319.9	99.31
320.129	88.31
320.358	89.31
320.587	103.31
320.816	88.31
321.046	108.31
321.275	98.31
321.504	91.31
321.733	101.31
321.962	110.31
322.191	86.31
322.42	88.31
322.649	101.31
322.878	120.31
323.108	123.31
323.337	126.31
323.566	127.31
323.795	142.31
324.024	207.31
324.253	397.31
324.482	820.31
324.71	1664.31
324.939	2207.31
325.168	815.31
325.397	240.31
325.626	154.31
325.855	139.31
326.084	150.31
326.313	131.31
326.542	153.31
326.77	227.31
326.999	461.31
327.228	930.31
327.457	1725.31
327.686	1369.31
327.914	391.31
328.143	232.31
328.372	267.31
328.6	168.31
328.829	124.31
329.058	138.31
329.287	134.31
329.515	107.31
329.744	136.31
329.972	190.31
330.201	342.31
330.43	430.31
330.658	222.31
330.887	179.31
331.115	124.31
331.344	103.31
331.572	105.31
331.801	104.31
332.03	107.31
332.258	98.31
332.486	92.31
332.715	100.31
332.943	98.31
333.172	103.31
333.4	108.31
333.629	107.31
333.857	140.31
334.085	193.31
334.314	315.31
334.542	511.31
334.771	500.31
334.999	183.31
335.227	125.31
335.455	101.31
335.684	103.31
335.912	98.31
336.14	96.31
336.369	106.31
336.597	103.31
336.825	121.31
337.053	114.31
337.281	98.31
337.51	98.31
337.738	85.31
337.966	93.31
338.194	103.31
338.422	100.31
338.65	86.31
338.878	80.31
339.106	98.31
339.334	106.31
339.562	86.31
339.79	87.31
340.018	101.31
340.246	89.31
340.474	104.31
340.702	89.31
340.93	100.31
341.158	94.31
341.386	96.31
341.614	96.31
341.842	101.31
342.07	91.31
342.298	98.31
342.526	102.31
342.754	92.31
342.981	90.31
343.209	82.31
343.437	102.31
343.665	103.31
343.893	84.31
344.12	88.31
344.348	90.31
344.576	89.31
344.804	93.31
345.031	97.31
345.259	102.31
345.487	108.31
345.714	104.31
345.942	96.31
346.17	100.31
346.397	92.31
346.625	102.31
346.853	93.31
347.08	86.31
347.308	105.31
347.535	106.31
347.763	105.31
347.99	96.31
348.218	106.31
348.445	93.31
348.673	101.31
348.9	102.31
349.128	91.31
349.355	93.31
349.583	102.31
349.81	99.31
350.037	99.31
350.265	91.31
350.492	91.31
350.72	99.31
350.947	109.31
351.174	104.31
351.402	103.31
351.629	113.31
351.856	102.31
352.083	111.31
352.311	114.31
352.538	109.31
352.765	100.31
352.992	121.31
353.22	106.31
353.447	123.31
353.674	88.31
353.901	90.31
354.128	95.31
354.355	106.31
354.583	102.31
354.81	107.31
355.037	85.31
355.264	94.31
355.491	88.31
355.718	91.31
355.945	92.31
356.172	110.31
356.399	89.31
356.626	99.31
356.853	96.31
357.08	84.31
357.307	88.31
357.534	90.31
357.761	95.31
357.988	89.31
358.215	103.31
358.441	97.31
358.668	72.31
358.895	95.31
359.122	84.31
359.349	104.31
359.576	96.31
359.802	108.31
360.029	106.31
360.256	104.31
360.483	94.31
360.709	94.31
360.936	93.31
361.163	100.31
361.39	106.31
361.616	106.31
361.843	101.31
362.07	90.31
362.296	94.31
362.523	79.31
362.749	130.31
362.976	98.31
363.203	89.31
363.429	90.31
363.656	98.31
363.882	90.31
364.109	91.31
364.335	88.31
364.562	92.31
364.788	85.31
365.015	103.31
365.241	82.31
365.468	119.31
365.694	98.31
365.92	89.31
366.147	86.31
366.373	96.31
366.599	80.31
366.826	85.31
367.052	99.31
367.278	83.31
367.505	90.31
367.731	88.31
367.957	83.31
368.184	98.31
368.41	94.31
368.636	106.31
368.862	116.31
369.089	102.31
369.315	93.31
369.541	97.31
369.767	106.31
369.993	80.31
370.219	84.31
370.445	91.31
370.672	95.31
370.898	85.31
371.124	98.31
371.35	90.31
371.576	80.31
371.802	89.31
372.028	87.31
372.254	98.31
372.48	115.31
372.706	92.31
372.932	84.31
373.158	90.31
373.384	96.31
373.61	93.31
373.835	92.31
374.061	95.31
374.287	92.31
374.513	88.31
374.739	90.31
374.965	83.31
375.191	114.31
375.416	86.31
375.642	93.31
375.868	104.31
376.094	91.31
376.319	96.31
376.545	101.31
376.771	91.31
376.997	86.31
377.222	103.31
377.448	85.31
377.674	76.31
377.899	86.31
378.125	96.31
378.35	92.31
378.576	88.31
378.802	100.31
379.027	92.31
379.253	88.31
379.478	96.31
379.704	91.31
379.929	85.31
380.155	114.31
380.38	105.31
380.606	101.31
380.831	106.31
381.057	93.31
381.282	114.31
381.507	99.31
381.733	80.31
381.958	103.31
382.184	96.31
382.409	104.31
382.634	101.31
382.86	105.31
383.085	104.31
383.31	111.31
383.535	113.31
383.761	95.31
383.986	102.31
384.211	105.31
384.436	116.31
384.662	108.31
384.887	122.31
385.112	100.31
385.337	116.31
385.562	101.31
385.787	108.31
386.013	117.31
386.238	112.31
386.463	121.31
386.688	104.31
386.913	109.31
387.138	117.31
387.363	106.31
387.588	109.31
387.813	111.31
388.038	110.31
388.263	122.31
388.488	115.31
388.713	105.31
388.938	107.31
389.163	101.31
389.387	105.31
389.612	96.31
389.837	100.31
390.062	99.31
390.287	107.31
390.512	96.31
390.736	90.31
390.961	86.31
391.186	83.31
391.411	88.31
391.636	105.31
391.86	89.31
392.085	95.31
392.31	82.31
392.534	106.31
392.759	79.31
392.984	93.31
393.208	97.31
393.433	79.31
393.658	94.31
393.882	74.31
394.107	94.31
394.331	107.31
394.556	86.31
394.78	85.31
395.005	86.31
395.229	84.31
395.454	76.31
395.678	71.31
395.903	90.31
396.127	80.31
396.352	91.31
396.576	86.31
396.801	96.31
397.025	96.31
397.249	100.31
397.474	92.31
397.698	98.31
397.922	93.31
398.147	90.31
398.371	90.31
398.595	84.31
398.82	86.31
399.044	91.31
399.268	94.31
399.492	100.31
399.717	100.31
399.941	87.31
400.165	91.31
400.389	106.31
400.613	84.31
400.837	85.31
401.062	83.31
401.286	101.31
401.51	86.31
401.734	90.31
401.958	103.31
402.182	130.31
402.406	148.31
402.63	124.31
402.854	100.31
403.078	90.31
403.302	76.31
403.526	101.31
403.75	84.31
403.974	98.31
404.198	97.31
404.422	105.31
404.645	91.31
404.869	108.31
405.093	96.31
405.317	108.31
405.541	114.31
405.765	100.31
405.988	115.31
406.212	174.31
406.436	224.31
406.66	148.31
406.883	99.31
407.107	98.31
407.331	86.31
407.555	90.31
407.778	85.31
408.002	94.31
408.226	100.31
408.449	95.31
408.673	84.31
408.896	89.31
409.12	94.31
409.344	94.31
409.567	99.31
409.791	98.31
410.014	106.31
410.238	96.31
410.461	101.31
410.685	88.31
410.908	91.31
411.132	96.31
411.355	95.31
411.578	95.31
411.802	101.31
412.025	88.31
412.249	88.31
412.472	100.31
412.695	104.31
412.919	100.31
413.142	97.31
413.365	83.31
413.589	91.31
413.812	105.31
414.035	84.31
414.258	99.31
414.482	76.31
414.705	87.31
414.928	88.31
415.151	109.31
415.374	95.31
415.597	90.31
415.821	89.31
416.044	106.31
416.267	89.31
416.49	70.31
416.713	90.31
416.936	82.31
417.159	92.31
417.382	89.31
417.605	99.31
417.828	102.31
418.051	98.31
418.274	91.31
418.497	79.31
418.72	72.31
418.943	72.31
419.166	92.31
419.389	90.31
419.611	104.31
419.834	94.31
420.057	93.31
420.28	90.31
420.503	87.31
420.726	82.31
420.948	88.31
421.171	100.31
421.394	93.31
421.617	100.31
421.839	87.31
422.062	99.31
422.285	105.31
422.507	107.31
422.73	103.31
422.953	100.31
423.175	106.31
423.398	88.31
423.621	91.31
423.843	86.31
424.066	94.31
424.288	96.31
424.511	102.31
424.733	100.31
424.956	105.31
425.178	94.31
425.401	99.31
425.623	112.31
425.846	96.31
426.068	82.31
426.291	94.31
426.513	97.31
426.735	84.31
426.958	78.31
427.18	106.31
427.402	135.31
427.625	188.31
427.847	160.31
428.069	147.31
428.292	113.31
428.514	96.31
428.736	95.31
428.958	78.31
429.181	91.31
429.403	93.31
429.625	80.31
429.847	90.31
430.069	101.31
430.292	90.31
430.514	82.31
430.736	86.31
430.958	90.31
431.18	83.31
431.402	96.31
431.624	83.31
431.846	89.31
432.068	80.31
432.29	86.31
432.512	86.31
432.734	76.31
432.956	84.31
433.178	115.31
433.4	98.31
433.622	91.31
433.844	79.31
434.066	91.31
434.287	101.31
434.509	95.31
434.731	102.31
434.953	96.31
435.175	81.31
435.397	82.31
435.618	92.31
435.84	106.31
436.062	123.31
436.284	119.31
436.505	87.31
436.727	107.31
436.949	99.31
437.17	99.31
437.392	77.31
437.614	78.31
437.835	108.31
438.057	123.31
438.278	101.31
438.5	85.31
438.721	115.31
438.943	102.31
439.165	93.31
439.386	101.31
439.608	106.31
439.829	95.31
440.05	115.31
440.272	157.31
440.493	86.31
440.715	92.31
440.936	89.31
441.158	92.31
441.379	95.31
441.6	87.31
441.822	92.31
442.043	96.31
442.264	101.31
442.486	99.31
442.707	105.31
442.928	105.31
443.149	135.31
443.371	137.31
443.592	109.31
443.813	111.31
444.034	104.31
444.255	77.31
444.476	84.31
444.698	90.31
444.919	95.31
445.14	131.31
445.361	128.31
445.582	117.31
445.803	147.31
446.024	142.31
446.245	147.31
446.466	109.31
446.687	99.31
446.908	104.31
447.129	98.31
447.35	74.31
447.571	107.31
447.792	96.31
448.013	95.31
448.234	103.31
448.455	116.31
448.675	101.31
448.896	115.31
449.117	105.31
449.338	103.31
449.559	140.31
449.779	139.31
450	91.31
450.221	85.31
450.442	87.31
450.662	94.31
450.883	98.31
451.104	109.31
451.324	102.31
451.545	85.31
451.766	86.31
451.986	86.31
452.207	93.31
452.428	96.31
452.648	79.31
452.869	95.31
453.089	112.31
453.31	114.31
453.53	87.31
453.751	100.31
453.971	92.31
454.192	110.31
454.412	98.31
454.633	82.31
454.853	92.31
455.073	88.31
455.294	74.31
455.514	100.31
455.734	108.31
455.955	101.31
456.175	76.31
456.395	75.31
456.616	92.31
456.836	88.31
457.056	88.31
457.276	71.31
457.497	72.31
457.717	95.31
457.937	91.31
458.157	100.31
458.377	100.31
458.598	115.31
458.818	152.31
459.038	149.31
459.258	115.31
459.478	88.31
459.698	90.31
459.918	95.31
460.138	86.31
460.358	79.31
460.578	90.31
460.798	92.31
461.018	93.31
461.238	89.31
461.458	102.31
461.678	85.31
461.898	90.31
462.118	81.31
462.338	76.31
462.558	84.31
462.777	72.31
462.997	101.31
463.217	87.31
463.437	87.31
463.657	80.31
463.876	92.31
464.096	95.31
464.316	99.31
464.536	93.31
464.755	107.31
464.975	108.31
465.195	165.31
465.414	162.31
465.634	100.31
465.854	98.31
466.073	87.31
466.293	88.31
466.512	98.31
466.732	73.31
466.951	86.31
467.171	89.31
467.391	93.31
467.61	109.31
467.829	119.31
468.049	206.31
468.268	274.31
468.488	123.31
468.707	86.31
468.927	87.31
469.146	74.31
469.365	79.31
469.585	95.31
469.804	96.31
470.023	106.31
470.243	112.31
470.462	111.31
470.681	98.31
470.901	100.31
471.12	100.31
471.339	87.31
471.558	95.31
471.777	113.31
471.997	151.31
472.216	355.31
472.435	670.31
472.654	203.31
472.873	126.31
473.092	89.31
473.311	97.31
473.53	81.31
473.749	92.31
473.968	99.31
474.187	111.31
474.406	105.31
474.625	84.31
474.844	82.31
475.063	88.31
475.282	77.31
475.501	89.31
475.72	89.31
475.939	97.31
476.158	88.31
476.377	92.31
476.596	92.31
476.814	95.31
477.033	94.31
477.252	96.31
477.471	94.31
477.69	84.31
477.908	88.31
478.127	87.31
478.346	85.31
478.564	101.31
478.783	94.31
479.002	92.31
479.22	84.31
479.439	114.31
479.658	105.31
479.876	105.31
480.095	102.31
480.313	102.31
480.532	104.31
480.751	146.31
480.969	333.31
481.188	1171.31
481.406	708.31
481.624	158.31
481.843	105.31
482.061	82.31
482.28	89.31
482.498	90.31
482.717	92.31
482.935	101.31
483.153	101.31
483.372	103.31
483.59	86.31
483.808	91.31
484.027	91.31
484.245	102.31
484.463	96.31
484.681	104.31
484.9	95.31
485.118	99.31
485.336	82.31
485.554	91.31
485.772	106.31
485.99	119.31
486.209	103.31
486.427	92.31
486.645	102.31
486.863	112.31
487.081	101.31
487.299	106.31
487.517	102.31
487.735	91.31
487.953	83.31
488.171	103.31
488.389	93.31
488.607	96.31
488.825	93.31
489.043	99.31
489.261	108.31
489.479	83.31
489.696	86.31
489.914	94.31
490.132	73.31
490.35	107.31
490.568	89.31
490.786	102.31
491.003	91.31
491.221	99.31
491.439	85.31
491.657	89.31
491.874	82.31
492.092	91.31
492.31	104.31
492.527	94.31
492.745	92.31
492.963	92.31
493.18	90.31
493.398	88.31
493.615	84.31
493.833	105.31
494.05	87.31
494.268	79.31
494.485	96.31
494.703	105.31
494.92	92.31
495.138	91.31
495.355	89.31
495.573	86.31
495.79	92.31
496.008	100.31
496.225	104.31
496.442	91.31
496.66	90.31
496.877	100.31
497.094	90.31
497.312	90.31
497.529	74.31
497.746	95.31
497.963	76.31
498.181	91.31
498.398	99.31
498.615	120.31
498.832	89.31
499.049	92.31
499.267	89.31
499.484	93.31
499.701	113.31
499.918	96.31
500.135	95.31
500.352	94.31
500.569	83.31
500.786	80.31
501.003	83.31
501.22	80.31
501.437	94.31
501.654	89.31
501.871	98.31
502.088	80.31
502.305	100.31
502.522	98.31
502.739	88.31
502.956	84.31
503.172	106.31
503.389	100.31
503.606	103.31
503.823	96.31
504.04	99.31
504.256	103.31
504.473	94.31
504.69	87.31
504.907	93.31
505.123	90.31
505.34	96.31
505.557	98.31
505.773	87.31
505.99	80.31
506.207	99.31
506.423	86.31
506.64	87.31
506.856	92.31
507.073	94.31
507.289	103.31
507.506	94.31
507.722	108.31
507.939	114.31
508.155	94.31
508.372	98.31
508.588	94.31
508.805	96.31
509.021	96.31
509.238	99.31
509.454	94.31
509.67	111.31
509.887	106.31
510.103	133.31
510.319	209.31
510.536	694.31
510.752	2146.31
510.968	612.31
511.184	153.31
511.401	128.31
511.617	94.31
511.833	107.31
512.049	93.31
512.265	101.31
512.481	94.31
512.698	81.31
512.914	104.31
513.13	93.31
513.346	89.31
513.562	99.31
513.778	88.31
513.994	94.31
