Data from Circ_2000_H10_HRD10591_00021.txt Node
Date: Wed Jan 03 10:49:38 EST 2024
User: Yrep
Spectrometer: HR+D1059
Trigger mode: 1
Integration Time (sec): 1.000000E-1
Scans to average: 1
Electric dark correction enabled: true
Nonlinearity correction enabled: false
Boxcar width: 0
XAxis mode: Wavelengths
Number of Pixels in Spectrum: 2048
>>>>>Begin Spectral Data<<<<<
223.165	-27
223.4	-27
223.635	-27
223.869	-20
224.104	-21
224.338	-14
224.573	-4
224.808	-9
225.042	-14
225.277	-5
225.511	-10
225.746	6
225.98	9
226.215	13
226.449	10
226.683	17
226.918	34
227.152	35
227.387	51
227.621	51
227.856	32
228.09	48
228.324	55
228.559	56
228.793	66
229.027	78
229.262	66
229.496	71
229.73	80
229.964	86
230.199	66
230.433	83
230.667	83
230.901	67
231.136	77
231.37	86
231.604	78
231.838	69
232.072	75
232.306	53
232.541	92
232.775	78
233.009	84
233.243	73
233.477	80
233.711	95
233.945	80
234.179	79
234.413	94
234.647	84
234.881	68
235.115	75
235.349	85
235.583	84
235.817	79
236.051	71
236.285	86
236.519	81
236.753	83
236.987	99
237.221	75
237.455	86
237.689	75
237.922	87
238.156	66
238.39	63
238.624	74
238.858	94
239.091	84
239.325	85
239.559	69
239.793	86
240.027	78
240.26	78
240.494	88
240.728	79
240.961	76
241.195	85
241.429	81
241.662	81
241.896	84
242.13	76
242.363	51
242.597	73
242.83	77
243.064	66
243.298	68
243.531	66
243.765	62
243.998	73
244.232	86
244.465	70
244.699	80
244.932	79
245.166	80
245.399	71
245.633	81
245.866	84
246.099	82
246.333	75
246.566	71
246.8	76
247.033	82
247.266	75
247.5	81
247.733	74
247.966	73
248.2	77
248.433	72
248.666	81
248.899	86
249.133	77
249.366	104
249.599	95
249.832	77
250.066	75
250.299	74
250.532	70
250.765	65
250.998	71
251.231	78
251.465	86
251.698	75
251.931	72
252.164	83
252.397	84
252.63	86
252.863	74
253.096	98
253.329	89
253.562	77
253.795	86
254.028	81
254.261	77
254.494	77
254.727	87
254.96	82
255.193	87
255.426	76
255.659	83
255.892	81
256.124	76
256.357	89
256.59	70
256.823	73
257.056	79
257.289	74
257.521	92
257.754	86
257.987	90
258.22	93
258.452	91
258.685	76
258.918	88
259.151	77
259.383	78
259.616	71
259.849	76
260.081	85
260.314	92
260.547	73
260.779	75
261.012	84
261.244	86
261.477	93
261.71	89
261.942	101
262.175	99
262.407	87
262.64	75
262.872	71
263.105	68
263.337	79
263.57	78
263.802	80
264.035	90
264.267	91
264.499	70
264.732	84
264.964	90
265.197	79
265.429	89
265.661	93
265.894	77
266.126	86
266.358	87
266.591	85
266.823	69
267.055	75
267.287	81
267.52	73
267.752	78
267.984	77
268.216	79
268.448	89
268.681	70
268.913	95
269.145	83
269.377	90
269.609	96
269.841	90
270.073	83
270.306	75
270.538	74
270.77	82
271.002	77
271.234	85
271.466	86
271.698	72
271.93	95
272.162	89
272.394	88
272.626	88
272.858	85
273.09	79
273.322	74
273.553	70
273.785	78
274.017	90
274.249	86
274.481	81
274.713	97
274.945	94
275.176	69
275.408	87
275.64	72
275.872	93
276.104	97
276.335	92
276.567	97
276.799	99
277.031	99
277.262	109
277.494	100
277.726	100
277.957	85
278.189	95
278.421	87
278.652	85
278.884	90
279.115	87
279.347	86
279.579	98
279.81	95
280.042	110
280.273	118
280.505	99
280.736	99
280.968	78
281.199	74
281.431	76
281.662	93
281.894	86
282.125	77
282.356	102
282.588	124
282.819	93
283.051	98
283.282	85
283.513	77
283.745	94
283.976	85
284.207	99
284.439	86
284.67	83
284.901	81
285.132	86
285.364	87
285.595	85
285.826	85
286.057	96
286.288	89
286.52	100
286.751	83
286.982	76
287.213	75
287.444	86
287.675	87
287.906	67
288.138	95
288.369	91
288.6	90
288.831	100
289.062	98
289.293	87
289.524	86
289.755	93
289.986	80
290.217	88
290.448	80
290.679	85
290.91	87
291.141	75
291.371	83
291.602	90
291.833	83
292.064	76
292.295	88
292.526	81
292.757	80
292.987	81
293.218	82
293.449	77
293.68	100
293.91	89
294.141	83
294.372	99
294.603	86
294.833	79
295.064	91
295.295	91
295.525	99
295.756	100
295.987	110
296.217	121
296.448	121
296.679	80
296.909	85
297.14	86
297.37	95
297.601	91
297.831	83
298.062	99
298.292	96
298.523	94
298.753	85
298.984	83
299.214	81
299.445	82
299.675	93
299.905	99
300.136	96
300.366	92
300.597	100
300.827	92
301.057	90
301.288	85
301.518	90
301.748	83
301.979	96
302.209	89
302.439	89
302.669	90
302.9	77
303.13	89
303.36	99
303.59	95
303.82	100
304.051	104
304.281	91
304.511	91
304.741	89
304.971	88
305.201	77
305.431	94
305.661	94
305.891	98
306.121	91
306.352	103
306.582	113
306.812	94
307.042	97
307.272	97
307.502	100
307.731	109
307.961	94
308.191	84
308.421	86
308.651	79
308.881	89
309.111	103
309.341	99
309.571	100
309.8	97
310.03	92
310.26	92
310.49	87
310.72	111
310.949	103
311.179	98
311.409	85
311.639	88
311.868	91
312.098	82
312.328	85
312.557	98
312.787	108
313.017	96
313.246	90
313.476	89
313.706	88
313.935	95
314.165	92
314.394	114
314.624	90
314.853	101
315.083	82
315.312	99
315.542	89
315.771	99
316.001	95
316.23	94
316.46	85
316.689	91
316.919	83
317.148	101
317.377	85
317.607	88
317.836	91
318.065	81
318.295	86
318.524	99
318.753	92
318.983	84
319.212	97
319.441	115
319.67	84
319.9	101
320.129	92
320.358	86
320.587	91
320.816	105
321.046	84
321.275	101
321.504	96
321.733	94
321.962	91
322.191	88
322.42	102
322.649	107
322.878	102
323.108	110
323.337	116
323.566	120
323.795	153
324.024	185
324.253	315
324.482	700
324.71	1441
324.939	1891
325.168	708
325.397	232
325.626	141
325.855	120
326.084	121
326.313	133
326.542	150
326.77	215
326.999	406
327.228	837
327.457	1496
327.686	1183
327.914	343
328.143	215
328.372	221
328.6	151
328.829	122
329.058	127
329.287	122
329.515	131
329.744	133
329.972	183
330.201	253
330.43	325
330.658	216
330.887	147
331.115	123
331.344	101
331.572	97
331.801	110
332.03	98
332.258	92
332.486	93
332.715	91
332.943	78
333.172	106
333.4	98
333.629	116
333.857	135
334.085	158
334.314	256
334.542	421
334.771	399
334.999	149
335.227	106
335.455	105
335.684	110
335.912	115
336.14	104
336.369	98
336.597	99
336.825	82
337.053	87
337.281	95
337.51	90
337.738	106
337.966	89
338.194	86
338.422	103
338.65	93
338.878	90
339.106	85
339.334	85
339.562	95
339.79	97
340.018	100
340.246	89
340.474	90
340.702	86
340.93	102
341.158	96
341.386	102
341.614	98
341.842	95
342.07	100
342.298	90
342.526	105
342.754	93
342.981	96
343.209	88
343.437	100
343.665	89
343.893	70
344.12	99
344.348	76
344.576	107
344.804	87
345.031	106
345.259	105
345.487	87
345.714	97
345.942	97
346.17	96
346.397	101
346.625	86
346.853	90
347.08	94
347.308	88
347.535	103
347.763	98
347.99	94
348.218	104
348.445	95
348.673	80
348.9	93
349.128	107
349.355	109
349.583	95
349.81	80
350.037	98
350.265	106
350.492	105
350.72	95
350.947	105
351.174	105
351.402	112
351.629	97
351.856	106
352.083	113
352.311	101
352.538	110
352.765	99
352.992	99
353.22	102
353.447	107
353.674	94
353.901	93
354.128	106
354.355	102
354.583	96
354.81	100
355.037	97
355.264	97
355.491	105
355.718	96
355.945	101
356.172	92
356.399	79
356.626	96
356.853	86
357.08	98
357.307	91
357.534	78
357.761	109
357.988	89
358.215	101
358.441	95
358.668	87
358.895	90
359.122	94
359.349	85
359.576	113
359.802	108
360.029	117
360.256	99
360.483	91
360.709	93
360.936	84
361.163	70
361.39	92
361.616	86
361.843	101
362.07	92
362.296	100
362.523	98
362.749	83
362.976	89
363.203	83
363.429	83
363.656	98
363.882	96
364.109	95
364.335	94
364.562	92
364.788	92
365.015	88
365.241	96
365.468	88
365.694	100
365.92	94
366.147	94
366.373	92
366.599	79
366.826	106
367.052	86
367.278	78
367.505	76
367.731	75
367.957	91
368.184	107
368.41	88
368.636	101
368.862	121
369.089	92
369.315	94
369.541	82
369.767	92
369.993	97
370.219	93
370.445	82
370.672	85
370.898	81
371.124	92
371.35	73
371.576	83
371.802	93
372.028	89
372.254	106
372.48	90
372.706	93
372.932	100
373.158	94
373.384	98
373.61	93
373.835	90
374.061	100
374.287	81
374.513	95
374.739	97
374.965	96
375.191	102
375.416	87
375.642	82
375.868	95
376.094	93
376.319	84
376.545	85
376.771	82
376.997	82
377.222	95
377.448	79
377.674	91
377.899	76
378.125	95
378.35	99
378.576	93
378.802	99
379.027	104
379.253	111
379.478	101
379.704	85
379.929	96
380.155	109
380.38	104
380.606	98
380.831	90
381.057	94
381.282	86
381.507	113
381.733	104
381.958	93
382.184	103
382.409	95
382.634	112
382.86	114
383.085	102
383.31	105
383.535	116
383.761	90
383.986	95
384.211	92
384.436	90
384.662	99
384.887	126
385.112	104
385.337	116
385.562	110
385.787	113
386.013	109
386.238	130
386.463	113
386.688	138
386.913	109
387.138	110
387.363	118
387.588	108
387.813	108
388.038	103
388.263	132
388.488	100
388.713	106
388.938	91
389.163	107
389.387	97
389.612	94
389.837	85
390.062	104
390.287	94
390.512	93
390.736	92
390.961	87
391.186	95
391.411	94
391.636	84
391.86	79
392.085	91
392.31	88
392.534	84
392.759	87
392.984	92
393.208	95
393.433	87
393.658	89
393.882	102
394.107	84
394.331	85
394.556	77
394.78	85
395.005	95
395.229	94
395.454	84
395.678	90
395.903	87
396.127	91
396.352	76
396.576	82
396.801	85
397.025	83
397.249	96
397.474	78
397.698	95
397.922	100
398.147	89
398.371	89
398.595	85
398.82	92
399.044	84
399.268	85
399.492	77
399.717	82
399.941	83
400.165	100
400.389	84
400.613	87
400.837	91
401.062	83
401.286	85
401.51	91
401.734	91
401.958	82
402.182	120
402.406	153
402.63	133
402.854	101
403.078	85
403.302	89
403.526	95
403.75	80
403.974	87
404.198	87
404.422	85
404.645	91
404.869	105
405.093	101
405.317	98
405.541	109
405.765	103
405.988	109
406.212	164
406.436	225
406.66	144
406.883	105
407.107	91
407.331	95
407.555	112
407.778	101
408.002	104
408.226	96
408.449	90
408.673	86
408.896	94
409.12	93
409.344	99
409.567	103
409.791	96
410.014	100
410.238	84
410.461	98
410.685	99
410.908	102
411.132	112
411.355	100
411.578	104
411.802	98
412.025	94
412.249	92
412.472	101
412.695	101
412.919	95
413.142	87
413.365	93
413.589	99
413.812	103
414.035	96
414.258	96
414.482	111
414.705	95
414.928	94
415.151	90
415.374	78
415.597	88
415.821	82
416.044	98
416.267	98
416.49	89
416.713	91
416.936	78
417.159	100
417.382	90
417.605	78
417.828	104
418.051	93
418.274	97
418.497	89
418.72	87
418.943	78
419.166	88
419.389	92
419.611	84
419.834	114
420.057	95
420.28	90
420.503	98
420.726	95
420.948	97
421.171	78
421.394	78
421.617	99
421.839	76
422.062	93
422.285	94
422.507	96
422.73	101
422.953	109
423.175	101
423.398	84
423.621	81
423.843	88
424.066	83
424.288	91
424.511	90
424.733	91
424.956	113
425.178	92
425.401	97
425.623	104
425.846	101
426.068	105
426.291	95
426.513	90
426.735	90
426.958	80
427.18	107
427.402	130
427.625	163
427.847	143
428.069	147
428.292	100
428.514	108
428.736	87
428.958	75
429.181	98
429.403	104
429.625	94
429.847	106
430.069	92
430.292	95
430.514	79
430.736	87
430.958	81
431.18	95
431.402	75
431.624	99
431.846	87
432.068	91
432.29	93
432.512	82
432.734	88
432.956	82
433.178	109
433.4	91
433.622	114
433.844	109
434.066	95
434.287	102
434.509	93
434.731	91
434.953	87
435.175	90
435.397	108
435.618	99
435.84	106
436.062	135
436.284	108
436.505	94
436.727	91
436.949	90
437.17	89
437.392	98
437.614	89
437.835	129
438.057	107
438.278	108
438.5	102
438.721	137
438.943	89
439.165	91
439.386	92
439.608	87
439.829	96
440.05	117
440.272	126
440.493	97
440.715	89
440.936	87
441.158	82
441.379	78
441.6	86
441.822	98
442.043	95
442.264	102
442.486	98
442.707	91
442.928	102
443.149	134
443.371	133
443.592	110
443.813	101
444.034	112
444.255	95
444.476	88
444.698	86
444.919	89
445.14	125
445.361	124
445.582	93
445.803	147
446.024	132
446.245	132
446.466	93
446.687	74
446.908	87
447.129	89
447.35	92
447.571	94
447.792	85
448.013	81
448.234	102
448.455	88
448.675	109
448.896	112
449.117	103
449.338	116
449.559	130
449.779	127
450	88
450.221	93
450.442	92
450.662	83
450.883	111
451.104	103
451.324	91
451.545	101
451.766	86
451.986	87
452.207	95
452.428	97
452.648	89
452.869	107
453.089	108
453.31	101
453.53	92
453.751	93
453.971	106
454.192	113
454.412	104
454.633	87
454.853	82
455.073	86
455.294	99
455.514	107
455.734	91
455.955	88
456.175	79
456.395	87
456.616	98
456.836	102
457.056	76
457.276	83
457.497	88
457.717	88
457.937	98
458.157	82
458.377	84
458.598	99
458.818	129
459.038	148
459.258	110
459.478	86
459.698	89
459.918	90
460.138	79
460.358	80
460.578	92
460.798	84
461.018	94
461.238	68
461.458	87
461.678	104
461.898	95
462.118	81
462.338	90
462.558	103
462.777	89
462.997	70
463.217	88
463.437	77
463.657	69
463.876	84
464.096	83
464.316	91
464.536	84
464.755	109
464.975	116
465.195	148
465.414	149
465.634	89
465.854	85
466.073	85
466.293	92
466.512	71
466.732	86
466.951	77
467.171	102
467.391	97
467.61	105
467.829	110
468.049	160
468.268	218
468.488	109
468.707	94
468.927	92
469.146	101
469.365	71
469.585	87
469.804	101
470.023	100
470.243	95
470.462	104
470.681	109
470.901	94
471.12	82
471.339	70
471.558	109
471.777	105
471.997	134
472.216	279
472.435	529
472.654	189
472.873	103
473.092	91
473.311	99
473.53	77
473.749	91
473.968	93
474.187	105
474.406	96
474.625	91
474.844	74
475.063	85
475.282	75
475.501	85
475.72	85
475.939	89
476.158	85
476.377	97
476.596	85
476.814	99
477.033	86
477.252	79
477.471	85
477.69	98
477.908	105
478.127	89
478.346	93
478.564	102
478.783	108
479.002	109
479.22	87
479.439	108
479.658	107
479.876	104
480.095	110
480.313	103
480.532	108
480.751	134
480.969	277
481.188	898
481.406	583
481.624	159
481.843	101
482.061	83
482.28	79
482.498	86
482.717	78
482.935	92
483.153	93
483.372	75
483.59	85
483.808	100
484.027	81
484.245	98
484.463	93
484.681	100
484.9	85
485.118	104
485.336	99
485.554	93
485.772	97
485.99	120
486.209	115
486.427	109
486.645	100
486.863	115
487.081	92
487.299	101
487.517	110
487.735	106
487.953	92
488.171	82
488.389	102
488.607	99
488.825	99
489.043	97
489.261	99
489.479	81
489.696	101
489.914	91
490.132	85
490.35	83
490.568	78
490.786	86
491.003	88
491.221	91
491.439	80
491.657	86
491.874	97
492.092	87
492.31	99
492.527	94
492.745	99
492.963	93
493.18	96
493.398	93
493.615	83
493.833	95
494.05	87
494.268	96
494.485	91
494.703	86
494.92	82
495.138	96
495.355	94
495.573	94
495.79	91
496.008	86
496.225	95
496.442	95
496.66	100
496.877	93
497.094	75
497.312	80
497.529	88
497.746	102
497.963	101
498.181	87
498.398	105
498.615	110
498.832	95
499.049	88
499.267	98
499.484	86
499.701	106
499.918	78
500.135	89
500.352	81
500.569	94
500.786	92
501.003	89
501.22	89
501.437	84
501.654	83
501.871	95
502.088	92
502.305	97
502.522	93
502.739	89
502.956	95
503.172	83
503.389	93
503.606	105
503.823	90
504.04	100
504.256	101
504.473	91
504.69	88
504.907	108
505.123	91
505.34	78
505.557	91
505.773	85
505.99	90
506.207	97
506.423	99
506.64	81
506.856	90
507.073	85
507.289	82
507.506	102
507.722	109
507.939	105
508.155	94
508.372	96
508.588	98
508.805	92
509.021	101
509.238	115
509.454	94
509.67	101
509.887	97
510.103	127
510.319	196
510.536	640
510.752	2049
510.968	588
511.184	143
511.401	110
511.617	115
511.833	100
512.049	111
512.265	101
512.481	103
512.698	97
512.914	80
513.13	95
513.346	99
513.562	89
513.778	102
513.994	88
514.21	98
514.426	111
514.642	131
514.858	145
515.074	158
515.29	403
515.506	1285
515.721	487
515.937	155
516.153	112
516.369	94
516.585	82
516.801	91
517.016	106
517.232	93
517.448	106
517.664	90
517.879	78
518.095	94
518.311	82
518.527	83
518.742	105
518.958	109
519.173	99
519.389	94
519.605	96
519.82	103
520.036	108
520.251	116
520.467	114
520.682	111
520.898	102
521.113	110
521.329	125
521.544	177
521.76	481
521.975	2123
522.19	1271
522.406	281
522.621	108
522.836	93
523.052	93
523.267	100
523.482	94
523.698	94
523.913	106
524.128	107
524.343	93
524.559	74
524.774	86
524.989	89
525.204	98
525.419	91
525.634	96
525.849	90
526.064	85
526.28	77
526.495	75
526.71	99
526.925	102
527.14	91
527.355	87
527.57	83
527.785	101
527.999	88
528.214	95
528.429	99
528.644	97
528.859	100
529.074	91
529.289	108
529.503	166
529.718	101
529.933	86
530.148	96
530.363	91
530.577	79
530.792	87
531.007	81
531.221	95
531.436	98
531.651	84
531.865	92
532.08	90
532.295	92
532.509	101
532.724	93
532.938	106
533.153	106
533.367	87
533.582	86
533.796	102
534.011	99
534.225	109
534.44	78
534.654	90
534.868	101
535.083	86
535.297	115
535.511	98
535.726	99
535.94	100
536.154	82
536.369	107
536.583	94
536.797	87
537.011	85
537.225	79
537.44	95
537.654	100
537.868	87
538.082	88
538.296	81
538.51	79
538.724	87
538.938	103
539.153	109
539.367	114
539.581	102
539.795	82
540.009	81
540.222	85
540.436	99
540.65	102
540.864	71
541.078	85
541.292	100
541.506	98
541.72	74
541.934	83
542.147	83
542.361	86
542.575	94
542.789	95
543.002	93
543.216	110
543.43	108
543.644	98
543.857	92
544.071	85
544.285	102
544.498	84
544.712	95
544.925	92
545.139	92
545.352	96
545.566	88
545.779	91
545.993	98
546.206	81
546.42	97
546.633	89
546.847	93
547.06	98
547.274	81
547.487	88
547.7	83
547.914	85
548.127	92
548.34	93
548.554	85
548.767	97
548.98	86
549.193	99
549.407	96
549.62	85
549.833	61
550.046	76
550.259	91
550.473	93
550.686	95
550.899	99
551.112	91
551.325	87
551.538	83
551.751	82
551.964	106
552.177	85
552.39	88
552.603	84
552.816	94
553.029	93
553.242	95
553.455	90
553.667	109
553.88	98
554.093	89
554.306	95
554.519	107
554.732	84
554.944	89
555.157	100
555.37	87
555.583	105
555.795	100
556.008	82
556.221	102
556.433	94
556.646	94
556.859	90
557.071	92
557.284	97
557.496	98
557.709	104
557.921	99
558.134	83
558.346	90
558.559	85
558.771	76
558.984	81
559.196	81
559.409	87
559.621	98
559.833	88
560.046	82
560.258	87
560.47	87
560.683	77
560.895	99
561.107	95
561.32	93
561.532	77
561.744	93
561.956	93
562.168	87
562.381	95
562.593	101
562.805	95
563.017	86
563.229	84
563.441	73
563.653	80
563.865	98
564.077	83
564.289	92
564.501	90
564.713	99
564.925	104
565.137	101
565.349	99
565.561	82
565.773	84
565.985	95
566.197	83
566.408	90
566.62	87
566.832	89
567.044	79
567.255	84
567.467	85
567.679	84
567.891	103
568.102	88
568.314	83
568.526	77
568.737	84
568.949	92
569.161	91
569.372	90
569.584	87
569.795	107
570.007	115
570.218	224
570.43	137
570.641	96
570.853	94
571.064	82
571.276	83
571.487	97
571.698	92
571.91	83
572.121	83
572.333	79
572.544	74
572.755	90
572.966	83
573.178	93
573.389	94
573.6	93
573.811	105
574.023	87
574.234	84
574.445	78
574.656	91
574.867	99
575.078	92
575.289	84
575.501	82
575.712	86
575.923	102
576.134	91
576.345	84
576.556	94
576.767	93
576.978	80
577.188	78
577.399	98
577.61	91
577.821	94
578.032	117
578.243	247
578.454	621
578.665	187
578.875	103
579.086	94
579.297	81
579.508	89
579.718	89
579.929	91
580.14	91
580.35	91
580.561	84
580.772	94
580.982	101
581.193	93
581.403	83
581.614	74
581.825	91
582.035	89
582.246	87
582.456	97
582.667	95
582.877	87
583.087	82
583.298	81
