Data from Circ_1984_H10_HRD10591_00036.txt Node
Date: Wed Jan 03 12:22:49 EST 2024
User: Yrep
Spectrometer: HR+D1059
Trigger mode: 1
Integration Time (sec): 1.000000E-1
Scans to average: 1
Electric dark correction enabled: true
Nonlinearity correction enabled: false
Boxcar width: 0
XAxis mode: Wavelengths
Number of Pixels in Spectrum: 2048
>>>>>Begin Spectral Data<<<<<
223.165	-12.5
223.4	-12.5
223.635	-12.5
223.869	-20.5
224.104	-22.5
224.338	-3.5
224.573	-23.5
224.808	-12.5
225.042	-0.5
225.277	-14.5
225.511	2.5
225.746	-0.5
225.98	-2.5
226.215	18.5
226.449	10.5
226.683	22.5
226.918	26.5
227.152	32.5
227.387	29.5
227.621	37.5
227.856	40.5
228.09	37.5
228.324	46.5
228.559	46.5
228.793	52.5
229.027	56.5
229.262	61.5
229.496	63.5
229.73	65.5
229.964	62.5
230.199	65.5
230.433	63.5
230.667	86.5
230.901	84.5
231.136	72.5
231.37	79.5
231.604	77.5
231.838	76.5
232.072	77.5
232.306	72.5
232.541	70.5
232.775	67.5
233.009	80.5
233.243	72.5
233.477	69.5
233.711	65.5
233.945	71.5
234.179	70.5
234.413	82.5
234.647	82.5
234.881	80.5
235.115	81.5
235.349	73.5
235.583	71.5
235.817	72.5
236.051	78.5
236.285	74.5
236.519	84.5
236.753	56.5
236.987	67.5
237.221	80.5
237.455	85.5
237.689	74.5
237.922	81.5
238.156	85.5
238.39	74.5
238.624	61.5
238.858	66.5
239.091	63.5
239.325	67.5
239.559	68.5
239.793	60.5
240.027	80.5
240.26	61.5
240.494	61.5
240.728	62.5
240.961	79.5
241.195	69.5
241.429	73.5
241.662	86.5
241.896	78.5
242.13	64.5
242.363	77.5
242.597	67.5
242.83	68.5
243.064	72.5
243.298	75.5
243.531	79.5
243.765	78.5
243.998	67.5
244.232	69.5
244.465	79.5
244.699	62.5
244.932	79.5
245.166	79.5
245.399	81.5
245.633	75.5
245.866	71.5
246.099	83.5
246.333	67.5
246.566	84.5
246.8	59.5
247.033	70.5
247.266	77.5
247.5	73.5
247.733	69.5
247.966	66.5
248.2	86.5
248.433	73.5
248.666	77.5
248.899	82.5
249.133	83.5
249.366	97.5
249.599	77.5
249.832	82.5
250.066	69.5
250.299	84.5
250.532	69.5
250.765	69.5
250.998	82.5
251.231	67.5
251.465	72.5
251.698	71.5
251.931	77.5
252.164	87.5
252.397	81.5
252.63	72.5
252.863	73.5
253.096	80.5
253.329	70.5
253.562	79.5
253.795	83.5
254.028	79.5
254.261	70.5
254.494	79.5
254.727	85.5
254.96	82.5
255.193	97.5
255.426	77.5
255.659	77.5
255.892	84.5
256.124	79.5
256.357	80.5
256.59	75.5
256.823	81.5
257.056	60.5
257.289	81.5
257.521	69.5
257.754	87.5
257.987	78.5
258.22	94.5
258.452	89.5
258.685	93.5
258.918	71.5
259.151	67.5
259.383	79.5
259.616	80.5
259.849	76.5
260.081	79.5
260.314	72.5
260.547	86.5
260.779	77.5
261.012	88.5
261.244	70.5
261.477	85.5
261.71	80.5
261.942	97.5
262.175	101.5
262.407	81.5
262.64	60.5
262.872	83.5
263.105	71.5
263.337	86.5
263.57	73.5
263.802	78.5
264.035	73.5
264.267	86.5
264.499	83.5
264.732	78.5
264.964	89.5
265.197	70.5
265.429	90.5
265.661	61.5
265.894	66.5
266.126	81.5
266.358	73.5
266.591	70.5
266.823	65.5
267.055	88.5
267.287	80.5
267.52	82.5
267.752	83.5
267.984	83.5
268.216	84.5
268.448	87.5
268.681	72.5
268.913	85.5
269.145	89.5
269.377	78.5
269.609	79.5
269.841	83.5
270.073	85.5
270.306	84.5
270.538	86.5
270.77	90.5
271.002	73.5
271.234	95.5
271.466	93.5
271.698	87.5
271.93	77.5
272.162	76.5
272.394	75.5
272.626	82.5
272.858	83.5
273.09	82.5
273.322	95.5
273.553	77.5
273.785	81.5
274.017	84.5
274.249	80.5
274.481	85.5
274.713	78.5
274.945	84.5
275.176	81.5
275.408	101.5
275.64	96.5
275.872	85.5
276.104	87.5
276.335	85.5
276.567	90.5
276.799	111.5
277.031	96.5
277.262	84.5
277.494	83.5
277.726	79.5
277.957	80.5
278.189	77.5
278.421	88.5
278.652	74.5
278.884	67.5
279.115	80.5
279.347	81.5
279.579	82.5
279.81	83.5
280.042	92.5
280.273	98.5
280.505	87.5
280.736	84.5
280.968	83.5
281.199	81.5
281.431	82.5
281.662	85.5
281.894	90.5
282.125	80.5
282.356	102.5
282.588	109.5
282.819	97.5
283.051	76.5
283.282	87.5
283.513	92.5
283.745	93.5
283.976	83.5
284.207	83.5
284.439	79.5
284.67	83.5
284.901	84.5
285.132	85.5
285.364	85.5
285.595	84.5
285.826	75.5
286.057	86.5
286.288	81.5
286.52	84.5
286.751	111.5
286.982	70.5
287.213	79.5
287.444	95.5
287.675	78.5
287.906	79.5
288.138	83.5
288.369	94.5
288.6	65.5
288.831	89.5
289.062	93.5
289.293	71.5
289.524	74.5
289.755	76.5
289.986	80.5
290.217	78.5
290.448	78.5
290.679	85.5
290.91	83.5
291.141	81.5
291.371	65.5
291.602	77.5
291.833	83.5
292.064	83.5
292.295	89.5
292.526	83.5
292.757	89.5
292.987	92.5
293.218	79.5
293.449	91.5
293.68	86.5
293.91	99.5
294.141	86.5
294.372	100.5
294.603	93.5
294.833	100.5
295.064	84.5
295.295	91.5
295.525	100.5
295.756	99.5
295.987	93.5
296.217	111.5
296.448	112.5
296.679	88.5
296.909	85.5
297.14	93.5
297.37	88.5
297.601	96.5
297.831	91.5
298.062	81.5
298.292	93.5
298.523	71.5
298.753	81.5
298.984	91.5
299.214	83.5
299.445	96.5
299.675	72.5
299.905	92.5
300.136	75.5
300.366	88.5
300.597	91.5
300.827	93.5
301.057	94.5
301.288	96.5
301.518	86.5
301.748	97.5
301.979	77.5
302.209	82.5
302.439	67.5
302.669	79.5
302.9	87.5
303.13	80.5
303.36	94.5
303.59	94.5
303.82	99.5
304.051	89.5
304.281	93.5
304.511	102.5
304.741	88.5
304.971	85.5
305.201	84.5
305.431	92.5
305.661	80.5
305.891	85.5
306.121	104.5
306.352	99.5
306.582	84.5
306.812	77.5
307.042	80.5
307.272	91.5
307.502	87.5
307.731	99.5
307.961	90.5
308.191	92.5
308.421	87.5
308.651	85.5
308.881	81.5
309.111	91.5
309.341	96.5
309.571	80.5
309.8	95.5
310.03	87.5
310.26	93.5
310.49	96.5
310.72	97.5
310.949	97.5
311.179	87.5
311.409	87.5
311.639	82.5
311.868	91.5
312.098	98.5
312.328	105.5
312.557	94.5
312.787	100.5
313.017	89.5
313.246	93.5
313.476	86.5
313.706	87.5
313.935	88.5
314.165	75.5
314.394	88.5
314.624	95.5
314.853	88.5
315.083	88.5
315.312	98.5
315.542	82.5
315.771	92.5
316.001	86.5
316.23	87.5
316.46	89.5
316.689	68.5
316.919	82.5
317.148	91.5
317.377	83.5
317.607	96.5
317.836	84.5
318.065	84.5
318.295	91.5
318.524	92.5
318.753	80.5
318.983	88.5
319.212	103.5
319.441	112.5
319.67	103.5
319.9	91.5
320.129	95.5
320.358	84.5
320.587	81.5
320.816	95.5
321.046	90.5
321.275	92.5
321.504	95.5
321.733	87.5
321.962	95.5
322.191	96.5
322.42	96.5
322.649	96.5
322.878	98.5
323.108	110.5
323.337	114.5
323.566	120.5
323.795	113.5
324.024	170.5
324.253	297.5
324.482	599.5
324.71	1270.5
324.939	1717.5
325.168	656.5
325.397	215.5
325.626	131.5
325.855	117.5
326.084	109.5
326.313	119.5
326.542	130.5
326.77	189.5
326.999	368.5
327.228	715.5
327.457	1325.5
327.686	1083.5
327.914	313.5
328.143	188.5
328.372	144.5
328.6	125.5
328.829	100.5
329.058	102.5
329.287	104.5
329.515	108.5
329.744	102.5
329.972	127.5
330.201	168.5
330.43	201.5
330.658	153.5
330.887	122.5
331.115	124.5
331.344	82.5
331.572	99.5
331.801	104.5
332.03	104.5
332.258	102.5
332.486	84.5
332.715	75.5
332.943	95.5
333.172	94.5
333.4	88.5
333.629	104.5
333.857	114.5
334.085	131.5
334.314	161.5
334.542	218.5
334.771	223.5
334.999	110.5
335.227	95.5
335.455	74.5
335.684	107.5
335.912	98.5
336.14	96.5
336.369	93.5
336.597	87.5
336.825	96.5
337.053	88.5
337.281	86.5
337.51	89.5
337.738	90.5
337.966	83.5
338.194	80.5
338.422	81.5
338.65	89.5
338.878	87.5
339.106	86.5
339.334	86.5
339.562	100.5
339.79	85.5
340.018	83.5
340.246	84.5
340.474	80.5
340.702	91.5
340.93	80.5
341.158	93.5
341.386	80.5
341.614	86.5
341.842	90.5
342.07	99.5
342.298	84.5
342.526	90.5
342.754	91.5
342.981	96.5
343.209	85.5
343.437	93.5
343.665	97.5
343.893	85.5
344.12	65.5
344.348	101.5
344.576	94.5
344.804	77.5
345.031	81.5
345.259	107.5
345.487	79.5
345.714	94.5
345.942	82.5
346.17	79.5
346.397	93.5
346.625	95.5
346.853	75.5
347.08	83.5
347.308	87.5
347.535	91.5
347.763	87.5
347.99	86.5
348.218	86.5
348.445	96.5
348.673	93.5
348.9	80.5
349.128	94.5
349.355	93.5
349.583	93.5
349.81	86.5
350.037	87.5
350.265	97.5
350.492	93.5
350.72	93.5
350.947	85.5
351.174	103.5
351.402	103.5
351.629	89.5
351.856	70.5
352.083	97.5
352.311	97.5
352.538	97.5
352.765	96.5
352.992	111.5
353.22	91.5
353.447	85.5
353.674	89.5
353.901	93.5
354.128	100.5
354.355	89.5
354.583	99.5
354.81	88.5
355.037	93.5
355.264	87.5
355.491	82.5
355.718	87.5
355.945	91.5
356.172	95.5
356.399	79.5
356.626	92.5
356.853	81.5
357.08	95.5
357.307	94.5
357.534	88.5
357.761	93.5
357.988	84.5
358.215	91.5
358.441	86.5
358.668	97.5
358.895	97.5
359.122	88.5
359.349	79.5
359.576	89.5
359.802	84.5
360.029	99.5
360.256	109.5
360.483	92.5
360.709	71.5
360.936	100.5
361.163	81.5
361.39	78.5
361.616	76.5
361.843	101.5
362.07	84.5
362.296	93.5
362.523	88.5
362.749	88.5
362.976	78.5
363.203	85.5
363.429	88.5
363.656	81.5
363.882	88.5
364.109	91.5
364.335	97.5
364.562	94.5
364.788	93.5
365.015	82.5
365.241	100.5
365.468	97.5
365.694	98.5
365.92	85.5
366.147	86.5
366.373	96.5
366.599	100.5
366.826	87.5
367.052	87.5
367.278	79.5
367.505	98.5
367.731	88.5
367.957	85.5
368.184	86.5
368.41	85.5
368.636	101.5
368.862	93.5
369.089	87.5
369.315	87.5
369.541	79.5
369.767	90.5
369.993	85.5
370.219	72.5
370.445	79.5
370.672	90.5
370.898	87.5
371.124	86.5
371.35	90.5
371.576	81.5
371.802	72.5
372.028	84.5
372.254	86.5
372.48	93.5
372.706	87.5
372.932	93.5
373.158	86.5
373.384	89.5
373.61	91.5
373.835	89.5
374.061	79.5
374.287	83.5
374.513	81.5
374.739	80.5
374.965	85.5
375.191	91.5
375.416	91.5
375.642	72.5
375.868	88.5
376.094	79.5
376.319	94.5
376.545	86.5
376.771	89.5
376.997	91.5
377.222	88.5
377.448	88.5
377.674	77.5
377.899	84.5
378.125	84.5
378.35	89.5
378.576	84.5
378.802	91.5
379.027	106.5
379.253	84.5
379.478	84.5
379.704	91.5
379.929	91.5
380.155	81.5
380.38	85.5
380.606	83.5
380.831	85.5
381.057	91.5
381.282	104.5
381.507	79.5
381.733	92.5
381.958	102.5
382.184	83.5
382.409	98.5
382.634	101.5
382.86	92.5
383.085	91.5
383.31	89.5
383.535	82.5
383.761	105.5
383.986	98.5
384.211	97.5
384.436	96.5
384.662	96.5
384.887	94.5
385.112	116.5
385.337	105.5
385.562	100.5
385.787	85.5
386.013	104.5
386.238	105.5
386.463	105.5
386.688	96.5
386.913	88.5
387.138	104.5
387.363	94.5
387.588	98.5
387.813	83.5
388.038	88.5
388.263	103.5
388.488	102.5
388.713	77.5
388.938	88.5
389.163	95.5
389.387	97.5
389.612	84.5
389.837	87.5
390.062	98.5
390.287	82.5
390.512	100.5
390.736	90.5
390.961	92.5
391.186	97.5
391.411	93.5
391.636	87.5
391.86	75.5
392.085	87.5
392.31	86.5
392.534	91.5
392.759	87.5
392.984	94.5
393.208	106.5
393.433	92.5
393.658	104.5
393.882	88.5
394.107	85.5
394.331	87.5
394.556	92.5
394.78	89.5
395.005	79.5
395.229	88.5
395.454	76.5
395.678	71.5
395.903	80.5
396.127	100.5
396.352	75.5
396.576	94.5
396.801	85.5
397.025	79.5
397.249	79.5
397.474	80.5
397.698	83.5
397.922	80.5
398.147	71.5
398.371	65.5
398.595	71.5
398.82	90.5
399.044	75.5
399.268	84.5
399.492	85.5
399.717	72.5
399.941	83.5
400.165	97.5
400.389	91.5
400.613	78.5
400.837	77.5
401.062	88.5
401.286	90.5
401.51	82.5
401.734	79.5
401.958	99.5
402.182	110.5
402.406	141.5
402.63	109.5
402.854	83.5
403.078	98.5
403.302	88.5
403.526	92.5
403.75	81.5
403.974	81.5
404.198	85.5
404.422	72.5
404.645	83.5
404.869	83.5
405.093	86.5
405.317	87.5
405.541	93.5
405.765	100.5
405.988	94.5
406.212	125.5
406.436	178.5
406.66	108.5
406.883	88.5
407.107	90.5
407.331	92.5
407.555	106.5
407.778	95.5
408.002	69.5
408.226	86.5
408.449	86.5
408.673	71.5
408.896	78.5
409.12	90.5
409.344	81.5
409.567	86.5
409.791	95.5
410.014	83.5
410.238	91.5
410.461	92.5
410.685	91.5
410.908	95.5
411.132	96.5
411.355	97.5
411.578	88.5
411.802	81.5
412.025	100.5
412.249	88.5
412.472	94.5
412.695	96.5
412.919	82.5
413.142	77.5
413.365	66.5
413.589	86.5
413.812	76.5
414.035	98.5
414.258	99.5
414.482	72.5
414.705	85.5
414.928	79.5
415.151	86.5
415.374	84.5
415.597	102.5
415.821	89.5
416.044	105.5
416.267	88.5
416.49	87.5
416.713	95.5
416.936	102.5
417.159	76.5
417.382	91.5
417.605	86.5
417.828	85.5
418.051	97.5
418.274	70.5
418.497	87.5
418.72	79.5
418.943	86.5
419.166	80.5
419.389	88.5
419.611	103.5
419.834	93.5
420.057	94.5
420.28	81.5
420.503	80.5
420.726	84.5
420.948	81.5
421.171	80.5
421.394	87.5
421.617	94.5
421.839	75.5
422.062	77.5
422.285	87.5
422.507	100.5
422.73	93.5
422.953	83.5
423.175	79.5
423.398	79.5
423.621	95.5
423.843	85.5
424.066	70.5
424.288	83.5
424.511	82.5
424.733	85.5
424.956	104.5
425.178	87.5
425.401	78.5
425.623	100.5
425.846	92.5
426.068	83.5
426.291	87.5
426.513	86.5
426.735	86.5
426.958	87.5
427.18	96.5
427.402	121.5
427.625	133.5
427.847	118.5
428.069	107.5
428.292	75.5
428.514	94.5
428.736	76.5
428.958	75.5
429.181	92.5
429.403	89.5
429.625	87.5
429.847	76.5
430.069	107.5
430.292	88.5
430.514	72.5
430.736	75.5
430.958	75.5
431.18	94.5
431.402	71.5
431.624	92.5
431.846	92.5
432.068	92.5
432.29	78.5
432.512	76.5
432.734	82.5
432.956	83.5
433.178	86.5
433.4	88.5
433.622	87.5
433.844	85.5
434.066	88.5
434.287	76.5
434.509	75.5
434.731	76.5
434.953	83.5
435.175	83.5
435.397	85.5
435.618	85.5
435.84	86.5
436.062	105.5
436.284	94.5
436.505	106.5
436.727	88.5
436.949	91.5
437.17	83.5
437.392	101.5
437.614	84.5
437.835	102.5
438.057	102.5
438.278	92.5
438.5	104.5
438.721	99.5
438.943	89.5
439.165	70.5
439.386	80.5
439.608	99.5
439.829	96.5
440.05	132.5
440.272	121.5
440.493	88.5
440.715	76.5
440.936	87.5
441.158	82.5
441.379	87.5
441.6	100.5
441.822	97.5
442.043	92.5
442.264	96.5
442.486	82.5
442.707	93.5
442.928	77.5
443.149	104.5
443.371	100.5
443.592	88.5
443.813	96.5
444.034	99.5
444.255	89.5
444.476	86.5
444.698	81.5
444.919	93.5
445.14	125.5
445.361	127.5
445.582	103.5
445.803	118.5
446.024	116.5
446.245	134.5
446.466	108.5
446.687	79.5
446.908	93.5
447.129	86.5
447.35	96.5
447.571	95.5
447.792	97.5
448.013	84.5
448.234	93.5
448.455	88.5
448.675	92.5
448.896	86.5
449.117	100.5
449.338	124.5
449.559	104.5
449.779	107.5
450	72.5
450.221	94.5
450.442	90.5
450.662	88.5
450.883	89.5
451.104	107.5
451.324	95.5
451.545	78.5
451.766	81.5
451.986	82.5
452.207	94.5
452.428	68.5
452.648	101.5
452.869	83.5
453.089	103.5
453.31	118.5
453.53	87.5
453.751	73.5
453.971	89.5
454.192	99.5
454.412	87.5
454.633	80.5
454.853	85.5
455.073	70.5
455.294	85.5
455.514	98.5
455.734	93.5
455.955	78.5
456.175	88.5
456.395	76.5
456.616	85.5
456.836	68.5
457.056	93.5
457.276	87.5
457.497	67.5
457.717	83.5
457.937	82.5
458.157	84.5
458.377	82.5
458.598	107.5
458.818	134.5
459.038	129.5
459.258	101.5
459.478	87.5
459.698	84.5
459.918	85.5
460.138	73.5
460.358	67.5
460.578	81.5
460.798	79.5
461.018	90.5
461.238	74.5
461.458	79.5
461.678	84.5
461.898	81.5
462.118	75.5
462.338	83.5
462.558	101.5
462.777	86.5
462.997	97.5
463.217	77.5
463.437	82.5
463.657	75.5
463.876	94.5
464.096	88.5
464.316	84.5
464.536	77.5
464.755	90.5
464.975	104.5
465.195	134.5
465.414	123.5
465.634	91.5
465.854	72.5
466.073	91.5
466.293	78.5
466.512	76.5
466.732	75.5
466.951	94.5
467.171	90.5
467.391	95.5
467.61	103.5
467.829	105.5
468.049	134.5
468.268	135.5
468.488	93.5
468.707	86.5
468.927	83.5
469.146	94.5
469.365	95.5
469.585	69.5
469.804	77.5
470.023	95.5
470.243	75.5
470.462	71.5
470.681	83.5
470.901	84.5
471.12	81.5
471.339	86.5
471.558	82.5
471.777	76.5
471.997	102.5
472.216	169.5
472.435	280.5
472.654	118.5
472.873	87.5
473.092	80.5
473.311	87.5
473.53	85.5
473.749	81.5
473.968	90.5
474.187	95.5
474.406	92.5
474.625	97.5
474.844	75.5
475.063	75.5
475.282	96.5
475.501	72.5
475.72	88.5
475.939	81.5
476.158	93.5
476.377	77.5
476.596	75.5
476.814	85.5
477.033	85.5
477.252	83.5
477.471	86.5
477.69	83.5
477.908	78.5
478.127	87.5
478.346	89.5
478.564	94.5
478.783	91.5
479.002	87.5
479.22	85.5
479.439	93.5
479.658	87.5
479.876	97.5
480.095	87.5
480.313	79.5
480.532	112.5
480.751	106.5
480.969	185.5
481.188	470.5
481.406	289.5
481.624	99.5
481.843	81.5
482.061	82.5
482.28	91.5
482.498	79.5
482.717	69.5
482.935	77.5
483.153	91.5
483.372	77.5
483.59	94.5
483.808	81.5
484.027	77.5
484.245	94.5
484.463	81.5
484.681	89.5
484.9	81.5
485.118	92.5
485.336	101.5
485.554	84.5
485.772	97.5
485.99	88.5
486.209	87.5
486.427	109.5
486.645	113.5
486.863	114.5
487.081	92.5
487.299	96.5
487.517	95.5
487.735	84.5
487.953	101.5
488.171	101.5
488.389	100.5
488.607	90.5
488.825	92.5
489.043	76.5
489.261	94.5
489.479	91.5
489.696	93.5
489.914	88.5
490.132	91.5
490.35	89.5
490.568	72.5
490.786	87.5
491.003	89.5
491.221	94.5
491.439	88.5
491.657	108.5
491.874	100.5
492.092	91.5
492.31	91.5
492.527	86.5
492.745	95.5
492.963	86.5
493.18	89.5
493.398	89.5
493.615	96.5
493.833	95.5
494.05	77.5
494.268	69.5
494.485	85.5
494.703	86.5
494.92	83.5
495.138	81.5
495.355	86.5
495.573	90.5
495.79	84.5
496.008	81.5
496.225	77.5
496.442	83.5
496.66	88.5
496.877	88.5
497.094	99.5
497.312	93.5
497.529	88.5
497.746	84.5
497.963	77.5
498.181	97.5
498.398	88.5
498.615	99.5
498.832	96.5
499.049	86.5
499.267	80.5
499.484	77.5
499.701	99.5
499.918	78.5
500.135	88.5
500.352	84.5
500.569	99.5
500.786	88.5
501.003	75.5
501.22	86.5
501.437	90.5
501.654	99.5
501.871	101.5
502.088	80.5
502.305	77.5
502.522	85.5
502.739	73.5
502.956	90.5
503.172	88.5
503.389	89.5
503.606	81.5
503.823	87.5
504.04	93.5
504.256	87.5
504.473	85.5
504.69	82.5
504.907	87.5
505.123	86.5
505.34	79.5
505.557	88.5
505.773	94.5
505.99	81.5
506.207	82.5
506.423	93.5
506.64	83.5
506.856	83.5
507.073	84.5
507.289	80.5
507.506	85.5
507.722	95.5
507.939	97.5
508.155	86.5
508.372	105.5
508.588	90.5
508.805	87.5
509.021	103.5
509.238	96.5
509.454	102.5
509.67	99.5
509.887	102.5
510.103	105.5
510.319	177.5
510.536	580.5
510.752	1853.5
510.968	511.5
511.184	138.5
511.401	89.5
511.617	91.5
511.833	90.5
512.049	82.5
512.265	91.5
512.481	99.5
512.698	86.5
512.914	94.5
513.13	82.5
513.346	81.5
513.562	106.5
513.778	95.5
513.994	101.5
514.21	91.5
514.426	96.5
514.642	119.5
514.858	109.5
515.074	143.5
515.29	333.5
515.506	1055.5
515.721	391.5
515.937	136.5
516.153	95.5
516.369	93.5
516.585	100.5
516.801	87.5
517.016	80.5
517.232	83.5
517.448	81.5
517.664	86.5
517.879	85.5
518.095	96.5
518.311	82.5
518.527	80.5
518.742	79.5
518.958	90.5
519.173	83.5
519.389	88.5
519.605	82.5
519.82	75.5
520.036	87.5
520.251	97.5
520.467	112.5
520.682	85.5
520.898	102.5
521.113	109.5
521.329	123.5
521.544	164.5
521.76	435.5
521.975	1711.5
522.19	1049.5
522.406	253.5
522.621	118.5
522.836	83.5
523.052	77.5
523.267	89.5
523.482	81.5
523.698	89.5
523.913	107.5
524.128	87.5
524.343	84.5
524.559	97.5
524.774	102.5
524.989	77.5
525.204	83.5
525.419	94.5
525.634	98.5
525.849	94.5
526.064	84.5
526.28	97.5
526.495	98.5
526.71	71.5
526.925	85.5
527.14	76.5
527.355	88.5
527.57	71.5
527.785	91.5
527.999	91.5
528.214	79.5
528.429	95.5
528.644	94.5
528.859	79.5
529.074	91.5
529.289	116.5
529.503	165.5
529.718	103.5
529.933	81.5
530.148	79.5
530.363	85.5
530.577	86.5
530.792	76.5
531.007	76.5
531.221	89.5
531.436	93.5
531.651	84.5
531.865	103.5
532.08	81.5
532.295	91.5
532.509	101.5
532.724	89.5
532.938	68.5
533.153	89.5
533.367	75.5
533.582	81.5
533.796	90.5
534.011	96.5
534.225	79.5
534.44	83.5
534.654	95.5
534.868	104.5
535.083	85.5
535.297	89.5
535.511	73.5
535.726	85.5
535.94	101.5
536.154	89.5
536.369	77.5
536.583	74.5
536.797	81.5
537.011	94.5
537.225	84.5
