Data from Circ_1984_H10_HRD10591_00099.txt Node
Date: Wed Jan 03 12:23:01 EST 2024
User: Yrep
Spectrometer: HR+D1059
Trigger mode: 1
Integration Time (sec): 1.000000E-1
Scans to average: 1
Electric dark correction enabled: true
Nonlinearity correction enabled: false
Boxcar width: 0
XAxis mode: Wavelengths
Number of Pixels in Spectrum: 2048
>>>>>Begin Spectral Data<<<<<
223.165	-8.31
223.4	-8.31
223.635	-8.31
223.869	-22.31
224.104	-27.31
224.338	-10.31
224.573	4.69
224.808	-14.31
225.042	-9.31
225.277	-6.31
225.511	1.69
225.746	-5.31
225.98	-3.31
226.215	12.69
226.449	6.69
226.683	17.69
226.918	22.69
227.152	40.69
227.387	37.69
227.621	48.69
227.856	58.69
228.09	47.69
228.324	65.69
228.559	60.69
228.793	67.69
229.027	69.69
229.262	79.69
229.496	65.69
229.73	95.69
229.964	71.69
230.199	82.69
230.433	75.69
230.667	73.69
230.901	85.69
231.136	85.69
231.37	76.69
231.604	81.69
231.838	75.69
232.072	78.69
232.306	75.69
232.541	89.69
232.775	83.69
233.009	94.69
233.243	95.69
233.477	88.69
233.711	74.69
233.945	75.69
234.179	78.69
234.413	85.69
234.647	89.69
234.881	71.69
235.115	91.69
235.349	90.69
235.583	70.69
235.817	83.69
236.051	75.69
236.285	82.69
236.519	70.69
236.753	74.69
236.987	76.69
237.221	77.69
237.455	77.69
237.689	68.69
237.922	77.69
238.156	77.69
238.39	92.69
238.624	95.69
238.858	78.69
239.091	97.69
239.325	91.69
239.559	72.69
239.793	93.69
240.027	86.69
240.26	73.69
240.494	75.69
240.728	78.69
240.961	91.69
241.195	90.69
241.429	79.69
241.662	85.69
241.896	71.69
242.13	74.69
242.363	71.69
242.597	81.69
242.83	78.69
243.064	100.69
243.298	77.69
243.531	82.69
243.765	76.69
243.998	98.69
244.232	82.69
244.465	77.69
244.699	74.69
244.932	74.69
245.166	74.69
245.399	63.69
245.633	89.69
245.866	91.69
246.099	72.69
246.333	70.69
246.566	82.69
246.8	71.69
247.033	94.69
247.266	94.69
247.5	85.69
247.733	95.69
247.966	81.69
248.2	82.69
248.433	79.69
248.666	78.69
248.899	82.69
249.133	97.69
249.366	87.69
249.599	90.69
249.832	92.69
250.066	71.69
250.299	91.69
250.532	93.69
250.765	82.69
250.998	91.69
251.231	83.69
251.465	96.69
251.698	93.69
251.931	97.69
252.164	79.69
252.397	79.69
252.63	83.69
252.863	91.69
253.096	76.69
253.329	86.69
253.562	80.69
253.795	91.69
254.028	68.69
254.261	83.69
254.494	75.69
254.727	92.69
254.96	88.69
255.193	83.69
255.426	87.69
255.659	82.69
255.892	89.69
256.124	89.69
256.357	71.69
256.59	84.69
256.823	72.69
257.056	95.69
257.289	80.69
257.521	89.69
257.754	82.69
257.987	74.69
258.22	97.69
258.452	94.69
258.685	82.69
258.918	89.69
259.151	71.69
259.383	75.69
259.616	81.69
259.849	87.69
260.081	83.69
260.314	86.69
260.547	78.69
260.779	87.69
261.012	82.69
261.244	94.69
261.477	105.69
261.71	91.69
261.942	91.69
262.175	103.69
262.407	84.69
262.64	81.69
262.872	76.69
263.105	83.69
263.337	87.69
263.57	89.69
263.802	95.69
264.035	83.69
264.267	78.69
264.499	86.69
264.732	75.69
264.964	84.69
265.197	89.69
265.429	76.69
265.661	83.69
265.894	95.69
266.126	87.69
266.358	93.69
266.591	95.69
266.823	82.69
267.055	91.69
267.287	75.69
267.52	90.69
267.752	79.69
267.984	92.69
268.216	91.69
268.448	73.69
268.681	97.69
268.913	82.69
269.145	93.69
269.377	86.69
269.609	84.69
269.841	91.69
270.073	91.69
270.306	90.69
270.538	79.69
270.77	87.69
271.002	88.69
271.234	99.69
271.466	97.69
271.698	74.69
271.93	85.69
272.162	95.69
272.394	83.69
272.626	86.69
272.858	98.69
273.09	98.69
273.322	83.69
273.553	105.69
273.785	76.69
274.017	81.69
274.249	94.69
274.481	88.69
274.713	83.69
274.945	85.69
275.176	80.69
275.408	87.69
275.64	105.69
275.872	97.69
276.104	86.69
276.335	103.69
276.567	93.69
276.799	103.69
277.031	97.69
277.262	103.69
277.494	92.69
277.726	98.69
277.957	71.69
278.189	83.69
278.421	81.69
278.652	84.69
278.884	74.69
279.115	85.69
279.347	89.69
279.579	97.69
279.81	88.69
280.042	100.69
280.273	106.69
280.505	100.69
280.736	83.69
280.968	82.69
281.199	86.69
281.431	85.69
281.662	85.69
281.894	86.69
282.125	93.69
282.356	90.69
282.588	122.69
282.819	110.69
283.051	81.69
283.282	97.69
283.513	89.69
283.745	83.69
283.976	83.69
284.207	86.69
284.439	83.69
284.67	90.69
284.901	94.69
285.132	83.69
285.364	97.69
285.595	97.69
285.826	107.69
286.057	96.69
286.288	77.69
286.52	93.69
286.751	79.69
286.982	89.69
287.213	73.69
287.444	83.69
287.675	86.69
287.906	89.69
288.138	98.69
288.369	89.69
288.6	77.69
288.831	86.69
289.062	90.69
289.293	85.69
289.524	92.69
289.755	99.69
289.986	90.69
290.217	100.69
290.448	91.69
290.679	92.69
290.91	92.69
291.141	75.69
291.371	87.69
291.602	92.69
291.833	94.69
292.064	101.69
292.295	90.69
292.526	72.69
292.757	92.69
292.987	92.69
293.218	104.69
293.449	93.69
293.68	95.69
293.91	86.69
294.141	90.69
294.372	79.69
294.603	93.69
294.833	100.69
295.064	102.69
295.295	91.69
295.525	98.69
295.756	103.69
295.987	101.69
296.217	118.69
296.448	123.69
296.679	95.69
296.909	99.69
297.14	81.69
297.37	91.69
297.601	84.69
297.831	95.69
298.062	94.69
298.292	84.69
298.523	94.69
298.753	89.69
298.984	95.69
299.214	90.69
299.445	103.69
299.675	89.69
299.905	86.69
300.136	97.69
300.366	93.69
300.597	88.69
300.827	89.69
301.057	75.69
301.288	83.69
301.518	97.69
301.748	105.69
301.979	106.69
302.209	89.69
302.439	103.69
302.669	89.69
302.9	87.69
303.13	94.69
303.36	99.69
303.59	101.69
303.82	89.69
304.051	87.69
304.281	90.69
304.511	98.69
304.741	101.69
304.971	89.69
305.201	94.69
305.431	94.69
305.661	100.69
305.891	94.69
306.121	105.69
306.352	81.69
306.582	110.69
306.812	111.69
307.042	87.69
307.272	96.69
307.502	109.69
307.731	105.69
307.961	95.69
308.191	84.69
308.421	97.69
308.651	98.69
308.881	107.69
309.111	90.69
309.341	94.69
309.571	98.69
309.8	99.69
310.03	96.69
310.26	95.69
310.49	100.69
310.72	107.69
310.949	103.69
311.179	86.69
311.409	90.69
311.639	92.69
311.868	85.69
312.098	94.69
312.328	102.69
312.557	112.69
312.787	102.69
313.017	93.69
313.246	93.69
313.476	86.69
313.706	87.69
313.935	94.69
314.165	105.69
314.394	102.69
314.624	93.69
314.853	88.69
315.083	92.69
315.312	92.69
315.542	103.69
315.771	92.69
316.001	97.69
316.23	109.69
316.46	81.69
316.689	93.69
316.919	97.69
317.148	84.69
317.377	94.69
317.607	87.69
317.836	95.69
318.065	98.69
318.295	107.69
318.524	102.69
318.753	96.69
318.983	102.69
319.212	94.69
319.441	103.69
319.67	96.69
319.9	86.69
320.129	85.69
320.358	96.69
320.587	92.69
320.816	82.69
321.046	107.69
321.275	95.69
321.504	100.69
321.733	93.69
321.962	111.69
322.191	104.69
322.42	97.69
322.649	90.69
322.878	112.69
323.108	110.69
323.337	124.69
323.566	101.69
323.795	127.69
324.024	173.69
324.253	291.69
324.482	621.69
324.71	1221.69
324.939	1646.69
325.168	643.69
325.397	211.69
325.626	134.69
325.855	133.69
326.084	122.69
326.313	125.69
326.542	137.69
326.77	190.69
326.999	361.69
327.228	718.69
327.457	1300.69
327.686	1050.69
327.914	310.69
328.143	205.69
328.372	201.69
328.6	140.69
328.829	124.69
329.058	119.69
329.287	109.69
329.515	120.69
329.744	119.69
329.972	151.69
330.201	233.69
330.43	293.69
330.658	175.69
330.887	129.69
331.115	123.69
331.344	117.69
331.572	109.69
331.801	94.69
332.03	110.69
332.258	83.69
332.486	89.69
332.715	87.69
332.943	98.69
333.172	99.69
333.4	104.69
333.629	120.69
333.857	123.69
334.085	151.69
334.314	229.69
334.542	375.69
334.771	337.69
334.999	158.69
335.227	123.69
335.455	91.69
335.684	93.69
335.912	105.69
336.14	83.69
336.369	104.69
336.597	102.69
336.825	93.69
337.053	93.69
337.281	96.69
337.51	79.69
337.738	91.69
337.966	93.69
338.194	90.69
338.422	98.69
338.65	95.69
338.878	92.69
339.106	101.69
339.334	96.69
339.562	90.69
339.79	106.69
340.018	91.69
340.246	94.69
340.474	98.69
340.702	99.69
340.93	90.69
341.158	104.69
341.386	95.69
341.614	109.69
341.842	84.69
342.07	100.69
342.298	95.69
342.526	98.69
342.754	93.69
342.981	92.69
343.209	94.69
343.437	92.69
343.665	85.69
343.893	99.69
344.12	94.69
344.348	98.69
344.576	95.69
344.804	95.69
345.031	98.69
345.259	101.69
345.487	98.69
345.714	85.69
345.942	108.69
346.17	91.69
346.397	107.69
346.625	99.69
346.853	107.69
347.08	97.69
347.308	90.69
347.535	95.69
347.763	92.69
347.99	98.69
348.218	98.69
348.445	95.69
348.673	98.69
348.9	90.69
349.128	87.69
349.355	87.69
349.583	90.69
349.81	87.69
350.037	88.69
350.265	93.69
350.492	97.69
350.72	99.69
350.947	90.69
351.174	94.69
351.402	108.69
351.629	100.69
351.856	103.69
352.083	98.69
352.311	111.69
352.538	93.69
352.765	112.69
352.992	103.69
353.22	107.69
353.447	105.69
353.674	108.69
353.901	96.69
354.128	87.69
354.355	89.69
354.583	97.69
354.81	102.69
355.037	101.69
355.264	94.69
355.491	111.69
355.718	86.69
355.945	103.69
356.172	100.69
356.399	91.69
356.626	89.69
356.853	94.69
357.08	94.69
357.307	74.69
357.534	64.69
357.761	97.69
357.988	90.69
358.215	95.69
358.441	93.69
358.668	92.69
358.895	95.69
359.122	104.69
359.349	95.69
359.576	91.69
359.802	95.69
360.029	100.69
360.256	111.69
360.483	100.69
360.709	89.69
360.936	85.69
361.163	118.69
361.39	118.69
361.616	79.69
361.843	89.69
362.07	91.69
362.296	115.69
362.523	113.69
362.749	91.69
362.976	100.69
363.203	105.69
363.429	87.69
363.656	78.69
363.882	78.69
364.109	76.69
364.335	90.69
364.562	110.69
364.788	93.69
365.015	102.69
365.241	98.69
365.468	104.69
365.694	106.69
365.92	101.69
366.147	91.69
366.373	92.69
366.599	100.69
366.826	94.69
367.052	85.69
367.278	86.69
367.505	98.69
367.731	87.69
367.957	104.69
368.184	95.69
368.41	93.69
368.636	101.69
368.862	104.69
369.089	102.69
369.315	98.69
369.541	93.69
369.767	86.69
369.993	96.69
370.219	86.69
370.445	78.69
370.672	96.69
370.898	98.69
371.124	94.69
371.35	92.69
371.576	84.69
371.802	95.69
372.028	91.69
372.254	89.69
372.48	99.69
372.706	86.69
372.932	81.69
373.158	93.69
373.384	102.69
373.61	91.69
373.835	79.69
374.061	84.69
374.287	92.69
374.513	100.69
374.739	88.69
374.965	95.69
375.191	90.69
375.416	79.69
375.642	88.69
375.868	82.69
376.094	86.69
376.319	98.69
376.545	91.69
376.771	84.69
376.997	81.69
377.222	79.69
377.448	93.69
377.674	88.69
377.899	109.69
378.125	85.69
378.35	91.69
378.576	105.69
378.802	83.69
379.027	90.69
379.253	94.69
379.478	100.69
379.704	82.69
379.929	89.69
380.155	94.69
380.38	95.69
380.606	95.69
380.831	102.69
381.057	109.69
381.282	95.69
381.507	82.69
381.733	95.69
381.958	101.69
382.184	83.69
382.409	91.69
382.634	104.69
382.86	94.69
383.085	109.69
383.31	97.69
383.535	101.69
383.761	105.69
383.986	92.69
384.211	91.69
384.436	100.69
384.662	95.69
384.887	99.69
385.112	105.69
385.337	102.69
385.562	85.69
385.787	102.69
386.013	97.69
386.238	113.69
386.463	90.69
386.688	105.69
386.913	93.69
387.138	113.69
387.363	94.69
387.588	99.69
387.813	108.69
388.038	117.69
388.263	115.69
388.488	99.69
388.713	110.69
388.938	89.69
389.163	106.69
389.387	99.69
389.612	90.69
389.837	93.69
390.062	93.69
390.287	95.69
390.512	83.69
390.736	86.69
390.961	98.69
391.186	92.69
391.411	82.69
391.636	91.69
391.86	91.69
392.085	78.69
392.31	82.69
392.534	84.69
392.759	99.69
392.984	86.69
393.208	81.69
393.433	89.69
393.658	89.69
393.882	85.69
394.107	94.69
394.331	93.69
394.556	92.69
394.78	102.69
395.005	96.69
395.229	98.69
395.454	108.69
395.678	74.69
395.903	87.69
396.127	82.69
396.352	93.69
396.576	74.69
396.801	78.69
397.025	78.69
397.249	86.69
397.474	93.69
397.698	90.69
397.922	82.69
398.147	97.69
398.371	82.69
398.595	81.69
398.82	70.69
399.044	82.69
399.268	91.69
399.492	95.69
399.717	84.69
399.941	101.69
400.165	89.69
400.389	99.69
400.613	105.69
400.837	92.69
401.062	97.69
401.286	85.69
401.51	95.69
401.734	89.69
401.958	86.69
402.182	109.69
402.406	127.69
402.63	101.69
402.854	92.69
403.078	83.69
403.302	83.69
403.526	81.69
403.75	93.69
403.974	103.69
404.198	84.69
404.422	84.69
404.645	90.69
404.869	77.69
405.093	83.69
405.317	106.69
405.541	99.69
405.765	107.69
405.988	108.69
406.212	138.69
406.436	170.69
406.66	123.69
406.883	93.69
407.107	90.69
407.331	87.69
407.555	99.69
407.778	89.69
408.002	102.69
408.226	91.69
408.449	87.69
408.673	88.69
408.896	97.69
409.12	94.69
409.344	89.69
409.567	93.69
409.791	103.69
410.014	89.69
410.238	101.69
410.461	92.69
410.685	86.69
410.908	101.69
411.132	107.69
411.355	85.69
411.578	102.69
411.802	85.69
412.025	103.69
412.249	97.69
412.472	100.69
412.695	89.69
412.919	91.69
413.142	99.69
413.365	86.69
413.589	95.69
413.812	95.69
414.035	99.69
414.258	82.69
414.482	97.69
414.705	86.69
414.928	83.69
415.151	91.69
415.374	92.69
415.597	85.69
415.821	79.69
416.044	105.69
416.267	84.69
416.49	95.69
416.713	91.69
416.936	97.69
417.159	89.69
417.382	91.69
417.605	91.69
417.828	94.69
418.051	86.69
418.274	99.69
418.497	94.69
418.72	84.69
418.943	85.69
419.166	85.69
419.389	86.69
419.611	90.69
419.834	85.69
420.057	93.69
420.28	87.69
420.503	86.69
420.726	100.69
420.948	89.69
421.171	85.69
421.394	101.69
421.617	84.69
421.839	80.69
422.062	88.69
422.285	89.69
422.507	107.69
422.73	94.69
422.953	88.69
423.175	90.69
423.398	93.69
423.621	89.69
423.843	77.69
424.066	84.69
424.288	83.69
424.511	95.69
424.733	84.69
424.956	105.69
425.178	88.69
425.401	93.69
425.623	100.69
425.846	90.69
426.068	94.69
426.291	101.69
426.513	87.69
426.735	83.69
426.958	98.69
427.18	108.69
427.402	126.69
427.625	146.69
427.847	125.69
428.069	126.69
428.292	85.69
428.514	90.69
428.736	90.69
428.958	87.69
429.181	85.69
429.403	84.69
429.625	77.69
429.847	85.69
430.069	103.69
430.292	78.69
430.514	84.69
430.736	93.69
430.958	93.69
431.18	80.69
431.402	87.69
431.624	90.69
431.846	100.69
432.068	87.69
432.29	87.69
432.512	92.69
432.734	97.69
432.956	93.69
433.178	83.69
433.4	97.69
433.622	83.69
433.844	103.69
434.066	90.69
434.287	81.69
434.509	94.69
434.731	92.69
434.953	85.69
435.175	98.69
435.397	106.69
435.618	98.69
435.84	96.69
436.062	107.69
436.284	130.69
436.505	103.69
436.727	108.69
436.949	81.69
437.17	89.69
437.392	91.69
437.614	97.69
437.835	116.69
438.057	109.69
438.278	101.69
438.5	101.69
438.721	132.69
438.943	94.69
439.165	94.69
439.386	89.69
439.608	97.69
439.829	89.69
440.05	105.69
440.272	130.69
440.493	97.69
440.715	83.69
440.936	101.69
441.158	87.69
441.379	87.69
441.6	94.69
441.822	94.69
442.043	85.69
442.264	103.69
442.486	102.69
442.707	101.69
442.928	94.69
443.149	122.69
443.371	121.69
443.592	100.69
443.813	107.69
444.034	111.69
444.255	88.69
444.476	97.69
444.698	95.69
444.919	84.69
445.14	136.69
445.361	127.69
445.582	108.69
445.803	130.69
446.024	115.69
446.245	121.69
446.466	95.69
446.687	90.69
446.908	91.69
447.129	82.69
447.35	90.69
447.571	99.69
447.792	92.69
448.013	101.69
448.234	99.69
448.455	91.69
448.675	114.69
448.896	117.69
449.117	84.69
449.338	104.69
449.559	131.69
449.779	124.69
450	93.69
450.221	85.69
450.442	97.69
450.662	94.69
450.883	96.69
451.104	88.69
451.324	102.69
451.545	89.69
451.766	90.69
451.986	93.69
452.207	95.69
452.428	92.69
452.648	109.69
452.869	105.69
453.089	98.69
453.31	104.69
453.53	92.69
453.751	97.69
453.971	98.69
454.192	92.69
454.412	82.69
454.633	80.69
454.853	88.69
455.073	87.69
455.294	89.69
455.514	81.69
455.734	89.69
455.955	89.69
456.175	86.69
456.395	83.69
456.616	94.69
456.836	84.69
457.056	92.69
457.276	98.69
457.497	89.69
457.717	83.69
457.937	90.69
458.157	100.69
458.377	89.69
458.598	110.69
458.818	114.69
459.038	133.69
459.258	101.69
459.478	94.69
459.698	87.69
459.918	87.69
460.138	73.69
460.358	86.69
460.578	90.69
460.798	83.69
461.018	77.69
461.238	81.69
461.458	91.69
461.678	83.69
461.898	97.69
462.118	86.69
462.338	97.69
462.558	86.69
462.777	86.69
462.997	99.69
463.217	93.69
463.437	81.69
463.657	72.69
463.876	82.69
464.096	73.69
464.316	85.69
464.536	79.69
464.755	108.69
464.975	87.69
465.195	134.69
465.414	135.69
465.634	100.69
465.854	87.69
466.073	85.69
466.293	89.69
466.512	90.69
466.732	94.69
466.951	95.69
467.171	91.69
467.391	81.69
467.61	109.69
467.829	121.69
468.049	161.69
468.268	198.69
468.488	107.69
468.707	89.69
468.927	85.69
469.146	91.69
469.365	95.69
469.585	75.69
469.804	91.69
470.023	91.69
470.243	101.69
470.462	77.69
470.681	99.69
470.901	93.69
471.12	91.69
471.339	94.69
471.558	88.69
471.777	96.69
471.997	111.69
472.216	277.69
472.435	494.69
472.654	169.69
472.873	101.69
473.092	89.69
473.311	97.69
473.53	87.69
473.749	82.69
473.968	95.69
474.187	97.69
474.406	101.69
474.625	86.69
474.844	98.69
475.063	85.69
475.282	86.69
475.501	100.69
475.72	77.69
475.939	77.69
476.158	82.69
476.377	95.69
476.596	97.69
476.814	89.69
477.033	92.69
477.252	101.69
477.471	109.69
477.69	102.69
477.908	97.69
478.127	89.69
478.346	93.69
478.564	98.69
478.783	85.69
479.002	90.69
479.22	92.69
479.439	103.69
479.658	99.69
479.876	109.69
480.095	115.69
480.313	104.69
480.532	98.69
480.751	131.69
480.969	259.69
481.188	857.69
481.406	497.69
481.624	140.69
481.843	88.69
482.061	100.69
482.28	97.69
482.498	108.69
482.717	108.69
482.935	93.69
483.153	98.69
483.372	98.69
483.59	84.69
483.808	90.69
484.027	101.69
484.245	90.69
484.463	88.69
484.681	105.69
484.9	108.69
485.118	90.69
485.336	97.69
485.554	100.69
485.772	105.69
485.99	112.69
486.209	107.69
486.427	92.69
486.645	91.69
486.863	101.69
487.081	101.69
487.299	105.69
487.517	99.69
487.735	91.69
487.953	109.69
488.171	96.69
488.389	93.69
488.607	101.69
488.825	91.69
489.043	88.69
489.261	77.69
489.479	69.69
489.696	88.69
489.914	99.69
490.132	99.69
490.35	90.69
490.568	99.69
490.786	95.69
491.003	82.69
491.221	99.69
491.439	105.69
491.657	93.69
491.874	100.69
492.092	85.69
492.31	97.69
492.527	92.69
492.745	74.69
492.963	99.69
493.18	94.69
493.398	76.69
493.615	107.69
493.833	87.69
494.05	77.69
494.268	82.69
494.485	82.69
494.703	93.69
494.92	84.69
495.138	86.69
495.355	88.69
495.573	98.69
495.79	102.69
496.008	82.69
496.225	105.69
496.442	92.69
496.66	92.69
496.877	74.69
497.094	89.69
497.312	78.69
497.529	76.69
497.746	94.69
497.963	85.69
498.181	89.69
498.398	94.69
498.615	108.69
498.832	96.69
499.049	113.69
499.267	83.69
499.484	82.69
499.701	92.69
499.918	95.69
500.135	97.69
500.352	93.69
500.569	102.69
500.786	89.69
501.003	79.69
501.22	95.69
501.437	79.69
501.654	94.69
501.871	94.69
502.088	87.69
502.305	90.69
502.522	86.69
502.739	96.69
502.956	97.69
503.172	97.69
503.389	94.69
503.606	94.69
503.823	108.69
504.04	94.69
504.256	96.69
504.473	96.69
504.69	94.69
504.907	93.69
505.123	94.69
505.34	85.69
505.557	103.69
505.773	99.69
505.99	86.69
506.207	98.69
506.423	83.69
506.64	90.69
506.856	101.69
507.073	106.69
507.289	91.69
507.506	99.69
507.722	109.69
507.939	107.69
508.155	93.69
508.372	93.69
508.588	86.69
508.805	102.69
509.021	93.69
509.238	75.69
509.454	90.69
509.67	105.69
509.887	112.69
510.103	91.69
510.319	183.69
510.536	519.69
510.752	1599.69
510.968	465.69
511.184	131.69
511.401	95.69
511.617	99.69
511.833	96.69
512.049	89.69
512.265	96.69
512.481	101.69
512.698	91.69
512.914	105.69
513.13	94.69
513.346	97.69
513.562	100.69
513.778	102.69
513.994	94.69
514.21	98.69
514.426	108.69
514.642	124.69
514.858	125.69
515.074	130.69
515.29	313.69
515.506	965.69
