Data from Circ_1984_H10_HRD10591_00012.txt Node
Date: Wed Jan 03 12:22:44 EST 2024
User: Yrep
Spectrometer: HR+D1059
Trigger mode: 1
Integration Time (sec): 1.000000E-1
Scans to average: 1
Electric dark correction enabled: true
Nonlinearity correction enabled: false
Boxcar width: 0
XAxis mode: Wavelengths
Number of Pixels in Spectrum: 2048
>>>>>Begin Spectral Data<<<<<
223.165	-18.94
223.4	-18.94
223.635	-18.94
223.869	-20.94
224.104	-13.94
224.338	-26.94
224.573	-23.94
224.808	-4.94
225.042	-15.94
225.277	-13.94
225.511	0.06
225.746	12.06
225.98	3.06
226.215	25.06
226.449	21.06
226.683	23.06
226.918	21.06
227.152	34.06
227.387	32.06
227.621	40.06
227.856	38.06
228.09	49.06
228.324	51.06
228.559	61.06
228.793	54.06
229.027	73.06
229.262	77.06
229.496	75.06
229.73	86.06
229.964	91.06
230.199	64.06
230.433	83.06
230.667	72.06
230.901	75.06
231.136	72.06
231.37	90.06
231.604	69.06
231.838	85.06
232.072	74.06
232.306	66.06
232.541	73.06
232.775	85.06
233.009	83.06
233.243	73.06
233.477	90.06
233.711	83.06
233.945	73.06
234.179	74.06
234.413	91.06
234.647	89.06
234.881	90.06
235.115	58.06
235.349	72.06
235.583	87.06
235.817	75.06
236.051	82.06
236.285	81.06
236.519	76.06
236.753	81.06
236.987	82.06
237.221	65.06
237.455	86.06
237.689	81.06
237.922	92.06
238.156	71.06
238.39	69.06
238.624	81.06
238.858	83.06
239.091	78.06
239.325	64.06
239.559	70.06
239.793	84.06
240.027	79.06
240.26	80.06
240.494	87.06
240.728	81.06
240.961	71.06
241.195	65.06
241.429	69.06
241.662	65.06
241.896	85.06
242.13	71.06
242.363	75.06
242.597	81.06
242.83	85.06
243.064	82.06
243.298	82.06
243.531	70.06
243.765	77.06
243.998	74.06
244.232	82.06
244.465	75.06
244.699	76.06
244.932	80.06
245.166	59.06
245.399	73.06
245.633	65.06
245.866	89.06
246.099	69.06
246.333	81.06
246.566	75.06
246.8	69.06
247.033	81.06
247.266	82.06
247.5	77.06
247.733	81.06
247.966	80.06
248.2	81.06
248.433	78.06
248.666	81.06
248.899	98.06
249.133	84.06
249.366	100.06
249.599	113.06
249.832	81.06
250.066	71.06
250.299	73.06
250.532	101.06
250.765	75.06
250.998	83.06
251.231	84.06
251.465	86.06
251.698	91.06
251.931	73.06
252.164	88.06
252.397	85.06
252.63	80.06
252.863	89.06
253.096	84.06
253.329	81.06
253.562	82.06
253.795	86.06
254.028	85.06
254.261	81.06
254.494	79.06
254.727	68.06
254.96	71.06
255.193	80.06
255.426	75.06
255.659	82.06
255.892	77.06
256.124	77.06
256.357	73.06
256.59	87.06
256.823	92.06
257.056	82.06
257.289	89.06
257.521	84.06
257.754	82.06
257.987	81.06
258.22	79.06
258.452	75.06
258.685	73.06
258.918	82.06
259.151	74.06
259.383	88.06
259.616	79.06
259.849	71.06
260.081	85.06
260.314	88.06
260.547	99.06
260.779	80.06
261.012	84.06
261.244	83.06
261.477	91.06
261.71	86.06
261.942	86.06
262.175	93.06
262.407	88.06
262.64	84.06
262.872	88.06
263.105	72.06
263.337	87.06
263.57	87.06
263.802	82.06
264.035	90.06
264.267	75.06
264.499	80.06
264.732	81.06
264.964	92.06
265.197	88.06
265.429	87.06
265.661	77.06
265.894	86.06
266.126	72.06
266.358	75.06
266.591	75.06
266.823	82.06
267.055	82.06
267.287	71.06
267.52	76.06
267.752	93.06
267.984	84.06
268.216	84.06
268.448	95.06
268.681	88.06
268.913	92.06
269.145	79.06
269.377	81.06
269.609	83.06
269.841	78.06
270.073	81.06
270.306	86.06
270.538	83.06
270.77	88.06
271.002	84.06
271.234	103.06
271.466	93.06
271.698	81.06
271.93	84.06
272.162	85.06
272.394	86.06
272.626	83.06
272.858	93.06
273.09	72.06
273.322	102.06
273.553	80.06
273.785	85.06
274.017	84.06
274.249	80.06
274.481	86.06
274.713	87.06
274.945	96.06
275.176	85.06
275.408	91.06
275.64	92.06
275.872	76.06
276.104	73.06
276.335	88.06
276.567	99.06
276.799	93.06
277.031	97.06
277.262	95.06
277.494	91.06
277.726	92.06
277.957	85.06
278.189	66.06
278.421	91.06
278.652	98.06
278.884	75.06
279.115	77.06
279.347	77.06
279.579	77.06
279.81	70.06
280.042	92.06
280.273	93.06
280.505	104.06
280.736	102.06
280.968	84.06
281.199	81.06
281.431	91.06
281.662	100.06
281.894	99.06
282.125	92.06
282.356	99.06
282.588	118.06
282.819	134.06
283.051	90.06
283.282	99.06
283.513	88.06
283.745	85.06
283.976	76.06
284.207	85.06
284.439	74.06
284.67	90.06
284.901	77.06
285.132	82.06
285.364	91.06
285.595	83.06
285.826	83.06
286.057	89.06
286.288	73.06
286.52	87.06
286.751	83.06
286.982	91.06
287.213	83.06
287.444	80.06
287.675	83.06
287.906	87.06
288.138	93.06
288.369	92.06
288.6	93.06
288.831	94.06
289.062	74.06
289.293	89.06
289.524	95.06
289.755	90.06
289.986	77.06
290.217	95.06
290.448	90.06
290.679	96.06
290.91	77.06
291.141	89.06
291.371	86.06
291.602	68.06
291.833	87.06
292.064	92.06
292.295	83.06
292.526	91.06
292.757	95.06
292.987	91.06
293.218	69.06
293.449	89.06
293.68	106.06
293.91	99.06
294.141	92.06
294.372	71.06
294.603	83.06
294.833	88.06
295.064	96.06
295.295	85.06
295.525	92.06
295.756	100.06
295.987	103.06
296.217	130.06
296.448	132.06
296.679	108.06
296.909	85.06
297.14	91.06
297.37	88.06
297.601	87.06
297.831	92.06
298.062	97.06
298.292	95.06
298.523	83.06
298.753	100.06
298.984	85.06
299.214	87.06
299.445	92.06
299.675	118.06
299.905	94.06
300.136	97.06
300.366	75.06
300.597	91.06
300.827	87.06
301.057	101.06
301.288	101.06
301.518	84.06
301.748	81.06
301.979	105.06
302.209	92.06
302.439	87.06
302.669	82.06
302.9	95.06
303.13	80.06
303.36	87.06
303.59	104.06
303.82	105.06
304.051	97.06
304.281	82.06
304.511	78.06
304.741	98.06
304.971	98.06
305.201	83.06
305.431	92.06
305.661	115.06
305.891	112.06
306.121	97.06
306.352	97.06
306.582	94.06
306.812	88.06
307.042	95.06
307.272	89.06
307.502	99.06
307.731	98.06
307.961	95.06
308.191	90.06
308.421	90.06
308.651	91.06
308.881	80.06
309.111	99.06
309.341	92.06
309.571	87.06
309.8	101.06
310.03	98.06
310.26	95.06
310.49	97.06
310.72	110.06
310.949	94.06
311.179	99.06
311.409	86.06
311.639	109.06
311.868	92.06
312.098	103.06
312.328	95.06
312.557	91.06
312.787	98.06
313.017	106.06
313.246	84.06
313.476	80.06
313.706	82.06
313.935	101.06
314.165	99.06
314.394	106.06
314.624	99.06
314.853	85.06
315.083	85.06
315.312	88.06
315.542	91.06
315.771	87.06
316.001	100.06
316.23	84.06
316.46	93.06
316.689	84.06
316.919	74.06
317.148	95.06
317.377	91.06
317.607	90.06
317.836	99.06
318.065	96.06
318.295	94.06
318.524	97.06
318.753	87.06
318.983	95.06
319.212	88.06
319.441	102.06
319.67	94.06
319.9	89.06
320.129	99.06
320.358	91.06
320.587	100.06
320.816	103.06
321.046	101.06
321.275	93.06
321.504	106.06
321.733	106.06
321.962	110.06
322.191	101.06
322.42	102.06
322.649	114.06
322.878	88.06
323.108	113.06
323.337	118.06
323.566	123.06
323.795	154.06
324.024	184.06
324.253	322.06
324.482	695.06
324.71	1398.06
324.939	1830.06
325.168	716.06
325.397	234.06
325.626	137.06
325.855	123.06
326.084	106.06
326.313	137.06
326.542	152.06
326.77	222.06
326.999	389.06
327.228	800.06
327.457	1435.06
327.686	1158.06
327.914	330.06
328.143	188.06
328.372	159.06
328.6	121.06
328.829	103.06
329.058	116.06
329.287	105.06
329.515	104.06
329.744	120.06
329.972	108.06
330.201	119.06
330.43	156.06
330.658	125.06
330.887	141.06
331.115	113.06
331.344	96.06
331.572	92.06
331.801	109.06
332.03	83.06
332.258	103.06
332.486	81.06
332.715	99.06
332.943	115.06
333.172	91.06
333.4	101.06
333.629	104.06
333.857	113.06
334.085	110.06
334.314	127.06
334.542	173.06
334.771	176.06
334.999	105.06
335.227	95.06
335.455	99.06
335.684	90.06
335.912	87.06
336.14	92.06
336.369	92.06
336.597	116.06
336.825	89.06
337.053	87.06
337.281	87.06
337.51	89.06
337.738	95.06
337.966	95.06
338.194	106.06
338.422	96.06
338.65	109.06
338.878	98.06
339.106	96.06
339.334	99.06
339.562	80.06
339.79	90.06
340.018	108.06
340.246	95.06
340.474	96.06
340.702	98.06
340.93	103.06
341.158	87.06
341.386	103.06
341.614	103.06
341.842	97.06
342.07	98.06
342.298	96.06
342.526	88.06
342.754	86.06
342.981	96.06
343.209	77.06
343.437	108.06
343.665	105.06
343.893	88.06
344.12	96.06
344.348	88.06
344.576	84.06
344.804	96.06
345.031	92.06
345.259	97.06
345.487	99.06
345.714	94.06
345.942	98.06
346.17	94.06
346.397	91.06
346.625	100.06
346.853	91.06
347.08	93.06
347.308	81.06
347.535	91.06
347.763	109.06
347.99	95.06
348.218	109.06
348.445	101.06
348.673	97.06
348.9	106.06
349.128	88.06
349.355	107.06
349.583	96.06
349.81	89.06
350.037	96.06
350.265	103.06
350.492	83.06
350.72	93.06
350.947	105.06
351.174	89.06
351.402	112.06
351.629	95.06
351.856	102.06
352.083	115.06
352.311	109.06
352.538	104.06
352.765	96.06
352.992	113.06
353.22	102.06
353.447	104.06
353.674	107.06
353.901	98.06
354.128	81.06
354.355	94.06
354.583	104.06
354.81	95.06
355.037	100.06
355.264	94.06
355.491	84.06
355.718	95.06
355.945	89.06
356.172	84.06
356.399	95.06
356.626	91.06
356.853	85.06
357.08	82.06
357.307	101.06
357.534	95.06
357.761	102.06
357.988	112.06
358.215	101.06
358.441	106.06
358.668	96.06
358.895	93.06
359.122	92.06
359.349	102.06
359.576	89.06
359.802	92.06
360.029	103.06
360.256	92.06
360.483	100.06
360.709	86.06
360.936	98.06
361.163	112.06
361.39	82.06
361.616	99.06
361.843	87.06
362.07	90.06
362.296	98.06
362.523	90.06
362.749	85.06
362.976	89.06
363.203	98.06
363.429	90.06
363.656	74.06
363.882	91.06
364.109	84.06
364.335	96.06
364.562	98.06
364.788	92.06
365.015	93.06
365.241	91.06
365.468	97.06
365.694	115.06
365.92	88.06
366.147	79.06
366.373	85.06
366.599	93.06
366.826	98.06
367.052	83.06
367.278	83.06
367.505	99.06
367.731	98.06
367.957	101.06
368.184	99.06
368.41	89.06
368.636	100.06
368.862	101.06
369.089	109.06
369.315	95.06
369.541	95.06
369.767	86.06
369.993	95.06
370.219	98.06
370.445	101.06
370.672	91.06
370.898	82.06
371.124	81.06
371.35	93.06
371.576	84.06
371.802	90.06
372.028	90.06
372.254	91.06
372.48	83.06
372.706	102.06
372.932	89.06
373.158	69.06
373.384	82.06
373.61	83.06
373.835	89.06
374.061	92.06
374.287	93.06
374.513	91.06
374.739	99.06
374.965	94.06
375.191	92.06
375.416	86.06
375.642	88.06
375.868	82.06
376.094	71.06
376.319	88.06
376.545	87.06
376.771	99.06
376.997	94.06
377.222	86.06
377.448	94.06
377.674	99.06
377.899	90.06
378.125	87.06
378.35	102.06
378.576	92.06
378.802	92.06
379.027	108.06
379.253	105.06
379.478	83.06
379.704	88.06
379.929	103.06
380.155	85.06
380.38	104.06
380.606	89.06
380.831	101.06
381.057	98.06
381.282	100.06
381.507	111.06
381.733	98.06
381.958	107.06
382.184	110.06
382.409	92.06
382.634	114.06
382.86	95.06
383.085	113.06
383.31	105.06
383.535	106.06
383.761	108.06
383.986	107.06
384.211	109.06
384.436	120.06
384.662	115.06
384.887	108.06
385.112	117.06
385.337	116.06
385.562	97.06
385.787	105.06
386.013	116.06
386.238	122.06
386.463	113.06
386.688	113.06
386.913	122.06
387.138	112.06
387.363	106.06
387.588	107.06
387.813	108.06
388.038	116.06
388.263	126.06
388.488	121.06
388.713	99.06
388.938	83.06
389.163	99.06
389.387	107.06
389.612	77.06
389.837	97.06
390.062	99.06
390.287	88.06
390.512	96.06
390.736	84.06
390.961	92.06
391.186	95.06
391.411	100.06
391.636	105.06
391.86	88.06
392.085	67.06
392.31	103.06
392.534	95.06
392.759	91.06
392.984	79.06
393.208	97.06
393.433	110.06
393.658	108.06
393.882	92.06
394.107	84.06
394.331	89.06
394.556	91.06
394.78	89.06
395.005	92.06
395.229	96.06
395.454	97.06
395.678	85.06
395.903	84.06
396.127	87.06
396.352	74.06
396.576	101.06
396.801	93.06
397.025	108.06
397.249	87.06
397.474	85.06
397.698	84.06
397.922	72.06
398.147	79.06
398.371	88.06
398.595	98.06
398.82	95.06
399.044	81.06
399.268	95.06
399.492	83.06
399.717	79.06
399.941	85.06
400.165	104.06
400.389	85.06
400.613	94.06
400.837	90.06
401.062	86.06
401.286	83.06
401.51	84.06
401.734	95.06
401.958	96.06
402.182	125.06
402.406	148.06
402.63	113.06
402.854	86.06
403.078	86.06
403.302	92.06
403.526	78.06
403.75	86.06
403.974	95.06
404.198	91.06
404.422	92.06
404.645	81.06
404.869	89.06
405.093	86.06
405.317	108.06
405.541	90.06
405.765	90.06
405.988	116.06
406.212	158.06
406.436	201.06
406.66	132.06
406.883	99.06
407.107	96.06
407.331	91.06
407.555	104.06
407.778	101.06
408.002	85.06
408.226	99.06
408.449	90.06
408.673	99.06
408.896	95.06
409.12	85.06
409.344	95.06
409.567	100.06
409.791	92.06
410.014	99.06
410.238	92.06
410.461	79.06
410.685	90.06
410.908	102.06
411.132	106.06
411.355	87.06
411.578	112.06
411.802	91.06
412.025	74.06
412.249	107.06
412.472	106.06
412.695	90.06
412.919	92.06
413.142	86.06
413.365	97.06
413.589	98.06
413.812	93.06
414.035	88.06
414.258	83.06
414.482	91.06
414.705	83.06
414.928	73.06
415.151	101.06
415.374	115.06
415.597	72.06
415.821	84.06
416.044	70.06
416.267	82.06
416.49	89.06
416.713	77.06
416.936	85.06
417.159	92.06
417.382	81.06
417.605	92.06
417.828	101.06
418.051	98.06
418.274	92.06
418.497	92.06
418.72	86.06
418.943	92.06
419.166	90.06
419.389	87.06
419.611	97.06
419.834	86.06
420.057	84.06
420.28	80.06
420.503	96.06
420.726	107.06
420.948	84.06
421.171	112.06
421.394	93.06
421.617	90.06
421.839	89.06
422.062	82.06
422.285	91.06
422.507	103.06
422.73	116.06
422.953	104.06
423.175	81.06
423.398	74.06
423.621	83.06
423.843	74.06
424.066	89.06
424.288	85.06
424.511	82.06
424.733	83.06
424.956	100.06
425.178	90.06
425.401	95.06
425.623	100.06
425.846	95.06
426.068	87.06
426.291	79.06
426.513	104.06
426.735	79.06
426.958	96.06
427.18	111.06
427.402	126.06
427.625	149.06
427.847	121.06
428.069	122.06
428.292	98.06
428.514	87.06
428.736	81.06
428.958	88.06
429.181	90.06
429.403	76.06
429.625	81.06
429.847	85.06
430.069	94.06
430.292	85.06
430.514	87.06
430.736	74.06
430.958	80.06
431.18	93.06
431.402	89.06
431.624	81.06
431.846	92.06
432.068	85.06
432.29	92.06
432.512	108.06
432.734	98.06
432.956	95.06
433.178	99.06
433.4	96.06
433.622	99.06
433.844	92.06
434.066	90.06
434.287	89.06
434.509	74.06
434.731	86.06
434.953	80.06
435.175	87.06
435.397	87.06
435.618	89.06
435.84	98.06
436.062	119.06
436.284	127.06
436.505	102.06
436.727	87.06
436.949	88.06
437.17	85.06
437.392	91.06
437.614	89.06
437.835	83.06
438.057	119.06
438.278	94.06
438.5	95.06
438.721	104.06
438.943	99.06
439.165	104.06
439.386	89.06
439.608	100.06
439.829	81.06
440.05	119.06
440.272	127.06
440.493	95.06
440.715	79.06
440.936	77.06
441.158	84.06
441.379	81.06
441.6	83.06
441.822	98.06
442.043	97.06
442.264	97.06
442.486	96.06
442.707	93.06
442.928	106.06
443.149	118.06
443.371	99.06
443.592	108.06
443.813	108.06
444.034	95.06
444.255	87.06
444.476	96.06
444.698	79.06
444.919	79.06
445.14	124.06
445.361	120.06
445.582	113.06
445.803	131.06
446.024	102.06
446.245	132.06
446.466	113.06
446.687	77.06
446.908	98.06
447.129	85.06
447.35	83.06
447.571	90.06
447.792	91.06
448.013	82.06
448.234	106.06
448.455	84.06
448.675	97.06
448.896	120.06
449.117	92.06
449.338	90.06
449.559	118.06
449.779	117.06
450	92.06
450.221	98.06
450.442	83.06
450.662	95.06
450.883	107.06
451.104	112.06
451.324	102.06
451.545	81.06
451.766	75.06
451.986	91.06
452.207	85.06
452.428	90.06
452.648	96.06
452.869	101.06
453.089	97.06
453.31	107.06
453.53	84.06
453.751	83.06
453.971	86.06
454.192	113.06
454.412	90.06
454.633	92.06
454.853	85.06
455.073	87.06
455.294	95.06
455.514	104.06
455.734	87.06
455.955	81.06
456.175	83.06
456.395	88.06
456.616	84.06
456.836	85.06
457.056	80.06
457.276	109.06
457.497	85.06
457.717	69.06
457.937	90.06
458.157	90.06
458.377	82.06
458.598	98.06
458.818	125.06
459.038	145.06
459.258	119.06
459.478	91.06
459.698	73.06
459.918	81.06
460.138	88.06
460.358	88.06
460.578	80.06
460.798	82.06
461.018	83.06
461.238	83.06
461.458	94.06
461.678	91.06
461.898	95.06
462.118	87.06
462.338	88.06
462.558	85.06
462.777	92.06
462.997	89.06
463.217	77.06
463.437	79.06
463.657	88.06
463.876	87.06
464.096	89.06
464.316	91.06
464.536	109.06
464.755	97.06
464.975	88.06
465.195	143.06
465.414	134.06
465.634	91.06
465.854	95.06
466.073	79.06
466.293	77.06
466.512	75.06
466.732	74.06
466.951	82.06
467.171	83.06
467.391	91.06
467.61	89.06
467.829	89.06
468.049	113.06
468.268	128.06
468.488	97.06
468.707	87.06
468.927	78.06
469.146	84.06
469.365	80.06
469.585	64.06
469.804	99.06
470.023	99.06
470.243	82.06
470.462	91.06
470.681	89.06
470.901	62.06
471.12	87.06
471.339	76.06
471.558	84.06
471.777	99.06
471.997	95.06
472.216	129.06
472.435	189.06
472.654	110.06
472.873	79.06
473.092	93.06
473.311	83.06
473.53	90.06
473.749	81.06
473.968	88.06
474.187	104.06
474.406	92.06
474.625	102.06
474.844	91.06
475.063	92.06
475.282	90.06
475.501	90.06
475.72	77.06
475.939	89.06
476.158	78.06
476.377	92.06
476.596	87.06
476.814	95.06
477.033	79.06
477.252	74.06
477.471	89.06
477.69	81.06
477.908	90.06
478.127	92.06
478.346	76.06
478.564	95.06
478.783	87.06
479.002	87.06
479.22	84.06
479.439	100.06
479.658	99.06
479.876	91.06
480.095	95.06
480.313	96.06
480.532	97.06
480.751	99.06
480.969	117.06
481.188	299.06
481.406	205.06
481.624	97.06
481.843	92.06
482.061	85.06
482.28	81.06
482.498	95.06
482.717	87.06
482.935	83.06
483.153	84.06
483.372	73.06
483.59	82.06
483.808	99.06
484.027	95.06
484.245	87.06
484.463	88.06
484.681	87.06
484.9	93.06
485.118	102.06
485.336	85.06
485.554	85.06
485.772	100.06
485.99	109.06
486.209	100.06
486.427	101.06
486.645	115.06
486.863	95.06
487.081	102.06
487.299	109.06
487.517	91.06
487.735	96.06
487.953	85.06
488.171	106.06
488.389	94.06
488.607	92.06
488.825	90.06
489.043	75.06
489.261	104.06
489.479	99.06
489.696	90.06
489.914	95.06
490.132	95.06
490.35	88.06
490.568	88.06
490.786	88.06
491.003	81.06
491.221	101.06
491.439	98.06
491.657	74.06
491.874	95.06
492.092	100.06
492.31	94.06
492.527	106.06
492.745	96.06
492.963	84.06
493.18	89.06
493.398	101.06
493.615	92.06
493.833	84.06
494.05	97.06
494.268	90.06
494.485	85.06
494.703	97.06
494.92	75.06
495.138	83.06
495.355	91.06
495.573	76.06
495.79	79.06
496.008	86.06
496.225	98.06
496.442	89.06
496.66	96.06
496.877	79.06
497.094	92.06
497.312	95.06
497.529	93.06
497.746	93.06
497.963	86.06
498.181	80.06
498.398	97.06
498.615	109.06
498.832	102.06
499.049	85.06
499.267	97.06
499.484	87.06
499.701	97.06
499.918	105.06
500.135	90.06
500.352	94.06
500.569	76.06
500.786	89.06
501.003	91.06
501.22	92.06
501.437	87.06
501.654	102.06
501.871	109.06
502.088	104.06
502.305	95.06
502.522	86.06
502.739	80.06
502.956	89.06
503.172	79.06
503.389	97.06
503.606	101.06
503.823	90.06
504.04	97.06
504.256	86.06
504.473	84.06
504.69	84.06
504.907	91.06
505.123	85.06
505.34	88.06
505.557	89.06
505.773	88.06
505.99	96.06
506.207	78.06
506.423	101.06
506.64	95.06
506.856	92.06
507.073	88.06
507.289	86.06
507.506	91.06
507.722	101.06
507.939	109.06
508.155	102.06
508.372	101.06
508.588	92.06
508.805	89.06
509.021	92.06
509.238	87.06
509.454	84.06
509.67	105.06
509.887	114.06
510.103	117.06
510.319	178.06
510.536	658.06
510.752	2147.06
510.968	595.06
511.184	141.06
511.401	107.06
511.617	97.06
511.833	81.06
512.049	91.06
512.265	101.06
512.481	96.06
512.698	111.06
512.914	88.06
513.13	108.06
513.346	84.06
513.562	105.06
513.778	101.06
513.994	93.06
514.21	94.06
514.426	108.06
514.642	110.06
514.858	121.06
515.074	140.06
515.29	376.06
515.506	1207.06
515.721	472.06
