Data from Circ_1984_H10_HRD10591_00049.txt Node
Date: Wed Jan 03 12:22:51 EST 2024
User: Yrep
Spectrometer: HR+D1059
Trigger mode: 1
Integration Time (sec): 1.000000E-1
Scans to average: 1
Electric dark correction enabled: true
Nonlinearity correction enabled: false
Boxcar width: 0
XAxis mode: Wavelengths
Number of Pixels in Spectrum: 2048
>>>>>Begin Spectral Data<<<<<
223.165	-20.69
223.4	-20.69
223.635	-20.69
223.869	-23.69
224.104	-2.69
224.338	-10.69
224.573	-14.69
224.808	-6.69
225.042	-1.69
225.277	-11.69
225.511	-7.69
225.746	12.31
225.98	-8.69
226.215	29.31
226.449	15.31
226.683	18.31
226.918	5.31
227.152	28.31
227.387	45.31
227.621	42.31
227.856	34.31
228.09	41.31
228.324	41.31
228.559	52.31
228.793	69.31
229.027	58.31
229.262	60.31
229.496	70.31
229.73	88.31
229.964	79.31
230.199	76.31
230.433	71.31
230.667	83.31
230.901	76.31
231.136	76.31
231.37	72.31
231.604	81.31
231.838	75.31
232.072	85.31
232.306	78.31
232.541	92.31
232.775	90.31
233.009	79.31
233.243	74.31
233.477	77.31
233.711	87.31
233.945	85.31
234.179	65.31
234.413	81.31
234.647	66.31
234.881	83.31
235.115	82.31
235.349	90.31
235.583	73.31
235.817	82.31
236.051	66.31
236.285	90.31
236.519	74.31
236.753	79.31
236.987	60.31
237.221	91.31
237.455	75.31
237.689	81.31
237.922	81.31
238.156	92.31
238.39	79.31
238.624	87.31
238.858	65.31
239.091	80.31
239.325	89.31
239.559	76.31
239.793	81.31
240.027	87.31
240.26	77.31
240.494	81.31
240.728	69.31
240.961	83.31
241.195	89.31
241.429	62.31
241.662	74.31
241.896	82.31
242.13	73.31
242.363	59.31
242.597	69.31
242.83	71.31
243.064	80.31
243.298	72.31
243.531	74.31
243.765	72.31
243.998	77.31
244.232	86.31
244.465	76.31
244.699	88.31
244.932	96.31
245.166	83.31
245.399	87.31
245.633	65.31
245.866	67.31
246.099	69.31
246.333	86.31
246.566	81.31
246.8	73.31
247.033	76.31
247.266	82.31
247.5	82.31
247.733	74.31
247.966	81.31
248.2	73.31
248.433	84.31
248.666	75.31
248.899	71.31
249.133	92.31
249.366	102.31
249.599	77.31
249.832	80.31
250.066	87.31
250.299	77.31
250.532	83.31
250.765	75.31
250.998	71.31
251.231	82.31
251.465	78.31
251.698	79.31
251.931	87.31
252.164	71.31
252.397	76.31
252.63	83.31
252.863	83.31
253.096	85.31
253.329	70.31
253.562	92.31
253.795	68.31
254.028	85.31
254.261	72.31
254.494	74.31
254.727	87.31
254.96	83.31
255.193	96.31
255.426	77.31
255.659	72.31
255.892	66.31
256.124	89.31
256.357	91.31
256.59	87.31
256.823	91.31
257.056	73.31
257.289	89.31
257.521	81.31
257.754	83.31
257.987	73.31
258.22	81.31
258.452	89.31
258.685	85.31
258.918	85.31
259.151	93.31
259.383	79.31
259.616	84.31
259.849	89.31
260.081	96.31
260.314	75.31
260.547	91.31
260.779	87.31
261.012	84.31
261.244	81.31
261.477	86.31
261.71	100.31
261.942	103.31
262.175	106.31
262.407	86.31
262.64	73.31
262.872	86.31
263.105	86.31
263.337	79.31
263.57	81.31
263.802	85.31
264.035	88.31
264.267	61.31
264.499	72.31
264.732	75.31
264.964	79.31
265.197	84.31
265.429	83.31
265.661	87.31
265.894	91.31
266.126	86.31
266.358	70.31
266.591	81.31
266.823	83.31
267.055	83.31
267.287	85.31
267.52	98.31
267.752	92.31
267.984	80.31
268.216	92.31
268.448	86.31
268.681	81.31
268.913	92.31
269.145	98.31
269.377	79.31
269.609	85.31
269.841	95.31
270.073	97.31
270.306	89.31
270.538	70.31
270.77	86.31
271.002	73.31
271.234	92.31
271.466	86.31
271.698	85.31
271.93	82.31
272.162	86.31
272.394	89.31
272.626	95.31
272.858	85.31
273.09	91.31
273.322	88.31
273.553	92.31
273.785	84.31
274.017	76.31
274.249	91.31
274.481	90.31
274.713	84.31
274.945	91.31
275.176	86.31
275.408	88.31
275.64	86.31
275.872	87.31
276.104	81.31
276.335	83.31
276.567	113.31
276.799	107.31
277.031	93.31
277.262	106.31
277.494	106.31
277.726	84.31
277.957	73.31
278.189	79.31
278.421	81.31
278.652	76.31
278.884	99.31
279.115	85.31
279.347	81.31
279.579	92.31
279.81	85.31
280.042	88.31
280.273	93.31
280.505	83.31
280.736	90.31
280.968	91.31
281.199	97.31
281.431	92.31
281.662	87.31
281.894	92.31
282.125	88.31
282.356	110.31
282.588	105.31
282.819	94.31
283.051	78.31
283.282	90.31
283.513	99.31
283.745	93.31
283.976	77.31
284.207	94.31
284.439	85.31
284.67	81.31
284.901	86.31
285.132	79.31
285.364	85.31
285.595	97.31
285.826	92.31
286.057	101.31
286.288	78.31
286.52	89.31
286.751	72.31
286.982	82.31
287.213	92.31
287.444	83.31
287.675	89.31
287.906	103.31
288.138	94.31
288.369	81.31
288.6	69.31
288.831	76.31
289.062	95.31
289.293	97.31
289.524	85.31
289.755	92.31
289.986	97.31
290.217	94.31
290.448	105.31
290.679	106.31
290.91	80.31
291.141	90.31
291.371	93.31
291.602	89.31
291.833	91.31
292.064	88.31
292.295	78.31
292.526	93.31
292.757	98.31
292.987	87.31
293.218	96.31
293.449	96.31
293.68	89.31
293.91	72.31
294.141	86.31
294.372	93.31
294.603	95.31
294.833	72.31
295.064	89.31
295.295	99.31
295.525	92.31
295.756	101.31
295.987	117.31
296.217	125.31
296.448	105.31
296.679	86.31
296.909	106.31
297.14	95.31
297.37	80.31
297.601	90.31
297.831	82.31
298.062	94.31
298.292	90.31
298.523	92.31
298.753	97.31
298.984	97.31
299.214	86.31
299.445	82.31
299.675	104.31
299.905	116.31
300.136	80.31
300.366	89.31
300.597	98.31
300.827	95.31
301.057	94.31
301.288	97.31
301.518	85.31
301.748	100.31
301.979	105.31
302.209	81.31
302.439	112.31
302.669	83.31
302.9	90.31
303.13	75.31
303.36	88.31
303.59	91.31
303.82	102.31
304.051	82.31
304.281	102.31
304.511	90.31
304.741	87.31
304.971	73.31
305.201	101.31
305.431	92.31
305.661	101.31
305.891	91.31
306.121	102.31
306.352	106.31
306.582	100.31
306.812	103.31
307.042	90.31
307.272	103.31
307.502	105.31
307.731	110.31
307.961	99.31
308.191	99.31
308.421	99.31
308.651	91.31
308.881	84.31
309.111	102.31
309.341	99.31
309.571	93.31
309.8	91.31
310.03	102.31
310.26	106.31
310.49	99.31
310.72	106.31
310.949	85.31
311.179	95.31
311.409	90.31
311.639	87.31
311.868	99.31
312.098	93.31
312.328	91.31
312.557	113.31
312.787	114.31
313.017	99.31
313.246	95.31
313.476	86.31
313.706	94.31
313.935	97.31
314.165	93.31
314.394	100.31
314.624	90.31
314.853	95.31
315.083	89.31
315.312	97.31
315.542	88.31
315.771	94.31
316.001	91.31
316.23	91.31
316.46	89.31
316.689	92.31
316.919	90.31
317.148	93.31
317.377	101.31
317.607	82.31
317.836	92.31
318.065	95.31
318.295	88.31
318.524	86.31
318.753	114.31
318.983	92.31
319.212	90.31
319.441	107.31
319.67	103.31
319.9	113.31
320.129	94.31
320.358	88.31
320.587	104.31
320.816	104.31
321.046	102.31
321.275	105.31
321.504	101.31
321.733	99.31
321.962	103.31
322.191	90.31
322.42	94.31
322.649	110.31
322.878	116.31
323.108	109.31
323.337	121.31
323.566	120.31
323.795	129.31
324.024	165.31
324.253	297.31
324.482	599.31
324.71	1193.31
324.939	1602.31
325.168	619.31
325.397	188.31
325.626	139.31
325.855	128.31
326.084	117.31
326.313	123.31
326.542	150.31
326.77	185.31
326.999	357.31
327.228	676.31
327.457	1208.31
327.686	993.31
327.914	295.31
328.143	196.31
328.372	169.31
328.6	121.31
328.829	112.31
329.058	116.31
329.287	117.31
329.515	120.31
329.744	109.31
329.972	149.31
330.201	184.31
330.43	246.31
330.658	172.31
330.887	138.31
331.115	117.31
331.344	86.31
331.572	114.31
331.801	94.31
332.03	96.31
332.258	100.31
332.486	93.31
332.715	90.31
332.943	75.31
333.172	93.31
333.4	95.31
333.629	109.31
333.857	110.31
334.085	118.31
334.314	179.31
334.542	266.31
334.771	253.31
334.999	134.31
335.227	101.31
335.455	101.31
335.684	105.31
335.912	95.31
336.14	96.31
336.369	90.31
336.597	92.31
336.825	99.31
337.053	85.31
337.281	86.31
337.51	89.31
337.738	118.31
337.966	78.31
338.194	91.31
338.422	110.31
338.65	102.31
338.878	90.31
339.106	102.31
339.334	89.31
339.562	103.31
339.79	88.31
340.018	105.31
340.246	107.31
340.474	88.31
340.702	84.31
340.93	104.31
341.158	85.31
341.386	97.31
341.614	111.31
341.842	94.31
342.07	115.31
342.298	86.31
342.526	83.31
342.754	89.31
342.981	86.31
343.209	90.31
343.437	102.31
343.665	99.31
343.893	93.31
344.12	87.31
344.348	91.31
344.576	89.31
344.804	101.31
345.031	97.31
345.259	90.31
345.487	105.31
345.714	89.31
345.942	95.31
346.17	92.31
346.397	91.31
346.625	85.31
346.853	105.31
347.08	78.31
347.308	105.31
347.535	90.31
347.763	102.31
347.99	110.31
348.218	109.31
348.445	114.31
348.673	95.31
348.9	99.31
349.128	86.31
349.355	90.31
349.583	82.31
349.81	102.31
350.037	105.31
350.265	101.31
350.492	105.31
350.72	90.31
350.947	96.31
351.174	107.31
351.402	101.31
351.629	92.31
351.856	89.31
352.083	101.31
352.311	90.31
352.538	90.31
352.765	114.31
352.992	89.31
353.22	110.31
353.447	101.31
353.674	102.31
353.901	94.31
354.128	90.31
354.355	104.31
354.583	111.31
354.81	104.31
355.037	107.31
355.264	95.31
355.491	94.31
355.718	101.31
355.945	94.31
356.172	111.31
356.399	111.31
356.626	78.31
356.853	100.31
357.08	83.31
357.307	95.31
357.534	90.31
357.761	101.31
357.988	101.31
358.215	105.31
358.441	89.31
358.668	98.31
358.895	95.31
359.122	81.31
359.349	87.31
359.576	79.31
359.802	101.31
360.029	97.31
360.256	105.31
360.483	94.31
360.709	98.31
360.936	105.31
361.163	93.31
361.39	89.31
361.616	94.31
361.843	90.31
362.07	91.31
362.296	100.31
362.523	97.31
362.749	80.31
362.976	73.31
363.203	96.31
363.429	81.31
363.656	99.31
363.882	101.31
364.109	95.31
364.335	93.31
364.562	98.31
364.788	95.31
365.015	96.31
365.241	105.31
365.468	104.31
365.694	95.31
365.92	76.31
366.147	92.31
366.373	90.31
366.599	113.31
366.826	92.31
367.052	81.31
367.278	83.31
367.505	99.31
367.731	98.31
367.957	87.31
368.184	87.31
368.41	97.31
368.636	115.31
368.862	102.31
369.089	102.31
369.315	94.31
369.541	96.31
369.767	99.31
369.993	101.31
370.219	85.31
370.445	83.31
370.672	94.31
370.898	100.31
371.124	108.31
371.35	89.31
371.576	88.31
371.802	100.31
372.028	86.31
372.254	84.31
372.48	83.31
372.706	89.31
372.932	94.31
373.158	93.31
373.384	89.31
373.61	84.31
373.835	97.31
374.061	76.31
374.287	91.31
374.513	99.31
374.739	89.31
374.965	114.31
375.191	109.31
375.416	102.31
375.642	102.31
375.868	98.31
376.094	89.31
376.319	93.31
376.545	98.31
376.771	86.31
376.997	89.31
377.222	81.31
377.448	92.31
377.674	85.31
377.899	97.31
378.125	88.31
378.35	91.31
378.576	97.31
378.802	99.31
379.027	91.31
379.253	104.31
379.478	94.31
379.704	103.31
379.929	99.31
380.155	104.31
380.38	101.31
380.606	94.31
380.831	98.31
381.057	109.31
381.282	98.31
381.507	76.31
381.733	91.31
381.958	102.31
382.184	99.31
382.409	94.31
382.634	105.31
382.86	96.31
383.085	99.31
383.31	115.31
383.535	101.31
383.761	96.31
383.986	92.31
384.211	97.31
384.436	92.31
384.662	108.31
384.887	104.31
385.112	104.31
385.337	90.31
385.562	100.31
385.787	107.31
386.013	109.31
386.238	121.31
386.463	97.31
386.688	120.31
386.913	106.31
387.138	98.31
387.363	89.31
387.588	93.31
387.813	107.31
388.038	108.31
388.263	105.31
388.488	102.31
388.713	99.31
388.938	89.31
389.163	98.31
389.387	111.31
389.612	98.31
389.837	102.31
390.062	95.31
390.287	93.31
390.512	87.31
390.736	94.31
390.961	98.31
391.186	99.31
391.411	107.31
391.636	110.31
391.86	100.31
392.085	88.31
392.31	95.31
392.534	93.31
392.759	94.31
392.984	90.31
393.208	84.31
393.433	103.31
393.658	81.31
393.882	85.31
394.107	82.31
394.331	93.31
394.556	97.31
394.78	94.31
395.005	85.31
395.229	75.31
395.454	81.31
395.678	89.31
395.903	101.31
396.127	78.31
396.352	91.31
396.576	97.31
396.801	91.31
397.025	89.31
397.249	77.31
397.474	89.31
397.698	89.31
397.922	85.31
398.147	82.31
398.371	89.31
398.595	92.31
398.82	103.31
399.044	83.31
399.268	97.31
399.492	88.31
399.717	93.31
399.941	90.31
400.165	99.31
400.389	102.31
400.613	69.31
400.837	89.31
401.062	72.31
401.286	93.31
401.51	101.31
401.734	100.31
401.958	99.31
402.182	122.31
402.406	138.31
402.63	110.31
402.854	90.31
403.078	86.31
403.302	93.31
403.526	83.31
403.75	100.31
403.974	66.31
404.198	97.31
404.422	90.31
404.645	94.31
404.869	85.31
405.093	91.31
405.317	116.31
405.541	107.31
405.765	103.31
405.988	121.31
406.212	141.31
406.436	210.31
406.66	123.31
406.883	102.31
407.107	84.31
407.331	79.31
407.555	104.31
407.778	89.31
408.002	84.31
408.226	87.31
408.449	82.31
408.673	83.31
408.896	94.31
409.12	103.31
409.344	99.31
409.567	101.31
409.791	91.31
410.014	97.31
410.238	95.31
410.461	96.31
410.685	80.31
410.908	83.31
411.132	100.31
411.355	99.31
411.578	97.31
411.802	93.31
412.025	103.31
412.249	97.31
412.472	107.31
412.695	97.31
412.919	91.31
413.142	87.31
413.365	84.31
413.589	94.31
413.812	95.31
414.035	85.31
414.258	110.31
414.482	96.31
414.705	88.31
414.928	99.31
415.151	85.31
415.374	103.31
415.597	90.31
415.821	87.31
416.044	83.31
416.267	85.31
416.49	96.31
416.713	84.31
416.936	90.31
417.159	89.31
417.382	107.31
417.605	104.31
417.828	103.31
418.051	85.31
418.274	98.31
418.497	95.31
418.72	95.31
418.943	84.31
419.166	86.31
419.389	90.31
419.611	95.31
419.834	100.31
420.057	83.31
420.28	83.31
420.503	105.31
420.726	91.31
420.948	91.31
421.171	94.31
421.394	91.31
421.617	94.31
421.839	94.31
422.062	94.31
422.285	93.31
422.507	92.31
422.73	99.31
422.953	94.31
423.175	84.31
423.398	100.31
423.621	86.31
423.843	87.31
424.066	92.31
424.288	95.31
424.511	97.31
424.733	113.31
424.956	92.31
425.178	89.31
425.401	101.31
425.623	98.31
425.846	95.31
426.068	102.31
426.291	99.31
426.513	81.31
426.735	104.31
426.958	87.31
427.18	104.31
427.402	109.31
427.625	148.31
427.847	126.31
428.069	121.31
428.292	101.31
428.514	87.31
428.736	85.31
428.958	101.31
429.181	85.31
429.403	90.31
429.625	87.31
429.847	93.31
430.069	106.31
430.292	88.31
430.514	81.31
430.736	91.31
430.958	90.31
431.18	81.31
431.402	78.31
431.624	81.31
431.846	99.31
432.068	90.31
432.29	78.31
432.512	90.31
432.734	98.31
432.956	93.31
433.178	113.31
433.4	83.31
433.622	92.31
433.844	77.31
434.066	97.31
434.287	90.31
434.509	84.31
434.731	91.31
434.953	79.31
435.175	92.31
435.397	97.31
435.618	97.31
435.84	97.31
436.062	115.31
436.284	107.31
436.505	103.31
436.727	111.31
436.949	93.31
437.17	94.31
437.392	86.31
437.614	101.31
437.835	94.31
438.057	108.31
438.278	110.31
438.5	101.31
438.721	94.31
438.943	114.31
439.165	87.31
439.386	89.31
439.608	96.31
439.829	102.31
440.05	114.31
440.272	121.31
440.493	80.31
440.715	85.31
440.936	85.31
441.158	95.31
441.379	83.31
441.6	89.31
441.822	93.31
442.043	79.31
442.264	98.31
442.486	90.31
442.707	81.31
442.928	94.31
443.149	113.31
443.371	107.31
443.592	114.31
443.813	106.31
444.034	113.31
444.255	99.31
444.476	77.31
444.698	87.31
444.919	92.31
445.14	146.31
445.361	135.31
445.582	108.31
445.803	119.31
446.024	131.31
446.245	119.31
446.466	97.31
446.687	89.31
446.908	88.31
447.129	87.31
447.35	89.31
447.571	91.31
447.792	92.31
448.013	95.31
448.234	103.31
448.455	97.31
448.675	85.31
448.896	110.31
449.117	98.31
449.338	111.31
449.559	109.31
449.779	116.31
450	105.31
450.221	87.31
450.442	87.31
450.662	82.31
450.883	85.31
451.104	115.31
451.324	89.31
451.545	84.31
451.766	83.31
451.986	83.31
452.207	104.31
452.428	97.31
452.648	93.31
452.869	99.31
453.089	91.31
453.31	106.31
453.53	84.31
453.751	93.31
453.971	84.31
454.192	96.31
454.412	97.31
454.633	98.31
454.853	85.31
455.073	94.31
455.294	85.31
455.514	82.31
455.734	91.31
455.955	83.31
456.175	79.31
456.395	90.31
456.616	91.31
456.836	98.31
457.056	93.31
457.276	93.31
457.497	98.31
457.717	87.31
457.937	71.31
458.157	84.31
458.377	79.31
458.598	93.31
458.818	122.31
459.038	136.31
459.258	95.31
459.478	85.31
459.698	98.31
459.918	83.31
460.138	89.31
460.358	94.31
460.578	104.31
460.798	112.31
461.018	98.31
461.238	81.31
461.458	93.31
461.678	79.31
461.898	83.31
462.118	75.31
462.338	76.31
462.558	93.31
462.777	97.31
462.997	91.31
463.217	92.31
463.437	82.31
463.657	85.31
463.876	85.31
464.096	95.31
464.316	86.31
464.536	82.31
464.755	86.31
464.975	97.31
465.195	163.31
465.414	125.31
465.634	98.31
465.854	75.31
466.073	85.31
466.293	89.31
466.512	88.31
466.732	91.31
466.951	107.31
467.171	95.31
467.391	99.31
467.61	103.31
467.829	100.31
468.049	138.31
468.268	161.31
468.488	97.31
468.707	77.31
468.927	85.31
469.146	79.31
469.365	81.31
469.585	87.31
469.804	85.31
470.023	87.31
470.243	94.31
470.462	99.31
470.681	107.31
470.901	85.31
471.12	70.31
471.339	92.31
471.558	97.31
471.777	97.31
471.997	116.31
472.216	189.31
472.435	348.31
472.654	131.31
472.873	110.31
473.092	94.31
473.311	90.31
473.53	87.31
473.749	94.31
473.968	106.31
474.187	107.31
474.406	102.31
474.625	91.31
474.844	89.31
475.063	85.31
475.282	72.31
475.501	90.31
475.72	94.31
475.939	83.31
476.158	101.31
476.377	96.31
476.596	92.31
476.814	81.31
477.033	85.31
477.252	96.31
477.471	86.31
477.69	73.31
477.908	79.31
478.127	86.31
478.346	90.31
478.564	82.31
478.783	91.31
479.002	94.31
479.22	101.31
479.439	105.31
479.658	100.31
479.876	90.31
480.095	89.31
480.313	89.31
480.532	113.31
480.751	119.31
480.969	206.31
481.188	561.31
481.406	347.31
481.624	121.31
481.843	102.31
482.061	101.31
482.28	94.31
482.498	101.31
482.717	95.31
482.935	101.31
483.153	87.31
483.372	101.31
483.59	98.31
483.808	89.31
484.027	93.31
484.245	98.31
484.463	94.31
484.681	97.31
484.9	93.31
485.118	105.31
485.336	93.31
485.554	97.31
485.772	100.31
485.99	102.31
486.209	108.31
486.427	105.31
486.645	108.31
486.863	116.31
487.081	97.31
487.299	95.31
487.517	93.31
487.735	75.31
487.953	101.31
488.171	113.31
488.389	115.31
488.607	93.31
488.825	73.31
489.043	89.31
489.261	85.31
489.479	72.31
489.696	87.31
489.914	99.31
490.132	77.31
490.35	82.31
490.568	75.31
490.786	93.31
491.003	94.31
491.221	95.31
491.439	81.31
491.657	89.31
491.874	98.31
492.092	84.31
492.31	95.31
492.527	85.31
492.745	83.31
492.963	96.31
493.18	89.31
493.398	95.31
493.615	92.31
493.833	86.31
494.05	78.31
494.268	87.31
494.485	90.31
494.703	89.31
494.92	101.31
495.138	97.31
495.355	97.31
495.573	104.31
495.79	91.31
496.008	83.31
496.225	96.31
496.442	92.31
496.66	83.31
496.877	87.31
497.094	113.31
497.312	87.31
497.529	108.31
497.746	84.31
497.963	90.31
498.181	88.31
498.398	94.31
498.615	86.31
498.832	105.31
499.049	92.31
499.267	86.31
499.484	78.31
499.701	91.31
499.918	94.31
500.135	91.31
500.352	99.31
500.569	79.31
500.786	77.31
501.003	82.31
501.22	79.31
501.437	88.31
501.654	79.31
501.871	105.31
502.088	88.31
502.305	94.31
502.522	93.31
502.739	82.31
502.956	92.31
503.172	87.31
503.389	81.31
503.606	90.31
503.823	101.31
504.04	107.31
504.256	94.31
504.473	102.31
504.69	74.31
504.907	89.31
505.123	104.31
505.34	87.31
505.557	85.31
505.773	101.31
505.99	90.31
506.207	84.31
506.423	84.31
506.64	88.31
506.856	92.31
507.073	82.31
507.289	93.31
507.506	100.31
507.722	103.31
507.939	100.31
508.155	97.31
508.372	90.31
508.588	83.31
508.805	99.31
509.021	85.31
509.238	93.31
509.454	85.31
509.67	98.31
509.887	119.31
510.103	123.31
510.319	175.31
510.536	552.31
510.752	1718.31
510.968	494.31
511.184	131.31
511.401	119.31
511.617	107.31
511.833	107.31
512.049	82.31
512.265	90.31
512.481	87.31
512.698	89.31
512.914	98.31
513.13	95.31
513.346	90.31
513.562	91.31
513.778	106.31
513.994	94.31
514.21	98.31
514.426	117.31
514.642	118.31
514.858	107.31
515.074	140.31
515.29	333.31
