Data from Circ_1984_H10_HRD10591_00093.txt Node
Date: Wed Jan 03 12:23:00 EST 2024
User: Yrep
Spectrometer: HR+D1059
Trigger mode: 1
Integration Time (sec): 1.000000E-1
Scans to average: 1
Electric dark correction enabled: true
Nonlinearity correction enabled: false
Boxcar width: 0
XAxis mode: Wavelengths
Number of Pixels in Spectrum: 2048
>>>>>Begin Spectral Data<<<<<
223.165	-21.56
223.4	-21.56
223.635	-21.56
223.869	-25.56
224.104	-20.56
224.338	-23.56
224.573	-20.56
224.808	-13.56
225.042	-5.56
225.277	-5.56
225.511	4.44
225.746	8.44
225.98	-2.56
226.215	24.44
226.449	23.44
226.683	15.44
226.918	22.44
227.152	40.44
227.387	38.44
227.621	35.44
227.856	60.44
228.09	45.44
228.324	47.44
228.559	65.44
228.793	59.44
229.027	74.44
229.262	71.44
229.496	72.44
229.73	55.44
229.964	77.44
230.199	79.44
230.433	73.44
230.667	82.44
230.901	86.44
231.136	80.44
231.37	81.44
231.604	84.44
231.838	94.44
232.072	79.44
232.306	77.44
232.541	79.44
232.775	69.44
233.009	77.44
233.243	77.44
233.477	86.44
233.711	69.44
233.945	80.44
234.179	89.44
234.413	73.44
234.647	74.44
234.881	69.44
235.115	61.44
235.349	81.44
235.583	69.44
235.817	68.44
236.051	77.44
236.285	79.44
236.519	77.44
236.753	74.44
236.987	84.44
237.221	87.44
237.455	94.44
237.689	69.44
237.922	77.44
238.156	68.44
238.39	61.44
238.624	79.44
238.858	79.44
239.091	81.44
239.325	79.44
239.559	83.44
239.793	74.44
240.027	75.44
240.26	77.44
240.494	74.44
240.728	71.44
240.961	89.44
241.195	93.44
241.429	77.44
241.662	94.44
241.896	80.44
242.13	71.44
242.363	72.44
242.597	83.44
242.83	87.44
243.064	75.44
243.298	80.44
243.531	81.44
243.765	85.44
243.998	83.44
244.232	80.44
244.465	84.44
244.699	79.44
244.932	70.44
245.166	85.44
245.399	82.44
245.633	75.44
245.866	88.44
246.099	86.44
246.333	74.44
246.566	88.44
246.8	85.44
247.033	88.44
247.266	82.44
247.5	90.44
247.733	93.44
247.966	76.44
248.2	66.44
248.433	73.44
248.666	84.44
248.899	79.44
249.133	77.44
249.366	91.44
249.599	92.44
249.832	85.44
250.066	97.44
250.299	82.44
250.532	93.44
250.765	72.44
250.998	64.44
251.231	68.44
251.465	81.44
251.698	78.44
251.931	80.44
252.164	82.44
252.397	66.44
252.63	80.44
252.863	79.44
253.096	80.44
253.329	85.44
253.562	96.44
253.795	74.44
254.028	85.44
254.261	89.44
254.494	63.44
254.727	81.44
254.96	76.44
255.193	81.44
255.426	79.44
255.659	83.44
255.892	73.44
256.124	81.44
256.357	83.44
256.59	79.44
256.823	100.44
257.056	87.44
257.289	69.44
257.521	86.44
257.754	77.44
257.987	81.44
258.22	84.44
258.452	88.44
258.685	86.44
258.918	59.44
259.151	76.44
259.383	82.44
259.616	65.44
259.849	67.44
260.081	76.44
260.314	87.44
260.547	79.44
260.779	88.44
261.012	89.44
261.244	73.44
261.477	89.44
261.71	88.44
261.942	105.44
262.175	109.44
262.407	85.44
262.64	79.44
262.872	103.44
263.105	69.44
263.337	70.44
263.57	80.44
263.802	71.44
264.035	79.44
264.267	78.44
264.499	84.44
264.732	80.44
264.964	68.44
265.197	75.44
265.429	90.44
265.661	79.44
265.894	81.44
266.126	80.44
266.358	81.44
266.591	73.44
266.823	81.44
267.055	74.44
267.287	72.44
267.52	77.44
267.752	96.44
267.984	82.44
268.216	77.44
268.448	85.44
268.681	88.44
268.913	73.44
269.145	74.44
269.377	70.44
269.609	72.44
269.841	86.44
270.073	75.44
270.306	84.44
270.538	76.44
270.77	85.44
271.002	80.44
271.234	99.44
271.466	87.44
271.698	93.44
271.93	92.44
272.162	80.44
272.394	91.44
272.626	86.44
272.858	82.44
273.09	75.44
273.322	80.44
273.553	78.44
273.785	89.44
274.017	86.44
274.249	80.44
274.481	70.44
274.713	81.44
274.945	97.44
275.176	106.44
275.408	87.44
275.64	102.44
275.872	84.44
276.104	83.44
276.335	83.44
276.567	86.44
276.799	111.44
277.031	103.44
277.262	104.44
277.494	91.44
277.726	85.44
277.957	90.44
278.189	90.44
278.421	86.44
278.652	87.44
278.884	81.44
279.115	82.44
279.347	83.44
279.579	92.44
279.81	94.44
280.042	91.44
280.273	119.44
280.505	107.44
280.736	100.44
280.968	99.44
281.199	80.44
281.431	91.44
281.662	76.44
281.894	81.44
282.125	81.44
282.356	118.44
282.588	121.44
282.819	104.44
283.051	90.44
283.282	89.44
283.513	83.44
283.745	85.44
283.976	87.44
284.207	89.44
284.439	83.44
284.67	102.44
284.901	87.44
285.132	79.44
285.364	79.44
285.595	84.44
285.826	91.44
286.057	85.44
286.288	84.44
286.52	74.44
286.751	102.44
286.982	90.44
287.213	77.44
287.444	89.44
287.675	90.44
287.906	104.44
288.138	91.44
288.369	98.44
288.6	101.44
288.831	85.44
289.062	69.44
289.293	88.44
289.524	92.44
289.755	108.44
289.986	84.44
290.217	82.44
290.448	88.44
290.679	89.44
290.91	101.44
291.141	84.44
291.371	87.44
291.602	86.44
291.833	73.44
292.064	78.44
292.295	74.44
292.526	80.44
292.757	85.44
292.987	73.44
293.218	94.44
293.449	94.44
293.68	89.44
293.91	100.44
294.141	87.44
294.372	99.44
294.603	75.44
294.833	82.44
295.064	83.44
295.295	96.44
295.525	100.44
295.756	84.44
295.987	105.44
296.217	131.44
296.448	113.44
296.679	100.44
296.909	85.44
297.14	92.44
297.37	96.44
297.601	97.44
297.831	85.44
298.062	90.44
298.292	90.44
298.523	91.44
298.753	83.44
298.984	99.44
299.214	98.44
299.445	86.44
299.675	99.44
299.905	86.44
300.136	82.44
300.366	75.44
300.597	94.44
300.827	104.44
301.057	96.44
301.288	91.44
301.518	91.44
301.748	103.44
301.979	104.44
302.209	81.44
302.439	89.44
302.669	75.44
302.9	95.44
303.13	91.44
303.36	76.44
303.59	93.44
303.82	92.44
304.051	75.44
304.281	84.44
304.511	87.44
304.741	83.44
304.971	87.44
305.201	87.44
305.431	99.44
305.661	95.44
305.891	85.44
306.121	93.44
306.352	98.44
306.582	102.44
306.812	104.44
307.042	105.44
307.272	101.44
307.502	116.44
307.731	105.44
307.961	100.44
308.191	91.44
308.421	112.44
308.651	91.44
308.881	92.44
309.111	103.44
309.341	90.44
309.571	96.44
309.8	100.44
310.03	91.44
310.26	102.44
310.49	93.44
310.72	92.44
310.949	96.44
311.179	98.44
311.409	86.44
311.639	95.44
311.868	108.44
312.098	101.44
312.328	98.44
312.557	111.44
312.787	98.44
313.017	115.44
313.246	96.44
313.476	85.44
313.706	90.44
313.935	106.44
314.165	91.44
314.394	106.44
314.624	97.44
314.853	98.44
315.083	93.44
315.312	91.44
315.542	80.44
315.771	91.44
316.001	99.44
316.23	80.44
316.46	104.44
316.689	87.44
316.919	86.44
317.148	98.44
317.377	96.44
317.607	96.44
317.836	99.44
318.065	101.44
318.295	93.44
318.524	77.44
318.753	83.44
318.983	98.44
319.212	97.44
319.441	103.44
319.67	107.44
319.9	98.44
320.129	75.44
320.358	92.44
320.587	104.44
320.816	97.44
321.046	101.44
321.275	99.44
321.504	94.44
321.733	97.44
321.962	93.44
322.191	95.44
322.42	110.44
322.649	101.44
322.878	96.44
323.108	115.44
323.337	106.44
323.566	124.44
323.795	140.44
324.024	173.44
324.253	339.44
324.482	675.44
324.71	1411.44
324.939	1816.44
325.168	676.44
325.397	198.44
325.626	140.44
325.855	122.44
326.084	123.44
326.313	129.44
326.542	138.44
326.77	198.44
326.999	397.44
327.228	807.44
327.457	1397.44
327.686	1105.44
327.914	327.44
328.143	213.44
328.372	202.44
328.6	149.44
328.829	124.44
329.058	134.44
329.287	133.44
329.515	123.44
329.744	123.44
329.972	160.44
330.201	246.44
330.43	321.44
330.658	183.44
330.887	133.44
331.115	126.44
331.344	101.44
331.572	99.44
331.801	101.44
332.03	106.44
332.258	93.44
332.486	83.44
332.715	94.44
332.943	90.44
333.172	111.44
333.4	101.44
333.629	101.44
333.857	138.44
334.085	146.44
334.314	258.44
334.542	396.44
334.771	391.44
334.999	149.44
335.227	97.44
335.455	109.44
335.684	89.44
335.912	105.44
336.14	96.44
336.369	104.44
336.597	93.44
336.825	105.44
337.053	91.44
337.281	89.44
337.51	103.44
337.738	75.44
337.966	102.44
338.194	96.44
338.422	98.44
338.65	101.44
338.878	85.44
339.106	85.44
339.334	92.44
339.562	88.44
339.79	92.44
340.018	91.44
340.246	87.44
340.474	98.44
340.702	89.44
340.93	108.44
341.158	86.44
341.386	89.44
341.614	95.44
341.842	71.44
342.07	96.44
342.298	96.44
342.526	83.44
342.754	100.44
342.981	83.44
343.209	83.44
343.437	96.44
343.665	96.44
343.893	100.44
344.12	103.44
344.348	86.44
344.576	90.44
344.804	88.44
345.031	103.44
345.259	96.44
345.487	98.44
345.714	102.44
345.942	83.44
346.17	87.44
346.397	87.44
346.625	90.44
346.853	94.44
347.08	93.44
347.308	96.44
347.535	95.44
347.763	100.44
347.99	93.44
348.218	92.44
348.445	103.44
348.673	108.44
348.9	85.44
349.128	98.44
349.355	76.44
349.583	100.44
349.81	105.44
350.037	83.44
350.265	102.44
350.492	98.44
350.72	98.44
350.947	100.44
351.174	104.44
351.402	127.44
351.629	108.44
351.856	95.44
352.083	88.44
352.311	94.44
352.538	107.44
352.765	101.44
352.992	113.44
353.22	116.44
353.447	102.44
353.674	99.44
353.901	100.44
354.128	89.44
354.355	96.44
354.583	103.44
354.81	88.44
355.037	91.44
355.264	97.44
355.491	95.44
355.718	84.44
355.945	96.44
356.172	74.44
356.399	85.44
356.626	89.44
356.853	92.44
357.08	92.44
357.307	99.44
357.534	96.44
357.761	95.44
357.988	99.44
358.215	94.44
358.441	99.44
358.668	92.44
358.895	95.44
359.122	99.44
359.349	87.44
359.576	91.44
359.802	103.44
360.029	97.44
360.256	108.44
360.483	87.44
360.709	104.44
360.936	103.44
361.163	93.44
361.39	104.44
361.616	93.44
361.843	89.44
362.07	98.44
362.296	89.44
362.523	97.44
362.749	82.44
362.976	91.44
363.203	100.44
363.429	99.44
363.656	88.44
363.882	93.44
364.109	108.44
364.335	97.44
364.562	91.44
364.788	85.44
365.015	112.44
365.241	89.44
365.468	94.44
365.694	104.44
365.92	92.44
366.147	98.44
366.373	102.44
366.599	106.44
366.826	84.44
367.052	86.44
367.278	94.44
367.505	89.44
367.731	104.44
367.957	92.44
368.184	89.44
368.41	82.44
368.636	115.44
368.862	112.44
369.089	108.44
369.315	91.44
369.541	95.44
369.767	85.44
369.993	114.44
370.219	103.44
370.445	86.44
370.672	86.44
370.898	90.44
371.124	98.44
371.35	83.44
371.576	82.44
371.802	92.44
372.028	85.44
372.254	97.44
372.48	86.44
372.706	93.44
372.932	97.44
373.158	85.44
373.384	89.44
373.61	85.44
373.835	94.44
374.061	84.44
374.287	84.44
374.513	100.44
374.739	92.44
374.965	95.44
375.191	98.44
375.416	108.44
375.642	92.44
375.868	87.44
376.094	75.44
376.319	85.44
376.545	92.44
376.771	101.44
376.997	100.44
377.222	81.44
377.448	103.44
377.674	88.44
377.899	96.44
378.125	94.44
378.35	91.44
378.576	93.44
378.802	92.44
379.027	105.44
379.253	90.44
379.478	98.44
379.704	89.44
379.929	83.44
380.155	92.44
380.38	89.44
380.606	93.44
380.831	100.44
381.057	95.44
381.282	90.44
381.507	93.44
381.733	77.44
381.958	96.44
382.184	89.44
382.409	100.44
382.634	93.44
382.86	89.44
383.085	93.44
383.31	89.44
383.535	94.44
383.761	88.44
383.986	109.44
384.211	94.44
384.436	87.44
384.662	97.44
384.887	95.44
385.112	109.44
385.337	103.44
385.562	102.44
385.787	95.44
386.013	100.44
386.238	122.44
386.463	94.44
386.688	107.44
386.913	104.44
387.138	104.44
387.363	84.44
387.588	104.44
387.813	101.44
388.038	106.44
388.263	97.44
388.488	108.44
388.713	85.44
388.938	96.44
389.163	101.44
389.387	89.44
389.612	115.44
389.837	87.44
390.062	93.44
390.287	73.44
390.512	99.44
390.736	91.44
390.961	100.44
391.186	103.44
391.411	90.44
391.636	83.44
391.86	92.44
392.085	95.44
392.31	80.44
392.534	95.44
392.759	87.44
392.984	83.44
393.208	91.44
393.433	88.44
393.658	91.44
393.882	77.44
394.107	89.44
394.331	101.44
394.556	102.44
394.78	89.44
395.005	102.44
395.229	81.44
395.454	86.44
395.678	84.44
395.903	99.44
396.127	98.44
396.352	87.44
396.576	89.44
396.801	75.44
397.025	86.44
397.249	87.44
397.474	83.44
397.698	106.44
397.922	88.44
398.147	82.44
398.371	89.44
398.595	104.44
398.82	87.44
399.044	103.44
399.268	73.44
399.492	92.44
399.717	86.44
399.941	84.44
400.165	103.44
400.389	93.44
400.613	84.44
400.837	88.44
401.062	84.44
401.286	95.44
401.51	96.44
401.734	96.44
401.958	95.44
402.182	123.44
402.406	157.44
402.63	113.44
402.854	96.44
403.078	93.44
403.302	96.44
403.526	82.44
403.75	90.44
403.974	84.44
404.198	90.44
404.422	80.44
404.645	85.44
404.869	93.44
405.093	95.44
405.317	100.44
405.541	100.44
405.765	93.44
405.988	111.44
406.212	145.44
406.436	191.44
406.66	127.44
406.883	101.44
407.107	94.44
407.331	93.44
407.555	87.44
407.778	85.44
408.002	88.44
408.226	74.44
408.449	80.44
408.673	83.44
408.896	104.44
409.12	102.44
409.344	93.44
409.567	91.44
409.791	97.44
410.014	98.44
410.238	89.44
410.461	80.44
410.685	94.44
410.908	79.44
411.132	102.44
411.355	102.44
411.578	96.44
411.802	81.44
412.025	73.44
412.249	91.44
412.472	99.44
412.695	105.44
412.919	98.44
413.142	86.44
413.365	77.44
413.589	94.44
413.812	98.44
414.035	91.44
414.258	90.44
414.482	83.44
414.705	87.44
414.928	91.44
415.151	87.44
415.374	86.44
415.597	85.44
415.821	92.44
416.044	81.44
416.267	101.44
416.49	104.44
416.713	89.44
416.936	90.44
417.159	91.44
417.382	93.44
417.605	97.44
417.828	85.44
418.051	99.44
418.274	96.44
418.497	84.44
418.72	81.44
418.943	88.44
419.166	82.44
419.389	83.44
419.611	98.44
419.834	90.44
420.057	87.44
420.28	83.44
420.503	84.44
420.726	97.44
420.948	100.44
421.171	90.44
421.394	93.44
421.617	97.44
421.839	89.44
422.062	106.44
422.285	104.44
422.507	108.44
422.73	107.44
422.953	103.44
423.175	90.44
423.398	98.44
423.621	83.44
423.843	97.44
424.066	87.44
424.288	94.44
424.511	85.44
424.733	95.44
424.956	98.44
425.178	103.44
425.401	85.44
425.623	98.44
425.846	95.44
426.068	97.44
426.291	82.44
426.513	70.44
426.735	95.44
426.958	99.44
427.18	97.44
427.402	132.44
427.625	146.44
427.847	136.44
428.069	147.44
428.292	101.44
428.514	97.44
428.736	95.44
428.958	95.44
429.181	93.44
429.403	85.44
429.625	92.44
429.847	92.44
430.069	114.44
430.292	103.44
430.514	91.44
430.736	82.44
430.958	89.44
431.18	86.44
431.402	83.44
431.624	93.44
431.846	92.44
432.068	103.44
432.29	76.44
432.512	74.44
432.734	90.44
432.956	90.44
433.178	96.44
433.4	83.44
433.622	80.44
433.844	81.44
434.066	107.44
434.287	87.44
434.509	76.44
434.731	79.44
434.953	74.44
435.175	85.44
435.397	81.44
435.618	88.44
435.84	99.44
436.062	120.44
436.284	113.44
436.505	101.44
436.727	85.44
436.949	88.44
437.17	95.44
437.392	85.44
437.614	101.44
437.835	98.44
438.057	132.44
438.278	115.44
438.5	100.44
438.721	97.44
438.943	91.44
439.165	95.44
439.386	90.44
439.608	91.44
439.829	100.44
440.05	120.44
440.272	143.44
440.493	97.44
440.715	77.44
440.936	89.44
441.158	93.44
441.379	85.44
441.6	76.44
441.822	89.44
442.043	95.44
442.264	96.44
442.486	104.44
442.707	94.44
442.928	90.44
443.149	123.44
443.371	123.44
443.592	99.44
443.813	113.44
444.034	85.44
444.255	89.44
444.476	84.44
444.698	81.44
444.919	92.44
445.14	146.44
445.361	121.44
445.582	107.44
445.803	136.44
446.024	125.44
446.245	122.44
446.466	115.44
446.687	90.44
446.908	100.44
447.129	83.44
447.35	99.44
447.571	92.44
447.792	86.44
448.013	95.44
448.234	113.44
448.455	106.44
448.675	113.44
448.896	121.44
449.117	96.44
449.338	106.44
449.559	120.44
449.779	120.44
450	89.44
450.221	92.44
450.442	80.44
450.662	83.44
450.883	98.44
451.104	95.44
451.324	89.44
451.545	98.44
451.766	89.44
451.986	89.44
452.207	91.44
452.428	92.44
452.648	93.44
452.869	106.44
453.089	123.44
453.31	108.44
453.53	90.44
453.751	108.44
453.971	86.44
454.192	88.44
454.412	91.44
454.633	84.44
454.853	98.44
455.073	86.44
455.294	99.44
455.514	94.44
455.734	86.44
455.955	79.44
456.175	78.44
456.395	83.44
456.616	92.44
456.836	89.44
457.056	84.44
457.276	79.44
457.497	83.44
457.717	91.44
457.937	83.44
458.157	79.44
458.377	87.44
458.598	108.44
458.818	131.44
459.038	147.44
459.258	104.44
459.478	97.44
459.698	94.44
459.918	83.44
460.138	85.44
460.358	93.44
460.578	78.44
460.798	92.44
461.018	99.44
461.238	92.44
461.458	90.44
461.678	92.44
461.898	78.44
462.118	84.44
462.338	101.44
462.558	79.44
462.777	85.44
462.997	97.44
463.217	91.44
463.437	99.44
463.657	79.44
463.876	83.44
464.096	72.44
464.316	91.44
464.536	88.44
464.755	94.44
464.975	103.44
465.195	145.44
465.414	140.44
465.634	92.44
465.854	95.44
466.073	77.44
466.293	85.44
466.512	91.44
466.732	88.44
466.951	87.44
467.171	85.44
467.391	98.44
467.61	114.44
467.829	114.44
468.049	165.44
468.268	206.44
468.488	106.44
468.707	83.44
468.927	91.44
469.146	95.44
469.365	86.44
469.585	81.44
469.804	99.44
470.023	103.44
470.243	86.44
470.462	97.44
470.681	94.44
470.901	84.44
471.12	84.44
471.339	91.44
471.558	109.44
471.777	105.44
471.997	125.44
472.216	283.44
472.435	519.44
472.654	179.44
472.873	98.44
473.092	87.44
473.311	85.44
473.53	85.44
473.749	81.44
473.968	88.44
474.187	100.44
474.406	85.44
474.625	91.44
474.844	99.44
475.063	96.44
475.282	93.44
475.501	97.44
475.72	90.44
475.939	89.44
476.158	91.44
476.377	97.44
476.596	85.44
476.814	96.44
477.033	85.44
477.252	75.44
477.471	95.44
477.69	89.44
477.908	93.44
478.127	86.44
478.346	80.44
478.564	97.44
478.783	96.44
479.002	106.44
479.22	92.44
479.439	104.44
479.658	99.44
479.876	96.44
480.095	91.44
480.313	106.44
480.532	95.44
480.751	115.44
480.969	286.44
481.188	879.44
481.406	536.44
481.624	145.44
481.843	109.44
482.061	83.44
482.28	85.44
482.498	101.44
482.717	85.44
482.935	91.44
483.153	84.44
483.372	95.44
483.59	95.44
483.808	100.44
484.027	96.44
484.245	112.44
484.463	99.44
484.681	96.44
484.9	104.44
485.118	98.44
485.336	89.44
485.554	100.44
485.772	107.44
485.99	112.44
486.209	104.44
486.427	99.44
486.645	93.44
486.863	106.44
487.081	101.44
487.299	109.44
487.517	106.44
487.735	81.44
487.953	109.44
488.171	77.44
488.389	93.44
488.607	89.44
488.825	100.44
489.043	89.44
489.261	90.44
489.479	91.44
489.696	92.44
489.914	91.44
490.132	88.44
490.35	105.44
490.568	96.44
490.786	96.44
491.003	86.44
491.221	82.44
491.439	91.44
491.657	91.44
491.874	81.44
492.092	81.44
492.31	82.44
492.527	93.44
492.745	83.44
492.963	108.44
493.18	79.44
493.398	89.44
493.615	98.44
493.833	89.44
494.05	101.44
494.268	72.44
494.485	75.44
494.703	89.44
494.92	101.44
495.138	82.44
495.355	92.44
495.573	81.44
495.79	66.44
496.008	83.44
496.225	91.44
496.442	100.44
496.66	112.44
496.877	96.44
497.094	89.44
497.312	98.44
497.529	91.44
497.746	106.44
497.963	71.44
498.181	95.44
498.398	85.44
498.615	111.44
498.832	101.44
499.049	101.44
499.267	97.44
499.484	89.44
499.701	88.44
499.918	92.44
500.135	83.44
500.352	86.44
500.569	86.44
500.786	85.44
501.003	85.44
501.22	92.44
501.437	91.44
501.654	93.44
501.871	102.44
502.088	83.44
502.305	103.44
502.522	107.44
502.739	95.44
502.956	84.44
503.172	95.44
503.389	79.44
503.606	95.44
503.823	90.44
504.04	83.44
504.256	98.44
504.473	83.44
504.69	82.44
504.907	92.44
505.123	96.44
505.34	104.44
505.557	98.44
505.773	102.44
505.99	81.44
506.207	92.44
506.423	91.44
506.64	85.44
506.856	88.44
507.073	96.44
507.289	90.44
507.506	91.44
507.722	109.44
507.939	104.44
508.155	102.44
508.372	88.44
508.588	81.44
508.805	78.44
509.021	107.44
509.238	104.44
509.454	87.44
509.67	102.44
509.887	99.44
510.103	125.44
510.319	185.44
510.536	591.44
510.752	1835.44
510.968	534.44
511.184	135.44
511.401	104.44
511.617	93.44
511.833	100.44
512.049	100.44
512.265	95.44
512.481	102.44
512.698	102.44
512.914	87.44
513.13	92.44
513.346	89.44
513.562	104.44
513.778	91.44
513.994	116.44
514.21	93.44
514.426	108.44
514.642	101.44
514.858	116.44
515.074	147.44
515.29	345.44
