Data from Circ_1984_H10_HRD10591_00029.txt Node
Date: Wed Jan 03 12:22:47 EST 2024
User: Yrep
Spectrometer: HR+D1059
Trigger mode: 1
Integration Time (sec): 1.000000E-1
Scans to average: 1
Electric dark correction enabled: true
Nonlinearity correction enabled: false
Boxcar width: 0
XAxis mode: Wavelengths
Number of Pixels in Spectrum: 2048
>>>>>Begin Spectral Data<<<<<
223.165	-23.06
223.4	-23.06
223.635	-23.06
223.869	-0.06
224.104	-32.06
224.338	-18.06
224.573	-12.06
224.808	-7.06
225.042	-18.06
225.277	-8.06
225.511	5.94
225.746	-0.06
225.98	5.94
226.215	-0.06
226.449	13.94
226.683	18.94
226.918	33.94
227.152	39.94
227.387	27.94
227.621	38.94
227.856	31.94
228.09	37.94
228.324	58.94
228.559	48.94
228.793	69.94
229.027	53.94
229.262	48.94
229.496	72.94
229.73	81.94
229.964	76.94
230.199	72.94
230.433	71.94
230.667	61.94
230.901	82.94
231.136	82.94
231.37	68.94
231.604	67.94
231.838	83.94
232.072	90.94
232.306	84.94
232.541	85.94
232.775	81.94
233.009	77.94
233.243	72.94
233.477	77.94
233.711	68.94
233.945	77.94
234.179	62.94
234.413	64.94
234.647	72.94
234.881	82.94
235.115	62.94
235.349	77.94
235.583	83.94
235.817	68.94
236.051	67.94
236.285	80.94
236.519	76.94
236.753	78.94
236.987	65.94
237.221	87.94
237.455	79.94
237.689	71.94
237.922	69.94
238.156	68.94
238.39	64.94
238.624	83.94
238.858	80.94
239.091	59.94
239.325	61.94
239.559	84.94
239.793	63.94
240.027	74.94
240.26	76.94
240.494	84.94
240.728	72.94
240.961	84.94
241.195	70.94
241.429	84.94
241.662	63.94
241.896	64.94
242.13	64.94
242.363	75.94
242.597	60.94
242.83	74.94
243.064	84.94
243.298	76.94
243.531	58.94
243.765	82.94
243.998	72.94
244.232	80.94
244.465	79.94
244.699	59.94
244.932	60.94
245.166	69.94
245.399	77.94
245.633	78.94
245.866	89.94
246.099	78.94
246.333	72.94
246.566	68.94
246.8	62.94
247.033	80.94
247.266	72.94
247.5	77.94
247.733	58.94
247.966	92.94
248.2	78.94
248.433	78.94
248.666	91.94
248.899	70.94
249.133	69.94
249.366	98.94
249.599	78.94
249.832	84.94
250.066	80.94
250.299	73.94
250.532	82.94
250.765	71.94
250.998	81.94
251.231	70.94
251.465	69.94
251.698	67.94
251.931	77.94
252.164	75.94
252.397	76.94
252.63	79.94
252.863	71.94
253.096	78.94
253.329	85.94
253.562	74.94
253.795	84.94
254.028	87.94
254.261	83.94
254.494	66.94
254.727	81.94
254.96	63.94
255.193	76.94
255.426	86.94
255.659	66.94
255.892	79.94
256.124	66.94
256.357	73.94
256.59	80.94
256.823	84.94
257.056	76.94
257.289	79.94
257.521	78.94
257.754	75.94
257.987	78.94
258.22	70.94
258.452	69.94
258.685	82.94
258.918	79.94
259.151	79.94
259.383	96.94
259.616	71.94
259.849	74.94
260.081	78.94
260.314	91.94
260.547	92.94
260.779	85.94
261.012	92.94
261.244	72.94
261.477	80.94
261.71	79.94
261.942	103.94
262.175	104.94
262.407	75.94
262.64	84.94
262.872	87.94
263.105	77.94
263.337	85.94
263.57	93.94
263.802	84.94
264.035	84.94
264.267	76.94
264.499	81.94
264.732	71.94
264.964	84.94
265.197	89.94
265.429	84.94
265.661	84.94
265.894	71.94
266.126	84.94
266.358	66.94
266.591	78.94
266.823	72.94
267.055	81.94
267.287	72.94
267.52	71.94
267.752	90.94
267.984	85.94
268.216	88.94
268.448	72.94
268.681	66.94
268.913	77.94
269.145	86.94
269.377	74.94
269.609	84.94
269.841	69.94
270.073	78.94
270.306	108.94
270.538	90.94
270.77	78.94
271.002	89.94
271.234	87.94
271.466	91.94
271.698	65.94
271.93	73.94
272.162	83.94
272.394	83.94
272.626	86.94
272.858	77.94
273.09	88.94
273.322	78.94
273.553	86.94
273.785	84.94
274.017	88.94
274.249	84.94
274.481	57.94
274.713	72.94
274.945	78.94
275.176	78.94
275.408	90.94
275.64	90.94
275.872	84.94
276.104	87.94
276.335	90.94
276.567	86.94
276.799	104.94
277.031	101.94
277.262	93.94
277.494	84.94
277.726	86.94
277.957	93.94
278.189	74.94
278.421	85.94
278.652	76.94
278.884	88.94
279.115	75.94
279.347	80.94
279.579	70.94
279.81	82.94
280.042	92.94
280.273	89.94
280.505	71.94
280.736	91.94
280.968	85.94
281.199	93.94
281.431	82.94
281.662	83.94
281.894	80.94
282.125	94.94
282.356	108.94
282.588	119.94
282.819	111.94
283.051	100.94
283.282	80.94
283.513	86.94
283.745	80.94
283.976	73.94
284.207	88.94
284.439	91.94
284.67	81.94
284.901	82.94
285.132	74.94
285.364	72.94
285.595	88.94
285.826	83.94
286.057	90.94
286.288	80.94
286.52	79.94
286.751	85.94
286.982	69.94
287.213	78.94
287.444	92.94
287.675	86.94
287.906	88.94
288.138	92.94
288.369	75.94
288.6	85.94
288.831	82.94
289.062	87.94
289.293	86.94
289.524	90.94
289.755	79.94
289.986	81.94
290.217	82.94
290.448	92.94
290.679	82.94
290.91	91.94
291.141	88.94
291.371	81.94
291.602	80.94
291.833	83.94
292.064	91.94
292.295	85.94
292.526	87.94
292.757	88.94
292.987	94.94
293.218	80.94
293.449	86.94
293.68	92.94
293.91	71.94
294.141	85.94
294.372	82.94
294.603	86.94
294.833	87.94
295.064	76.94
295.295	92.94
295.525	83.94
295.756	110.94
295.987	106.94
296.217	120.94
296.448	117.94
296.679	86.94
296.909	80.94
297.14	79.94
297.37	81.94
297.601	74.94
297.831	94.94
298.062	86.94
298.292	78.94
298.523	84.94
298.753	77.94
298.984	82.94
299.214	80.94
299.445	87.94
299.675	95.94
299.905	80.94
300.136	86.94
300.366	86.94
300.597	94.94
300.827	75.94
301.057	88.94
301.288	92.94
301.518	92.94
301.748	86.94
301.979	101.94
302.209	86.94
302.439	80.94
302.669	93.94
302.9	76.94
303.13	87.94
303.36	78.94
303.59	84.94
303.82	93.94
304.051	100.94
304.281	91.94
304.511	89.94
304.741	84.94
304.971	82.94
305.201	82.94
305.431	88.94
305.661	85.94
305.891	82.94
306.121	70.94
306.352	92.94
306.582	94.94
306.812	82.94
307.042	82.94
307.272	94.94
307.502	92.94
307.731	99.94
307.961	83.94
308.191	87.94
308.421	91.94
308.651	75.94
308.881	94.94
309.111	100.94
309.341	94.94
309.571	82.94
309.8	86.94
310.03	92.94
310.26	82.94
310.49	104.94
310.72	94.94
310.949	90.94
311.179	102.94
311.409	102.94
311.639	99.94
311.868	85.94
312.098	86.94
312.328	73.94
312.557	100.94
312.787	106.94
313.017	102.94
313.246	85.94
313.476	82.94
313.706	97.94
313.935	102.94
314.165	95.94
314.394	104.94
314.624	102.94
314.853	85.94
315.083	82.94
315.312	75.94
315.542	82.94
315.771	99.94
316.001	94.94
316.23	89.94
316.46	75.94
316.689	88.94
316.919	85.94
317.148	79.94
317.377	94.94
317.607	85.94
317.836	82.94
318.065	87.94
318.295	88.94
318.524	102.94
318.753	88.94
318.983	83.94
319.212	76.94
319.441	94.94
319.67	94.94
319.9	98.94
320.129	85.94
320.358	90.94
320.587	87.94
320.816	87.94
321.046	103.94
321.275	97.94
321.504	86.94
321.733	88.94
321.962	92.94
322.191	94.94
322.42	102.94
322.649	105.94
322.878	119.94
323.108	109.94
323.337	117.94
323.566	113.94
323.795	131.94
324.024	187.94
324.253	326.94
324.482	634.94
324.71	1340.94
324.939	1732.94
325.168	671.94
325.397	207.94
325.626	118.94
325.855	112.94
326.084	106.94
326.313	110.94
326.542	142.94
326.77	193.94
326.999	356.94
327.228	730.94
327.457	1348.94
327.686	1071.94
327.914	312.94
328.143	190.94
328.372	166.94
328.6	123.94
328.829	98.94
329.058	112.94
329.287	107.94
329.515	95.94
329.744	106.94
329.972	140.94
330.201	142.94
330.43	194.94
330.658	126.94
330.887	135.94
331.115	103.94
331.344	109.94
331.572	86.94
331.801	94.94
332.03	96.94
332.258	93.94
332.486	93.94
332.715	80.94
332.943	81.94
333.172	85.94
333.4	89.94
333.629	103.94
333.857	121.94
334.085	112.94
334.314	166.94
334.542	207.94
334.771	205.94
334.999	104.94
335.227	98.94
335.455	100.94
335.684	95.94
335.912	92.94
336.14	109.94
336.369	99.94
336.597	94.94
336.825	87.94
337.053	75.94
337.281	77.94
337.51	81.94
337.738	97.94
337.966	87.94
338.194	97.94
338.422	92.94
338.65	90.94
338.878	95.94
339.106	85.94
339.334	82.94
339.562	91.94
339.79	87.94
340.018	78.94
340.246	74.94
340.474	75.94
340.702	75.94
340.93	78.94
341.158	102.94
341.386	84.94
341.614	76.94
341.842	90.94
342.07	91.94
342.298	86.94
342.526	82.94
342.754	82.94
342.981	86.94
343.209	78.94
343.437	91.94
343.665	87.94
343.893	86.94
344.12	87.94
344.348	85.94
344.576	103.94
344.804	79.94
345.031	84.94
345.259	94.94
345.487	84.94
345.714	75.94
345.942	79.94
346.17	93.94
346.397	79.94
346.625	96.94
346.853	82.94
347.08	79.94
347.308	79.94
347.535	96.94
347.763	96.94
347.99	95.94
348.218	92.94
348.445	94.94
348.673	101.94
348.9	93.94
349.128	91.94
349.355	84.94
349.583	98.94
349.81	89.94
350.037	95.94
350.265	87.94
350.492	84.94
350.72	96.94
350.947	99.94
351.174	120.94
351.402	98.94
351.629	90.94
351.856	87.94
352.083	80.94
352.311	95.94
352.538	88.94
352.765	106.94
352.992	102.94
353.22	97.94
353.447	114.94
353.674	93.94
353.901	91.94
354.128	94.94
354.355	90.94
354.583	96.94
354.81	97.94
355.037	96.94
355.264	80.94
355.491	104.94
355.718	87.94
355.945	96.94
356.172	97.94
356.399	90.94
356.626	88.94
356.853	91.94
357.08	84.94
357.307	96.94
357.534	91.94
357.761	83.94
357.988	82.94
358.215	99.94
358.441	86.94
358.668	92.94
358.895	87.94
359.122	69.94
359.349	92.94
359.576	81.94
359.802	98.94
360.029	95.94
360.256	85.94
360.483	106.94
360.709	95.94
360.936	75.94
361.163	100.94
361.39	102.94
361.616	81.94
361.843	86.94
362.07	83.94
362.296	87.94
362.523	75.94
362.749	81.94
362.976	92.94
363.203	70.94
363.429	78.94
363.656	90.94
363.882	81.94
364.109	103.94
364.335	76.94
364.562	87.94
364.788	71.94
365.015	99.94
365.241	99.94
365.468	94.94
365.694	94.94
365.92	95.94
366.147	90.94
366.373	80.94
366.599	89.94
366.826	92.94
367.052	77.94
367.278	85.94
367.505	81.94
367.731	85.94
367.957	81.94
368.184	84.94
368.41	98.94
368.636	100.94
368.862	91.94
369.089	95.94
369.315	88.94
369.541	85.94
369.767	82.94
369.993	81.94
370.219	89.94
370.445	88.94
370.672	82.94
370.898	78.94
371.124	85.94
371.35	82.94
371.576	75.94
371.802	70.94
372.028	84.94
372.254	70.94
372.48	83.94
372.706	87.94
372.932	77.94
373.158	93.94
373.384	88.94
373.61	80.94
373.835	97.94
374.061	94.94
374.287	90.94
374.513	99.94
374.739	91.94
374.965	91.94
375.191	85.94
375.416	81.94
375.642	80.94
375.868	91.94
376.094	83.94
376.319	75.94
376.545	68.94
376.771	88.94
376.997	81.94
377.222	69.94
377.448	77.94
377.674	84.94
377.899	75.94
378.125	82.94
378.35	80.94
378.576	83.94
378.802	94.94
379.027	85.94
379.253	86.94
379.478	87.94
379.704	94.94
379.929	95.94
380.155	89.94
380.38	94.94
380.606	98.94
380.831	92.94
381.057	104.94
381.282	67.94
381.507	99.94
381.733	94.94
381.958	86.94
382.184	95.94
382.409	96.94
382.634	94.94
382.86	91.94
383.085	100.94
383.31	100.94
383.535	92.94
383.761	99.94
383.986	90.94
384.211	86.94
384.436	87.94
384.662	105.94
384.887	102.94
385.112	82.94
385.337	91.94
385.562	99.94
385.787	105.94
386.013	113.94
386.238	109.94
386.463	102.94
386.688	108.94
386.913	110.94
387.138	116.94
387.363	99.94
387.588	104.94
387.813	97.94
388.038	117.94
388.263	103.94
388.488	118.94
388.713	92.94
388.938	82.94
389.163	89.94
389.387	91.94
389.612	82.94
389.837	90.94
390.062	95.94
390.287	97.94
390.512	75.94
390.736	76.94
390.961	79.94
391.186	87.94
391.411	78.94
391.636	89.94
391.86	85.94
392.085	81.94
392.31	86.94
392.534	83.94
392.759	74.94
392.984	88.94
393.208	81.94
393.433	111.94
393.658	102.94
393.882	68.94
394.107	85.94
394.331	70.94
394.556	82.94
394.78	91.94
395.005	87.94
395.229	96.94
395.454	70.94
395.678	85.94
395.903	80.94
396.127	90.94
396.352	82.94
396.576	90.94
396.801	82.94
397.025	95.94
397.249	78.94
397.474	88.94
397.698	75.94
397.922	80.94
398.147	71.94
398.371	89.94
398.595	82.94
398.82	82.94
399.044	84.94
399.268	77.94
399.492	83.94
399.717	81.94
399.941	95.94
400.165	96.94
400.389	82.94
400.613	87.94
400.837	88.94
401.062	82.94
401.286	87.94
401.51	85.94
401.734	92.94
401.958	85.94
402.182	110.94
402.406	142.94
402.63	109.94
402.854	89.94
403.078	81.94
403.302	78.94
403.526	86.94
403.75	90.94
403.974	74.94
404.198	78.94
404.422	79.94
404.645	80.94
404.869	82.94
405.093	89.94
405.317	100.94
405.541	90.94
405.765	92.94
405.988	112.94
406.212	144.94
406.436	199.94
406.66	126.94
406.883	94.94
407.107	87.94
407.331	101.94
407.555	108.94
407.778	95.94
408.002	88.94
408.226	88.94
408.449	84.94
408.673	75.94
408.896	100.94
409.12	96.94
409.344	88.94
409.567	90.94
409.791	80.94
410.014	94.94
410.238	94.94
410.461	92.94
410.685	78.94
410.908	86.94
411.132	96.94
411.355	91.94
411.578	83.94
411.802	93.94
412.025	79.94
412.249	101.94
412.472	95.94
412.695	97.94
412.919	98.94
413.142	88.94
413.365	82.94
413.589	80.94
413.812	77.94
414.035	98.94
414.258	66.94
414.482	77.94
414.705	83.94
414.928	78.94
415.151	78.94
415.374	93.94
415.597	86.94
415.821	83.94
416.044	82.94
416.267	84.94
416.49	79.94
416.713	76.94
416.936	97.94
417.159	92.94
417.382	90.94
417.605	95.94
417.828	93.94
418.051	78.94
418.274	94.94
418.497	87.94
418.72	82.94
418.943	96.94
419.166	82.94
419.389	74.94
419.611	72.94
419.834	86.94
420.057	87.94
420.28	90.94
420.503	79.94
420.726	84.94
420.948	94.94
421.171	89.94
421.394	90.94
421.617	90.94
421.839	93.94
422.062	74.94
422.285	78.94
422.507	102.94
422.73	97.94
422.953	79.94
423.175	94.94
423.398	82.94
423.621	92.94
423.843	78.94
424.066	69.94
424.288	81.94
424.511	81.94
424.733	94.94
424.956	91.94
425.178	90.94
425.401	78.94
425.623	95.94
425.846	82.94
426.068	90.94
426.291	95.94
426.513	82.94
426.735	92.94
426.958	83.94
427.18	109.94
427.402	127.94
427.625	143.94
427.847	119.94
428.069	108.94
428.292	94.94
428.514	80.94
428.736	75.94
428.958	76.94
429.181	80.94
429.403	78.94
429.625	89.94
429.847	93.94
430.069	98.94
430.292	82.94
430.514	80.94
430.736	76.94
430.958	83.94
431.18	74.94
431.402	88.94
431.624	80.94
431.846	89.94
432.068	78.94
432.29	81.94
432.512	92.94
432.734	76.94
432.956	79.94
433.178	94.94
433.4	82.94
433.622	71.94
433.844	86.94
434.066	88.94
434.287	72.94
434.509	88.94
434.731	70.94
434.953	93.94
435.175	96.94
435.397	92.94
435.618	74.94
435.84	88.94
436.062	110.94
436.284	92.94
436.505	99.94
436.727	81.94
436.949	81.94
437.17	93.94
437.392	89.94
437.614	81.94
437.835	103.94
438.057	101.94
438.278	79.94
438.5	94.94
438.721	118.94
438.943	96.94
439.165	70.94
439.386	78.94
439.608	78.94
439.829	99.94
440.05	110.94
440.272	119.94
440.493	83.94
440.715	71.94
440.936	63.94
441.158	88.94
441.379	82.94
441.6	80.94
441.822	90.94
442.043	95.94
442.264	93.94
442.486	86.94
442.707	81.94
442.928	94.94
443.149	110.94
443.371	95.94
443.592	102.94
443.813	94.94
444.034	92.94
444.255	90.94
444.476	91.94
444.698	92.94
444.919	80.94
445.14	126.94
445.361	108.94
445.582	104.94
445.803	124.94
446.024	120.94
446.245	99.94
446.466	89.94
446.687	77.94
446.908	80.94
447.129	81.94
447.35	82.94
447.571	89.94
447.792	83.94
448.013	83.94
448.234	93.94
448.455	99.94
448.675	85.94
448.896	103.94
449.117	103.94
449.338	96.94
449.559	107.94
449.779	109.94
450	91.94
450.221	75.94
450.442	78.94
450.662	84.94
450.883	96.94
451.104	108.94
451.324	86.94
451.545	87.94
451.766	74.94
451.986	83.94
452.207	76.94
452.428	91.94
452.648	96.94
452.869	86.94
453.089	88.94
453.31	102.94
453.53	88.94
453.751	72.94
453.971	90.94
454.192	89.94
454.412	83.94
454.633	77.94
454.853	90.94
455.073	67.94
455.294	93.94
455.514	81.94
455.734	86.94
455.955	86.94
456.175	78.94
456.395	80.94
456.616	84.94
456.836	79.94
457.056	82.94
457.276	82.94
457.497	68.94
457.717	78.94
457.937	91.94
458.157	84.94
458.377	76.94
458.598	93.94
458.818	122.94
459.038	141.94
459.258	97.94
459.478	83.94
459.698	74.94
459.918	91.94
460.138	82.94
460.358	83.94
460.578	79.94
460.798	89.94
461.018	71.94
461.238	63.94
461.458	87.94
461.678	78.94
461.898	88.94
462.118	78.94
462.338	79.94
462.558	98.94
462.777	67.94
462.997	84.94
463.217	90.94
463.437	69.94
463.657	99.94
463.876	82.94
464.096	76.94
464.316	94.94
464.536	77.94
464.755	87.94
464.975	95.94
465.195	156.94
465.414	126.94
465.634	95.94
465.854	86.94
466.073	75.94
466.293	82.94
466.512	86.94
466.732	83.94
466.951	87.94
467.171	74.94
467.391	75.94
467.61	86.94
467.829	93.94
468.049	118.94
468.268	138.94
468.488	94.94
468.707	88.94
468.927	80.94
469.146	91.94
469.365	79.94
469.585	82.94
469.804	90.94
470.023	82.94
470.243	71.94
470.462	87.94
470.681	96.94
470.901	80.94
471.12	75.94
471.339	73.94
471.558	83.94
471.777	86.94
471.997	108.94
472.216	157.94
472.435	258.94
472.654	122.94
472.873	82.94
473.092	89.94
473.311	82.94
473.53	72.94
473.749	98.94
473.968	80.94
474.187	93.94
474.406	86.94
474.625	76.94
474.844	87.94
475.063	74.94
475.282	91.94
475.501	88.94
475.72	76.94
475.939	82.94
476.158	90.94
476.377	87.94
476.596	81.94
476.814	72.94
477.033	83.94
477.252	76.94
477.471	73.94
477.69	81.94
477.908	94.94
478.127	83.94
478.346	74.94
478.564	84.94
478.783	88.94
479.002	90.94
479.22	88.94
479.439	98.94
479.658	92.94
479.876	83.94
480.095	94.94
480.313	87.94
480.532	99.94
480.751	100.94
480.969	169.94
481.188	432.94
481.406	275.94
481.624	90.94
481.843	84.94
482.061	68.94
482.28	90.94
482.498	89.94
482.717	93.94
482.935	79.94
483.153	90.94
483.372	78.94
483.59	80.94
483.808	85.94
484.027	104.94
484.245	85.94
484.463	86.94
484.681	98.94
484.9	85.94
485.118	99.94
485.336	85.94
485.554	74.94
485.772	107.94
485.99	90.94
486.209	92.94
486.427	102.94
486.645	111.94
486.863	94.94
487.081	79.94
487.299	107.94
487.517	77.94
487.735	86.94
487.953	83.94
488.171	90.94
488.389	94.94
488.607	85.94
488.825	91.94
489.043	107.94
489.261	90.94
489.479	92.94
489.696	92.94
489.914	91.94
490.132	81.94
490.35	67.94
490.568	70.94
490.786	78.94
491.003	88.94
491.221	80.94
491.439	84.94
491.657	96.94
491.874	96.94
492.092	99.94
492.31	82.94
492.527	85.94
492.745	81.94
492.963	70.94
493.18	86.94
493.398	76.94
493.615	85.94
493.833	86.94
494.05	88.94
494.268	82.94
494.485	95.94
494.703	83.94
494.92	81.94
495.138	77.94
495.355	91.94
495.573	76.94
495.79	81.94
496.008	83.94
496.225	85.94
496.442	86.94
496.66	90.94
496.877	92.94
497.094	94.94
497.312	90.94
497.529	101.94
497.746	102.94
497.963	76.94
498.181	87.94
498.398	91.94
498.615	92.94
498.832	92.94
499.049	95.94
499.267	84.94
499.484	79.94
499.701	87.94
499.918	84.94
500.135	67.94
500.352	87.94
500.569	88.94
500.786	82.94
501.003	82.94
501.22	94.94
501.437	88.94
501.654	98.94
501.871	104.94
502.088	99.94
502.305	84.94
502.522	81.94
502.739	81.94
502.956	89.94
503.172	78.94
503.389	88.94
503.606	98.94
503.823	91.94
504.04	83.94
504.256	70.94
504.473	86.94
504.69	92.94
504.907	93.94
505.123	84.94
505.34	86.94
505.557	84.94
505.773	83.94
505.99	79.94
506.207	78.94
506.423	70.94
506.64	88.94
506.856	86.94
507.073	75.94
507.289	88.94
507.506	81.94
507.722	91.94
507.939	101.94
508.155	92.94
508.372	79.94
508.588	94.94
508.805	110.94
509.021	100.94
509.238	81.94
509.454	85.94
509.67	95.94
509.887	98.94
510.103	117.94
510.319	165.94
510.536	602.94
510.752	1923.94
510.968	556.94
511.184	134.94
511.401	97.94
511.617	96.94
511.833	84.94
512.049	94.94
512.265	94.94
512.481	86.94
512.698	78.94
512.914	78.94
513.13	88.94
513.346	81.94
513.562	87.94
513.778	82.94
513.994	88.94
514.21	90.94
514.426	101.94
514.642	111.94
514.858	120.94
515.074	130.94
515.29	366.94
515.506	1142.94
515.721	427.94
515.937	128.94
516.153	90.94
516.369	103.94
516.585	99.94
516.801	100.94
517.016	94.94
517.232	93.94
517.448	95.94
