Data from Circ_1984_H10_HRD10591_00035.txt Node
Date: Wed Jan 03 12:22:49 EST 2024
User: Yrep
Spectrometer: HR+D1059
Trigger mode: 1
Integration Time (sec): 1.000000E-1
Scans to average: 1
Electric dark correction enabled: true
Nonlinearity correction enabled: false
Boxcar width: 0
XAxis mode: Wavelengths
Number of Pixels in Spectrum: 2048
>>>>>Begin Spectral Data<<<<<
223.165	-18.94
223.4	-18.94
223.635	-18.94
223.869	-19.94
224.104	-12.94
224.338	-10.94
224.573	-20.94
224.808	-13.94
225.042	1.06
225.277	-5.94
225.511	2.06
225.746	2.06
225.98	13.06
226.215	1.06
226.449	-6.94
226.683	30.06
226.918	26.06
227.152	35.06
227.387	36.06
227.621	39.06
227.856	40.06
228.09	39.06
228.324	39.06
228.559	62.06
228.793	59.06
229.027	67.06
229.262	63.06
229.496	56.06
229.73	88.06
229.964	94.06
230.199	84.06
230.433	83.06
230.667	73.06
230.901	99.06
231.136	84.06
231.37	89.06
231.604	73.06
231.838	91.06
232.072	92.06
232.306	91.06
232.541	84.06
232.775	89.06
233.009	86.06
233.243	77.06
233.477	79.06
233.711	84.06
233.945	84.06
234.179	86.06
234.413	89.06
234.647	65.06
234.881	89.06
235.115	84.06
235.349	89.06
235.583	75.06
235.817	88.06
236.051	75.06
236.285	91.06
236.519	90.06
236.753	79.06
236.987	78.06
237.221	70.06
237.455	91.06
237.689	84.06
237.922	93.06
238.156	84.06
238.39	78.06
238.624	67.06
238.858	70.06
239.091	65.06
239.325	84.06
239.559	87.06
239.793	78.06
240.027	80.06
240.26	87.06
240.494	74.06
240.728	72.06
240.961	74.06
241.195	78.06
241.429	86.06
241.662	83.06
241.896	70.06
242.13	90.06
242.363	78.06
242.597	67.06
242.83	62.06
243.064	89.06
243.298	94.06
243.531	79.06
243.765	86.06
243.998	90.06
244.232	91.06
244.465	88.06
244.699	95.06
244.932	72.06
245.166	70.06
245.399	87.06
245.633	81.06
245.866	78.06
246.099	81.06
246.333	70.06
246.566	84.06
246.8	88.06
247.033	87.06
247.266	74.06
247.5	79.06
247.733	82.06
247.966	78.06
248.2	85.06
248.433	64.06
248.666	76.06
248.899	73.06
249.133	86.06
249.366	107.06
249.599	93.06
249.832	76.06
250.066	90.06
250.299	75.06
250.532	82.06
250.765	79.06
250.998	94.06
251.231	73.06
251.465	89.06
251.698	83.06
251.931	81.06
252.164	89.06
252.397	84.06
252.63	84.06
252.863	79.06
253.096	88.06
253.329	71.06
253.562	78.06
253.795	92.06
254.028	83.06
254.261	84.06
254.494	84.06
254.727	73.06
254.96	82.06
255.193	74.06
255.426	82.06
255.659	99.06
255.892	85.06
256.124	86.06
256.357	78.06
256.59	83.06
256.823	101.06
257.056	68.06
257.289	101.06
257.521	83.06
257.754	89.06
257.987	88.06
258.22	84.06
258.452	81.06
258.685	89.06
258.918	89.06
259.151	75.06
259.383	75.06
259.616	78.06
259.849	69.06
260.081	86.06
260.314	85.06
260.547	82.06
260.779	93.06
261.012	94.06
261.244	83.06
261.477	98.06
261.71	84.06
261.942	93.06
262.175	98.06
262.407	102.06
262.64	93.06
262.872	75.06
263.105	85.06
263.337	88.06
263.57	78.06
263.802	87.06
264.035	81.06
264.267	85.06
264.499	82.06
264.732	76.06
264.964	79.06
265.197	72.06
265.429	92.06
265.661	89.06
265.894	76.06
266.126	87.06
266.358	92.06
266.591	77.06
266.823	81.06
267.055	82.06
267.287	107.06
267.52	84.06
267.752	83.06
267.984	81.06
268.216	78.06
268.448	89.06
268.681	83.06
268.913	92.06
269.145	83.06
269.377	77.06
269.609	94.06
269.841	99.06
270.073	89.06
270.306	89.06
270.538	84.06
270.77	90.06
271.002	94.06
271.234	90.06
271.466	94.06
271.698	76.06
271.93	92.06
272.162	99.06
272.394	75.06
272.626	77.06
272.858	89.06
273.09	83.06
273.322	97.06
273.553	74.06
273.785	87.06
274.017	86.06
274.249	82.06
274.481	103.06
274.713	81.06
274.945	84.06
275.176	86.06
275.408	89.06
275.64	86.06
275.872	81.06
276.104	95.06
276.335	77.06
276.567	100.06
276.799	94.06
277.031	88.06
277.262	95.06
277.494	102.06
277.726	85.06
277.957	91.06
278.189	76.06
278.421	79.06
278.652	94.06
278.884	87.06
279.115	85.06
279.347	75.06
279.579	86.06
279.81	85.06
280.042	100.06
280.273	98.06
280.505	76.06
280.736	92.06
280.968	95.06
281.199	97.06
281.431	69.06
281.662	91.06
281.894	93.06
282.125	100.06
282.356	118.06
282.588	120.06
282.819	103.06
283.051	84.06
283.282	95.06
283.513	99.06
283.745	83.06
283.976	86.06
284.207	88.06
284.439	99.06
284.67	99.06
284.901	88.06
285.132	84.06
285.364	92.06
285.595	71.06
285.826	94.06
286.057	95.06
286.288	102.06
286.52	91.06
286.751	87.06
286.982	93.06
287.213	78.06
287.444	86.06
287.675	74.06
287.906	81.06
288.138	89.06
288.369	97.06
288.6	90.06
288.831	83.06
289.062	94.06
289.293	98.06
289.524	82.06
289.755	83.06
289.986	84.06
290.217	104.06
290.448	87.06
290.679	91.06
290.91	88.06
291.141	78.06
291.371	86.06
291.602	87.06
291.833	83.06
292.064	89.06
292.295	86.06
292.526	89.06
292.757	86.06
292.987	93.06
293.218	86.06
293.449	93.06
293.68	78.06
293.91	98.06
294.141	86.06
294.372	82.06
294.603	74.06
294.833	94.06
295.064	81.06
295.295	98.06
295.525	99.06
295.756	86.06
295.987	104.06
296.217	124.06
296.448	119.06
296.679	101.06
296.909	96.06
297.14	105.06
297.37	92.06
297.601	89.06
297.831	99.06
298.062	103.06
298.292	71.06
298.523	90.06
298.753	97.06
298.984	82.06
299.214	91.06
299.445	86.06
299.675	99.06
299.905	103.06
300.136	92.06
300.366	77.06
300.597	97.06
300.827	97.06
301.057	82.06
301.288	113.06
301.518	94.06
301.748	91.06
301.979	97.06
302.209	93.06
302.439	93.06
302.669	78.06
302.9	91.06
303.13	86.06
303.36	91.06
303.59	94.06
303.82	109.06
304.051	93.06
304.281	97.06
304.511	97.06
304.741	105.06
304.971	97.06
305.201	82.06
305.431	87.06
305.661	94.06
305.891	82.06
306.121	85.06
306.352	96.06
306.582	107.06
306.812	94.06
307.042	111.06
307.272	99.06
307.502	97.06
307.731	100.06
307.961	105.06
308.191	84.06
308.421	86.06
308.651	92.06
308.881	85.06
309.111	104.06
309.341	102.06
309.571	90.06
309.8	79.06
310.03	87.06
310.26	93.06
310.49	88.06
310.72	90.06
310.949	97.06
311.179	95.06
311.409	102.06
311.639	88.06
311.868	86.06
312.098	79.06
312.328	78.06
312.557	105.06
312.787	89.06
313.017	98.06
313.246	108.06
313.476	98.06
313.706	98.06
313.935	100.06
314.165	115.06
314.394	95.06
314.624	105.06
314.853	89.06
315.083	100.06
315.312	89.06
315.542	104.06
315.771	98.06
316.001	95.06
316.23	89.06
316.46	89.06
316.689	97.06
316.919	99.06
317.148	94.06
317.377	88.06
317.607	99.06
317.836	100.06
318.065	90.06
318.295	103.06
318.524	95.06
318.753	96.06
318.983	111.06
319.212	106.06
319.441	106.06
319.67	96.06
319.9	101.06
320.129	83.06
320.358	87.06
320.587	74.06
320.816	95.06
321.046	98.06
321.275	109.06
321.504	101.06
321.733	91.06
321.962	99.06
322.191	108.06
322.42	93.06
322.649	107.06
322.878	106.06
323.108	114.06
323.337	110.06
323.566	113.06
323.795	134.06
324.024	178.06
324.253	291.06
324.482	609.06
324.71	1239.06
324.939	1665.06
325.168	618.06
325.397	213.06
325.626	138.06
325.855	121.06
326.084	110.06
326.313	136.06
326.542	136.06
326.77	188.06
326.999	352.06
327.228	697.06
327.457	1265.06
327.686	1034.06
327.914	295.06
328.143	165.06
328.372	151.06
328.6	135.06
328.829	106.06
329.058	106.06
329.287	111.06
329.515	115.06
329.744	121.06
329.972	127.06
330.201	165.06
330.43	193.06
330.658	147.06
330.887	125.06
331.115	118.06
331.344	96.06
331.572	95.06
331.801	97.06
332.03	94.06
332.258	94.06
332.486	94.06
332.715	93.06
332.943	99.06
333.172	104.06
333.4	73.06
333.629	114.06
333.857	113.06
334.085	115.06
334.314	167.06
334.542	212.06
334.771	203.06
334.999	125.06
335.227	109.06
335.455	95.06
335.684	104.06
335.912	90.06
336.14	85.06
336.369	106.06
336.597	92.06
336.825	101.06
337.053	92.06
337.281	85.06
337.51	95.06
337.738	102.06
337.966	90.06
338.194	106.06
338.422	98.06
338.65	94.06
338.878	94.06
339.106	92.06
339.334	94.06
339.562	85.06
339.79	85.06
340.018	85.06
340.246	98.06
340.474	105.06
340.702	100.06
340.93	93.06
341.158	79.06
341.386	105.06
341.614	97.06
341.842	79.06
342.07	97.06
342.298	111.06
342.526	87.06
342.754	76.06
342.981	92.06
343.209	88.06
343.437	116.06
343.665	101.06
343.893	103.06
344.12	88.06
344.348	97.06
344.576	92.06
344.804	100.06
345.031	88.06
345.259	98.06
345.487	85.06
345.714	89.06
345.942	96.06
346.17	82.06
346.397	100.06
346.625	91.06
346.853	88.06
347.08	95.06
347.308	78.06
347.535	93.06
347.763	105.06
347.99	91.06
348.218	104.06
348.445	101.06
348.673	87.06
348.9	95.06
349.128	87.06
349.355	84.06
349.583	76.06
349.81	93.06
350.037	87.06
350.265	97.06
350.492	86.06
350.72	91.06
350.947	95.06
351.174	91.06
351.402	106.06
351.629	86.06
351.856	94.06
352.083	96.06
352.311	100.06
352.538	99.06
352.765	94.06
352.992	111.06
353.22	107.06
353.447	99.06
353.674	105.06
353.901	87.06
354.128	102.06
354.355	105.06
354.583	112.06
354.81	88.06
355.037	85.06
355.264	95.06
355.491	95.06
355.718	95.06
355.945	86.06
356.172	102.06
356.399	95.06
356.626	83.06
356.853	76.06
357.08	93.06
357.307	88.06
357.534	92.06
357.761	101.06
357.988	89.06
358.215	90.06
358.441	89.06
358.668	87.06
358.895	82.06
359.122	86.06
359.349	85.06
359.576	102.06
359.802	100.06
360.029	110.06
360.256	103.06
360.483	101.06
360.709	72.06
360.936	90.06
361.163	84.06
361.39	104.06
361.616	94.06
361.843	92.06
362.07	94.06
362.296	89.06
362.523	85.06
362.749	87.06
362.976	88.06
363.203	83.06
363.429	83.06
363.656	90.06
363.882	91.06
364.109	84.06
364.335	95.06
364.562	86.06
364.788	95.06
365.015	98.06
365.241	100.06
365.468	104.06
365.694	103.06
365.92	108.06
366.147	75.06
366.373	99.06
366.599	86.06
366.826	81.06
367.052	100.06
367.278	89.06
367.505	81.06
367.731	86.06
367.957	89.06
368.184	78.06
368.41	86.06
368.636	92.06
368.862	104.06
369.089	97.06
369.315	97.06
369.541	90.06
369.767	95.06
369.993	90.06
370.219	84.06
370.445	85.06
370.672	81.06
370.898	88.06
371.124	90.06
371.35	100.06
371.576	87.06
371.802	84.06
372.028	88.06
372.254	82.06
372.48	95.06
372.706	90.06
372.932	85.06
373.158	85.06
373.384	76.06
373.61	91.06
373.835	109.06
374.061	89.06
374.287	99.06
374.513	84.06
374.739	87.06
374.965	98.06
375.191	92.06
375.416	75.06
375.642	101.06
375.868	101.06
376.094	99.06
376.319	68.06
376.545	91.06
376.771	93.06
376.997	97.06
377.222	90.06
377.448	89.06
377.674	84.06
377.899	98.06
378.125	97.06
378.35	91.06
378.576	85.06
378.802	93.06
379.027	103.06
379.253	109.06
379.478	93.06
379.704	91.06
379.929	102.06
380.155	103.06
380.38	83.06
380.606	97.06
380.831	116.06
381.057	89.06
381.282	105.06
381.507	103.06
381.733	111.06
381.958	101.06
382.184	109.06
382.409	106.06
382.634	113.06
382.86	103.06
383.085	94.06
383.31	87.06
383.535	110.06
383.761	105.06
383.986	94.06
384.211	88.06
384.436	97.06
384.662	99.06
384.887	105.06
385.112	118.06
385.337	107.06
385.562	107.06
385.787	97.06
386.013	113.06
386.238	101.06
386.463	101.06
386.688	96.06
386.913	110.06
387.138	107.06
387.363	105.06
387.588	91.06
387.813	105.06
388.038	111.06
388.263	97.06
388.488	113.06
388.713	94.06
388.938	126.06
389.163	106.06
389.387	86.06
389.612	87.06
389.837	83.06
390.062	72.06
390.287	74.06
390.512	93.06
390.736	89.06
390.961	97.06
391.186	86.06
391.411	90.06
391.636	87.06
391.86	88.06
392.085	96.06
392.31	84.06
392.534	76.06
392.759	89.06
392.984	85.06
393.208	90.06
393.433	93.06
393.658	90.06
393.882	86.06
394.107	76.06
394.331	82.06
394.556	84.06
394.78	84.06
395.005	92.06
395.229	89.06
395.454	102.06
395.678	81.06
395.903	98.06
396.127	87.06
396.352	89.06
396.576	92.06
396.801	85.06
397.025	100.06
397.249	105.06
397.474	106.06
397.698	79.06
397.922	83.06
398.147	99.06
398.371	89.06
398.595	91.06
398.82	79.06
399.044	91.06
399.268	92.06
399.492	87.06
399.717	81.06
399.941	83.06
400.165	100.06
400.389	102.06
400.613	94.06
400.837	86.06
401.062	84.06
401.286	93.06
401.51	102.06
401.734	87.06
401.958	96.06
402.182	110.06
402.406	138.06
402.63	112.06
402.854	93.06
403.078	100.06
403.302	106.06
403.526	91.06
403.75	93.06
403.974	78.06
404.198	81.06
404.422	91.06
404.645	95.06
404.869	78.06
405.093	102.06
405.317	103.06
405.541	109.06
405.765	95.06
405.988	107.06
406.212	150.06
406.436	180.06
406.66	112.06
406.883	82.06
407.107	97.06
407.331	95.06
407.555	101.06
407.778	89.06
408.002	92.06
408.226	76.06
408.449	96.06
408.673	81.06
408.896	92.06
409.12	92.06
409.344	91.06
409.567	76.06
409.791	87.06
410.014	87.06
410.238	100.06
410.461	100.06
410.685	90.06
410.908	115.06
411.132	95.06
411.355	97.06
411.578	93.06
411.802	91.06
412.025	90.06
412.249	86.06
412.472	96.06
412.695	101.06
412.919	96.06
413.142	92.06
413.365	86.06
413.589	117.06
413.812	88.06
414.035	101.06
414.258	100.06
414.482	89.06
414.705	99.06
414.928	98.06
415.151	77.06
415.374	85.06
415.597	99.06
415.821	114.06
416.044	89.06
416.267	92.06
416.49	81.06
416.713	99.06
416.936	96.06
417.159	84.06
417.382	95.06
417.605	99.06
417.828	90.06
418.051	92.06
418.274	84.06
418.497	93.06
418.72	88.06
418.943	91.06
419.166	97.06
419.389	94.06
419.611	108.06
419.834	91.06
420.057	91.06
420.28	92.06
420.503	93.06
420.726	91.06
420.948	93.06
421.171	94.06
421.394	101.06
421.617	97.06
421.839	84.06
422.062	86.06
422.285	94.06
422.507	97.06
422.73	102.06
422.953	100.06
423.175	85.06
423.398	85.06
423.621	75.06
423.843	93.06
424.066	95.06
424.288	89.06
424.511	84.06
424.733	102.06
424.956	100.06
425.178	91.06
425.401	95.06
425.623	105.06
425.846	93.06
426.068	84.06
426.291	108.06
426.513	91.06
426.735	98.06
426.958	108.06
427.18	95.06
427.402	107.06
427.625	142.06
427.847	122.06
428.069	110.06
428.292	102.06
428.514	84.06
428.736	96.06
428.958	86.06
429.181	93.06
429.403	77.06
429.625	90.06
429.847	93.06
430.069	98.06
430.292	73.06
430.514	89.06
430.736	86.06
430.958	86.06
431.18	86.06
431.402	88.06
431.624	106.06
431.846	90.06
432.068	60.06
432.29	70.06
432.512	91.06
432.734	87.06
432.956	95.06
433.178	104.06
433.4	112.06
433.622	97.06
433.844	91.06
434.066	91.06
434.287	93.06
434.509	95.06
434.731	86.06
434.953	93.06
435.175	94.06
435.397	93.06
435.618	100.06
435.84	104.06
436.062	115.06
436.284	99.06
436.505	99.06
436.727	78.06
436.949	79.06
437.17	89.06
437.392	89.06
437.614	102.06
437.835	103.06
438.057	107.06
438.278	110.06
438.5	114.06
438.721	104.06
438.943	100.06
439.165	89.06
439.386	91.06
439.608	84.06
439.829	102.06
440.05	113.06
440.272	124.06
440.493	102.06
440.715	94.06
440.936	91.06
441.158	79.06
441.379	84.06
441.6	65.06
441.822	101.06
442.043	81.06
442.264	104.06
442.486	93.06
442.707	87.06
442.928	103.06
443.149	129.06
443.371	102.06
443.592	100.06
443.813	124.06
444.034	93.06
444.255	87.06
444.476	83.06
444.698	81.06
444.919	92.06
445.14	137.06
445.361	123.06
445.582	114.06
445.803	130.06
446.024	112.06
446.245	121.06
446.466	105.06
446.687	112.06
446.908	98.06
447.129	90.06
447.35	89.06
447.571	91.06
447.792	83.06
448.013	100.06
448.234	101.06
448.455	106.06
448.675	102.06
448.896	100.06
449.117	88.06
449.338	105.06
449.559	126.06
449.779	115.06
450	104.06
450.221	83.06
450.442	87.06
450.662	75.06
450.883	91.06
451.104	97.06
451.324	100.06
451.545	98.06
451.766	99.06
451.986	90.06
452.207	98.06
452.428	101.06
452.648	106.06
452.869	108.06
453.089	106.06
453.31	115.06
453.53	87.06
453.751	101.06
453.971	98.06
454.192	98.06
454.412	90.06
454.633	85.06
454.853	84.06
455.073	85.06
455.294	100.06
455.514	97.06
455.734	76.06
455.955	91.06
456.175	85.06
456.395	95.06
456.616	84.06
456.836	88.06
457.056	78.06
457.276	75.06
457.497	82.06
457.717	81.06
457.937	87.06
458.157	84.06
458.377	81.06
458.598	111.06
458.818	128.06
459.038	145.06
459.258	113.06
459.478	96.06
459.698	82.06
459.918	88.06
460.138	87.06
460.358	84.06
460.578	99.06
460.798	85.06
461.018	86.06
461.238	86.06
461.458	77.06
461.678	95.06
461.898	92.06
462.118	87.06
462.338	89.06
462.558	90.06
462.777	100.06
462.997	93.06
463.217	96.06
463.437	88.06
463.657	79.06
463.876	99.06
464.096	94.06
464.316	104.06
464.536	89.06
464.755	98.06
464.975	87.06
465.195	142.06
465.414	127.06
465.634	97.06
465.854	98.06
466.073	91.06
466.293	87.06
466.512	112.06
466.732	82.06
466.951	76.06
467.171	91.06
467.391	88.06
467.61	89.06
467.829	96.06
468.049	129.06
468.268	163.06
468.488	107.06
468.707	86.06
468.927	94.06
469.146	85.06
469.365	91.06
469.585	81.06
469.804	83.06
470.023	95.06
470.243	82.06
470.462	108.06
470.681	109.06
470.901	86.06
471.12	70.06
471.339	95.06
471.558	87.06
471.777	92.06
471.997	95.06
472.216	173.06
472.435	281.06
472.654	123.06
472.873	87.06
473.092	83.06
473.311	90.06
473.53	82.06
473.749	98.06
473.968	115.06
474.187	85.06
474.406	94.06
474.625	93.06
474.844	91.06
475.063	91.06
475.282	92.06
475.501	87.06
475.72	79.06
475.939	85.06
476.158	87.06
476.377	77.06
476.596	94.06
476.814	97.06
477.033	81.06
477.252	87.06
477.471	92.06
477.69	92.06
477.908	91.06
478.127	103.06
478.346	78.06
478.564	99.06
478.783	99.06
479.002	89.06
479.22	101.06
479.439	93.06
479.658	103.06
479.876	103.06
480.095	86.06
480.313	100.06
480.532	99.06
480.751	102.06
480.969	157.06
481.188	451.06
481.406	301.06
481.624	120.06
481.843	97.06
482.061	93.06
482.28	81.06
482.498	100.06
482.717	89.06
482.935	93.06
483.153	94.06
483.372	100.06
483.59	94.06
483.808	97.06
484.027	98.06
484.245	82.06
484.463	92.06
484.681	96.06
484.9	92.06
485.118	101.06
485.336	99.06
485.554	105.06
485.772	111.06
485.99	97.06
486.209	101.06
486.427	113.06
486.645	109.06
486.863	97.06
487.081	95.06
487.299	98.06
487.517	84.06
487.735	95.06
487.953	94.06
488.171	86.06
488.389	96.06
488.607	94.06
488.825	103.06
489.043	93.06
489.261	96.06
489.479	104.06
489.696	84.06
489.914	87.06
490.132	89.06
490.35	78.06
490.568	86.06
490.786	85.06
491.003	94.06
491.221	97.06
491.439	79.06
491.657	91.06
491.874	98.06
492.092	94.06
492.31	85.06
492.527	101.06
492.745	83.06
492.963	102.06
493.18	92.06
493.398	91.06
493.615	98.06
493.833	85.06
494.05	91.06
494.268	84.06
494.485	88.06
494.703	83.06
494.92	92.06
495.138	99.06
495.355	79.06
495.573	97.06
495.79	91.06
496.008	96.06
496.225	95.06
496.442	86.06
496.66	95.06
496.877	99.06
497.094	98.06
497.312	93.06
497.529	87.06
497.746	99.06
497.963	103.06
498.181	87.06
498.398	102.06
498.615	107.06
498.832	103.06
499.049	98.06
499.267	102.06
499.484	90.06
499.701	93.06
499.918	92.06
500.135	94.06
500.352	73.06
500.569	93.06
500.786	82.06
501.003	93.06
501.22	95.06
501.437	92.06
501.654	93.06
501.871	102.06
502.088	93.06
502.305	85.06
502.522	83.06
502.739	85.06
502.956	102.06
503.172	94.06
503.389	109.06
503.606	95.06
503.823	100.06
504.04	86.06
504.256	85.06
504.473	103.06
504.69	89.06
504.907	90.06
505.123	89.06
505.34	104.06
505.557	102.06
505.773	88.06
505.99	89.06
506.207	101.06
506.423	84.06
506.64	85.06
506.856	91.06
507.073	75.06
507.289	94.06
507.506	106.06
507.722	98.06
507.939	106.06
508.155	96.06
508.372	93.06
508.588	94.06
508.805	97.06
509.021	98.06
509.238	98.06
509.454	92.06
509.67	93.06
509.887	95.06
510.103	132.06
510.319	180.06
510.536	581.06
510.752	1821.06
510.968	517.06
511.184	125.06
511.401	111.06
511.617	86.06
511.833	89.06
512.049	95.06
512.265	94.06
512.481	99.06
512.698	90.06
512.914	89.06
513.13	106.06
513.346	106.06
513.562	103.06
513.778	101.06
513.994	93.06
514.21	82.06
514.426	100.06
514.642	133.06
514.858	116.06
515.074	135.06
515.29	334.06
