Data from Circ_1984_H10_HRD10591_00038.txt Node
Date: Wed Jan 03 12:22:49 EST 2024
User: Yrep
Spectrometer: HR+D1059
Trigger mode: 1
Integration Time (sec): 1.000000E-1
Scans to average: 1
Electric dark correction enabled: true
Nonlinearity correction enabled: false
Boxcar width: 0
XAxis mode: Wavelengths
Number of Pixels in Spectrum: 2048
>>>>>Begin Spectral Data<<<<<
223.165	-6.06
223.4	-6.06
223.635	-6.06
223.869	-33.06
224.104	-12.06
224.338	-12.06
224.573	-26.06
224.808	-14.06
225.042	-4.06
225.277	-4.06
225.511	-8.06
225.746	0.94
225.98	10.94
226.215	14.94
226.449	12.94
226.683	15.94
226.918	21.94
227.152	41.94
227.387	33.94
227.621	35.94
227.856	39.94
228.09	47.94
228.324	53.94
228.559	50.94
228.793	66.94
229.027	65.94
229.262	65.94
229.496	71.94
229.73	89.94
229.964	83.94
230.199	81.94
230.433	87.94
230.667	87.94
230.901	59.94
231.136	84.94
231.37	88.94
231.604	81.94
231.838	79.94
232.072	80.94
232.306	79.94
232.541	87.94
232.775	79.94
233.009	87.94
233.243	87.94
233.477	81.94
233.711	73.94
233.945	67.94
234.179	83.94
234.413	85.94
234.647	92.94
234.881	70.94
235.115	61.94
235.349	79.94
235.583	81.94
235.817	75.94
236.051	65.94
236.285	70.94
236.519	83.94
236.753	85.94
236.987	66.94
237.221	85.94
237.455	91.94
237.689	79.94
237.922	70.94
238.156	71.94
238.39	72.94
238.624	79.94
238.858	72.94
239.091	79.94
239.325	75.94
239.559	82.94
239.793	74.94
240.027	77.94
240.26	73.94
240.494	85.94
240.728	71.94
240.961	89.94
241.195	85.94
241.429	67.94
241.662	75.94
241.896	80.94
242.13	68.94
242.363	93.94
242.597	72.94
242.83	73.94
243.064	76.94
243.298	77.94
243.531	75.94
243.765	79.94
243.998	65.94
244.232	78.94
244.465	75.94
244.699	64.94
244.932	73.94
245.166	78.94
245.399	81.94
245.633	74.94
245.866	75.94
246.099	75.94
246.333	81.94
246.566	85.94
246.8	80.94
247.033	77.94
247.266	67.94
247.5	71.94
247.733	83.94
247.966	86.94
248.2	86.94
248.433	84.94
248.666	79.94
248.899	85.94
249.133	79.94
249.366	94.94
249.599	101.94
249.832	70.94
250.066	89.94
250.299	83.94
250.532	89.94
250.765	80.94
250.998	79.94
251.231	91.94
251.465	78.94
251.698	67.94
251.931	73.94
252.164	87.94
252.397	83.94
252.63	84.94
252.863	72.94
253.096	73.94
253.329	62.94
253.562	81.94
253.795	93.94
254.028	77.94
254.261	80.94
254.494	74.94
254.727	83.94
254.96	90.94
255.193	72.94
255.426	74.94
255.659	108.94
255.892	79.94
256.124	80.94
256.357	72.94
256.59	81.94
256.823	71.94
257.056	77.94
257.289	68.94
257.521	68.94
257.754	62.94
257.987	88.94
258.22	79.94
258.452	71.94
258.685	77.94
258.918	83.94
259.151	66.94
259.383	73.94
259.616	85.94
259.849	78.94
260.081	85.94
260.314	80.94
260.547	78.94
260.779	83.94
261.012	86.94
261.244	88.94
261.477	85.94
261.71	77.94
261.942	95.94
262.175	114.94
262.407	91.94
262.64	71.94
262.872	84.94
263.105	82.94
263.337	85.94
263.57	77.94
263.802	94.94
264.035	93.94
264.267	89.94
264.499	83.94
264.732	74.94
264.964	78.94
265.197	89.94
265.429	65.94
265.661	76.94
265.894	79.94
266.126	79.94
266.358	82.94
266.591	65.94
266.823	74.94
267.055	91.94
267.287	74.94
267.52	81.94
267.752	79.94
267.984	85.94
268.216	70.94
268.448	92.94
268.681	72.94
268.913	91.94
269.145	82.94
269.377	82.94
269.609	84.94
269.841	88.94
270.073	81.94
270.306	71.94
270.538	95.94
270.77	87.94
271.002	92.94
271.234	89.94
271.466	89.94
271.698	71.94
271.93	83.94
272.162	78.94
272.394	96.94
272.626	94.94
272.858	88.94
273.09	90.94
273.322	86.94
273.553	73.94
273.785	81.94
274.017	91.94
274.249	89.94
274.481	97.94
274.713	91.94
274.945	89.94
275.176	91.94
275.408	82.94
275.64	67.94
275.872	74.94
276.104	86.94
276.335	84.94
276.567	80.94
276.799	117.94
277.031	96.94
277.262	90.94
277.494	100.94
277.726	74.94
277.957	80.94
278.189	86.94
278.421	77.94
278.652	78.94
278.884	83.94
279.115	89.94
279.347	80.94
279.579	73.94
279.81	83.94
280.042	90.94
280.273	98.94
280.505	95.94
280.736	93.94
280.968	96.94
281.199	99.94
281.431	102.94
281.662	65.94
281.894	79.94
282.125	94.94
282.356	107.94
282.588	141.94
282.819	94.94
283.051	96.94
283.282	90.94
283.513	81.94
283.745	74.94
283.976	83.94
284.207	73.94
284.439	81.94
284.67	88.94
284.901	86.94
285.132	80.94
285.364	93.94
285.595	86.94
285.826	77.94
286.057	85.94
286.288	77.94
286.52	80.94
286.751	83.94
286.982	93.94
287.213	85.94
287.444	79.94
287.675	73.94
287.906	77.94
288.138	87.94
288.369	93.94
288.6	96.94
288.831	87.94
289.062	86.94
289.293	86.94
289.524	88.94
289.755	86.94
289.986	81.94
290.217	91.94
290.448	97.94
290.679	82.94
290.91	96.94
291.141	85.94
291.371	90.94
291.602	79.94
291.833	79.94
292.064	75.94
292.295	94.94
292.526	97.94
292.757	96.94
292.987	88.94
293.218	87.94
293.449	72.94
293.68	79.94
293.91	73.94
294.141	92.94
294.372	86.94
294.603	89.94
294.833	85.94
295.064	84.94
295.295	99.94
295.525	85.94
295.756	100.94
295.987	101.94
296.217	109.94
296.448	97.94
296.679	97.94
296.909	81.94
297.14	75.94
297.37	79.94
297.601	77.94
297.831	85.94
298.062	85.94
298.292	73.94
298.523	77.94
298.753	87.94
298.984	82.94
299.214	90.94
299.445	95.94
299.675	73.94
299.905	86.94
300.136	100.94
300.366	96.94
300.597	79.94
300.827	98.94
301.057	94.94
301.288	91.94
301.518	94.94
301.748	87.94
301.979	95.94
302.209	89.94
302.439	89.94
302.669	94.94
302.9	86.94
303.13	91.94
303.36	84.94
303.59	82.94
303.82	101.94
304.051	81.94
304.281	82.94
304.511	85.94
304.741	83.94
304.971	88.94
305.201	82.94
305.431	80.94
305.661	91.94
305.891	86.94
306.121	100.94
306.352	81.94
306.582	104.94
306.812	93.94
307.042	94.94
307.272	90.94
307.502	91.94
307.731	97.94
307.961	86.94
308.191	95.94
308.421	102.94
308.651	92.94
308.881	87.94
309.111	95.94
309.341	80.94
309.571	93.94
309.8	84.94
310.03	90.94
310.26	83.94
310.49	94.94
310.72	86.94
310.949	109.94
311.179	91.94
311.409	86.94
311.639	93.94
311.868	104.94
312.098	77.94
312.328	101.94
312.557	105.94
312.787	94.94
313.017	96.94
313.246	83.94
313.476	96.94
313.706	93.94
313.935	85.94
314.165	97.94
314.394	90.94
314.624	89.94
314.853	84.94
315.083	86.94
315.312	86.94
315.542	89.94
315.771	82.94
316.001	95.94
316.23	99.94
316.46	81.94
316.689	93.94
316.919	91.94
317.148	99.94
317.377	94.94
317.607	90.94
317.836	91.94
318.065	77.94
318.295	85.94
318.524	98.94
318.753	89.94
318.983	98.94
319.212	97.94
319.441	98.94
319.67	111.94
319.9	83.94
320.129	85.94
320.358	87.94
320.587	85.94
320.816	89.94
321.046	83.94
321.275	92.94
321.504	88.94
321.733	104.94
321.962	92.94
322.191	93.94
322.42	95.94
322.649	87.94
322.878	101.94
323.108	111.94
323.337	114.94
323.566	115.94
323.795	154.94
324.024	173.94
324.253	297.94
324.482	650.94
324.71	1376.94
324.939	1775.94
325.168	672.94
325.397	223.94
325.626	132.94
325.855	117.94
326.084	107.94
326.313	107.94
326.542	123.94
326.77	205.94
326.999	378.94
327.228	781.94
327.457	1400.94
327.686	1109.94
327.914	309.94
328.143	181.94
328.372	160.94
328.6	132.94
328.829	101.94
329.058	111.94
329.287	118.94
329.515	113.94
329.744	116.94
329.972	135.94
330.201	182.94
330.43	225.94
330.658	165.94
330.887	142.94
331.115	117.94
331.344	91.94
331.572	97.94
331.801	104.94
332.03	98.94
332.258	102.94
332.486	80.94
332.715	80.94
332.943	85.94
333.172	104.94
333.4	103.94
333.629	121.94
333.857	112.94
334.085	134.94
334.314	183.94
334.542	238.94
334.771	237.94
334.999	121.94
335.227	101.94
335.455	89.94
335.684	101.94
335.912	104.94
336.14	97.94
336.369	96.94
336.597	107.94
336.825	95.94
337.053	92.94
337.281	108.94
337.51	95.94
337.738	85.94
337.966	78.94
338.194	94.94
338.422	105.94
338.65	94.94
338.878	84.94
339.106	89.94
339.334	102.94
339.562	78.94
339.79	87.94
340.018	86.94
340.246	86.94
340.474	89.94
340.702	89.94
340.93	99.94
341.158	97.94
341.386	91.94
341.614	85.94
341.842	99.94
342.07	80.94
342.298	88.94
342.526	96.94
342.754	96.94
342.981	85.94
343.209	88.94
343.437	96.94
343.665	92.94
343.893	86.94
344.12	89.94
344.348	92.94
344.576	92.94
344.804	81.94
345.031	83.94
345.259	82.94
345.487	85.94
345.714	90.94
345.942	81.94
346.17	94.94
346.397	74.94
346.625	89.94
346.853	93.94
347.08	88.94
347.308	73.94
347.535	100.94
347.763	79.94
347.99	81.94
348.218	104.94
348.445	90.94
348.673	90.94
348.9	77.94
349.128	87.94
349.355	112.94
349.583	95.94
349.81	99.94
350.037	103.94
350.265	95.94
350.492	74.94
350.72	79.94
350.947	96.94
351.174	103.94
351.402	106.94
351.629	109.94
351.856	93.94
352.083	100.94
352.311	111.94
352.538	107.94
352.765	106.94
352.992	119.94
353.22	105.94
353.447	94.94
353.674	109.94
353.901	111.94
354.128	90.94
354.355	89.94
354.583	82.94
354.81	74.94
355.037	100.94
355.264	90.94
355.491	95.94
355.718	89.94
355.945	85.94
356.172	86.94
356.399	90.94
356.626	90.94
356.853	69.94
357.08	87.94
357.307	89.94
357.534	80.94
357.761	93.94
357.988	93.94
358.215	86.94
358.441	96.94
358.668	81.94
358.895	91.94
359.122	99.94
359.349	82.94
359.576	80.94
359.802	90.94
360.029	93.94
360.256	97.94
360.483	91.94
360.709	94.94
360.936	90.94
361.163	91.94
361.39	85.94
361.616	74.94
361.843	85.94
362.07	88.94
362.296	98.94
362.523	101.94
362.749	90.94
362.976	91.94
363.203	103.94
363.429	87.94
363.656	96.94
363.882	82.94
364.109	67.94
364.335	92.94
364.562	86.94
364.788	96.94
365.015	100.94
365.241	85.94
365.468	103.94
365.694	96.94
365.92	82.94
366.147	93.94
366.373	89.94
366.599	94.94
366.826	78.94
367.052	82.94
367.278	77.94
367.505	89.94
367.731	83.94
367.957	97.94
368.184	88.94
368.41	79.94
368.636	104.94
368.862	115.94
369.089	93.94
369.315	89.94
369.541	83.94
369.767	76.94
369.993	84.94
370.219	87.94
370.445	78.94
370.672	77.94
370.898	80.94
371.124	91.94
371.35	89.94
371.576	77.94
371.802	73.94
372.028	74.94
372.254	74.94
372.48	71.94
372.706	82.94
372.932	79.94
373.158	84.94
373.384	91.94
373.61	96.94
373.835	95.94
374.061	87.94
374.287	99.94
374.513	84.94
374.739	86.94
374.965	92.94
375.191	94.94
375.416	92.94
375.642	85.94
375.868	94.94
376.094	83.94
376.319	82.94
376.545	90.94
376.771	90.94
376.997	85.94
377.222	79.94
377.448	94.94
377.674	87.94
377.899	81.94
378.125	90.94
378.35	85.94
378.576	75.94
378.802	100.94
379.027	91.94
379.253	86.94
379.478	88.94
379.704	99.94
379.929	95.94
380.155	90.94
380.38	85.94
380.606	86.94
380.831	101.94
381.057	90.94
381.282	88.94
381.507	96.94
381.733	85.94
381.958	83.94
382.184	94.94
382.409	102.94
382.634	90.94
382.86	103.94
383.085	98.94
383.31	94.94
383.535	104.94
383.761	105.94
383.986	98.94
384.211	98.94
384.436	83.94
384.662	108.94
384.887	109.94
385.112	91.94
385.337	113.94
385.562	98.94
385.787	94.94
386.013	94.94
386.238	106.94
386.463	97.94
386.688	119.94
386.913	97.94
387.138	101.94
387.363	83.94
387.588	107.94
387.813	95.94
388.038	97.94
388.263	110.94
388.488	117.94
388.713	93.94
388.938	80.94
389.163	84.94
389.387	97.94
389.612	104.94
389.837	80.94
390.062	85.94
390.287	81.94
390.512	80.94
390.736	84.94
390.961	84.94
391.186	97.94
391.411	90.94
391.636	89.94
391.86	94.94
392.085	86.94
392.31	85.94
392.534	96.94
392.759	83.94
392.984	88.94
393.208	102.94
393.433	101.94
393.658	100.94
393.882	94.94
394.107	80.94
394.331	94.94
394.556	95.94
394.78	102.94
395.005	87.94
395.229	88.94
395.454	93.94
395.678	87.94
395.903	77.94
396.127	87.94
396.352	95.94
396.576	91.94
396.801	79.94
397.025	89.94
397.249	93.94
397.474	89.94
397.698	91.94
397.922	97.94
398.147	78.94
398.371	80.94
398.595	90.94
398.82	77.94
399.044	86.94
399.268	77.94
399.492	81.94
399.717	94.94
399.941	99.94
400.165	90.94
400.389	83.94
400.613	83.94
400.837	78.94
401.062	90.94
401.286	83.94
401.51	92.94
401.734	90.94
401.958	89.94
402.182	103.94
402.406	130.94
402.63	113.94
402.854	97.94
403.078	88.94
403.302	86.94
403.526	81.94
403.75	75.94
403.974	89.94
404.198	87.94
404.422	90.94
404.645	84.94
404.869	85.94
405.093	105.94
405.317	97.94
405.541	114.94
405.765	95.94
405.988	89.94
406.212	140.94
406.436	176.94
406.66	119.94
406.883	93.94
407.107	94.94
407.331	85.94
407.555	114.94
407.778	99.94
408.002	88.94
408.226	81.94
408.449	85.94
408.673	99.94
408.896	89.94
409.12	94.94
409.344	92.94
409.567	89.94
409.791	96.94
410.014	100.94
410.238	91.94
410.461	83.94
410.685	98.94
410.908	92.94
411.132	99.94
411.355	84.94
411.578	96.94
411.802	97.94
412.025	80.94
412.249	97.94
412.472	85.94
412.695	85.94
412.919	87.94
413.142	85.94
413.365	98.94
413.589	98.94
413.812	99.94
414.035	98.94
414.258	98.94
414.482	85.94
414.705	82.94
414.928	89.94
415.151	87.94
415.374	82.94
415.597	85.94
415.821	85.94
416.044	63.94
416.267	68.94
416.49	70.94
416.713	85.94
416.936	103.94
417.159	81.94
417.382	83.94
417.605	83.94
417.828	89.94
418.051	87.94
418.274	93.94
418.497	98.94
418.72	81.94
418.943	103.94
419.166	92.94
419.389	83.94
419.611	85.94
419.834	90.94
420.057	79.94
420.28	98.94
420.503	92.94
420.726	82.94
420.948	88.94
421.171	96.94
421.394	94.94
421.617	85.94
421.839	97.94
422.062	85.94
422.285	73.94
422.507	88.94
422.73	93.94
422.953	89.94
423.175	93.94
423.398	78.94
423.621	95.94
423.843	79.94
424.066	77.94
424.288	92.94
424.511	86.94
424.733	89.94
424.956	99.94
425.178	86.94
425.401	98.94
425.623	104.94
425.846	87.94
426.068	84.94
426.291	86.94
426.513	93.94
426.735	74.94
426.958	99.94
427.18	100.94
427.402	119.94
427.625	153.94
427.847	126.94
428.069	115.94
428.292	100.94
428.514	81.94
428.736	71.94
428.958	85.94
429.181	85.94
429.403	78.94
429.625	99.94
429.847	90.94
430.069	94.94
430.292	95.94
430.514	91.94
430.736	81.94
430.958	67.94
431.18	77.94
431.402	80.94
431.624	85.94
431.846	87.94
432.068	81.94
432.29	80.94
432.512	104.94
432.734	95.94
432.956	92.94
433.178	79.94
433.4	95.94
433.622	89.94
433.844	89.94
434.066	75.94
434.287	86.94
434.509	96.94
434.731	87.94
434.953	72.94
435.175	84.94
435.397	95.94
435.618	92.94
435.84	100.94
436.062	119.94
436.284	110.94
436.505	102.94
436.727	102.94
436.949	95.94
437.17	96.94
437.392	88.94
437.614	88.94
437.835	109.94
438.057	111.94
438.278	109.94
438.5	106.94
438.721	117.94
438.943	89.94
439.165	89.94
439.386	79.94
439.608	77.94
439.829	90.94
440.05	107.94
440.272	126.94
440.493	104.94
440.715	102.94
440.936	81.94
441.158	91.94
441.379	90.94
441.6	73.94
441.822	81.94
442.043	89.94
442.264	99.94
442.486	98.94
442.707	95.94
442.928	97.94
443.149	121.94
443.371	133.94
443.592	110.94
443.813	117.94
444.034	96.94
444.255	81.94
444.476	82.94
444.698	94.94
444.919	102.94
445.14	136.94
445.361	118.94
445.582	102.94
445.803	107.94
446.024	117.94
446.245	119.94
446.466	114.94
446.687	83.94
446.908	100.94
447.129	83.94
447.35	79.94
447.571	79.94
447.792	93.94
448.013	98.94
448.234	116.94
448.455	80.94
448.675	91.94
448.896	106.94
449.117	98.94
449.338	94.94
449.559	115.94
449.779	105.94
450	77.94
450.221	95.94
450.442	83.94
450.662	87.94
450.883	107.94
451.104	88.94
451.324	82.94
451.545	82.94
451.766	89.94
451.986	91.94
452.207	89.94
452.428	78.94
452.648	99.94
452.869	87.94
453.089	105.94
453.31	118.94
453.53	90.94
453.751	84.94
453.971	100.94
454.192	104.94
454.412	98.94
454.633	88.94
454.853	77.94
455.073	81.94
455.294	89.94
455.514	94.94
455.734	87.94
455.955	89.94
456.175	73.94
456.395	81.94
456.616	86.94
456.836	82.94
457.056	87.94
457.276	110.94
457.497	88.94
457.717	81.94
457.937	83.94
458.157	72.94
458.377	83.94
458.598	103.94
458.818	128.94
459.038	120.94
459.258	115.94
459.478	83.94
459.698	97.94
459.918	78.94
460.138	81.94
460.358	70.94
460.578	93.94
460.798	95.94
461.018	77.94
461.238	85.94
461.458	84.94
461.678	90.94
461.898	86.94
462.118	84.94
462.338	81.94
462.558	71.94
462.777	75.94
462.997	66.94
463.217	72.94
463.437	78.94
463.657	101.94
463.876	73.94
464.096	92.94
464.316	80.94
464.536	90.94
464.755	94.94
464.975	101.94
465.195	142.94
465.414	140.94
465.634	98.94
465.854	79.94
466.073	87.94
466.293	89.94
466.512	85.94
466.732	88.94
466.951	82.94
467.171	85.94
467.391	98.94
467.61	102.94
467.829	90.94
468.049	122.94
468.268	143.94
468.488	99.94
468.707	73.94
468.927	76.94
469.146	86.94
469.365	93.94
469.585	94.94
469.804	81.94
470.023	99.94
470.243	95.94
470.462	97.94
470.681	99.94
470.901	94.94
471.12	80.94
471.339	79.94
471.558	83.94
471.777	86.94
471.997	114.94
472.216	206.94
472.435	307.94
472.654	124.94
472.873	95.94
473.092	83.94
473.311	84.94
473.53	87.94
473.749	80.94
473.968	102.94
474.187	113.94
474.406	102.94
474.625	81.94
474.844	93.94
475.063	80.94
475.282	88.94
475.501	79.94
475.72	87.94
475.939	88.94
476.158	96.94
476.377	68.94
476.596	88.94
476.814	82.94
477.033	90.94
477.252	90.94
477.471	85.94
477.69	103.94
477.908	86.94
478.127	80.94
478.346	85.94
478.564	95.94
478.783	105.94
479.002	91.94
479.22	86.94
479.439	98.94
479.658	96.94
479.876	87.94
480.095	93.94
480.313	86.94
480.532	101.94
480.751	102.94
480.969	195.94
481.188	516.94
481.406	333.94
481.624	106.94
481.843	95.94
482.061	91.94
482.28	87.94
482.498	86.94
482.717	86.94
482.935	94.94
483.153	78.94
483.372	94.94
483.59	87.94
483.808	99.94
484.027	98.94
484.245	94.94
484.463	89.94
484.681	97.94
484.9	84.94
485.118	91.94
485.336	94.94
485.554	87.94
485.772	94.94
485.99	98.94
486.209	87.94
486.427	104.94
486.645	101.94
486.863	112.94
487.081	92.94
487.299	87.94
487.517	84.94
487.735	97.94
487.953	81.94
488.171	101.94
488.389	91.94
488.607	96.94
488.825	88.94
489.043	83.94
489.261	87.94
489.479	80.94
489.696	93.94
489.914	100.94
490.132	99.94
490.35	109.94
490.568	83.94
490.786	83.94
491.003	96.94
491.221	102.94
491.439	86.94
491.657	85.94
491.874	79.94
492.092	85.94
492.31	87.94
492.527	95.94
492.745	86.94
492.963	82.94
493.18	80.94
493.398	91.94
493.615	98.94
493.833	95.94
494.05	84.94
494.268	91.94
494.485	110.94
494.703	82.94
494.92	94.94
495.138	82.94
495.355	102.94
495.573	86.94
495.79	92.94
496.008	97.94
496.225	79.94
496.442	89.94
496.66	104.94
496.877	90.94
497.094	95.94
497.312	89.94
497.529	79.94
497.746	85.94
497.963	92.94
498.181	94.94
498.398	102.94
498.615	92.94
498.832	89.94
499.049	94.94
499.267	93.94
499.484	88.94
499.701	86.94
499.918	95.94
500.135	86.94
500.352	94.94
500.569	93.94
500.786	83.94
501.003	95.94
501.22	79.94
501.437	98.94
501.654	83.94
501.871	104.94
502.088	105.94
502.305	99.94
502.522	80.94
502.739	85.94
502.956	84.94
503.172	86.94
503.389	89.94
503.606	99.94
503.823	97.94
504.04	83.94
504.256	87.94
504.473	85.94
504.69	94.94
504.907	86.94
505.123	95.94
505.34	80.94
505.557	100.94
505.773	100.94
505.99	91.94
506.207	93.94
506.423	91.94
506.64	79.94
506.856	75.94
507.073	91.94
507.289	83.94
507.506	93.94
507.722	103.94
507.939	109.94
508.155	95.94
508.372	92.94
508.588	90.94
508.805	81.94
509.021	95.94
509.238	82.94
509.454	97.94
509.67	99.94
509.887	100.94
510.103	125.94
510.319	185.94
510.536	591.94
510.752	1925.94
510.968	545.94
511.184	145.94
511.401	105.94
511.617	93.94
511.833	83.94
512.049	81.94
512.265	87.94
512.481	97.94
512.698	94.94
512.914	85.94
513.13	88.94
513.346	89.94
513.562	87.94
513.778	90.94
513.994	94.94
514.21	89.94
514.426	97.94
514.642	115.94
514.858	118.94
515.074	141.94
515.29	366.94
515.506	1087.94
515.721	425.94
515.937	127.94
516.153	102.94
516.369	98.94
516.585	99.94
516.801	101.94
