Data from Circ_1984_H10_HRD10591_00031.txt Node
Date: Wed Jan 03 12:22:48 EST 2024
User: Yrep
Spectrometer: HR+D1059
Trigger mode: 1
Integration Time (sec): 1.000000E-1
Scans to average: 1
Electric dark correction enabled: true
Nonlinearity correction enabled: false
Boxcar width: 0
XAxis mode: Wavelengths
Number of Pixels in Spectrum: 2048
>>>>>Begin Spectral Data<<<<<
223.165	-24.5
223.4	-24.5
223.635	-24.5
223.869	-23.5
224.104	-17.5
224.338	-8.5
224.573	-16.5
224.808	-17.5
225.042	-8.5
225.277	2.5
225.511	2.5
225.746	0.5
225.98	3.5
226.215	3.5
226.449	10.5
226.683	37.5
226.918	18.5
227.152	37.5
227.387	43.5
227.621	48.5
227.856	50.5
228.09	52.5
228.324	52.5
228.559	64.5
228.793	46.5
229.027	56.5
229.262	72.5
229.496	76.5
229.73	84.5
229.964	82.5
230.199	74.5
230.433	71.5
230.667	79.5
230.901	78.5
231.136	85.5
231.37	73.5
231.604	74.5
231.838	76.5
232.072	79.5
232.306	87.5
232.541	76.5
232.775	86.5
233.009	85.5
233.243	89.5
233.477	80.5
233.711	83.5
233.945	84.5
234.179	83.5
234.413	89.5
234.647	70.5
234.881	92.5
235.115	70.5
235.349	85.5
235.583	70.5
235.817	75.5
236.051	88.5
236.285	65.5
236.519	70.5
236.753	66.5
236.987	78.5
237.221	67.5
237.455	82.5
237.689	70.5
237.922	78.5
238.156	89.5
238.39	74.5
238.624	64.5
238.858	69.5
239.091	66.5
239.325	73.5
239.559	73.5
239.793	67.5
240.027	71.5
240.26	78.5
240.494	78.5
240.728	74.5
240.961	79.5
241.195	63.5
241.429	85.5
241.662	73.5
241.896	81.5
242.13	84.5
242.363	80.5
242.597	103.5
242.83	79.5
243.064	73.5
243.298	78.5
243.531	74.5
243.765	74.5
243.998	89.5
244.232	78.5
244.465	75.5
244.699	90.5
244.932	82.5
245.166	59.5
245.399	75.5
245.633	75.5
245.866	69.5
246.099	74.5
246.333	80.5
246.566	86.5
246.8	82.5
247.033	85.5
247.266	84.5
247.5	87.5
247.733	82.5
247.966	86.5
248.2	90.5
248.433	74.5
248.666	83.5
248.899	82.5
249.133	106.5
249.366	99.5
249.599	99.5
249.832	87.5
250.066	83.5
250.299	86.5
250.532	90.5
250.765	86.5
250.998	79.5
251.231	74.5
251.465	84.5
251.698	78.5
251.931	83.5
252.164	64.5
252.397	82.5
252.63	89.5
252.863	80.5
253.096	86.5
253.329	76.5
253.562	75.5
253.795	78.5
254.028	86.5
254.261	76.5
254.494	80.5
254.727	84.5
254.96	73.5
255.193	91.5
255.426	78.5
255.659	92.5
255.892	79.5
256.124	76.5
256.357	78.5
256.59	84.5
256.823	90.5
257.056	82.5
257.289	73.5
257.521	78.5
257.754	82.5
257.987	88.5
258.22	81.5
258.452	94.5
258.685	78.5
258.918	89.5
259.151	69.5
259.383	98.5
259.616	86.5
259.849	86.5
260.081	69.5
260.314	87.5
260.547	76.5
260.779	88.5
261.012	87.5
261.244	83.5
261.477	80.5
261.71	94.5
261.942	108.5
262.175	99.5
262.407	87.5
262.64	84.5
262.872	90.5
263.105	95.5
263.337	78.5
263.57	86.5
263.802	82.5
264.035	70.5
264.267	100.5
264.499	80.5
264.732	88.5
264.964	73.5
265.197	73.5
265.429	89.5
265.661	80.5
265.894	90.5
266.126	84.5
266.358	68.5
266.591	90.5
266.823	72.5
267.055	68.5
267.287	83.5
267.52	81.5
267.752	70.5
267.984	84.5
268.216	94.5
268.448	81.5
268.681	83.5
268.913	74.5
269.145	89.5
269.377	90.5
269.609	75.5
269.841	84.5
270.073	87.5
270.306	80.5
270.538	89.5
270.77	90.5
271.002	99.5
271.234	87.5
271.466	89.5
271.698	84.5
271.93	85.5
272.162	84.5
272.394	81.5
272.626	79.5
272.858	91.5
273.09	86.5
273.322	92.5
273.553	86.5
273.785	86.5
274.017	85.5
274.249	94.5
274.481	94.5
274.713	78.5
274.945	83.5
275.176	79.5
275.408	94.5
275.64	84.5
275.872	82.5
276.104	89.5
276.335	91.5
276.567	95.5
276.799	96.5
277.031	102.5
277.262	102.5
277.494	97.5
277.726	92.5
277.957	78.5
278.189	84.5
278.421	92.5
278.652	90.5
278.884	75.5
279.115	78.5
279.347	94.5
279.579	78.5
279.81	86.5
280.042	88.5
280.273	81.5
280.505	106.5
280.736	93.5
280.968	75.5
281.199	82.5
281.431	80.5
281.662	82.5
281.894	103.5
282.125	98.5
282.356	114.5
282.588	123.5
282.819	106.5
283.051	99.5
283.282	86.5
283.513	79.5
283.745	75.5
283.976	96.5
284.207	93.5
284.439	71.5
284.67	81.5
284.901	90.5
285.132	92.5
285.364	71.5
285.595	83.5
285.826	86.5
286.057	97.5
286.288	102.5
286.52	86.5
286.751	91.5
286.982	78.5
287.213	73.5
287.444	87.5
287.675	87.5
287.906	102.5
288.138	89.5
288.369	88.5
288.6	88.5
288.831	82.5
289.062	81.5
289.293	76.5
289.524	86.5
289.755	87.5
289.986	84.5
290.217	73.5
290.448	72.5
290.679	79.5
290.91	97.5
291.141	76.5
291.371	80.5
291.602	89.5
291.833	89.5
292.064	89.5
292.295	95.5
292.526	94.5
292.757	89.5
292.987	80.5
293.218	92.5
293.449	72.5
293.68	102.5
293.91	99.5
294.141	99.5
294.372	85.5
294.603	76.5
294.833	82.5
295.064	83.5
295.295	91.5
295.525	89.5
295.756	87.5
295.987	120.5
296.217	123.5
296.448	110.5
296.679	92.5
296.909	82.5
297.14	86.5
297.37	94.5
297.601	95.5
297.831	94.5
298.062	106.5
298.292	91.5
298.523	73.5
298.753	91.5
298.984	82.5
299.214	90.5
299.445	101.5
299.675	100.5
299.905	95.5
300.136	90.5
300.366	92.5
300.597	82.5
300.827	97.5
301.057	94.5
301.288	99.5
301.518	78.5
301.748	87.5
301.979	88.5
302.209	86.5
302.439	92.5
302.669	79.5
302.9	82.5
303.13	90.5
303.36	78.5
303.59	101.5
303.82	98.5
304.051	81.5
304.281	92.5
304.511	84.5
304.741	97.5
304.971	91.5
305.201	91.5
305.431	86.5
305.661	85.5
305.891	85.5
306.121	97.5
306.352	105.5
306.582	112.5
306.812	82.5
307.042	95.5
307.272	90.5
307.502	106.5
307.731	86.5
307.961	96.5
308.191	96.5
308.421	93.5
308.651	87.5
308.881	93.5
309.111	92.5
309.341	86.5
309.571	107.5
309.8	91.5
310.03	94.5
310.26	89.5
310.49	93.5
310.72	99.5
310.949	98.5
311.179	91.5
311.409	95.5
311.639	84.5
311.868	97.5
312.098	101.5
312.328	91.5
312.557	88.5
312.787	90.5
313.017	80.5
313.246	83.5
313.476	85.5
313.706	87.5
313.935	100.5
314.165	107.5
314.394	95.5
314.624	88.5
314.853	87.5
315.083	81.5
315.312	72.5
315.542	104.5
315.771	97.5
316.001	101.5
316.23	78.5
316.46	96.5
316.689	92.5
316.919	103.5
317.148	94.5
317.377	100.5
317.607	99.5
317.836	80.5
318.065	87.5
318.295	87.5
318.524	80.5
318.753	89.5
318.983	87.5
319.212	94.5
319.441	96.5
319.67	99.5
319.9	95.5
320.129	99.5
320.358	103.5
320.587	98.5
320.816	97.5
321.046	107.5
321.275	104.5
321.504	99.5
321.733	100.5
321.962	104.5
322.191	100.5
322.42	109.5
322.649	102.5
322.878	115.5
323.108	88.5
323.337	127.5
323.566	128.5
323.795	149.5
324.024	174.5
324.253	327.5
324.482	641.5
324.71	1291.5
324.939	1744.5
325.168	651.5
325.397	216.5
325.626	147.5
325.855	101.5
326.084	107.5
326.313	130.5
326.542	127.5
326.77	195.5
326.999	353.5
327.228	755.5
327.457	1350.5
327.686	1089.5
327.914	293.5
328.143	187.5
328.372	158.5
328.6	134.5
328.829	113.5
329.058	129.5
329.287	129.5
329.515	102.5
329.744	108.5
329.972	113.5
330.201	172.5
330.43	214.5
330.658	153.5
330.887	137.5
331.115	117.5
331.344	104.5
331.572	98.5
331.801	102.5
332.03	94.5
332.258	97.5
332.486	92.5
332.715	99.5
332.943	82.5
333.172	102.5
333.4	97.5
333.629	90.5
333.857	121.5
334.085	129.5
334.314	171.5
334.542	242.5
334.771	207.5
334.999	111.5
335.227	93.5
335.455	94.5
335.684	84.5
335.912	104.5
336.14	91.5
336.369	101.5
336.597	99.5
336.825	82.5
337.053	80.5
337.281	82.5
337.51	98.5
337.738	100.5
337.966	79.5
338.194	95.5
338.422	88.5
338.65	99.5
338.878	87.5
339.106	107.5
339.334	84.5
339.562	84.5
339.79	89.5
340.018	86.5
340.246	88.5
340.474	98.5
340.702	78.5
340.93	95.5
341.158	89.5
341.386	90.5
341.614	85.5
341.842	92.5
342.07	68.5
342.298	97.5
342.526	88.5
342.754	78.5
342.981	95.5
343.209	95.5
343.437	96.5
343.665	95.5
343.893	78.5
344.12	100.5
344.348	91.5
344.576	90.5
344.804	99.5
345.031	83.5
345.259	86.5
345.487	100.5
345.714	102.5
345.942	94.5
346.17	87.5
346.397	86.5
346.625	79.5
346.853	89.5
347.08	86.5
347.308	87.5
347.535	99.5
347.763	99.5
347.99	94.5
348.218	88.5
348.445	111.5
348.673	82.5
348.9	86.5
349.128	103.5
349.355	86.5
349.583	103.5
349.81	99.5
350.037	98.5
350.265	94.5
350.492	94.5
350.72	105.5
350.947	88.5
351.174	88.5
351.402	100.5
351.629	102.5
351.856	87.5
352.083	107.5
352.311	114.5
352.538	108.5
352.765	104.5
352.992	100.5
353.22	98.5
353.447	99.5
353.674	92.5
353.901	105.5
354.128	95.5
354.355	106.5
354.583	82.5
354.81	96.5
355.037	98.5
355.264	98.5
355.491	100.5
355.718	86.5
355.945	100.5
356.172	85.5
356.399	96.5
356.626	102.5
356.853	84.5
357.08	99.5
357.307	81.5
357.534	83.5
357.761	94.5
357.988	99.5
358.215	92.5
358.441	108.5
358.668	101.5
358.895	95.5
359.122	88.5
359.349	98.5
359.576	102.5
359.802	109.5
360.029	103.5
360.256	104.5
360.483	100.5
360.709	98.5
360.936	94.5
361.163	107.5
361.39	85.5
361.616	94.5
361.843	94.5
362.07	92.5
362.296	93.5
362.523	80.5
362.749	90.5
362.976	85.5
363.203	86.5
363.429	83.5
363.656	97.5
363.882	82.5
364.109	83.5
364.335	92.5
364.562	85.5
364.788	84.5
365.015	90.5
365.241	83.5
365.468	93.5
365.694	106.5
365.92	96.5
366.147	86.5
366.373	82.5
366.599	88.5
366.826	92.5
367.052	83.5
367.278	96.5
367.505	102.5
367.731	82.5
367.957	99.5
368.184	82.5
368.41	91.5
368.636	108.5
368.862	100.5
369.089	94.5
369.315	88.5
369.541	83.5
369.767	100.5
369.993	96.5
370.219	82.5
370.445	94.5
370.672	94.5
370.898	82.5
371.124	79.5
371.35	75.5
371.576	97.5
371.802	88.5
372.028	80.5
372.254	82.5
372.48	93.5
372.706	91.5
372.932	96.5
373.158	93.5
373.384	89.5
373.61	105.5
373.835	86.5
374.061	87.5
374.287	84.5
374.513	66.5
374.739	96.5
374.965	96.5
375.191	92.5
375.416	97.5
375.642	90.5
375.868	90.5
376.094	82.5
376.319	83.5
376.545	81.5
376.771	84.5
376.997	91.5
377.222	98.5
377.448	78.5
377.674	89.5
377.899	98.5
378.125	97.5
378.35	103.5
378.576	94.5
378.802	86.5
379.027	94.5
379.253	80.5
379.478	91.5
379.704	89.5
379.929	86.5
380.155	104.5
380.38	97.5
380.606	89.5
380.831	80.5
381.057	79.5
381.282	83.5
381.507	88.5
381.733	104.5
381.958	94.5
382.184	99.5
382.409	106.5
382.634	106.5
382.86	108.5
383.085	94.5
383.31	111.5
383.535	98.5
383.761	100.5
383.986	104.5
384.211	89.5
384.436	94.5
384.662	102.5
384.887	107.5
385.112	114.5
385.337	104.5
385.562	93.5
385.787	115.5
386.013	105.5
386.238	118.5
386.463	110.5
386.688	127.5
386.913	115.5
387.138	118.5
387.363	94.5
387.588	100.5
387.813	110.5
388.038	97.5
388.263	104.5
388.488	106.5
388.713	98.5
388.938	96.5
389.163	97.5
389.387	94.5
389.612	110.5
389.837	85.5
390.062	101.5
390.287	95.5
390.512	78.5
390.736	86.5
390.961	84.5
391.186	79.5
391.411	95.5
391.636	91.5
391.86	94.5
392.085	84.5
392.31	79.5
392.534	89.5
392.759	88.5
392.984	100.5
393.208	84.5
393.433	107.5
393.658	98.5
393.882	80.5
394.107	81.5
394.331	87.5
394.556	90.5
394.78	98.5
395.005	83.5
395.229	86.5
395.454	66.5
395.678	107.5
395.903	89.5
396.127	91.5
396.352	87.5
396.576	88.5
396.801	112.5
397.025	69.5
397.249	90.5
397.474	96.5
397.698	90.5
397.922	73.5
398.147	91.5
398.371	78.5
398.595	78.5
398.82	87.5
399.044	84.5
399.268	93.5
399.492	82.5
399.717	89.5
399.941	80.5
400.165	91.5
400.389	84.5
400.613	87.5
400.837	82.5
401.062	82.5
401.286	82.5
401.51	86.5
401.734	96.5
401.958	102.5
402.182	115.5
402.406	132.5
402.63	110.5
402.854	89.5
403.078	64.5
403.302	92.5
403.526	98.5
403.75	82.5
403.974	88.5
404.198	87.5
404.422	100.5
404.645	94.5
404.869	85.5
405.093	90.5
405.317	97.5
405.541	87.5
405.765	88.5
405.988	97.5
406.212	146.5
406.436	180.5
406.66	124.5
406.883	80.5
407.107	106.5
407.331	80.5
407.555	98.5
407.778	107.5
408.002	97.5
408.226	98.5
408.449	76.5
408.673	75.5
408.896	74.5
409.12	89.5
409.344	76.5
409.567	99.5
409.791	91.5
410.014	98.5
410.238	92.5
410.461	93.5
410.685	84.5
410.908	106.5
411.132	95.5
411.355	91.5
411.578	96.5
411.802	87.5
412.025	90.5
412.249	91.5
412.472	92.5
412.695	86.5
412.919	102.5
413.142	83.5
413.365	82.5
413.589	94.5
413.812	93.5
414.035	100.5
414.258	102.5
414.482	90.5
414.705	83.5
414.928	87.5
415.151	93.5
415.374	83.5
415.597	79.5
415.821	99.5
416.044	96.5
416.267	75.5
416.49	78.5
416.713	81.5
416.936	74.5
417.159	90.5
417.382	84.5
417.605	71.5
417.828	86.5
418.051	91.5
418.274	96.5
418.497	82.5
418.72	73.5
418.943	90.5
419.166	96.5
419.389	87.5
419.611	88.5
419.834	95.5
420.057	93.5
420.28	88.5
420.503	80.5
420.726	92.5
420.948	108.5
421.171	87.5
421.394	90.5
421.617	90.5
421.839	99.5
422.062	86.5
422.285	79.5
422.507	85.5
422.73	101.5
422.953	100.5
423.175	100.5
423.398	85.5
423.621	88.5
423.843	86.5
424.066	85.5
424.288	86.5
424.511	94.5
424.733	118.5
424.956	105.5
425.178	94.5
425.401	104.5
425.623	98.5
425.846	92.5
426.068	79.5
426.291	75.5
426.513	94.5
426.735	82.5
426.958	95.5
427.18	111.5
427.402	119.5
427.625	138.5
427.847	128.5
428.069	114.5
428.292	90.5
428.514	74.5
428.736	86.5
428.958	77.5
429.181	86.5
429.403	86.5
429.625	87.5
429.847	82.5
430.069	82.5
430.292	69.5
430.514	92.5
430.736	78.5
430.958	80.5
431.18	82.5
431.402	72.5
431.624	86.5
431.846	81.5
432.068	98.5
432.29	98.5
432.512	86.5
432.734	76.5
432.956	84.5
433.178	97.5
433.4	96.5
433.622	74.5
433.844	82.5
434.066	86.5
434.287	66.5
434.509	77.5
434.731	80.5
434.953	95.5
435.175	91.5
435.397	98.5
435.618	98.5
435.84	96.5
436.062	101.5
436.284	106.5
436.505	93.5
436.727	87.5
436.949	87.5
437.17	84.5
437.392	83.5
437.614	78.5
437.835	101.5
438.057	110.5
438.278	99.5
438.5	112.5
438.721	106.5
438.943	106.5
439.165	77.5
439.386	93.5
439.608	85.5
439.829	97.5
440.05	117.5
440.272	123.5
440.493	92.5
440.715	84.5
440.936	86.5
441.158	75.5
441.379	101.5
441.6	92.5
441.822	86.5
442.043	84.5
442.264	90.5
442.486	93.5
442.707	86.5
442.928	87.5
443.149	118.5
443.371	96.5
443.592	98.5
443.813	103.5
444.034	113.5
444.255	103.5
444.476	89.5
444.698	90.5
444.919	90.5
445.14	131.5
445.361	119.5
445.582	107.5
445.803	117.5
446.024	115.5
446.245	126.5
446.466	92.5
446.687	89.5
446.908	93.5
447.129	87.5
447.35	83.5
447.571	84.5
447.792	95.5
448.013	89.5
448.234	96.5
448.455	95.5
448.675	99.5
448.896	112.5
449.117	84.5
449.338	107.5
449.559	123.5
449.779	127.5
450	92.5
450.221	88.5
450.442	84.5
450.662	103.5
450.883	99.5
451.104	103.5
451.324	81.5
451.545	82.5
451.766	74.5
451.986	82.5
452.207	86.5
452.428	85.5
452.648	94.5
452.869	87.5
453.089	100.5
453.31	102.5
453.53	97.5
453.751	82.5
453.971	103.5
454.192	93.5
454.412	92.5
454.633	91.5
454.853	88.5
455.073	77.5
455.294	86.5
455.514	97.5
455.734	86.5
455.955	82.5
456.175	83.5
456.395	88.5
456.616	86.5
456.836	101.5
457.056	95.5
457.276	84.5
457.497	78.5
457.717	101.5
457.937	83.5
458.157	88.5
458.377	91.5
458.598	97.5
458.818	112.5
459.038	130.5
459.258	102.5
459.478	98.5
459.698	87.5
459.918	78.5
460.138	78.5
460.358	86.5
460.578	85.5
460.798	103.5
461.018	85.5
461.238	78.5
461.458	85.5
461.678	84.5
461.898	85.5
462.118	90.5
462.338	89.5
462.558	83.5
462.777	83.5
462.997	86.5
463.217	71.5
463.437	75.5
463.657	83.5
463.876	81.5
464.096	95.5
464.316	91.5
464.536	103.5
464.755	94.5
464.975	92.5
465.195	126.5
465.414	126.5
465.634	88.5
465.854	89.5
466.073	76.5
466.293	84.5
466.512	81.5
466.732	86.5
466.951	89.5
467.171	94.5
467.391	89.5
467.61	103.5
467.829	107.5
468.049	119.5
468.268	150.5
468.488	93.5
468.707	92.5
468.927	87.5
469.146	80.5
469.365	89.5
469.585	91.5
469.804	86.5
470.023	95.5
470.243	98.5
470.462	102.5
470.681	110.5
470.901	99.5
471.12	81.5
471.339	85.5
471.558	85.5
471.777	86.5
471.997	96.5
472.216	170.5
472.435	279.5
472.654	122.5
472.873	100.5
473.092	84.5
473.311	87.5
473.53	73.5
473.749	99.5
473.968	96.5
474.187	98.5
474.406	97.5
474.625	73.5
474.844	79.5
475.063	73.5
475.282	96.5
475.501	78.5
475.72	96.5
475.939	91.5
476.158	87.5
476.377	88.5
476.596	79.5
476.814	96.5
477.033	86.5
477.252	98.5
477.471	85.5
477.69	88.5
477.908	104.5
478.127	110.5
478.346	85.5
478.564	66.5
478.783	96.5
479.002	93.5
479.22	89.5
479.439	108.5
479.658	107.5
479.876	96.5
480.095	89.5
480.313	103.5
480.532	101.5
480.751	104.5
480.969	191.5
481.188	489.5
481.406	306.5
481.624	112.5
481.843	105.5
482.061	95.5
482.28	88.5
482.498	81.5
482.717	86.5
482.935	97.5
483.153	83.5
483.372	98.5
483.59	100.5
483.808	86.5
484.027	93.5
484.245	87.5
484.463	100.5
484.681	97.5
484.9	98.5
485.118	86.5
485.336	96.5
485.554	113.5
485.772	106.5
485.99	112.5
486.209	99.5
486.427	94.5
486.645	95.5
486.863	115.5
487.081	102.5
487.299	77.5
487.517	89.5
487.735	89.5
487.953	86.5
488.171	95.5
488.389	105.5
488.607	86.5
488.825	93.5
489.043	93.5
489.261	107.5
489.479	98.5
489.696	88.5
489.914	83.5
490.132	89.5
490.35	79.5
490.568	89.5
490.786	95.5
491.003	89.5
491.221	89.5
491.439	94.5
491.657	86.5
491.874	96.5
492.092	79.5
492.31	83.5
492.527	79.5
492.745	88.5
492.963	104.5
493.18	100.5
493.398	97.5
493.615	82.5
493.833	90.5
494.05	88.5
494.268	80.5
494.485	82.5
494.703	78.5
494.92	95.5
495.138	97.5
495.355	83.5
495.573	91.5
495.79	96.5
496.008	87.5
496.225	87.5
496.442	97.5
496.66	102.5
496.877	102.5
497.094	80.5
497.312	97.5
497.529	84.5
497.746	84.5
497.963	101.5
498.181	94.5
498.398	104.5
498.615	112.5
498.832	98.5
499.049	100.5
499.267	87.5
499.484	94.5
499.701	99.5
499.918	84.5
500.135	95.5
500.352	108.5
500.569	95.5
500.786	98.5
501.003	94.5
501.22	82.5
501.437	85.5
501.654	99.5
501.871	112.5
502.088	89.5
502.305	100.5
502.522	107.5
502.739	100.5
502.956	80.5
503.172	80.5
503.389	88.5
503.606	104.5
503.823	101.5
504.04	86.5
504.256	79.5
504.473	81.5
504.69	86.5
504.907	96.5
505.123	89.5
505.34	87.5
505.557	100.5
505.773	92.5
505.99	82.5
506.207	89.5
506.423	86.5
506.64	90.5
506.856	88.5
507.073	97.5
507.289	91.5
507.506	100.5
507.722	95.5
507.939	113.5
508.155	91.5
508.372	98.5
508.588	100.5
508.805	84.5
509.021	86.5
509.238	90.5
509.454	96.5
509.67	98.5
509.887	95.5
510.103	108.5
510.319	190.5
510.536	600.5
510.752	1826.5
510.968	538.5
511.184	142.5
511.401	99.5
511.617	98.5
511.833	103.5
512.049	104.5
512.265	93.5
512.481	103.5
512.698	84.5
512.914	91.5
513.13	98.5
513.346	96.5
513.562	117.5
513.778	90.5
513.994	85.5
514.21	100.5
514.426	116.5
514.642	117.5
514.858	106.5
515.074	131.5
515.29	338.5
515.506	1104.5
515.721	408.5
515.937	137.5
516.153	107.5
516.369	93.5
516.585	92.5
516.801	96.5
517.016	85.5
517.232	90.5
517.448	88.5
517.664	101.5
517.879	99.5
518.095	82.5
518.311	95.5
518.527	80.5
518.742	99.5
518.958	89.5
519.173	91.5
519.389	95.5
519.605	82.5
519.82	93.5
520.036	101.5
520.251	116.5
520.467	103.5
520.682	90.5
520.898	96.5
521.113	102.5
521.329	134.5
521.544	172.5
521.76	416.5
521.975	1779.5
522.19	1068.5
522.406	255.5
522.621	126.5
522.836	86.5
523.052	85.5
523.267	88.5
523.482	98.5
523.698	112.5
523.913	116.5
524.128	99.5
524.343	88.5
524.559	89.5
524.774	96.5
524.989	103.5
525.204	104.5
525.419	108.5
525.634	98.5
525.849	84.5
526.064	98.5
526.28	94.5
526.495	103.5
526.71	82.5
526.925	90.5
527.14	82.5
527.355	91.5
527.57	103.5
527.785	96.5
527.999	88.5
528.214	83.5
528.429	89.5
528.644	96.5
528.859	83.5
529.074	103.5
529.289	111.5
529.503	139.5
529.718	107.5
529.933	82.5
530.148	94.5
530.363	101.5
530.577	86.5
530.792	96.5
531.007	87.5
531.221	87.5
531.436	83.5
531.651	94.5
531.865	79.5
532.08	93.5
532.295	82.5
532.509	92.5
532.724	92.5
532.938	105.5
533.153	97.5
533.367	90.5
533.582	100.5
533.796	81.5
534.011	84.5
534.225	91.5
534.44	92.5
534.654	90.5
534.868	102.5
535.083	98.5
535.297	101.5
535.511	99.5
535.726	103.5
