Data from Circ_1984_H10_HRD10591_00088.txt Node
Date: Wed Jan 03 12:22:59 EST 2024
User: Yrep
Spectrometer: HR+D1059
Trigger mode: 1
Integration Time (sec): 1.000000E-1
Scans to average: 1
Electric dark correction enabled: true
Nonlinearity correction enabled: false
Boxcar width: 0
XAxis mode: Wavelengths
Number of Pixels in Spectrum: 2048
>>>>>Begin Spectral Data<<<<<
223.165	-15.25
223.4	-15.25
223.635	-15.25
223.869	-35.25
224.104	-15.25
224.338	-24.25
224.573	-23.25
224.808	-8.25
225.042	-12.25
225.277	2.75
225.511	-10.25
225.746	6.75
225.98	20.75
226.215	10.75
226.449	17.75
226.683	27.75
226.918	25.75
227.152	31.75
227.387	23.75
227.621	28.75
227.856	52.75
228.09	44.75
228.324	39.75
228.559	40.75
228.793	70.75
229.027	61.75
229.262	56.75
229.496	74.75
229.73	81.75
229.964	70.75
230.199	59.75
230.433	74.75
230.667	72.75
230.901	76.75
231.136	100.75
231.37	83.75
231.604	91.75
231.838	80.75
232.072	97.75
232.306	79.75
232.541	88.75
232.775	79.75
233.009	84.75
233.243	63.75
233.477	76.75
233.711	92.75
233.945	71.75
234.179	92.75
234.413	82.75
234.647	76.75
234.881	80.75
235.115	79.75
235.349	88.75
235.583	75.75
235.817	79.75
236.051	79.75
236.285	75.75
236.519	92.75
236.753	86.75
236.987	85.75
237.221	70.75
237.455	76.75
237.689	76.75
237.922	66.75
238.156	79.75
238.39	73.75
238.624	73.75
238.858	84.75
239.091	76.75
239.325	68.75
239.559	78.75
239.793	89.75
240.027	75.75
240.26	76.75
240.494	66.75
240.728	71.75
240.961	90.75
241.195	69.75
241.429	73.75
241.662	76.75
241.896	81.75
242.13	72.75
242.363	75.75
242.597	74.75
242.83	76.75
243.064	85.75
243.298	79.75
243.531	86.75
243.765	75.75
243.998	66.75
244.232	65.75
244.465	72.75
244.699	75.75
244.932	59.75
245.166	76.75
245.399	84.75
245.633	80.75
245.866	88.75
246.099	78.75
246.333	84.75
246.566	70.75
246.8	76.75
247.033	75.75
247.266	93.75
247.5	75.75
247.733	72.75
247.966	91.75
248.2	82.75
248.433	88.75
248.666	68.75
248.899	80.75
249.133	82.75
249.366	84.75
249.599	91.75
249.832	73.75
250.066	65.75
250.299	80.75
250.532	81.75
250.765	62.75
250.998	86.75
251.231	78.75
251.465	90.75
251.698	88.75
251.931	88.75
252.164	92.75
252.397	74.75
252.63	92.75
252.863	90.75
253.096	77.75
253.329	87.75
253.562	75.75
253.795	83.75
254.028	88.75
254.261	89.75
254.494	73.75
254.727	84.75
254.96	82.75
255.193	84.75
255.426	80.75
255.659	75.75
255.892	72.75
256.124	94.75
256.357	98.75
256.59	79.75
256.823	79.75
257.056	83.75
257.289	79.75
257.521	96.75
257.754	90.75
257.987	88.75
258.22	89.75
258.452	81.75
258.685	89.75
258.918	78.75
259.151	68.75
259.383	79.75
259.616	85.75
259.849	83.75
260.081	80.75
260.314	97.75
260.547	80.75
260.779	70.75
261.012	75.75
261.244	86.75
261.477	94.75
261.71	102.75
261.942	98.75
262.175	108.75
262.407	94.75
262.64	70.75
262.872	82.75
263.105	90.75
263.337	69.75
263.57	80.75
263.802	77.75
264.035	73.75
264.267	71.75
264.499	86.75
264.732	72.75
264.964	93.75
265.197	85.75
265.429	89.75
265.661	86.75
265.894	90.75
266.126	82.75
266.358	83.75
266.591	90.75
266.823	90.75
267.055	85.75
267.287	86.75
267.52	86.75
267.752	95.75
267.984	95.75
268.216	88.75
268.448	78.75
268.681	86.75
268.913	96.75
269.145	105.75
269.377	75.75
269.609	74.75
269.841	81.75
270.073	103.75
270.306	83.75
270.538	83.75
270.77	78.75
271.002	85.75
271.234	75.75
271.466	91.75
271.698	92.75
271.93	92.75
272.162	101.75
272.394	85.75
272.626	84.75
272.858	85.75
273.09	96.75
273.322	98.75
273.553	90.75
273.785	73.75
274.017	91.75
274.249	75.75
274.481	87.75
274.713	83.75
274.945	88.75
275.176	82.75
275.408	75.75
275.64	90.75
275.872	92.75
276.104	84.75
276.335	79.75
276.567	83.75
276.799	111.75
277.031	95.75
277.262	99.75
277.494	90.75
277.726	86.75
277.957	86.75
278.189	83.75
278.421	85.75
278.652	99.75
278.884	99.75
279.115	83.75
279.347	90.75
279.579	93.75
279.81	99.75
280.042	100.75
280.273	108.75
280.505	80.75
280.736	82.75
280.968	80.75
281.199	82.75
281.431	84.75
281.662	88.75
281.894	87.75
282.125	102.75
282.356	107.75
282.588	114.75
282.819	107.75
283.051	87.75
283.282	91.75
283.513	92.75
283.745	92.75
283.976	74.75
284.207	79.75
284.439	89.75
284.67	85.75
284.901	92.75
285.132	80.75
285.364	69.75
285.595	86.75
285.826	80.75
286.057	88.75
286.288	68.75
286.52	81.75
286.751	95.75
286.982	90.75
287.213	78.75
287.444	85.75
287.675	93.75
287.906	80.75
288.138	93.75
288.369	101.75
288.6	101.75
288.831	90.75
289.062	85.75
289.293	94.75
289.524	94.75
289.755	86.75
289.986	89.75
290.217	84.75
290.448	87.75
290.679	90.75
290.91	88.75
291.141	90.75
291.371	94.75
291.602	82.75
291.833	85.75
292.064	100.75
292.295	96.75
292.526	93.75
292.757	83.75
292.987	82.75
293.218	91.75
293.449	84.75
293.68	76.75
293.91	96.75
294.141	90.75
294.372	77.75
294.603	98.75
294.833	86.75
295.064	75.75
295.295	105.75
295.525	80.75
295.756	76.75
295.987	97.75
296.217	131.75
296.448	107.75
296.679	88.75
296.909	102.75
297.14	92.75
297.37	84.75
297.601	93.75
297.831	73.75
298.062	87.75
298.292	75.75
298.523	86.75
298.753	67.75
298.984	94.75
299.214	83.75
299.445	90.75
299.675	95.75
299.905	99.75
300.136	86.75
300.366	74.75
300.597	89.75
300.827	98.75
301.057	102.75
301.288	105.75
301.518	75.75
301.748	82.75
301.979	106.75
302.209	93.75
302.439	94.75
302.669	92.75
302.9	87.75
303.13	83.75
303.36	95.75
303.59	86.75
303.82	113.75
304.051	84.75
304.281	86.75
304.511	87.75
304.741	98.75
304.971	92.75
305.201	102.75
305.431	81.75
305.661	84.75
305.891	95.75
306.121	96.75
306.352	96.75
306.582	100.75
306.812	102.75
307.042	94.75
307.272	104.75
307.502	102.75
307.731	102.75
307.961	91.75
308.191	80.75
308.421	90.75
308.651	85.75
308.881	92.75
309.111	103.75
309.341	99.75
309.571	86.75
309.8	71.75
310.03	105.75
310.26	94.75
310.49	99.75
310.72	99.75
310.949	98.75
311.179	98.75
311.409	89.75
311.639	91.75
311.868	89.75
312.098	90.75
312.328	100.75
312.557	96.75
312.787	86.75
313.017	97.75
313.246	98.75
313.476	93.75
313.706	98.75
313.935	97.75
314.165	95.75
314.394	91.75
314.624	78.75
314.853	75.75
315.083	85.75
315.312	95.75
315.542	86.75
315.771	85.75
316.001	69.75
316.23	83.75
316.46	92.75
316.689	87.75
316.919	88.75
317.148	86.75
317.377	82.75
317.607	107.75
317.836	97.75
318.065	98.75
318.295	103.75
318.524	89.75
318.753	90.75
318.983	96.75
319.212	104.75
319.441	104.75
319.67	93.75
319.9	86.75
320.129	90.75
320.358	94.75
320.587	88.75
320.816	97.75
321.046	96.75
321.275	100.75
321.504	90.75
321.733	85.75
321.962	98.75
322.191	100.75
322.42	98.75
322.649	104.75
322.878	111.75
323.108	106.75
323.337	116.75
323.566	114.75
323.795	149.75
324.024	173.75
324.253	307.75
324.482	638.75
324.71	1271.75
324.939	1685.75
325.168	621.75
325.397	214.75
325.626	133.75
325.855	121.75
326.084	121.75
326.313	119.75
326.542	138.75
326.77	206.75
326.999	364.75
327.228	734.75
327.457	1344.75
327.686	1057.75
327.914	318.75
328.143	208.75
328.372	185.75
328.6	133.75
328.829	112.75
329.058	119.75
329.287	126.75
329.515	100.75
329.744	121.75
329.972	153.75
330.201	238.75
330.43	286.75
330.658	171.75
330.887	152.75
331.115	120.75
331.344	100.75
331.572	106.75
331.801	96.75
332.03	102.75
332.258	106.75
332.486	99.75
332.715	80.75
332.943	101.75
333.172	93.75
333.4	100.75
333.629	106.75
333.857	123.75
334.085	143.75
334.314	222.75
334.542	334.75
334.771	301.75
334.999	147.75
335.227	110.75
335.455	93.75
335.684	91.75
335.912	82.75
336.14	94.75
336.369	98.75
336.597	90.75
336.825	97.75
337.053	94.75
337.281	88.75
337.51	99.75
337.738	83.75
337.966	91.75
338.194	74.75
338.422	82.75
338.65	90.75
338.878	76.75
339.106	87.75
339.334	91.75
339.562	85.75
339.79	107.75
340.018	106.75
340.246	99.75
340.474	86.75
340.702	82.75
340.93	75.75
341.158	95.75
341.386	101.75
341.614	94.75
341.842	102.75
342.07	85.75
342.298	79.75
342.526	93.75
342.754	85.75
342.981	83.75
343.209	90.75
343.437	98.75
343.665	86.75
343.893	89.75
344.12	96.75
344.348	86.75
344.576	93.75
344.804	88.75
345.031	94.75
345.259	104.75
345.487	93.75
345.714	91.75
345.942	91.75
346.17	89.75
346.397	90.75
346.625	96.75
346.853	95.75
347.08	83.75
347.308	87.75
347.535	96.75
347.763	110.75
347.99	83.75
348.218	95.75
348.445	85.75
348.673	82.75
348.9	78.75
349.128	93.75
349.355	105.75
349.583	84.75
349.81	97.75
350.037	91.75
350.265	91.75
350.492	91.75
350.72	100.75
350.947	91.75
351.174	105.75
351.402	105.75
351.629	89.75
351.856	95.75
352.083	97.75
352.311	95.75
352.538	101.75
352.765	111.75
352.992	102.75
353.22	105.75
353.447	90.75
353.674	80.75
353.901	91.75
354.128	99.75
354.355	91.75
354.583	97.75
354.81	101.75
355.037	99.75
355.264	82.75
355.491	93.75
355.718	90.75
355.945	98.75
356.172	91.75
356.399	87.75
356.626	87.75
356.853	94.75
357.08	98.75
357.307	90.75
357.534	83.75
357.761	89.75
357.988	85.75
358.215	93.75
358.441	83.75
358.668	89.75
358.895	98.75
359.122	88.75
359.349	112.75
359.576	88.75
359.802	104.75
360.029	103.75
360.256	87.75
360.483	92.75
360.709	84.75
360.936	94.75
361.163	96.75
361.39	79.75
361.616	92.75
361.843	80.75
362.07	80.75
362.296	89.75
362.523	93.75
362.749	100.75
362.976	90.75
363.203	101.75
363.429	90.75
363.656	92.75
363.882	87.75
364.109	96.75
364.335	101.75
364.562	96.75
364.788	89.75
365.015	85.75
365.241	98.75
365.468	99.75
365.694	92.75
365.92	97.75
366.147	86.75
366.373	92.75
366.599	86.75
366.826	72.75
367.052	91.75
367.278	89.75
367.505	95.75
367.731	89.75
367.957	90.75
368.184	95.75
368.41	89.75
368.636	97.75
368.862	102.75
369.089	95.75
369.315	102.75
369.541	93.75
369.767	80.75
369.993	97.75
370.219	95.75
370.445	73.75
370.672	86.75
370.898	100.75
371.124	81.75
371.35	86.75
371.576	88.75
371.802	84.75
372.028	98.75
372.254	94.75
372.48	89.75
372.706	105.75
372.932	84.75
373.158	96.75
373.384	80.75
373.61	95.75
373.835	81.75
374.061	87.75
374.287	81.75
374.513	73.75
374.739	88.75
374.965	75.75
375.191	77.75
375.416	75.75
375.642	74.75
375.868	86.75
376.094	84.75
376.319	88.75
376.545	76.75
376.771	104.75
376.997	106.75
377.222	104.75
377.448	92.75
377.674	84.75
377.899	89.75
378.125	75.75
378.35	80.75
378.576	90.75
378.802	94.75
379.027	91.75
379.253	94.75
379.478	105.75
379.704	98.75
379.929	78.75
380.155	92.75
380.38	74.75
380.606	85.75
380.831	89.75
381.057	86.75
381.282	103.75
381.507	98.75
381.733	96.75
381.958	91.75
382.184	87.75
382.409	89.75
382.634	93.75
382.86	98.75
383.085	89.75
383.31	90.75
383.535	105.75
383.761	84.75
383.986	107.75
384.211	92.75
384.436	102.75
384.662	87.75
384.887	94.75
385.112	91.75
385.337	102.75
385.562	99.75
385.787	94.75
386.013	112.75
386.238	103.75
386.463	95.75
386.688	107.75
386.913	95.75
387.138	103.75
387.363	92.75
387.588	90.75
387.813	99.75
388.038	106.75
388.263	89.75
388.488	103.75
388.713	90.75
388.938	89.75
389.163	97.75
389.387	98.75
389.612	98.75
389.837	79.75
390.062	97.75
390.287	78.75
390.512	97.75
390.736	79.75
390.961	82.75
391.186	105.75
391.411	92.75
391.636	101.75
391.86	85.75
392.085	71.75
392.31	89.75
392.534	90.75
392.759	96.75
392.984	88.75
393.208	84.75
393.433	89.75
393.658	76.75
393.882	74.75
394.107	83.75
394.331	87.75
394.556	86.75
394.78	91.75
395.005	102.75
395.229	78.75
395.454	87.75
395.678	87.75
395.903	84.75
396.127	106.75
396.352	74.75
396.576	72.75
396.801	88.75
397.025	81.75
397.249	85.75
397.474	94.75
397.698	78.75
397.922	85.75
398.147	85.75
398.371	91.75
398.595	75.75
398.82	91.75
399.044	86.75
399.268	86.75
399.492	94.75
399.717	87.75
399.941	78.75
400.165	91.75
400.389	85.75
400.613	87.75
400.837	84.75
401.062	95.75
401.286	82.75
401.51	82.75
401.734	90.75
401.958	87.75
402.182	106.75
402.406	111.75
402.63	108.75
402.854	86.75
403.078	83.75
403.302	87.75
403.526	98.75
403.75	86.75
403.974	69.75
404.198	80.75
404.422	75.75
404.645	86.75
404.869	99.75
405.093	98.75
405.317	91.75
405.541	86.75
405.765	98.75
405.988	100.75
406.212	127.75
406.436	162.75
406.66	129.75
406.883	106.75
407.107	84.75
407.331	94.75
407.555	92.75
407.778	87.75
408.002	98.75
408.226	99.75
408.449	89.75
408.673	87.75
408.896	86.75
409.12	104.75
409.344	79.75
409.567	97.75
409.791	78.75
410.014	90.75
410.238	96.75
410.461	83.75
410.685	100.75
410.908	97.75
411.132	110.75
411.355	91.75
411.578	95.75
411.802	94.75
412.025	92.75
412.249	92.75
412.472	101.75
412.695	106.75
412.919	94.75
413.142	83.75
413.365	91.75
413.589	75.75
413.812	79.75
414.035	95.75
414.258	91.75
414.482	99.75
414.705	95.75
414.928	76.75
415.151	106.75
415.374	103.75
415.597	96.75
415.821	97.75
416.044	93.75
416.267	93.75
416.49	92.75
416.713	90.75
416.936	100.75
417.159	88.75
417.382	90.75
417.605	103.75
417.828	96.75
418.051	80.75
418.274	74.75
418.497	94.75
418.72	99.75
418.943	89.75
419.166	89.75
419.389	96.75
419.611	82.75
419.834	85.75
420.057	84.75
420.28	83.75
420.503	89.75
420.726	80.75
420.948	76.75
421.171	100.75
421.394	86.75
421.617	71.75
421.839	88.75
422.062	89.75
422.285	87.75
422.507	98.75
422.73	105.75
422.953	93.75
423.175	86.75
423.398	90.75
423.621	89.75
423.843	78.75
424.066	86.75
424.288	85.75
424.511	90.75
424.733	99.75
424.956	102.75
425.178	100.75
425.401	95.75
425.623	80.75
425.846	76.75
426.068	84.75
426.291	82.75
426.513	96.75
426.735	90.75
426.958	71.75
427.18	101.75
427.402	117.75
427.625	147.75
427.847	116.75
428.069	127.75
428.292	73.75
428.514	82.75
428.736	80.75
428.958	95.75
429.181	82.75
429.403	88.75
429.625	80.75
429.847	84.75
430.069	93.75
430.292	95.75
430.514	81.75
430.736	85.75
430.958	94.75
431.18	89.75
431.402	82.75
431.624	100.75
431.846	74.75
432.068	80.75
432.29	82.75
432.512	78.75
432.734	86.75
432.956	81.75
433.178	97.75
433.4	88.75
433.622	94.75
433.844	88.75
434.066	92.75
434.287	93.75
434.509	96.75
434.731	93.75
434.953	94.75
435.175	79.75
435.397	98.75
435.618	87.75
435.84	123.75
436.062	109.75
436.284	110.75
436.505	89.75
436.727	99.75
436.949	102.75
437.17	86.75
437.392	87.75
437.614	92.75
437.835	92.75
438.057	99.75
438.278	106.75
438.5	86.75
438.721	108.75
438.943	78.75
439.165	81.75
439.386	87.75
439.608	90.75
439.829	99.75
440.05	104.75
440.272	128.75
440.493	88.75
440.715	88.75
440.936	84.75
441.158	81.75
441.379	86.75
441.6	79.75
441.822	102.75
442.043	97.75
442.264	94.75
442.486	88.75
442.707	83.75
442.928	95.75
443.149	106.75
443.371	117.75
443.592	97.75
443.813	91.75
444.034	90.75
444.255	78.75
444.476	74.75
444.698	100.75
444.919	85.75
445.14	139.75
445.361	127.75
445.582	107.75
445.803	125.75
446.024	111.75
446.245	135.75
446.466	97.75
446.687	85.75
446.908	77.75
447.129	81.75
447.35	67.75
447.571	85.75
447.792	87.75
448.013	105.75
448.234	100.75
448.455	82.75
448.675	94.75
448.896	114.75
449.117	90.75
449.338	99.75
449.559	137.75
449.779	110.75
450	101.75
450.221	90.75
450.442	89.75
450.662	89.75
450.883	105.75
451.104	86.75
451.324	90.75
451.545	95.75
451.766	103.75
451.986	91.75
452.207	75.75
452.428	94.75
452.648	96.75
452.869	106.75
453.089	98.75
453.31	88.75
453.53	94.75
453.751	96.75
453.971	98.75
454.192	105.75
454.412	96.75
454.633	96.75
454.853	86.75
455.073	79.75
455.294	83.75
455.514	102.75
455.734	74.75
455.955	88.75
456.175	80.75
456.395	78.75
456.616	87.75
456.836	86.75
457.056	87.75
457.276	86.75
457.497	95.75
457.717	97.75
457.937	82.75
458.157	88.75
458.377	89.75
458.598	96.75
458.818	144.75
459.038	131.75
459.258	98.75
459.478	94.75
459.698	100.75
459.918	90.75
460.138	104.75
460.358	80.75
460.578	86.75
460.798	103.75
461.018	94.75
461.238	81.75
461.458	85.75
461.678	92.75
461.898	82.75
462.118	82.75
462.338	77.75
462.558	86.75
462.777	92.75
462.997	84.75
463.217	81.75
463.437	108.75
463.657	94.75
463.876	86.75
464.096	76.75
464.316	85.75
464.536	78.75
464.755	83.75
464.975	95.75
465.195	135.75
465.414	138.75
465.634	93.75
465.854	78.75
466.073	79.75
466.293	78.75
466.512	84.75
466.732	95.75
466.951	93.75
467.171	96.75
467.391	95.75
467.61	91.75
467.829	113.75
468.049	155.75
468.268	184.75
468.488	80.75
468.707	87.75
468.927	94.75
469.146	86.75
469.365	92.75
469.585	91.75
469.804	86.75
470.023	99.75
470.243	91.75
470.462	72.75
470.681	108.75
470.901	91.75
471.12	76.75
471.339	95.75
471.558	83.75
471.777	100.75
471.997	123.75
472.216	246.75
472.435	483.75
472.654	178.75
472.873	93.75
473.092	90.75
473.311	75.75
473.53	99.75
473.749	80.75
473.968	105.75
474.187	108.75
474.406	95.75
474.625	85.75
474.844	74.75
475.063	80.75
475.282	104.75
475.501	78.75
475.72	86.75
475.939	91.75
476.158	88.75
476.377	90.75
476.596	80.75
476.814	90.75
477.033	80.75
477.252	101.75
477.471	96.75
477.69	81.75
477.908	86.75
478.127	95.75
478.346	87.75
478.564	81.75
478.783	94.75
479.002	92.75
479.22	106.75
479.439	98.75
479.658	96.75
479.876	96.75
480.095	101.75
480.313	95.75
480.532	112.75
480.751	134.75
480.969	248.75
481.188	748.75
481.406	471.75
481.624	139.75
481.843	101.75
482.061	80.75
482.28	92.75
482.498	84.75
482.717	100.75
482.935	82.75
483.153	94.75
483.372	103.75
483.59	96.75
483.808	82.75
484.027	82.75
484.245	90.75
484.463	79.75
484.681	99.75
484.9	97.75
485.118	89.75
485.336	87.75
485.554	93.75
485.772	82.75
485.99	105.75
486.209	115.75
486.427	110.75
486.645	112.75
486.863	115.75
487.081	107.75
487.299	92.75
487.517	85.75
487.735	98.75
487.953	88.75
488.171	98.75
488.389	104.75
488.607	92.75
488.825	86.75
489.043	85.75
489.261	100.75
489.479	87.75
489.696	77.75
489.914	75.75
490.132	92.75
490.35	94.75
490.568	65.75
490.786	83.75
491.003	83.75
491.221	85.75
491.439	104.75
491.657	98.75
491.874	91.75
492.092	90.75
492.31	84.75
492.527	80.75
492.745	90.75
492.963	89.75
493.18	76.75
493.398	95.75
493.615	91.75
493.833	82.75
494.05	90.75
494.268	94.75
494.485	90.75
494.703	92.75
494.92	82.75
495.138	97.75
495.355	70.75
495.573	84.75
495.79	72.75
496.008	85.75
496.225	92.75
496.442	94.75
496.66	107.75
496.877	86.75
497.094	83.75
497.312	88.75
497.529	84.75
497.746	85.75
497.963	83.75
498.181	84.75
498.398	86.75
498.615	103.75
498.832	102.75
499.049	89.75
499.267	92.75
499.484	80.75
499.701	101.75
499.918	99.75
500.135	90.75
500.352	105.75
500.569	81.75
500.786	89.75
501.003	89.75
501.22	90.75
501.437	87.75
501.654	98.75
501.871	104.75
502.088	89.75
502.305	94.75
502.522	98.75
502.739	90.75
502.956	88.75
503.172	97.75
503.389	92.75
503.606	92.75
503.823	95.75
504.04	85.75
504.256	84.75
504.473	82.75
504.69	95.75
504.907	92.75
505.123	91.75
505.34	100.75
505.557	90.75
505.773	92.75
505.99	88.75
506.207	90.75
506.423	112.75
506.64	105.75
506.856	98.75
507.073	76.75
507.289	82.75
507.506	84.75
507.722	91.75
507.939	99.75
508.155	76.75
508.372	78.75
508.588	95.75
508.805	80.75
509.021	90.75
509.238	121.75
509.454	102.75
509.67	97.75
509.887	103.75
510.103	106.75
510.319	155.75
510.536	536.75
510.752	1642.75
510.968	480.75
511.184	133.75
511.401	102.75
511.617	89.75
511.833	86.75
512.049	89.75
512.265	88.75
512.481	97.75
512.698	99.75
512.914	90.75
513.13	87.75
513.346	91.75
513.562	87.75
513.778	88.75
513.994	91.75
514.21	97.75
514.426	111.75
514.642	100.75
514.858	106.75
515.074	150.75
515.29	316.75
515.506	963.75
515.721	355.75
515.937	124.75
516.153	92.75
516.369	89.75
