Data from Circ_1984_H10_HRD10591_00071.txt Node
Date: Wed Jan 03 12:22:56 EST 2024
User: Yrep
Spectrometer: HR+D1059
Trigger mode: 1
Integration Time (sec): 1.000000E-1
Scans to average: 1
Electric dark correction enabled: true
Nonlinearity correction enabled: false
Boxcar width: 0
XAxis mode: Wavelengths
Number of Pixels in Spectrum: 2048
>>>>>Begin Spectral Data<<<<<
223.165	-15.31
223.4	-15.31
223.635	-15.31
223.869	-24.31
224.104	-6.31
224.338	-22.31
224.573	-12.31
224.808	-15.31
225.042	-23.31
225.277	-13.31
225.511	15.69
225.746	3.69
225.98	-13.31
226.215	2.69
226.449	32.69
226.683	34.69
226.918	23.69
227.152	32.69
227.387	49.69
227.621	26.69
227.856	36.69
228.09	32.69
228.324	60.69
228.559	52.69
228.793	62.69
229.027	52.69
229.262	50.69
229.496	75.69
229.73	72.69
229.964	68.69
230.199	58.69
230.433	67.69
230.667	84.69
230.901	74.69
231.136	82.69
231.37	64.69
231.604	73.69
231.838	64.69
232.072	77.69
232.306	76.69
232.541	68.69
232.775	79.69
233.009	75.69
233.243	76.69
233.477	70.69
233.711	85.69
233.945	81.69
234.179	82.69
234.413	103.69
234.647	75.69
234.881	55.69
235.115	72.69
235.349	78.69
235.583	88.69
235.817	78.69
236.051	62.69
236.285	67.69
236.519	86.69
236.753	95.69
236.987	71.69
237.221	72.69
237.455	81.69
237.689	70.69
237.922	70.69
238.156	78.69
238.39	78.69
238.624	68.69
238.858	70.69
239.091	62.69
239.325	81.69
239.559	72.69
239.793	80.69
240.027	68.69
240.26	76.69
240.494	100.69
240.728	67.69
240.961	84.69
241.195	69.69
241.429	82.69
241.662	69.69
241.896	67.69
242.13	68.69
242.363	73.69
242.597	73.69
242.83	82.69
243.064	64.69
243.298	79.69
243.531	91.69
243.765	74.69
243.998	78.69
244.232	74.69
244.465	90.69
244.699	56.69
244.932	82.69
245.166	71.69
245.399	82.69
245.633	68.69
245.866	82.69
246.099	70.69
246.333	82.69
246.566	69.69
246.8	88.69
247.033	72.69
247.266	78.69
247.5	81.69
247.733	85.69
247.966	72.69
248.2	85.69
248.433	89.69
248.666	72.69
248.899	81.69
249.133	90.69
249.366	97.69
249.599	83.69
249.832	68.69
250.066	84.69
250.299	77.69
250.532	97.69
250.765	74.69
250.998	75.69
251.231	83.69
251.465	82.69
251.698	89.69
251.931	79.69
252.164	73.69
252.397	70.69
252.63	83.69
252.863	71.69
253.096	67.69
253.329	82.69
253.562	78.69
253.795	79.69
254.028	89.69
254.261	78.69
254.494	64.69
254.727	67.69
254.96	79.69
255.193	80.69
255.426	80.69
255.659	95.69
255.892	81.69
256.124	78.69
256.357	86.69
256.59	81.69
256.823	80.69
257.056	77.69
257.289	94.69
257.521	79.69
257.754	74.69
257.987	77.69
258.22	90.69
258.452	89.69
258.685	73.69
258.918	79.69
259.151	80.69
259.383	61.69
259.616	86.69
259.849	73.69
260.081	92.69
260.314	84.69
260.547	91.69
260.779	75.69
261.012	74.69
261.244	69.69
261.477	94.69
261.71	94.69
261.942	91.69
262.175	116.69
262.407	82.69
262.64	85.69
262.872	78.69
263.105	80.69
263.337	82.69
263.57	89.69
263.802	82.69
264.035	84.69
264.267	85.69
264.499	89.69
264.732	88.69
264.964	78.69
265.197	75.69
265.429	90.69
265.661	74.69
265.894	84.69
266.126	78.69
266.358	84.69
266.591	85.69
266.823	91.69
267.055	81.69
267.287	83.69
267.52	93.69
267.752	75.69
267.984	78.69
268.216	84.69
268.448	79.69
268.681	88.69
268.913	89.69
269.145	94.69
269.377	75.69
269.609	80.69
269.841	87.69
270.073	84.69
270.306	88.69
270.538	82.69
270.77	93.69
271.002	85.69
271.234	75.69
271.466	76.69
271.698	87.69
271.93	76.69
272.162	78.69
272.394	91.69
272.626	79.69
272.858	77.69
273.09	85.69
273.322	95.69
273.553	83.69
273.785	82.69
274.017	91.69
274.249	79.69
274.481	80.69
274.713	91.69
274.945	86.69
275.176	91.69
275.408	66.69
275.64	102.69
275.872	78.69
276.104	73.69
276.335	84.69
276.567	96.69
276.799	98.69
277.031	91.69
277.262	99.69
277.494	102.69
277.726	86.69
277.957	79.69
278.189	78.69
278.421	73.69
278.652	85.69
278.884	78.69
279.115	76.69
279.347	76.69
279.579	89.69
279.81	92.69
280.042	93.69
280.273	108.69
280.505	88.69
280.736	83.69
280.968	80.69
281.199	72.69
281.431	81.69
281.662	78.69
281.894	87.69
282.125	103.69
282.356	124.69
282.588	122.69
282.819	108.69
283.051	106.69
283.282	84.69
283.513	90.69
283.745	81.69
283.976	102.69
284.207	98.69
284.439	88.69
284.67	90.69
284.901	75.69
285.132	84.69
285.364	71.69
285.595	84.69
285.826	81.69
286.057	81.69
286.288	81.69
286.52	102.69
286.751	90.69
286.982	89.69
287.213	79.69
287.444	86.69
287.675	102.69
287.906	89.69
288.138	74.69
288.369	83.69
288.6	101.69
288.831	86.69
289.062	95.69
289.293	95.69
289.524	82.69
289.755	91.69
289.986	91.69
290.217	96.69
290.448	98.69
290.679	96.69
290.91	94.69
291.141	101.69
291.371	76.69
291.602	96.69
291.833	92.69
292.064	90.69
292.295	84.69
292.526	96.69
292.757	87.69
292.987	94.69
293.218	90.69
293.449	91.69
293.68	92.69
293.91	91.69
294.141	98.69
294.372	77.69
294.603	96.69
294.833	92.69
295.064	91.69
295.295	92.69
295.525	95.69
295.756	90.69
295.987	120.69
296.217	106.69
296.448	108.69
296.679	95.69
296.909	94.69
297.14	97.69
297.37	95.69
297.601	84.69
297.831	99.69
298.062	94.69
298.292	101.69
298.523	91.69
298.753	88.69
298.984	93.69
299.214	85.69
299.445	73.69
299.675	89.69
299.905	90.69
300.136	82.69
300.366	87.69
300.597	87.69
300.827	91.69
301.057	107.69
301.288	80.69
301.518	75.69
301.748	88.69
301.979	94.69
302.209	73.69
302.439	102.69
302.669	91.69
302.9	88.69
303.13	82.69
303.36	86.69
303.59	85.69
303.82	91.69
304.051	87.69
304.281	92.69
304.511	97.69
304.741	94.69
304.971	88.69
305.201	98.69
305.431	88.69
305.661	91.69
305.891	88.69
306.121	93.69
306.352	104.69
306.582	106.69
306.812	100.69
307.042	83.69
307.272	86.69
307.502	94.69
307.731	99.69
307.961	80.69
308.191	81.69
308.421	106.69
308.651	95.69
308.881	92.69
309.111	75.69
309.341	79.69
309.571	112.69
309.8	96.69
310.03	101.69
310.26	93.69
310.49	83.69
310.72	94.69
310.949	87.69
311.179	90.69
311.409	96.69
311.639	111.69
311.868	85.69
312.098	92.69
312.328	89.69
312.557	92.69
312.787	107.69
313.017	102.69
313.246	95.69
313.476	83.69
313.706	80.69
313.935	94.69
314.165	108.69
314.394	93.69
314.624	88.69
314.853	104.69
315.083	101.69
315.312	85.69
315.542	91.69
315.771	97.69
316.001	97.69
316.23	87.69
316.46	105.69
316.689	91.69
316.919	89.69
317.148	84.69
317.377	84.69
317.607	71.69
317.836	99.69
318.065	82.69
318.295	107.69
318.524	88.69
318.753	83.69
318.983	85.69
319.212	92.69
319.441	102.69
319.67	112.69
319.9	93.69
320.129	107.69
320.358	95.69
320.587	89.69
320.816	90.69
321.046	100.69
321.275	94.69
321.504	88.69
321.733	105.69
321.962	79.69
322.191	86.69
322.42	102.69
322.649	100.69
322.878	103.69
323.108	108.69
323.337	107.69
323.566	112.69
323.795	127.69
324.024	185.69
324.253	284.69
324.482	621.69
324.71	1265.69
324.939	1638.69
325.168	626.69
325.397	220.69
325.626	133.69
325.855	97.69
326.084	118.69
326.313	117.69
326.542	131.69
326.77	177.69
326.999	350.69
327.228	722.69
327.457	1261.69
327.686	1041.69
327.914	297.69
328.143	201.69
328.372	194.69
328.6	160.69
328.829	107.69
329.058	110.69
329.287	126.69
329.515	106.69
329.744	112.69
329.972	148.69
330.201	209.69
330.43	282.69
330.658	166.69
330.887	131.69
331.115	117.69
331.344	93.69
331.572	107.69
331.801	95.69
332.03	95.69
332.258	90.69
332.486	94.69
332.715	93.69
332.943	112.69
333.172	100.69
333.4	96.69
333.629	112.69
333.857	119.69
334.085	151.69
334.314	220.69
334.542	339.69
334.771	331.69
334.999	136.69
335.227	116.69
335.455	104.69
335.684	90.69
335.912	98.69
336.14	98.69
336.369	97.69
336.597	93.69
336.825	102.69
337.053	83.69
337.281	94.69
337.51	101.69
337.738	86.69
337.966	91.69
338.194	95.69
338.422	98.69
338.65	103.69
338.878	100.69
339.106	100.69
339.334	90.69
339.562	91.69
339.79	92.69
340.018	84.69
340.246	70.69
340.474	86.69
340.702	103.69
340.93	87.69
341.158	90.69
341.386	91.69
341.614	97.69
341.842	94.69
342.07	87.69
342.298	94.69
342.526	88.69
342.754	91.69
342.981	89.69
343.209	99.69
343.437	99.69
343.665	72.69
343.893	103.69
344.12	88.69
344.348	83.69
344.576	85.69
344.804	92.69
345.031	103.69
345.259	89.69
345.487	95.69
345.714	98.69
345.942	105.69
346.17	84.69
346.397	103.69
346.625	91.69
346.853	82.69
347.08	94.69
347.308	95.69
347.535	86.69
347.763	105.69
347.99	95.69
348.218	91.69
348.445	103.69
348.673	99.69
348.9	92.69
349.128	95.69
349.355	83.69
349.583	103.69
349.81	94.69
350.037	76.69
350.265	88.69
350.492	95.69
350.72	85.69
350.947	99.69
351.174	103.69
351.402	111.69
351.629	95.69
351.856	99.69
352.083	87.69
352.311	84.69
352.538	91.69
352.765	86.69
352.992	98.69
353.22	103.69
353.447	87.69
353.674	99.69
353.901	90.69
354.128	99.69
354.355	97.69
354.583	96.69
354.81	99.69
355.037	82.69
355.264	80.69
355.491	95.69
355.718	94.69
355.945	90.69
356.172	87.69
356.399	84.69
356.626	97.69
356.853	99.69
357.08	102.69
357.307	111.69
357.534	90.69
357.761	80.69
357.988	91.69
358.215	77.69
358.441	94.69
358.668	90.69
358.895	81.69
359.122	83.69
359.349	91.69
359.576	83.69
359.802	83.69
360.029	97.69
360.256	97.69
360.483	91.69
360.709	91.69
360.936	92.69
361.163	88.69
361.39	97.69
361.616	104.69
361.843	100.69
362.07	95.69
362.296	94.69
362.523	73.69
362.749	83.69
362.976	90.69
363.203	85.69
363.429	87.69
363.656	99.69
363.882	90.69
364.109	82.69
364.335	107.69
364.562	100.69
364.788	96.69
365.015	94.69
365.241	97.69
365.468	106.69
365.694	100.69
365.92	75.69
366.147	84.69
366.373	73.69
366.599	83.69
366.826	69.69
367.052	88.69
367.278	96.69
367.505	84.69
367.731	87.69
367.957	78.69
368.184	84.69
368.41	108.69
368.636	101.69
368.862	100.69
369.089	97.69
369.315	103.69
369.541	85.69
369.767	77.69
369.993	72.69
370.219	96.69
370.445	103.69
370.672	87.69
370.898	90.69
371.124	78.69
371.35	85.69
371.576	79.69
371.802	90.69
372.028	92.69
372.254	82.69
372.48	89.69
372.706	73.69
372.932	65.69
373.158	101.69
373.384	101.69
373.61	95.69
373.835	86.69
374.061	105.69
374.287	86.69
374.513	91.69
374.739	89.69
374.965	79.69
375.191	102.69
375.416	72.69
375.642	89.69
375.868	87.69
376.094	89.69
376.319	90.69
376.545	92.69
376.771	98.69
376.997	75.69
377.222	71.69
377.448	92.69
377.674	91.69
377.899	91.69
378.125	85.69
378.35	106.69
378.576	88.69
378.802	105.69
379.027	94.69
379.253	74.69
379.478	84.69
379.704	96.69
379.929	99.69
380.155	91.69
380.38	94.69
380.606	86.69
380.831	95.69
381.057	96.69
381.282	99.69
381.507	104.69
381.733	102.69
381.958	81.69
382.184	88.69
382.409	84.69
382.634	98.69
382.86	99.69
383.085	92.69
383.31	91.69
383.535	91.69
383.761	90.69
383.986	90.69
384.211	104.69
384.436	78.69
384.662	107.69
384.887	110.69
385.112	88.69
385.337	106.69
385.562	84.69
385.787	98.69
386.013	103.69
386.238	84.69
386.463	103.69
386.688	108.69
386.913	104.69
387.138	110.69
387.363	96.69
387.588	100.69
387.813	95.69
388.038	103.69
388.263	112.69
388.488	113.69
388.713	91.69
388.938	86.69
389.163	82.69
389.387	84.69
389.612	81.69
389.837	73.69
390.062	96.69
390.287	83.69
390.512	87.69
390.736	85.69
390.961	95.69
391.186	87.69
391.411	82.69
391.636	96.69
391.86	75.69
392.085	79.69
392.31	82.69
392.534	81.69
392.759	89.69
392.984	94.69
393.208	88.69
393.433	90.69
393.658	91.69
393.882	87.69
394.107	82.69
394.331	79.69
394.556	80.69
394.78	90.69
395.005	92.69
395.229	73.69
395.454	72.69
395.678	94.69
395.903	86.69
396.127	81.69
396.352	84.69
396.576	85.69
396.801	98.69
397.025	90.69
397.249	78.69
397.474	111.69
397.698	83.69
397.922	105.69
398.147	90.69
398.371	94.69
398.595	92.69
398.82	85.69
399.044	75.69
399.268	87.69
399.492	83.69
399.717	91.69
399.941	88.69
400.165	91.69
400.389	82.69
400.613	82.69
400.837	91.69
401.062	89.69
401.286	86.69
401.51	92.69
401.734	86.69
401.958	101.69
402.182	115.69
402.406	128.69
402.63	100.69
402.854	94.69
403.078	79.69
403.302	90.69
403.526	84.69
403.75	87.69
403.974	86.69
404.198	87.69
404.422	88.69
404.645	95.69
404.869	95.69
405.093	107.69
405.317	97.69
405.541	102.69
405.765	90.69
405.988	118.69
406.212	141.69
406.436	186.69
406.66	130.69
406.883	102.69
407.107	105.69
407.331	89.69
407.555	100.69
407.778	98.69
408.002	89.69
408.226	92.69
408.449	93.69
408.673	80.69
408.896	94.69
409.12	90.69
409.344	88.69
409.567	87.69
409.791	93.69
410.014	90.69
410.238	79.69
410.461	78.69
410.685	96.69
410.908	87.69
411.132	95.69
411.355	84.69
411.578	91.69
411.802	90.69
412.025	94.69
412.249	81.69
412.472	103.69
412.695	121.69
412.919	91.69
413.142	99.69
413.365	75.69
413.589	64.69
413.812	89.69
414.035	83.69
414.258	79.69
414.482	105.69
414.705	94.69
414.928	79.69
415.151	92.69
415.374	80.69
415.597	88.69
415.821	77.69
416.044	89.69
416.267	105.69
416.49	92.69
416.713	101.69
416.936	91.69
417.159	84.69
417.382	89.69
417.605	80.69
417.828	78.69
418.051	95.69
418.274	78.69
418.497	86.69
418.72	93.69
418.943	95.69
419.166	96.69
419.389	86.69
419.611	98.69
419.834	88.69
420.057	86.69
420.28	85.69
420.503	99.69
420.726	82.69
420.948	84.69
421.171	81.69
421.394	80.69
421.617	87.69
421.839	84.69
422.062	85.69
422.285	94.69
422.507	106.69
422.73	108.69
422.953	99.69
423.175	82.69
423.398	91.69
423.621	86.69
423.843	101.69
424.066	82.69
424.288	97.69
424.511	78.69
424.733	106.69
424.956	103.69
425.178	113.69
425.401	93.69
425.623	89.69
425.846	94.69
426.068	86.69
426.291	80.69
426.513	98.69
426.735	89.69
426.958	89.69
427.18	93.69
427.402	126.69
427.625	133.69
427.847	131.69
428.069	123.69
428.292	90.69
428.514	83.69
428.736	76.69
428.958	90.69
429.181	66.69
429.403	66.69
429.625	84.69
429.847	87.69
430.069	100.69
430.292	76.69
430.514	89.69
430.736	88.69
430.958	89.69
431.18	68.69
431.402	71.69
431.624	78.69
431.846	82.69
432.068	86.69
432.29	84.69
432.512	68.69
432.734	86.69
432.956	91.69
433.178	83.69
433.4	90.69
433.622	83.69
433.844	73.69
434.066	75.69
434.287	100.69
434.509	96.69
434.731	85.69
434.953	70.69
435.175	83.69
435.397	95.69
435.618	89.69
435.84	107.69
436.062	96.69
436.284	103.69
436.505	94.69
436.727	96.69
436.949	94.69
437.17	96.69
437.392	91.69
437.614	75.69
437.835	89.69
438.057	114.69
438.278	102.69
438.5	104.69
438.721	100.69
438.943	92.69
439.165	90.69
439.386	80.69
439.608	87.69
439.829	106.69
440.05	117.69
440.272	137.69
440.493	97.69
440.715	87.69
440.936	86.69
441.158	91.69
441.379	97.69
441.6	74.69
441.822	90.69
442.043	72.69
442.264	90.69
442.486	97.69
442.707	102.69
442.928	102.69
443.149	107.69
443.371	113.69
443.592	105.69
443.813	91.69
444.034	111.69
444.255	84.69
444.476	88.69
444.698	90.69
444.919	84.69
445.14	131.69
445.361	114.69
445.582	95.69
445.803	106.69
446.024	130.69
446.245	119.69
446.466	104.69
446.687	93.69
446.908	89.69
447.129	87.69
447.35	84.69
447.571	91.69
447.792	92.69
448.013	98.69
448.234	106.69
448.455	93.69
448.675	93.69
448.896	90.69
449.117	106.69
449.338	104.69
449.559	128.69
449.779	115.69
450	102.69
450.221	82.69
450.442	86.69
450.662	81.69
450.883	85.69
451.104	98.69
451.324	90.69
451.545	105.69
451.766	86.69
451.986	93.69
452.207	83.69
452.428	84.69
452.648	102.69
452.869	113.69
453.089	119.69
453.31	101.69
453.53	94.69
453.751	95.69
453.971	91.69
454.192	105.69
454.412	76.69
454.633	83.69
454.853	99.69
455.073	97.69
455.294	92.69
455.514	89.69
455.734	99.69
455.955	85.69
456.175	98.69
456.395	76.69
456.616	87.69
456.836	83.69
457.056	86.69
457.276	78.69
457.497	79.69
457.717	98.69
457.937	94.69
458.157	83.69
458.377	101.69
458.598	95.69
458.818	129.69
459.038	133.69
459.258	108.69
459.478	82.69
459.698	82.69
459.918	87.69
460.138	84.69
460.358	79.69
460.578	88.69
460.798	74.69
461.018	88.69
461.238	74.69
461.458	94.69
461.678	91.69
461.898	82.69
462.118	90.69
462.338	89.69
462.558	89.69
462.777	82.69
462.997	92.69
463.217	97.69
463.437	86.69
463.657	80.69
463.876	85.69
464.096	86.69
464.316	80.69
464.536	97.69
464.755	99.69
464.975	96.69
465.195	143.69
465.414	139.69
465.634	88.69
465.854	83.69
466.073	76.69
466.293	96.69
466.512	86.69
466.732	84.69
466.951	91.69
467.171	91.69
467.391	100.69
467.61	106.69
467.829	89.69
468.049	163.69
468.268	178.69
468.488	101.69
468.707	84.69
468.927	88.69
469.146	80.69
469.365	88.69
469.585	94.69
469.804	91.69
470.023	87.69
470.243	102.69
470.462	98.69
470.681	105.69
470.901	98.69
471.12	78.69
471.339	93.69
471.558	91.69
471.777	99.69
471.997	112.69
472.216	250.69
472.435	441.69
472.654	162.69
472.873	106.69
473.092	98.69
473.311	88.69
473.53	109.69
473.749	87.69
473.968	57.69
474.187	96.69
474.406	75.69
474.625	98.69
474.844	89.69
475.063	83.69
475.282	78.69
475.501	88.69
475.72	91.69
475.939	74.69
476.158	93.69
476.377	92.69
476.596	88.69
476.814	73.69
477.033	86.69
477.252	85.69
477.471	91.69
477.69	96.69
477.908	90.69
478.127	86.69
478.346	78.69
478.564	94.69
478.783	96.69
479.002	97.69
479.22	89.69
479.439	96.69
479.658	94.69
479.876	83.69
480.095	92.69
480.313	103.69
480.532	94.69
480.751	116.69
480.969	243.69
481.188	751.69
481.406	465.69
481.624	119.69
481.843	79.69
482.061	87.69
482.28	90.69
482.498	89.69
482.717	73.69
482.935	88.69
483.153	89.69
483.372	99.69
483.59	79.69
483.808	84.69
484.027	86.69
484.245	90.69
484.463	98.69
484.681	107.69
484.9	87.69
485.118	105.69
485.336	104.69
485.554	94.69
485.772	87.69
485.99	88.69
486.209	97.69
486.427	108.69
486.645	107.69
486.863	107.69
487.081	98.69
487.299	93.69
487.517	110.69
487.735	84.69
487.953	99.69
488.171	79.69
488.389	95.69
488.607	96.69
488.825	83.69
489.043	94.69
489.261	80.69
489.479	91.69
489.696	91.69
489.914	90.69
490.132	94.69
490.35	89.69
490.568	91.69
490.786	94.69
491.003	86.69
491.221	78.69
491.439	75.69
491.657	90.69
491.874	87.69
492.092	93.69
492.31	101.69
492.527	89.69
492.745	93.69
492.963	103.69
493.18	93.69
493.398	92.69
493.615	102.69
493.833	86.69
494.05	107.69
494.268	97.69
494.485	87.69
494.703	84.69
494.92	84.69
495.138	84.69
495.355	98.69
495.573	92.69
495.79	84.69
496.008	103.69
496.225	83.69
496.442	90.69
496.66	90.69
496.877	90.69
497.094	100.69
497.312	80.69
497.529	94.69
497.746	78.69
497.963	87.69
498.181	82.69
498.398	84.69
498.615	104.69
498.832	110.69
499.049	85.69
499.267	90.69
499.484	96.69
499.701	92.69
499.918	92.69
500.135	84.69
500.352	92.69
500.569	87.69
500.786	93.69
501.003	108.69
501.22	94.69
501.437	86.69
501.654	85.69
501.871	107.69
502.088	92.69
502.305	102.69
502.522	97.69
502.739	89.69
502.956	90.69
503.172	83.69
503.389	104.69
503.606	94.69
503.823	79.69
504.04	80.69
504.256	85.69
504.473	78.69
504.69	78.69
504.907	89.69
505.123	86.69
505.34	80.69
505.557	95.69
505.773	77.69
505.99	98.69
506.207	96.69
506.423	76.69
506.64	85.69
506.856	73.69
507.073	87.69
507.289	91.69
507.506	98.69
507.722	104.69
507.939	96.69
508.155	84.69
508.372	92.69
508.588	91.69
508.805	84.69
509.021	95.69
509.238	95.69
509.454	86.69
509.67	100.69
509.887	100.69
510.103	100.69
510.319	197.69
510.536	562.69
510.752	1779.69
510.968	515.69
511.184	135.69
511.401	90.69
511.617	103.69
511.833	108.69
512.049	84.69
512.265	81.69
512.481	91.69
512.698	79.69
512.914	82.69
513.13	104.69
513.346	86.69
513.562	68.69
513.778	99.69
513.994	78.69
514.21	90.69
514.426	101.69
514.642	130.69
514.858	119.69
515.074	150.69
515.29	318.69
515.506	1038.69
515.721	411.69
515.937	124.69
516.153	93.69
