Data from Circ_1984_H10_HRD10591_00018.txt Node
Date: Wed Jan 03 12:22:45 EST 2024
User: Yrep
Spectrometer: HR+D1059
Trigger mode: 1
Integration Time (sec): 1.000000E-1
Scans to average: 1
Electric dark correction enabled: true
Nonlinearity correction enabled: false
Boxcar width: 0
XAxis mode: Wavelengths
Number of Pixels in Spectrum: 2048
>>>>>Begin Spectral Data<<<<<
223.165	0.5
223.4	0.5
223.635	0.5
223.869	-17.5
224.104	-17.5
224.338	-1.5
224.573	-17.5
224.808	-17.5
225.042	-7.5
225.277	-18.5
225.511	1.5
225.746	-9.5
225.98	4.5
226.215	13.5
226.449	22.5
226.683	21.5
226.918	15.5
227.152	27.5
227.387	44.5
227.621	46.5
227.856	61.5
228.09	48.5
228.324	53.5
228.559	56.5
228.793	54.5
229.027	59.5
229.262	64.5
229.496	82.5
229.73	84.5
229.964	83.5
230.199	76.5
230.433	74.5
230.667	78.5
230.901	77.5
231.136	75.5
231.37	84.5
231.604	78.5
231.838	80.5
232.072	70.5
232.306	87.5
232.541	74.5
232.775	84.5
233.009	76.5
233.243	84.5
233.477	83.5
233.711	86.5
233.945	74.5
234.179	84.5
234.413	90.5
234.647	96.5
234.881	94.5
235.115	88.5
235.349	75.5
235.583	80.5
235.817	80.5
236.051	74.5
236.285	74.5
236.519	83.5
236.753	78.5
236.987	82.5
237.221	85.5
237.455	88.5
237.689	87.5
237.922	89.5
238.156	82.5
238.39	80.5
238.624	88.5
238.858	78.5
239.091	82.5
239.325	68.5
239.559	82.5
239.793	71.5
240.027	90.5
240.26	76.5
240.494	82.5
240.728	60.5
240.961	84.5
241.195	67.5
241.429	67.5
241.662	79.5
241.896	83.5
242.13	93.5
242.363	88.5
242.597	83.5
242.83	75.5
243.064	90.5
243.298	84.5
243.531	90.5
243.765	91.5
243.998	83.5
244.232	74.5
244.465	81.5
244.699	94.5
244.932	79.5
245.166	84.5
245.399	90.5
245.633	72.5
245.866	83.5
246.099	86.5
246.333	89.5
246.566	91.5
246.8	69.5
247.033	83.5
247.266	86.5
247.5	83.5
247.733	90.5
247.966	74.5
248.2	80.5
248.433	93.5
248.666	63.5
248.899	80.5
249.133	99.5
249.366	92.5
249.599	88.5
249.832	88.5
250.066	84.5
250.299	71.5
250.532	82.5
250.765	82.5
250.998	83.5
251.231	90.5
251.465	98.5
251.698	86.5
251.931	91.5
252.164	82.5
252.397	74.5
252.63	72.5
252.863	77.5
253.096	94.5
253.329	77.5
253.562	90.5
253.795	82.5
254.028	80.5
254.261	98.5
254.494	90.5
254.727	72.5
254.96	88.5
255.193	75.5
255.426	84.5
255.659	77.5
255.892	88.5
256.124	71.5
256.357	62.5
256.59	71.5
256.823	91.5
257.056	82.5
257.289	87.5
257.521	104.5
257.754	95.5
257.987	80.5
258.22	71.5
258.452	93.5
258.685	86.5
258.918	87.5
259.151	78.5
259.383	72.5
259.616	75.5
259.849	86.5
260.081	83.5
260.314	102.5
260.547	93.5
260.779	83.5
261.012	93.5
261.244	96.5
261.477	90.5
261.71	83.5
261.942	93.5
262.175	89.5
262.407	77.5
262.64	87.5
262.872	74.5
263.105	92.5
263.337	88.5
263.57	86.5
263.802	82.5
264.035	73.5
264.267	92.5
264.499	94.5
264.732	88.5
264.964	85.5
265.197	94.5
265.429	95.5
265.661	89.5
265.894	94.5
266.126	92.5
266.358	76.5
266.591	76.5
266.823	88.5
267.055	91.5
267.287	100.5
267.52	89.5
267.752	86.5
267.984	86.5
268.216	94.5
268.448	90.5
268.681	98.5
268.913	78.5
269.145	90.5
269.377	93.5
269.609	69.5
269.841	75.5
270.073	86.5
270.306	99.5
270.538	86.5
270.77	91.5
271.002	78.5
271.234	84.5
271.466	95.5
271.698	87.5
271.93	74.5
272.162	84.5
272.394	93.5
272.626	87.5
272.858	72.5
273.09	75.5
273.322	94.5
273.553	72.5
273.785	103.5
274.017	95.5
274.249	86.5
274.481	91.5
274.713	95.5
274.945	93.5
275.176	95.5
275.408	90.5
275.64	88.5
275.872	88.5
276.104	79.5
276.335	84.5
276.567	107.5
276.799	100.5
277.031	98.5
277.262	90.5
277.494	97.5
277.726	100.5
277.957	94.5
278.189	84.5
278.421	89.5
278.652	92.5
278.884	87.5
279.115	96.5
279.347	103.5
279.579	87.5
279.81	97.5
280.042	102.5
280.273	97.5
280.505	85.5
280.736	89.5
280.968	95.5
281.199	93.5
281.431	87.5
281.662	96.5
281.894	93.5
282.125	88.5
282.356	121.5
282.588	127.5
282.819	107.5
283.051	91.5
283.282	85.5
283.513	86.5
283.745	93.5
283.976	81.5
284.207	84.5
284.439	82.5
284.67	75.5
284.901	78.5
285.132	78.5
285.364	83.5
285.595	92.5
285.826	77.5
286.057	90.5
286.288	92.5
286.52	97.5
286.751	83.5
286.982	101.5
287.213	88.5
287.444	82.5
287.675	110.5
287.906	91.5
288.138	90.5
288.369	95.5
288.6	95.5
288.831	83.5
289.062	102.5
289.293	98.5
289.524	74.5
289.755	84.5
289.986	88.5
290.217	95.5
290.448	91.5
290.679	111.5
290.91	72.5
291.141	92.5
291.371	82.5
291.602	91.5
291.833	84.5
292.064	95.5
292.295	92.5
292.526	102.5
292.757	89.5
292.987	88.5
293.218	95.5
293.449	87.5
293.68	93.5
293.91	89.5
294.141	104.5
294.372	83.5
294.603	80.5
294.833	79.5
295.064	90.5
295.295	68.5
295.525	87.5
295.756	114.5
295.987	117.5
296.217	130.5
296.448	113.5
296.679	96.5
296.909	98.5
297.14	88.5
297.37	87.5
297.601	85.5
297.831	95.5
298.062	99.5
298.292	93.5
298.523	102.5
298.753	94.5
298.984	84.5
299.214	90.5
299.445	106.5
299.675	99.5
299.905	91.5
300.136	76.5
300.366	86.5
300.597	99.5
300.827	109.5
301.057	95.5
301.288	110.5
301.518	89.5
301.748	95.5
301.979	109.5
302.209	89.5
302.439	89.5
302.669	96.5
302.9	80.5
303.13	100.5
303.36	102.5
303.59	106.5
303.82	106.5
304.051	104.5
304.281	92.5
304.511	97.5
304.741	103.5
304.971	95.5
305.201	98.5
305.431	90.5
305.661	86.5
305.891	93.5
306.121	103.5
306.352	106.5
306.582	107.5
306.812	93.5
307.042	87.5
307.272	103.5
307.502	110.5
307.731	94.5
307.961	97.5
308.191	95.5
308.421	82.5
308.651	94.5
308.881	98.5
309.111	103.5
309.341	109.5
309.571	108.5
309.8	107.5
310.03	93.5
310.26	102.5
310.49	109.5
310.72	114.5
310.949	102.5
311.179	95.5
311.409	95.5
311.639	107.5
311.868	91.5
312.098	99.5
312.328	102.5
312.557	98.5
312.787	90.5
313.017	93.5
313.246	111.5
313.476	94.5
313.706	91.5
313.935	103.5
314.165	96.5
314.394	104.5
314.624	97.5
314.853	98.5
315.083	92.5
315.312	95.5
315.542	97.5
315.771	101.5
316.001	109.5
316.23	105.5
316.46	79.5
316.689	104.5
316.919	89.5
317.148	98.5
317.377	100.5
317.607	91.5
317.836	102.5
318.065	79.5
318.295	94.5
318.524	109.5
318.753	105.5
318.983	91.5
319.212	106.5
319.441	108.5
319.67	102.5
319.9	94.5
320.129	103.5
320.358	107.5
320.587	98.5
320.816	86.5
321.046	111.5
321.275	112.5
321.504	95.5
321.733	93.5
321.962	88.5
322.191	108.5
322.42	105.5
322.649	120.5
322.878	112.5
323.108	116.5
323.337	119.5
323.566	124.5
323.795	140.5
324.024	168.5
324.253	318.5
324.482	640.5
324.71	1271.5
324.939	1679.5
325.168	660.5
325.397	220.5
325.626	125.5
325.855	125.5
326.084	133.5
326.313	124.5
326.542	140.5
326.77	195.5
326.999	349.5
327.228	730.5
327.457	1277.5
327.686	1050.5
327.914	300.5
328.143	198.5
328.372	156.5
328.6	135.5
328.829	114.5
329.058	111.5
329.287	126.5
329.515	111.5
329.744	98.5
329.972	125.5
330.201	144.5
330.43	185.5
330.658	129.5
330.887	137.5
331.115	122.5
331.344	109.5
331.572	100.5
331.801	103.5
332.03	90.5
332.258	104.5
332.486	91.5
332.715	107.5
332.943	88.5
333.172	102.5
333.4	104.5
333.629	111.5
333.857	122.5
334.085	112.5
334.314	160.5
334.542	202.5
334.771	183.5
334.999	102.5
335.227	109.5
335.455	110.5
335.684	84.5
335.912	107.5
336.14	102.5
336.369	101.5
336.597	107.5
336.825	102.5
337.053	112.5
337.281	95.5
337.51	96.5
337.738	90.5
337.966	88.5
338.194	99.5
338.422	91.5
338.65	99.5
338.878	98.5
339.106	102.5
339.334	103.5
339.562	78.5
339.79	86.5
340.018	91.5
340.246	100.5
340.474	98.5
340.702	103.5
340.93	101.5
341.158	107.5
341.386	92.5
341.614	85.5
341.842	94.5
342.07	102.5
342.298	102.5
342.526	101.5
342.754	100.5
342.981	94.5
343.209	86.5
343.437	108.5
343.665	97.5
343.893	98.5
344.12	84.5
344.348	100.5
344.576	82.5
344.804	100.5
345.031	98.5
345.259	105.5
345.487	93.5
345.714	108.5
345.942	91.5
346.17	112.5
346.397	102.5
346.625	91.5
346.853	90.5
347.08	98.5
347.308	90.5
347.535	99.5
347.763	88.5
347.99	101.5
348.218	105.5
348.445	101.5
348.673	102.5
348.9	106.5
349.128	98.5
349.355	98.5
349.583	95.5
349.81	91.5
350.037	99.5
350.265	86.5
350.492	94.5
350.72	82.5
350.947	104.5
351.174	110.5
351.402	108.5
351.629	77.5
351.856	96.5
352.083	112.5
352.311	112.5
352.538	98.5
352.765	99.5
352.992	108.5
353.22	109.5
353.447	112.5
353.674	112.5
353.901	105.5
354.128	85.5
354.355	93.5
354.583	118.5
354.81	94.5
355.037	92.5
355.264	96.5
355.491	92.5
355.718	94.5
355.945	105.5
356.172	108.5
356.399	101.5
356.626	107.5
356.853	98.5
357.08	102.5
357.307	98.5
357.534	105.5
357.761	87.5
357.988	102.5
358.215	103.5
358.441	101.5
358.668	102.5
358.895	95.5
359.122	91.5
359.349	98.5
359.576	103.5
359.802	102.5
360.029	122.5
360.256	107.5
360.483	109.5
360.709	102.5
360.936	100.5
361.163	87.5
361.39	92.5
361.616	87.5
361.843	92.5
362.07	91.5
362.296	91.5
362.523	94.5
362.749	104.5
362.976	93.5
363.203	93.5
363.429	98.5
363.656	107.5
363.882	88.5
364.109	85.5
364.335	90.5
364.562	86.5
364.788	87.5
365.015	106.5
365.241	92.5
365.468	98.5
365.694	104.5
365.92	105.5
366.147	113.5
366.373	82.5
366.599	84.5
366.826	93.5
367.052	82.5
367.278	99.5
367.505	102.5
367.731	99.5
367.957	84.5
368.184	116.5
368.41	103.5
368.636	103.5
368.862	126.5
369.089	102.5
369.315	85.5
369.541	103.5
369.767	97.5
369.993	93.5
370.219	109.5
370.445	100.5
370.672	91.5
370.898	90.5
371.124	99.5
371.35	85.5
371.576	98.5
371.802	84.5
372.028	84.5
372.254	100.5
372.48	78.5
372.706	78.5
372.932	93.5
373.158	94.5
373.384	80.5
373.61	80.5
373.835	107.5
374.061	92.5
374.287	99.5
374.513	116.5
374.739	95.5
374.965	102.5
375.191	83.5
375.416	96.5
375.642	104.5
375.868	100.5
376.094	82.5
376.319	84.5
376.545	93.5
376.771	93.5
376.997	90.5
377.222	96.5
377.448	90.5
377.674	108.5
377.899	90.5
378.125	97.5
378.35	103.5
378.576	97.5
378.802	95.5
379.027	86.5
379.253	84.5
379.478	88.5
379.704	102.5
379.929	100.5
380.155	97.5
380.38	100.5
380.606	107.5
380.831	94.5
381.057	118.5
381.282	112.5
381.507	110.5
381.733	87.5
381.958	95.5
382.184	108.5
382.409	103.5
382.634	107.5
382.86	97.5
383.085	111.5
383.31	101.5
383.535	112.5
383.761	102.5
383.986	103.5
384.211	99.5
384.436	92.5
384.662	109.5
384.887	109.5
385.112	126.5
385.337	107.5
385.562	128.5
385.787	109.5
386.013	125.5
386.238	125.5
386.463	136.5
386.688	117.5
386.913	112.5
387.138	118.5
387.363	112.5
387.588	112.5
387.813	110.5
388.038	122.5
388.263	112.5
388.488	123.5
388.713	91.5
388.938	101.5
389.163	101.5
389.387	101.5
389.612	96.5
389.837	98.5
390.062	108.5
390.287	103.5
390.512	103.5
390.736	104.5
390.961	100.5
391.186	90.5
391.411	91.5
391.636	84.5
391.86	91.5
392.085	97.5
392.31	101.5
392.534	94.5
392.759	97.5
392.984	104.5
393.208	110.5
393.433	110.5
393.658	101.5
393.882	86.5
394.107	78.5
394.331	107.5
394.556	94.5
394.78	105.5
395.005	99.5
395.229	98.5
395.454	96.5
395.678	91.5
395.903	92.5
396.127	94.5
396.352	84.5
396.576	94.5
396.801	103.5
397.025	125.5
397.249	101.5
397.474	77.5
397.698	91.5
397.922	104.5
398.147	91.5
398.371	84.5
398.595	95.5
398.82	90.5
399.044	105.5
399.268	86.5
399.492	80.5
399.717	100.5
399.941	99.5
400.165	108.5
400.389	90.5
400.613	94.5
400.837	87.5
401.062	100.5
401.286	75.5
401.51	87.5
401.734	101.5
401.958	97.5
402.182	116.5
402.406	150.5
402.63	115.5
402.854	86.5
403.078	95.5
403.302	96.5
403.526	87.5
403.75	89.5
403.974	98.5
404.198	95.5
404.422	98.5
404.645	84.5
404.869	93.5
405.093	92.5
405.317	100.5
405.541	111.5
405.765	92.5
405.988	123.5
406.212	158.5
406.436	202.5
406.66	135.5
406.883	110.5
407.107	99.5
407.331	94.5
407.555	92.5
407.778	111.5
408.002	96.5
408.226	100.5
408.449	95.5
408.673	103.5
408.896	94.5
409.12	96.5
409.344	97.5
409.567	98.5
409.791	97.5
410.014	109.5
410.238	107.5
410.461	95.5
410.685	92.5
410.908	98.5
411.132	117.5
411.355	96.5
411.578	93.5
411.802	93.5
412.025	104.5
412.249	93.5
412.472	96.5
412.695	95.5
412.919	91.5
413.142	90.5
413.365	89.5
413.589	86.5
413.812	80.5
414.035	111.5
414.258	102.5
414.482	85.5
414.705	105.5
414.928	86.5
415.151	92.5
415.374	94.5
415.597	99.5
415.821	78.5
416.044	86.5
416.267	84.5
416.49	87.5
416.713	99.5
416.936	98.5
417.159	68.5
417.382	89.5
417.605	109.5
417.828	88.5
418.051	86.5
418.274	92.5
418.497	94.5
418.72	100.5
418.943	102.5
419.166	112.5
419.389	91.5
419.611	106.5
419.834	98.5
420.057	96.5
420.28	96.5
420.503	87.5
420.726	86.5
420.948	96.5
421.171	100.5
421.394	96.5
421.617	92.5
421.839	90.5
422.062	91.5
422.285	87.5
422.507	106.5
422.73	122.5
422.953	95.5
423.175	90.5
423.398	102.5
423.621	95.5
423.843	76.5
424.066	89.5
424.288	96.5
424.511	91.5
424.733	100.5
424.956	115.5
425.178	111.5
425.401	111.5
425.623	101.5
425.846	98.5
426.068	99.5
426.291	96.5
426.513	78.5
426.735	84.5
426.958	96.5
427.18	92.5
427.402	131.5
427.625	162.5
427.847	124.5
428.069	116.5
428.292	100.5
428.514	95.5
428.736	97.5
428.958	88.5
429.181	88.5
429.403	103.5
429.625	95.5
429.847	95.5
430.069	105.5
430.292	85.5
430.514	79.5
430.736	96.5
430.958	84.5
431.18	72.5
431.402	89.5
431.624	82.5
431.846	97.5
432.068	88.5
432.29	92.5
432.512	102.5
432.734	96.5
432.956	99.5
433.178	102.5
433.4	106.5
433.622	101.5
433.844	84.5
434.066	86.5
434.287	92.5
434.509	89.5
434.731	84.5
434.953	92.5
435.175	90.5
435.397	104.5
435.618	89.5
435.84	104.5
436.062	108.5
436.284	111.5
436.505	97.5
436.727	107.5
436.949	102.5
437.17	102.5
437.392	84.5
437.614	101.5
437.835	103.5
438.057	109.5
438.278	107.5
438.5	106.5
438.721	122.5
438.943	112.5
439.165	88.5
439.386	83.5
439.608	100.5
439.829	97.5
440.05	111.5
440.272	133.5
440.493	82.5
440.715	93.5
440.936	85.5
441.158	98.5
441.379	79.5
441.6	113.5
441.822	93.5
442.043	107.5
442.264	108.5
442.486	104.5
442.707	105.5
442.928	86.5
443.149	108.5
443.371	117.5
443.592	104.5
443.813	88.5
444.034	107.5
444.255	94.5
444.476	91.5
444.698	84.5
444.919	90.5
445.14	126.5
445.361	122.5
445.582	107.5
445.803	121.5
446.024	101.5
446.245	121.5
446.466	107.5
446.687	92.5
446.908	102.5
447.129	91.5
447.35	100.5
447.571	92.5
447.792	102.5
448.013	95.5
448.234	102.5
448.455	100.5
448.675	111.5
448.896	122.5
449.117	110.5
449.338	114.5
449.559	136.5
449.779	131.5
450	86.5
450.221	100.5
450.442	101.5
450.662	102.5
450.883	103.5
451.104	114.5
451.324	107.5
451.545	101.5
451.766	95.5
451.986	88.5
452.207	91.5
452.428	94.5
452.648	95.5
452.869	108.5
453.089	118.5
453.31	105.5
453.53	96.5
453.751	94.5
453.971	101.5
454.192	108.5
454.412	85.5
454.633	93.5
454.853	101.5
455.073	90.5
455.294	82.5
455.514	93.5
455.734	101.5
455.955	71.5
456.175	87.5
456.395	83.5
456.616	90.5
456.836	93.5
457.056	98.5
457.276	75.5
457.497	74.5
457.717	84.5
457.937	95.5
458.157	86.5
458.377	91.5
458.598	103.5
458.818	131.5
459.038	143.5
459.258	116.5
459.478	88.5
459.698	87.5
459.918	79.5
460.138	91.5
460.358	87.5
460.578	86.5
460.798	98.5
461.018	95.5
461.238	102.5
461.458	88.5
461.678	90.5
461.898	94.5
462.118	103.5
462.338	90.5
462.558	74.5
462.777	111.5
462.997	90.5
463.217	79.5
463.437	92.5
463.657	88.5
463.876	94.5
464.096	89.5
464.316	103.5
464.536	95.5
464.755	93.5
464.975	103.5
465.195	139.5
465.414	136.5
465.634	106.5
465.854	106.5
466.073	82.5
466.293	90.5
466.512	83.5
466.732	86.5
466.951	107.5
467.171	84.5
467.391	99.5
467.61	107.5
467.829	94.5
468.049	115.5
468.268	125.5
468.488	95.5
468.707	95.5
468.927	91.5
469.146	85.5
469.365	82.5
469.585	83.5
469.804	95.5
470.023	84.5
470.243	96.5
470.462	104.5
470.681	95.5
470.901	99.5
471.12	90.5
471.339	86.5
471.558	95.5
471.777	95.5
471.997	94.5
472.216	150.5
472.435	230.5
472.654	114.5
472.873	104.5
473.092	84.5
473.311	85.5
473.53	88.5
473.749	82.5
473.968	89.5
474.187	95.5
474.406	112.5
474.625	101.5
474.844	91.5
475.063	89.5
475.282	76.5
475.501	72.5
475.72	83.5
475.939	92.5
476.158	86.5
476.377	84.5
476.596	101.5
476.814	104.5
477.033	84.5
477.252	89.5
477.471	95.5
477.69	82.5
477.908	99.5
478.127	96.5
478.346	88.5
478.564	100.5
478.783	91.5
479.002	100.5
479.22	104.5
479.439	95.5
479.658	97.5
479.876	106.5
480.095	95.5
480.313	101.5
480.532	90.5
480.751	103.5
480.969	160.5
481.188	366.5
481.406	258.5
481.624	106.5
481.843	99.5
482.061	88.5
482.28	97.5
482.498	95.5
482.717	82.5
482.935	107.5
483.153	95.5
483.372	82.5
483.59	101.5
483.808	106.5
484.027	109.5
484.245	102.5
484.463	90.5
484.681	86.5
484.9	91.5
485.118	105.5
485.336	90.5
485.554	102.5
485.772	89.5
485.99	110.5
486.209	93.5
486.427	114.5
486.645	116.5
486.863	106.5
487.081	96.5
487.299	104.5
487.517	102.5
487.735	106.5
487.953	100.5
488.171	98.5
488.389	107.5
488.607	98.5
488.825	95.5
489.043	86.5
489.261	91.5
489.479	92.5
489.696	93.5
489.914	90.5
490.132	98.5
490.35	85.5
490.568	91.5
490.786	87.5
491.003	85.5
491.221	99.5
491.439	94.5
491.657	99.5
491.874	85.5
492.092	102.5
492.31	85.5
492.527	77.5
492.745	95.5
492.963	92.5
493.18	102.5
493.398	107.5
493.615	98.5
493.833	92.5
494.05	89.5
494.268	111.5
494.485	95.5
494.703	78.5
494.92	80.5
495.138	86.5
495.355	79.5
495.573	96.5
495.79	80.5
496.008	104.5
496.225	94.5
496.442	79.5
496.66	100.5
496.877	108.5
497.094	97.5
497.312	85.5
497.529	87.5
497.746	108.5
497.963	90.5
498.181	92.5
498.398	83.5
498.615	115.5
498.832	115.5
499.049	91.5
499.267	93.5
499.484	98.5
499.701	88.5
499.918	114.5
500.135	88.5
500.352	94.5
500.569	88.5
500.786	109.5
501.003	92.5
501.22	79.5
501.437	86.5
501.654	88.5
501.871	103.5
502.088	93.5
502.305	95.5
502.522	95.5
502.739	93.5
502.956	93.5
503.172	87.5
503.389	99.5
503.606	100.5
503.823	86.5
504.04	90.5
504.256	96.5
504.473	102.5
504.69	86.5
504.907	85.5
505.123	90.5
505.34	101.5
505.557	79.5
505.773	91.5
505.99	95.5
506.207	95.5
506.423	88.5
506.64	100.5
506.856	88.5
507.073	96.5
507.289	96.5
507.506	110.5
507.722	95.5
507.939	105.5
508.155	84.5
508.372	102.5
508.588	97.5
508.805	94.5
509.021	90.5
509.238	104.5
509.454	100.5
509.67	95.5
509.887	109.5
510.103	106.5
510.319	185.5
510.536	606.5
510.752	1872.5
510.968	544.5
511.184	137.5
511.401	108.5
511.617	80.5
511.833	98.5
512.049	88.5
512.265	84.5
512.481	90.5
512.698	79.5
512.914	89.5
513.13	93.5
513.346	89.5
513.562	86.5
513.778	100.5
513.994	95.5
514.21	107.5
514.426	129.5
514.642	116.5
514.858	120.5
515.074	134.5
515.29	341.5
515.506	1096.5
515.721	412.5
515.937	130.5
516.153	102.5
516.369	105.5
516.585	90.5
516.801	82.5
517.016	100.5
517.232	89.5
517.448	90.5
517.664	89.5
517.879	95.5
518.095	88.5
518.311	94.5
518.527	113.5
518.742	108.5
518.958	99.5
519.173	100.5
519.389	100.5
519.605	103.5
519.82	100.5
520.036	92.5
520.251	113.5
520.467	109.5
520.682	100.5
520.898	112.5
521.113	110.5
521.329	121.5
521.544	179.5
521.76	438.5
521.975	1775.5
522.19	1080.5
522.406	263.5
522.621	109.5
522.836	118.5
523.052	80.5
523.267	91.5
523.482	86.5
523.698	86.5
523.913	108.5
524.128	86.5
524.343	100.5
524.559	95.5
524.774	94.5
524.989	104.5
525.204	98.5
525.419	85.5
525.634	90.5
525.849	96.5
526.064	89.5
526.28	100.5
526.495	88.5
526.71	88.5
526.925	94.5
527.14	92.5
527.355	92.5
527.57	89.5
527.785	93.5
527.999	92.5
528.214	88.5
528.429	100.5
528.644	93.5
528.859	89.5
529.074	92.5
529.289	103.5
529.503	144.5
529.718	93.5
529.933	93.5
530.148	95.5
530.363	101.5
530.577	92.5
530.792	95.5
531.007	113.5
531.221	96.5
531.436	84.5
531.651	91.5
531.865	111.5
532.08	100.5
532.295	86.5
532.509	92.5
532.724	92.5
532.938	95.5
533.153	91.5
