Data from Circ_1984_H10_HRD10591_00096.txt Node
Date: Wed Jan 03 12:23:01 EST 2024
User: Yrep
Spectrometer: HR+D1059
Trigger mode: 1
Integration Time (sec): 1.000000E-1
Scans to average: 1
Electric dark correction enabled: true
Nonlinearity correction enabled: false
Boxcar width: 0
XAxis mode: Wavelengths
Number of Pixels in Spectrum: 2048
>>>>>Begin Spectral Data<<<<<
223.165	-27.06
223.4	-27.06
223.635	-27.06
223.869	-14.06
224.104	-32.06
224.338	-13.06
224.573	-13.06
224.808	-19.06
225.042	12.94
225.277	-7.06
225.511	-6.06
225.746	10.94
225.98	3.94
226.215	5.94
226.449	4.94
226.683	29.94
226.918	23.94
227.152	38.94
227.387	51.94
227.621	49.94
227.856	39.94
228.09	49.94
228.324	48.94
228.559	51.94
228.793	62.94
229.027	72.94
229.262	73.94
229.496	72.94
229.73	88.94
229.964	85.94
230.199	64.94
230.433	72.94
230.667	83.94
230.901	70.94
231.136	76.94
231.37	75.94
231.604	83.94
231.838	80.94
232.072	88.94
232.306	77.94
232.541	95.94
232.775	87.94
233.009	82.94
233.243	89.94
233.477	84.94
233.711	70.94
233.945	70.94
234.179	85.94
234.413	87.94
234.647	79.94
234.881	88.94
235.115	94.94
235.349	73.94
235.583	88.94
235.817	89.94
236.051	68.94
236.285	71.94
236.519	76.94
236.753	72.94
236.987	86.94
237.221	75.94
237.455	98.94
237.689	69.94
237.922	74.94
238.156	60.94
238.39	92.94
238.624	94.94
238.858	85.94
239.091	85.94
239.325	73.94
239.559	79.94
239.793	81.94
240.027	80.94
240.26	83.94
240.494	81.94
240.728	81.94
240.961	73.94
241.195	65.94
241.429	76.94
241.662	68.94
241.896	59.94
242.13	71.94
242.363	71.94
242.597	71.94
242.83	84.94
243.064	93.94
243.298	79.94
243.531	93.94
243.765	83.94
243.998	68.94
244.232	82.94
244.465	72.94
244.699	70.94
244.932	85.94
245.166	85.94
245.399	83.94
245.633	88.94
245.866	75.94
246.099	82.94
246.333	79.94
246.566	76.94
246.8	83.94
247.033	76.94
247.266	93.94
247.5	83.94
247.733	66.94
247.966	79.94
248.2	57.94
248.433	87.94
248.666	88.94
248.899	73.94
249.133	92.94
249.366	89.94
249.599	91.94
249.832	88.94
250.066	75.94
250.299	71.94
250.532	83.94
250.765	78.94
250.998	81.94
251.231	76.94
251.465	83.94
251.698	83.94
251.931	86.94
252.164	86.94
252.397	62.94
252.63	71.94
252.863	74.94
253.096	71.94
253.329	88.94
253.562	77.94
253.795	83.94
254.028	84.94
254.261	74.94
254.494	90.94
254.727	86.94
254.96	91.94
255.193	81.94
255.426	74.94
255.659	86.94
255.892	92.94
256.124	76.94
256.357	88.94
256.59	66.94
256.823	83.94
257.056	68.94
257.289	88.94
257.521	86.94
257.754	75.94
257.987	76.94
258.22	79.94
258.452	83.94
258.685	75.94
258.918	70.94
259.151	81.94
259.383	79.94
259.616	82.94
259.849	73.94
260.081	102.94
260.314	78.94
260.547	76.94
260.779	77.94
261.012	91.94
261.244	94.94
261.477	85.94
261.71	98.94
261.942	87.94
262.175	97.94
262.407	101.94
262.64	93.94
262.872	87.94
263.105	91.94
263.337	79.94
263.57	84.94
263.802	76.94
264.035	78.94
264.267	89.94
264.499	89.94
264.732	77.94
264.964	78.94
265.197	99.94
265.429	93.94
265.661	91.94
265.894	88.94
266.126	84.94
266.358	81.94
266.591	97.94
266.823	96.94
267.055	70.94
267.287	109.94
267.52	89.94
267.752	84.94
267.984	99.94
268.216	95.94
268.448	101.94
268.681	80.94
268.913	79.94
269.145	83.94
269.377	85.94
269.609	86.94
269.841	79.94
270.073	72.94
270.306	90.94
270.538	84.94
270.77	84.94
271.002	77.94
271.234	90.94
271.466	89.94
271.698	79.94
271.93	95.94
272.162	85.94
272.394	88.94
272.626	84.94
272.858	87.94
273.09	67.94
273.322	81.94
273.553	84.94
273.785	79.94
274.017	87.94
274.249	82.94
274.481	98.94
274.713	89.94
274.945	70.94
275.176	94.94
275.408	87.94
275.64	95.94
275.872	99.94
276.104	105.94
276.335	74.94
276.567	100.94
276.799	107.94
277.031	99.94
277.262	92.94
277.494	98.94
277.726	83.94
277.957	90.94
278.189	95.94
278.421	104.94
278.652	91.94
278.884	82.94
279.115	98.94
279.347	108.94
279.579	85.94
279.81	82.94
280.042	97.94
280.273	102.94
280.505	86.94
280.736	109.94
280.968	87.94
281.199	91.94
281.431	82.94
281.662	104.94
281.894	97.94
282.125	89.94
282.356	108.94
282.588	132.94
282.819	115.94
283.051	92.94
283.282	83.94
283.513	93.94
283.745	86.94
283.976	87.94
284.207	94.94
284.439	99.94
284.67	92.94
284.901	98.94
285.132	84.94
285.364	97.94
285.595	100.94
285.826	88.94
286.057	88.94
286.288	88.94
286.52	90.94
286.751	91.94
286.982	105.94
287.213	84.94
287.444	90.94
287.675	85.94
287.906	87.94
288.138	100.94
288.369	89.94
288.6	101.94
288.831	83.94
289.062	87.94
289.293	83.94
289.524	86.94
289.755	73.94
289.986	88.94
290.217	81.94
290.448	82.94
290.679	89.94
290.91	87.94
291.141	90.94
291.371	104.94
291.602	90.94
291.833	92.94
292.064	99.94
292.295	101.94
292.526	83.94
292.757	93.94
292.987	89.94
293.218	83.94
293.449	81.94
293.68	88.94
293.91	87.94
294.141	91.94
294.372	96.94
294.603	91.94
294.833	95.94
295.064	90.94
295.295	91.94
295.525	85.94
295.756	90.94
295.987	101.94
296.217	133.94
296.448	113.94
296.679	95.94
296.909	93.94
297.14	75.94
297.37	85.94
297.601	77.94
297.831	83.94
298.062	85.94
298.292	98.94
298.523	87.94
298.753	94.94
298.984	102.94
299.214	93.94
299.445	101.94
299.675	96.94
299.905	92.94
300.136	96.94
300.366	111.94
300.597	88.94
300.827	99.94
301.057	92.94
301.288	102.94
301.518	101.94
301.748	103.94
301.979	101.94
302.209	98.94
302.439	85.94
302.669	81.94
302.9	92.94
303.13	103.94
303.36	99.94
303.59	95.94
303.82	107.94
304.051	91.94
304.281	86.94
304.511	87.94
304.741	74.94
304.971	97.94
305.201	87.94
305.431	101.94
305.661	90.94
305.891	88.94
306.121	90.94
306.352	88.94
306.582	98.94
306.812	106.94
307.042	99.94
307.272	108.94
307.502	94.94
307.731	112.94
307.961	111.94
308.191	90.94
308.421	92.94
308.651	92.94
308.881	99.94
309.111	97.94
309.341	93.94
309.571	104.94
309.8	88.94
310.03	95.94
310.26	79.94
310.49	104.94
310.72	90.94
310.949	106.94
311.179	91.94
311.409	105.94
311.639	95.94
311.868	87.94
312.098	100.94
312.328	95.94
312.557	85.94
312.787	94.94
313.017	83.94
313.246	92.94
313.476	93.94
313.706	88.94
313.935	75.94
314.165	100.94
314.394	95.94
314.624	107.94
314.853	100.94
315.083	103.94
315.312	102.94
315.542	93.94
315.771	95.94
316.001	95.94
316.23	86.94
316.46	100.94
316.689	98.94
316.919	96.94
317.148	103.94
317.377	109.94
317.607	100.94
317.836	88.94
318.065	81.94
318.295	98.94
318.524	87.94
318.753	87.94
318.983	92.94
319.212	100.94
319.441	94.94
319.67	98.94
319.9	84.94
320.129	92.94
320.358	95.94
320.587	84.94
320.816	99.94
321.046	101.94
321.275	103.94
321.504	91.94
321.733	89.94
321.962	99.94
322.191	90.94
322.42	98.94
322.649	112.94
322.878	105.94
323.108	91.94
323.337	124.94
323.566	130.94
323.795	115.94
324.024	172.94
324.253	292.94
324.482	614.94
324.71	1284.94
324.939	1716.94
325.168	648.94
325.397	214.94
325.626	127.94
325.855	117.94
326.084	114.94
326.313	137.94
326.542	141.94
326.77	178.94
326.999	357.94
327.228	708.94
327.457	1339.94
327.686	1055.94
327.914	303.94
328.143	226.94
328.372	191.94
328.6	136.94
328.829	124.94
329.058	121.94
329.287	133.94
329.515	116.94
329.744	127.94
329.972	157.94
330.201	259.94
330.43	316.94
330.658	194.94
330.887	136.94
331.115	121.94
331.344	102.94
331.572	95.94
331.801	96.94
332.03	88.94
332.258	86.94
332.486	98.94
332.715	109.94
332.943	98.94
333.172	99.94
333.4	93.94
333.629	104.94
333.857	127.94
334.085	146.94
334.314	229.94
334.542	417.94
334.771	371.94
334.999	143.94
335.227	90.94
335.455	106.94
335.684	102.94
335.912	108.94
336.14	94.94
336.369	104.94
336.597	106.94
336.825	91.94
337.053	97.94
337.281	92.94
337.51	86.94
337.738	89.94
337.966	101.94
338.194	92.94
338.422	87.94
338.65	81.94
338.878	95.94
339.106	82.94
339.334	85.94
339.562	82.94
339.79	91.94
340.018	101.94
340.246	89.94
340.474	92.94
340.702	93.94
340.93	94.94
341.158	95.94
341.386	93.94
341.614	97.94
341.842	77.94
342.07	91.94
342.298	84.94
342.526	88.94
342.754	104.94
342.981	91.94
343.209	87.94
343.437	98.94
343.665	91.94
343.893	87.94
344.12	88.94
344.348	86.94
344.576	102.94
344.804	105.94
345.031	99.94
345.259	106.94
345.487	99.94
345.714	82.94
345.942	105.94
346.17	81.94
346.397	89.94
346.625	99.94
346.853	88.94
347.08	100.94
347.308	82.94
347.535	95.94
347.763	104.94
347.99	103.94
348.218	88.94
348.445	95.94
348.673	97.94
348.9	107.94
349.128	88.94
349.355	105.94
349.583	80.94
349.81	87.94
350.037	95.94
350.265	91.94
350.492	90.94
350.72	95.94
350.947	96.94
351.174	97.94
351.402	90.94
351.629	107.94
351.856	99.94
352.083	89.94
352.311	92.94
352.538	103.94
352.765	100.94
352.992	118.94
353.22	119.94
353.447	100.94
353.674	92.94
353.901	103.94
354.128	79.94
354.355	102.94
354.583	89.94
354.81	109.94
355.037	98.94
355.264	80.94
355.491	87.94
355.718	89.94
355.945	100.94
356.172	83.94
356.399	94.94
356.626	108.94
356.853	88.94
357.08	85.94
357.307	100.94
357.534	80.94
357.761	103.94
357.988	85.94
358.215	87.94
358.441	85.94
358.668	101.94
358.895	86.94
359.122	99.94
359.349	107.94
359.576	87.94
359.802	99.94
360.029	107.94
360.256	111.94
360.483	95.94
360.709	85.94
360.936	91.94
361.163	91.94
361.39	102.94
361.616	92.94
361.843	92.94
362.07	104.94
362.296	103.94
362.523	97.94
362.749	93.94
362.976	92.94
363.203	88.94
363.429	84.94
363.656	93.94
363.882	99.94
364.109	103.94
364.335	90.94
364.562	95.94
364.788	93.94
365.015	93.94
365.241	103.94
365.468	95.94
365.694	92.94
365.92	97.94
366.147	108.94
366.373	79.94
366.599	85.94
366.826	85.94
367.052	103.94
367.278	97.94
367.505	92.94
367.731	89.94
367.957	87.94
368.184	96.94
368.41	89.94
368.636	99.94
368.862	112.94
369.089	113.94
369.315	91.94
369.541	80.94
369.767	97.94
369.993	95.94
370.219	79.94
370.445	84.94
370.672	83.94
370.898	95.94
371.124	96.94
371.35	95.94
371.576	92.94
371.802	102.94
372.028	78.94
372.254	88.94
372.48	72.94
372.706	85.94
372.932	85.94
373.158	96.94
373.384	96.94
373.61	107.94
373.835	87.94
374.061	83.94
374.287	97.94
374.513	91.94
374.739	85.94
374.965	80.94
375.191	81.94
375.416	89.94
375.642	89.94
375.868	64.94
376.094	75.94
376.319	93.94
376.545	97.94
376.771	87.94
376.997	83.94
377.222	76.94
377.448	95.94
377.674	92.94
377.899	93.94
378.125	89.94
378.35	96.94
378.576	109.94
378.802	99.94
379.027	88.94
379.253	94.94
379.478	85.94
379.704	98.94
379.929	106.94
380.155	83.94
380.38	88.94
380.606	86.94
380.831	86.94
381.057	107.94
381.282	100.94
381.507	103.94
381.733	94.94
381.958	89.94
382.184	99.94
382.409	88.94
382.634	95.94
382.86	104.94
383.085	92.94
383.31	107.94
383.535	92.94
383.761	87.94
383.986	99.94
384.211	99.94
384.436	94.94
384.662	99.94
384.887	101.94
385.112	106.94
385.337	104.94
385.562	101.94
385.787	96.94
386.013	96.94
386.238	95.94
386.463	93.94
386.688	100.94
386.913	106.94
387.138	100.94
387.363	98.94
387.588	99.94
387.813	100.94
388.038	102.94
388.263	106.94
388.488	100.94
388.713	92.94
388.938	97.94
389.163	94.94
389.387	109.94
389.612	85.94
389.837	83.94
390.062	97.94
390.287	92.94
390.512	86.94
390.736	103.94
390.961	96.94
391.186	75.94
391.411	89.94
391.636	98.94
391.86	85.94
392.085	76.94
392.31	74.94
392.534	88.94
392.759	77.94
392.984	85.94
393.208	96.94
393.433	83.94
393.658	89.94
393.882	75.94
394.107	73.94
394.331	79.94
394.556	79.94
394.78	93.94
395.005	99.94
395.229	97.94
395.454	88.94
395.678	87.94
395.903	89.94
396.127	82.94
396.352	80.94
396.576	99.94
396.801	96.94
397.025	101.94
397.249	96.94
397.474	97.94
397.698	86.94
397.922	73.94
398.147	88.94
398.371	79.94
398.595	93.94
398.82	87.94
399.044	91.94
399.268	90.94
399.492	88.94
399.717	90.94
399.941	83.94
400.165	91.94
400.389	87.94
400.613	81.94
400.837	88.94
401.062	103.94
401.286	99.94
401.51	80.94
401.734	91.94
401.958	104.94
402.182	105.94
402.406	135.94
402.63	116.94
402.854	88.94
403.078	95.94
403.302	87.94
403.526	80.94
403.75	71.94
403.974	84.94
404.198	94.94
404.422	83.94
404.645	81.94
404.869	87.94
405.093	92.94
405.317	105.94
405.541	99.94
405.765	102.94
405.988	111.94
406.212	148.94
406.436	178.94
406.66	115.94
406.883	97.94
407.107	104.94
407.331	91.94
407.555	75.94
407.778	83.94
408.002	82.94
408.226	81.94
408.449	75.94
408.673	100.94
408.896	75.94
409.12	107.94
409.344	93.94
409.567	85.94
409.791	97.94
410.014	106.94
410.238	84.94
410.461	87.94
410.685	85.94
410.908	95.94
411.132	101.94
411.355	91.94
411.578	91.94
411.802	104.94
412.025	92.94
412.249	97.94
412.472	89.94
412.695	105.94
412.919	96.94
413.142	89.94
413.365	85.94
413.589	80.94
413.812	99.94
414.035	79.94
414.258	84.94
414.482	97.94
414.705	87.94
414.928	93.94
415.151	103.94
415.374	87.94
415.597	95.94
415.821	75.94
416.044	82.94
416.267	83.94
416.49	77.94
416.713	102.94
416.936	97.94
417.159	96.94
417.382	83.94
417.605	94.94
417.828	93.94
418.051	91.94
418.274	87.94
418.497	101.94
418.72	94.94
418.943	97.94
419.166	77.94
419.389	77.94
419.611	70.94
419.834	76.94
420.057	94.94
420.28	83.94
420.503	85.94
420.726	91.94
420.948	94.94
421.171	112.94
421.394	99.94
421.617	72.94
421.839	91.94
422.062	101.94
422.285	92.94
422.507	91.94
422.73	105.94
422.953	86.94
423.175	88.94
423.398	93.94
423.621	90.94
423.843	86.94
424.066	74.94
424.288	89.94
424.511	98.94
424.733	95.94
424.956	100.94
425.178	88.94
425.401	103.94
425.623	98.94
425.846	89.94
426.068	89.94
426.291	87.94
426.513	79.94
426.735	85.94
426.958	97.94
427.18	107.94
427.402	119.94
427.625	145.94
427.847	128.94
428.069	124.94
428.292	97.94
428.514	99.94
428.736	92.94
428.958	85.94
429.181	106.94
429.403	86.94
429.625	75.94
429.847	89.94
430.069	95.94
430.292	96.94
430.514	91.94
430.736	91.94
430.958	74.94
431.18	75.94
431.402	70.94
431.624	83.94
431.846	84.94
432.068	92.94
432.29	80.94
432.512	83.94
432.734	80.94
432.956	82.94
433.178	83.94
433.4	101.94
433.622	90.94
433.844	84.94
434.066	87.94
434.287	80.94
434.509	83.94
434.731	88.94
434.953	96.94
435.175	86.94
435.397	103.94
435.618	90.94
435.84	95.94
436.062	122.94
436.284	107.94
436.505	96.94
436.727	82.94
436.949	85.94
437.17	70.94
437.392	74.94
437.614	96.94
437.835	99.94
438.057	105.94
438.278	104.94
438.5	90.94
438.721	113.94
438.943	102.94
439.165	93.94
439.386	87.94
439.608	89.94
439.829	89.94
440.05	116.94
440.272	119.94
440.493	107.94
440.715	85.94
440.936	83.94
441.158	81.94
441.379	82.94
441.6	78.94
441.822	98.94
442.043	108.94
442.264	99.94
442.486	89.94
442.707	97.94
442.928	108.94
443.149	115.94
443.371	109.94
443.592	96.94
443.813	102.94
444.034	104.94
444.255	82.94
444.476	82.94
444.698	88.94
444.919	83.94
445.14	124.94
445.361	129.94
445.582	108.94
445.803	140.94
446.024	124.94
446.245	116.94
446.466	100.94
446.687	89.94
446.908	72.94
447.129	76.94
447.35	74.94
447.571	98.94
447.792	100.94
448.013	100.94
448.234	113.94
448.455	97.94
448.675	109.94
448.896	115.94
449.117	95.94
449.338	101.94
449.559	122.94
449.779	113.94
450	91.94
450.221	84.94
450.442	86.94
450.662	93.94
450.883	94.94
451.104	113.94
451.324	83.94
451.545	86.94
451.766	81.94
451.986	87.94
452.207	86.94
452.428	92.94
452.648	94.94
452.869	98.94
453.089	100.94
453.31	104.94
453.53	73.94
453.751	89.94
453.971	89.94
454.192	101.94
454.412	85.94
454.633	76.94
454.853	86.94
455.073	73.94
455.294	96.94
455.514	104.94
455.734	81.94
455.955	90.94
456.175	83.94
456.395	92.94
456.616	83.94
456.836	89.94
457.056	81.94
457.276	76.94
457.497	92.94
457.717	82.94
457.937	83.94
458.157	82.94
458.377	94.94
458.598	87.94
458.818	114.94
459.038	126.94
459.258	98.94
459.478	109.94
459.698	88.94
459.918	88.94
460.138	84.94
460.358	83.94
460.578	80.94
460.798	93.94
461.018	96.94
461.238	96.94
461.458	91.94
461.678	98.94
461.898	85.94
462.118	93.94
462.338	87.94
462.558	81.94
462.777	88.94
462.997	91.94
463.217	100.94
463.437	92.94
463.657	93.94
463.876	74.94
464.096	89.94
464.316	98.94
464.536	84.94
464.755	99.94
464.975	97.94
465.195	143.94
465.414	147.94
465.634	105.94
465.854	72.94
466.073	83.94
466.293	95.94
466.512	84.94
466.732	88.94
466.951	82.94
467.171	98.94
467.391	88.94
467.61	107.94
467.829	108.94
468.049	168.94
468.268	219.94
468.488	114.94
468.707	91.94
468.927	81.94
469.146	101.94
469.365	83.94
469.585	96.94
469.804	95.94
470.023	99.94
470.243	83.94
470.462	99.94
470.681	108.94
470.901	92.94
471.12	97.94
471.339	82.94
471.558	90.94
471.777	96.94
471.997	125.94
472.216	285.94
472.435	529.94
472.654	161.94
472.873	99.94
473.092	91.94
473.311	92.94
473.53	100.94
473.749	97.94
473.968	91.94
474.187	87.94
474.406	89.94
474.625	86.94
474.844	80.94
475.063	90.94
475.282	101.94
475.501	81.94
475.72	85.94
475.939	79.94
476.158	83.94
476.377	95.94
476.596	84.94
476.814	85.94
477.033	75.94
477.252	91.94
477.471	102.94
477.69	87.94
477.908	101.94
478.127	95.94
478.346	99.94
478.564	100.94
478.783	109.94
479.002	95.94
479.22	95.94
479.439	108.94
479.658	102.94
479.876	91.94
480.095	71.94
480.313	95.94
480.532	113.94
480.751	136.94
480.969	264.94
481.188	885.94
481.406	532.94
481.624	143.94
481.843	103.94
482.061	88.94
482.28	84.94
482.498	86.94
482.717	96.94
482.935	103.94
483.153	80.94
483.372	80.94
483.59	80.94
483.808	87.94
484.027	90.94
484.245	88.94
484.463	95.94
484.681	110.94
484.9	92.94
485.118	90.94
485.336	105.94
485.554	81.94
485.772	91.94
485.99	100.94
486.209	102.94
486.427	106.94
486.645	106.94
486.863	119.94
487.081	109.94
487.299	85.94
487.517	94.94
487.735	97.94
487.953	97.94
488.171	93.94
488.389	94.94
488.607	90.94
488.825	81.94
489.043	83.94
489.261	107.94
489.479	79.94
489.696	85.94
489.914	74.94
490.132	88.94
490.35	85.94
490.568	88.94
490.786	90.94
491.003	86.94
491.221	89.94
491.439	107.94
491.657	90.94
491.874	98.94
492.092	96.94
492.31	95.94
492.527	88.94
492.745	83.94
492.963	89.94
493.18	104.94
493.398	103.94
493.615	96.94
493.833	69.94
494.05	85.94
494.268	87.94
494.485	87.94
494.703	102.94
494.92	87.94
495.138	99.94
495.355	95.94
495.573	84.94
495.79	81.94
496.008	87.94
496.225	81.94
496.442	100.94
496.66	94.94
496.877	101.94
497.094	90.94
497.312	76.94
497.529	94.94
497.746	104.94
497.963	90.94
498.181	100.94
498.398	102.94
498.615	111.94
498.832	104.94
499.049	91.94
499.267	93.94
499.484	80.94
499.701	88.94
499.918	95.94
500.135	95.94
500.352	105.94
500.569	99.94
500.786	91.94
501.003	99.94
501.22	92.94
501.437	98.94
501.654	87.94
501.871	108.94
502.088	104.94
502.305	90.94
502.522	93.94
502.739	89.94
502.956	96.94
503.172	90.94
503.389	79.94
503.606	99.94
503.823	104.94
504.04	86.94
504.256	108.94
504.473	77.94
504.69	87.94
504.907	96.94
505.123	84.94
505.34	82.94
505.557	90.94
505.773	108.94
505.99	96.94
506.207	84.94
506.423	103.94
506.64	91.94
506.856	94.94
507.073	80.94
507.289	82.94
507.506	92.94
507.722	111.94
507.939	102.94
508.155	104.94
508.372	81.94
508.588	90.94
508.805	97.94
509.021	88.94
509.238	89.94
509.454	94.94
509.67	105.94
509.887	114.94
510.103	115.94
510.319	165.94
510.536	580.94
510.752	1849.94
510.968	539.94
511.184	149.94
511.401	109.94
511.617	75.94
511.833	88.94
512.049	101.94
512.265	91.94
512.481	93.94
512.698	79.94
512.914	100.94
513.13	99.94
513.346	89.94
513.562	89.94
513.778	91.94
513.994	105.94
514.21	95.94
514.426	112.94
514.642	114.94
514.858	113.94
515.074	142.94
515.29	339.94
515.506	1119.94
