Data from Circ_1984_H10_HRD10591_00040.txt Node
Date: Wed Jan 03 12:22:50 EST 2024
User: Yrep
Spectrometer: HR+D1059
Trigger mode: 1
Integration Time (sec): 1.000000E-1
Scans to average: 1
Electric dark correction enabled: true
Nonlinearity correction enabled: false
Boxcar width: 0
XAxis mode: Wavelengths
Number of Pixels in Spectrum: 2048
>>>>>Begin Spectral Data<<<<<
223.165	-18.44
223.4	-18.44
223.635	-18.44
223.869	-10.44
224.104	-31.44
224.338	-2.44
224.573	-20.44
224.808	-14.44
225.042	-9.44
225.277	-0.44
225.511	-4.44
225.746	1.56
225.98	0.56
226.215	11.56
226.449	11.56
226.683	22.56
226.918	24.56
227.152	39.56
227.387	32.56
227.621	34.56
227.856	52.56
228.09	46.56
228.324	33.56
228.559	62.56
228.793	61.56
229.027	53.56
229.262	53.56
229.496	61.56
229.73	67.56
229.964	72.56
230.199	67.56
230.433	76.56
230.667	87.56
230.901	57.56
231.136	81.56
231.37	80.56
231.604	77.56
231.838	78.56
232.072	80.56
232.306	85.56
232.541	72.56
232.775	82.56
233.009	77.56
233.243	75.56
233.477	79.56
233.711	90.56
233.945	91.56
234.179	92.56
234.413	72.56
234.647	73.56
234.881	60.56
235.115	92.56
235.349	72.56
235.583	85.56
235.817	79.56
236.051	72.56
236.285	79.56
236.519	87.56
236.753	84.56
236.987	81.56
237.221	88.56
237.455	66.56
237.689	82.56
237.922	74.56
238.156	83.56
238.39	70.56
238.624	75.56
238.858	72.56
239.091	53.56
239.325	80.56
239.559	81.56
239.793	75.56
240.027	79.56
240.26	71.56
240.494	66.56
240.728	72.56
240.961	59.56
241.195	65.56
241.429	74.56
241.662	55.56
241.896	77.56
242.13	76.56
242.363	68.56
242.597	86.56
242.83	64.56
243.064	63.56
243.298	77.56
243.531	76.56
243.765	50.56
243.998	80.56
244.232	73.56
244.465	79.56
244.699	71.56
244.932	71.56
245.166	72.56
245.399	77.56
245.633	75.56
245.866	69.56
246.099	65.56
246.333	80.56
246.566	61.56
246.8	91.56
247.033	62.56
247.266	81.56
247.5	75.56
247.733	69.56
247.966	85.56
248.2	83.56
248.433	60.56
248.666	72.56
248.899	77.56
249.133	71.56
249.366	91.56
249.599	95.56
249.832	84.56
250.066	72.56
250.299	87.56
250.532	78.56
250.765	79.56
250.998	64.56
251.231	81.56
251.465	80.56
251.698	83.56
251.931	75.56
252.164	69.56
252.397	65.56
252.63	76.56
252.863	63.56
253.096	83.56
253.329	86.56
253.562	71.56
253.795	69.56
254.028	74.56
254.261	61.56
254.494	73.56
254.727	87.56
254.96	80.56
255.193	60.56
255.426	61.56
255.659	62.56
255.892	57.56
256.124	75.56
256.357	73.56
256.59	83.56
256.823	80.56
257.056	86.56
257.289	81.56
257.521	81.56
257.754	62.56
257.987	77.56
258.22	82.56
258.452	69.56
258.685	75.56
258.918	71.56
259.151	84.56
259.383	73.56
259.616	83.56
259.849	69.56
260.081	69.56
260.314	87.56
260.547	77.56
260.779	72.56
261.012	92.56
261.244	93.56
261.477	88.56
261.71	81.56
261.942	98.56
262.175	93.56
262.407	81.56
262.64	80.56
262.872	77.56
263.105	72.56
263.337	79.56
263.57	80.56
263.802	68.56
264.035	76.56
264.267	67.56
264.499	73.56
264.732	94.56
264.964	83.56
265.197	92.56
265.429	81.56
265.661	78.56
265.894	79.56
266.126	87.56
266.358	80.56
266.591	73.56
266.823	78.56
267.055	79.56
267.287	82.56
267.52	80.56
267.752	89.56
267.984	80.56
268.216	80.56
268.448	79.56
268.681	81.56
268.913	82.56
269.145	76.56
269.377	73.56
269.609	73.56
269.841	80.56
270.073	71.56
270.306	75.56
270.538	77.56
270.77	91.56
271.002	80.56
271.234	82.56
271.466	84.56
271.698	72.56
271.93	79.56
272.162	78.56
272.394	88.56
272.626	77.56
272.858	75.56
273.09	78.56
273.322	95.56
273.553	77.56
273.785	75.56
274.017	77.56
274.249	76.56
274.481	72.56
274.713	83.56
274.945	76.56
275.176	71.56
275.408	81.56
275.64	87.56
275.872	99.56
276.104	79.56
276.335	84.56
276.567	93.56
276.799	108.56
277.031	90.56
277.262	86.56
277.494	82.56
277.726	84.56
277.957	85.56
278.189	86.56
278.421	71.56
278.652	80.56
278.884	88.56
279.115	75.56
279.347	73.56
279.579	87.56
279.81	75.56
280.042	83.56
280.273	94.56
280.505	93.56
280.736	91.56
280.968	73.56
281.199	91.56
281.431	82.56
281.662	89.56
281.894	98.56
282.125	95.56
282.356	111.56
282.588	112.56
282.819	98.56
283.051	95.56
283.282	89.56
283.513	91.56
283.745	87.56
283.976	79.56
284.207	80.56
284.439	79.56
284.67	80.56
284.901	81.56
285.132	75.56
285.364	92.56
285.595	73.56
285.826	84.56
286.057	86.56
286.288	81.56
286.52	89.56
286.751	80.56
286.982	80.56
287.213	76.56
287.444	78.56
287.675	80.56
287.906	88.56
288.138	76.56
288.369	88.56
288.6	79.56
288.831	75.56
289.062	89.56
289.293	87.56
289.524	73.56
289.755	63.56
289.986	76.56
290.217	95.56
290.448	75.56
290.679	83.56
290.91	93.56
291.141	89.56
291.371	87.56
291.602	84.56
291.833	90.56
292.064	95.56
292.295	85.56
292.526	81.56
292.757	78.56
292.987	89.56
293.218	80.56
293.449	89.56
293.68	81.56
293.91	88.56
294.141	97.56
294.372	81.56
294.603	83.56
294.833	86.56
295.064	82.56
295.295	91.56
295.525	79.56
295.756	85.56
295.987	97.56
296.217	117.56
296.448	110.56
296.679	105.56
296.909	96.56
297.14	89.56
297.37	83.56
297.601	88.56
297.831	79.56
298.062	88.56
298.292	78.56
298.523	95.56
298.753	73.56
298.984	85.56
299.214	87.56
299.445	81.56
299.675	85.56
299.905	91.56
300.136	94.56
300.366	87.56
300.597	80.56
300.827	73.56
301.057	86.56
301.288	85.56
301.518	85.56
301.748	79.56
301.979	92.56
302.209	87.56
302.439	88.56
302.669	87.56
302.9	91.56
303.13	85.56
303.36	71.56
303.59	91.56
303.82	99.56
304.051	95.56
304.281	86.56
304.511	92.56
304.741	79.56
304.971	77.56
305.201	96.56
305.431	72.56
305.661	83.56
305.891	92.56
306.121	93.56
306.352	103.56
306.582	91.56
306.812	89.56
307.042	95.56
307.272	104.56
307.502	97.56
307.731	88.56
307.961	78.56
308.191	88.56
308.421	91.56
308.651	91.56
308.881	86.56
309.111	82.56
309.341	100.56
309.571	84.56
309.8	102.56
310.03	102.56
310.26	103.56
310.49	81.56
310.72	91.56
310.949	68.56
311.179	88.56
311.409	93.56
311.639	83.56
311.868	84.56
312.098	100.56
312.328	97.56
312.557	88.56
312.787	98.56
313.017	87.56
313.246	86.56
313.476	80.56
313.706	88.56
313.935	92.56
314.165	96.56
314.394	99.56
314.624	93.56
314.853	83.56
315.083	85.56
315.312	81.56
315.542	76.56
315.771	88.56
316.001	88.56
316.23	85.56
316.46	85.56
316.689	86.56
316.919	88.56
317.148	91.56
317.377	88.56
317.607	98.56
317.836	94.56
318.065	96.56
318.295	85.56
318.524	85.56
318.753	97.56
318.983	80.56
319.212	95.56
319.441	102.56
319.67	89.56
319.9	99.56
320.129	88.56
320.358	81.56
320.587	99.56
320.816	96.56
321.046	105.56
321.275	104.56
321.504	92.56
321.733	90.56
321.962	75.56
322.191	90.56
322.42	96.56
322.649	89.56
322.878	96.56
323.108	89.56
323.337	115.56
323.566	120.56
323.795	138.56
324.024	184.56
324.253	303.56
324.482	618.56
324.71	1245.56
324.939	1634.56
325.168	642.56
325.397	216.56
325.626	129.56
325.855	98.56
326.084	98.56
326.313	125.56
326.542	144.56
326.77	194.56
326.999	367.56
327.228	705.56
327.457	1319.56
327.686	1021.56
327.914	306.56
328.143	180.56
328.372	175.56
328.6	124.56
328.829	114.56
329.058	115.56
329.287	108.56
329.515	95.56
329.744	109.56
329.972	119.56
330.201	180.56
330.43	211.56
330.658	159.56
330.887	124.56
331.115	127.56
331.344	88.56
331.572	102.56
331.801	101.56
332.03	96.56
332.258	88.56
332.486	97.56
332.715	68.56
332.943	98.56
333.172	81.56
333.4	93.56
333.629	100.56
333.857	117.56
334.085	142.56
334.314	168.56
334.542	249.56
334.771	235.56
334.999	114.56
335.227	100.56
335.455	85.56
335.684	88.56
335.912	88.56
336.14	77.56
336.369	84.56
336.597	92.56
336.825	80.56
337.053	77.56
337.281	82.56
337.51	91.56
337.738	82.56
337.966	87.56
338.194	98.56
338.422	94.56
338.65	99.56
338.878	105.56
339.106	87.56
339.334	87.56
339.562	90.56
339.79	82.56
340.018	76.56
340.246	89.56
340.474	95.56
340.702	91.56
340.93	105.56
341.158	79.56
341.386	88.56
341.614	77.56
341.842	93.56
342.07	79.56
342.298	85.56
342.526	86.56
342.754	85.56
342.981	84.56
343.209	77.56
343.437	109.56
343.665	88.56
343.893	81.56
344.12	92.56
344.348	78.56
344.576	83.56
344.804	83.56
345.031	105.56
345.259	94.56
345.487	91.56
345.714	71.56
345.942	74.56
346.17	87.56
346.397	80.56
346.625	97.56
346.853	85.56
347.08	80.56
347.308	94.56
347.535	93.56
347.763	100.56
347.99	77.56
348.218	91.56
348.445	96.56
348.673	102.56
348.9	87.56
349.128	87.56
349.355	80.56
349.583	96.56
349.81	97.56
350.037	81.56
350.265	92.56
350.492	101.56
350.72	100.56
350.947	100.56
351.174	96.56
351.402	104.56
351.629	86.56
351.856	93.56
352.083	105.56
352.311	87.56
352.538	95.56
352.765	96.56
352.992	103.56
353.22	95.56
353.447	97.56
353.674	98.56
353.901	87.56
354.128	92.56
354.355	82.56
354.583	92.56
354.81	90.56
355.037	91.56
355.264	87.56
355.491	80.56
355.718	94.56
355.945	86.56
356.172	87.56
356.399	77.56
356.626	80.56
356.853	88.56
357.08	94.56
357.307	90.56
357.534	82.56
357.761	84.56
357.988	92.56
358.215	92.56
358.441	89.56
358.668	79.56
358.895	91.56
359.122	98.56
359.349	73.56
359.576	90.56
359.802	95.56
360.029	101.56
360.256	102.56
360.483	96.56
360.709	93.56
360.936	85.56
361.163	76.56
361.39	87.56
361.616	80.56
361.843	89.56
362.07	89.56
362.296	84.56
362.523	95.56
362.749	77.56
362.976	80.56
363.203	86.56
363.429	85.56
363.656	79.56
363.882	79.56
364.109	79.56
364.335	79.56
364.562	93.56
364.788	75.56
365.015	86.56
365.241	105.56
365.468	104.56
365.694	105.56
365.92	90.56
366.147	96.56
366.373	92.56
366.599	86.56
366.826	91.56
367.052	100.56
367.278	80.56
367.505	91.56
367.731	75.56
367.957	75.56
368.184	79.56
368.41	98.56
368.636	86.56
368.862	109.56
369.089	105.56
369.315	94.56
369.541	92.56
369.767	82.56
369.993	90.56
370.219	90.56
370.445	87.56
370.672	79.56
370.898	89.56
371.124	88.56
371.35	82.56
371.576	97.56
371.802	79.56
372.028	81.56
372.254	81.56
372.48	86.56
372.706	89.56
372.932	72.56
373.158	87.56
373.384	82.56
373.61	86.56
373.835	92.56
374.061	82.56
374.287	96.56
374.513	110.56
374.739	105.56
374.965	92.56
375.191	94.56
375.416	84.56
375.642	92.56
375.868	95.56
376.094	89.56
376.319	94.56
376.545	86.56
376.771	75.56
376.997	78.56
377.222	82.56
377.448	101.56
377.674	91.56
377.899	92.56
378.125	70.56
378.35	83.56
378.576	92.56
378.802	88.56
379.027	93.56
379.253	85.56
379.478	98.56
379.704	82.56
379.929	98.56
380.155	84.56
380.38	91.56
380.606	84.56
380.831	95.56
381.057	100.56
381.282	79.56
381.507	81.56
381.733	93.56
381.958	99.56
382.184	87.56
382.409	100.56
382.634	106.56
382.86	92.56
383.085	101.56
383.31	101.56
383.535	114.56
383.761	104.56
383.986	98.56
384.211	96.56
384.436	101.56
384.662	102.56
384.887	92.56
385.112	91.56
385.337	93.56
385.562	87.56
385.787	99.56
386.013	95.56
386.238	103.56
386.463	101.56
386.688	102.56
386.913	102.56
387.138	112.56
387.363	95.56
387.588	83.56
387.813	97.56
388.038	98.56
388.263	109.56
388.488	123.56
388.713	84.56
388.938	87.56
389.163	79.56
389.387	89.56
389.612	102.56
389.837	90.56
390.062	87.56
390.287	100.56
390.512	94.56
390.736	75.56
390.961	88.56
391.186	99.56
391.411	80.56
391.636	94.56
391.86	87.56
392.085	76.56
392.31	102.56
392.534	67.56
392.759	81.56
392.984	70.56
393.208	84.56
393.433	95.56
393.658	95.56
393.882	84.56
394.107	78.56
394.331	93.56
394.556	78.56
394.78	85.56
395.005	88.56
395.229	80.56
395.454	95.56
395.678	99.56
395.903	81.56
396.127	104.56
396.352	87.56
396.576	79.56
396.801	90.56
397.025	85.56
397.249	77.56
397.474	69.56
397.698	79.56
397.922	82.56
398.147	77.56
398.371	87.56
398.595	79.56
398.82	83.56
399.044	79.56
399.268	82.56
399.492	88.56
399.717	88.56
399.941	91.56
400.165	91.56
400.389	104.56
400.613	77.56
400.837	67.56
401.062	87.56
401.286	83.56
401.51	98.56
401.734	86.56
401.958	104.56
402.182	109.56
402.406	135.56
402.63	102.56
402.854	83.56
403.078	101.56
403.302	81.56
403.526	81.56
403.75	85.56
403.974	84.56
404.198	97.56
404.422	101.56
404.645	78.56
404.869	89.56
405.093	96.56
405.317	99.56
405.541	87.56
405.765	107.56
405.988	102.56
406.212	129.56
406.436	181.56
406.66	121.56
406.883	89.56
407.107	78.56
407.331	91.56
407.555	95.56
407.778	94.56
408.002	83.56
408.226	64.56
408.449	91.56
408.673	79.56
408.896	97.56
409.12	95.56
409.344	106.56
409.567	91.56
409.791	83.56
410.014	95.56
410.238	84.56
410.461	79.56
410.685	94.56
410.908	82.56
411.132	91.56
411.355	82.56
411.578	88.56
411.802	85.56
412.025	93.56
412.249	93.56
412.472	88.56
412.695	105.56
412.919	86.56
413.142	97.56
413.365	79.56
413.589	72.56
413.812	69.56
414.035	98.56
414.258	87.56
414.482	82.56
414.705	98.56
414.928	77.56
415.151	67.56
415.374	79.56
415.597	87.56
415.821	81.56
416.044	91.56
416.267	75.56
416.49	80.56
416.713	96.56
416.936	89.56
417.159	87.56
417.382	92.56
417.605	93.56
417.828	81.56
418.051	91.56
418.274	77.56
418.497	81.56
418.72	94.56
418.943	102.56
419.166	93.56
419.389	77.56
419.611	90.56
419.834	82.56
420.057	84.56
420.28	85.56
420.503	83.56
420.726	85.56
420.948	102.56
421.171	76.56
421.394	96.56
421.617	71.56
421.839	89.56
422.062	88.56
422.285	90.56
422.507	91.56
422.73	99.56
422.953	98.56
423.175	100.56
423.398	80.56
423.621	78.56
423.843	91.56
424.066	91.56
424.288	87.56
424.511	94.56
424.733	103.56
424.956	89.56
425.178	105.56
425.401	94.56
425.623	88.56
425.846	89.56
426.068	90.56
426.291	83.56
426.513	81.56
426.735	93.56
426.958	84.56
427.18	83.56
427.402	118.56
427.625	150.56
427.847	120.56
428.069	116.56
428.292	97.56
428.514	78.56
428.736	88.56
428.958	90.56
429.181	81.56
429.403	67.56
429.625	85.56
429.847	98.56
430.069	105.56
430.292	82.56
430.514	85.56
430.736	94.56
430.958	88.56
431.18	91.56
431.402	88.56
431.624	71.56
431.846	85.56
432.068	92.56
432.29	80.56
432.512	84.56
432.734	84.56
432.956	84.56
433.178	90.56
433.4	104.56
433.622	87.56
433.844	88.56
434.066	92.56
434.287	88.56
434.509	83.56
434.731	89.56
434.953	93.56
435.175	75.56
435.397	92.56
435.618	79.56
435.84	100.56
436.062	111.56
436.284	83.56
436.505	76.56
436.727	103.56
436.949	79.56
437.17	89.56
437.392	92.56
437.614	104.56
437.835	99.56
438.057	115.56
438.278	107.56
438.5	96.56
438.721	110.56
438.943	95.56
439.165	89.56
439.386	80.56
439.608	93.56
439.829	95.56
440.05	118.56
440.272	115.56
440.493	89.56
440.715	88.56
440.936	81.56
441.158	86.56
441.379	95.56
441.6	88.56
441.822	97.56
442.043	102.56
442.264	100.56
442.486	102.56
442.707	84.56
442.928	77.56
443.149	117.56
443.371	108.56
443.592	102.56
443.813	95.56
444.034	96.56
444.255	84.56
444.476	75.56
444.698	79.56
444.919	92.56
445.14	127.56
445.361	121.56
445.582	113.56
445.803	115.56
446.024	115.56
446.245	115.56
446.466	86.56
446.687	91.56
446.908	83.56
447.129	97.56
447.35	92.56
447.571	102.56
447.792	91.56
448.013	94.56
448.234	101.56
448.455	85.56
448.675	92.56
448.896	115.56
449.117	107.56
449.338	97.56
449.559	128.56
449.779	129.56
450	100.56
450.221	87.56
450.442	73.56
450.662	87.56
450.883	101.56
451.104	101.56
451.324	83.56
451.545	88.56
451.766	95.56
451.986	93.56
452.207	81.56
452.428	87.56
452.648	88.56
452.869	102.56
453.089	93.56
453.31	97.56
453.53	93.56
453.751	89.56
453.971	99.56
454.192	111.56
454.412	91.56
454.633	75.56
454.853	88.56
455.073	89.56
455.294	85.56
455.514	94.56
455.734	87.56
455.955	66.56
456.175	75.56
456.395	83.56
456.616	77.56
456.836	79.56
457.056	87.56
457.276	78.56
457.497	79.56
457.717	82.56
457.937	69.56
458.157	95.56
458.377	87.56
458.598	100.56
458.818	131.56
459.038	140.56
459.258	99.56
459.478	87.56
459.698	80.56
459.918	72.56
460.138	65.56
460.358	82.56
460.578	79.56
460.798	77.56
461.018	96.56
461.238	84.56
461.458	92.56
461.678	74.56
461.898	90.56
462.118	88.56
462.338	69.56
462.558	80.56
462.777	89.56
462.997	84.56
463.217	81.56
463.437	83.56
463.657	82.56
463.876	82.56
464.096	97.56
464.316	86.56
464.536	88.56
464.755	100.56
464.975	89.56
465.195	148.56
465.414	133.56
465.634	102.56
465.854	82.56
466.073	76.56
466.293	79.56
466.512	95.56
466.732	83.56
466.951	101.56
467.171	111.56
467.391	102.56
467.61	107.56
467.829	102.56
468.049	124.56
468.268	149.56
468.488	91.56
468.707	99.56
468.927	83.56
469.146	74.56
469.365	93.56
469.585	84.56
469.804	84.56
470.023	79.56
470.243	92.56
470.462	92.56
470.681	96.56
470.901	81.56
471.12	79.56
471.339	91.56
471.558	83.56
471.777	89.56
471.997	107.56
472.216	201.56
472.435	297.56
472.654	124.56
472.873	95.56
473.092	95.56
473.311	81.56
473.53	81.56
473.749	95.56
473.968	81.56
474.187	113.56
474.406	93.56
474.625	79.56
474.844	83.56
475.063	88.56
475.282	86.56
475.501	77.56
475.72	73.56
475.939	79.56
476.158	75.56
476.377	88.56
476.596	91.56
476.814	91.56
477.033	79.56
477.252	79.56
477.471	75.56
477.69	77.56
477.908	93.56
478.127	79.56
478.346	78.56
478.564	89.56
478.783	102.56
479.002	85.56
479.22	68.56
479.439	79.56
479.658	98.56
479.876	95.56
480.095	79.56
480.313	90.56
480.532	80.56
480.751	94.56
480.969	182.56
481.188	521.56
481.406	317.56
481.624	126.56
481.843	83.56
482.061	86.56
482.28	82.56
482.498	85.56
482.717	89.56
482.935	83.56
483.153	88.56
483.372	85.56
483.59	68.56
483.808	83.56
484.027	91.56
484.245	76.56
484.463	99.56
484.681	87.56
484.9	84.56
485.118	78.56
485.336	87.56
485.554	103.56
485.772	92.56
485.99	96.56
486.209	115.56
486.427	105.56
486.645	111.56
486.863	101.56
487.081	98.56
487.299	85.56
487.517	100.56
487.735	100.56
487.953	76.56
488.171	86.56
488.389	76.56
488.607	111.56
488.825	94.56
489.043	79.56
489.261	84.56
489.479	84.56
489.696	94.56
489.914	83.56
490.132	64.56
490.35	87.56
490.568	85.56
490.786	97.56
491.003	86.56
491.221	91.56
491.439	91.56
491.657	93.56
491.874	89.56
492.092	91.56
492.31	79.56
492.527	84.56
492.745	79.56
492.963	81.56
493.18	86.56
493.398	97.56
493.615	97.56
493.833	85.56
494.05	86.56
494.268	87.56
494.485	83.56
494.703	83.56
494.92	86.56
495.138	85.56
495.355	94.56
495.573	97.56
495.79	73.56
496.008	88.56
496.225	80.56
496.442	74.56
496.66	77.56
496.877	78.56
497.094	94.56
497.312	91.56
497.529	88.56
497.746	103.56
497.963	91.56
498.181	91.56
498.398	87.56
498.615	99.56
498.832	104.56
499.049	86.56
499.267	89.56
499.484	110.56
499.701	95.56
499.918	91.56
500.135	98.56
500.352	100.56
500.569	82.56
500.786	79.56
501.003	84.56
501.22	82.56
501.437	81.56
501.654	91.56
501.871	94.56
502.088	89.56
502.305	85.56
502.522	95.56
502.739	92.56
502.956	85.56
503.172	76.56
503.389	97.56
503.606	92.56
503.823	95.56
504.04	81.56
504.256	88.56
504.473	76.56
504.69	79.56
504.907	100.56
505.123	72.56
505.34	83.56
505.557	83.56
505.773	106.56
505.99	67.56
506.207	94.56
506.423	89.56
506.64	77.56
506.856	81.56
507.073	84.56
507.289	98.56
507.506	101.56
507.722	84.56
507.939	120.56
508.155	95.56
508.372	89.56
508.588	91.56
508.805	91.56
509.021	91.56
509.238	82.56
509.454	95.56
509.67	95.56
509.887	94.56
510.103	142.56
510.319	179.56
510.536	581.56
510.752	1838.56
510.968	545.56
511.184	135.56
511.401	82.56
511.617	95.56
511.833	83.56
512.049	75.56
512.265	80.56
512.481	81.56
512.698	84.56
512.914	83.56
513.13	95.56
513.346	87.56
513.562	96.56
513.778	79.56
513.994	87.56
514.21	99.56
514.426	123.56
514.642	128.56
514.858	101.56
515.074	127.56
515.29	355.56
515.506	1054.56
515.721	419.56
515.937	133.56
516.153	115.56
516.369	101.56
516.585	87.56
516.801	92.56
517.016	94.56
