Data from Circ_1984_H10_HRD10591_00068.txt Node
Date: Wed Jan 03 12:22:55 EST 2024
User: Yrep
Spectrometer: HR+D1059
Trigger mode: 1
Integration Time (sec): 1.000000E-1
Scans to average: 1
Electric dark correction enabled: true
Nonlinearity correction enabled: false
Boxcar width: 0
XAxis mode: Wavelengths
Number of Pixels in Spectrum: 2048
>>>>>Begin Spectral Data<<<<<
223.165	-8.81
223.4	-8.81
223.635	-8.81
223.869	-21.81
224.104	-17.81
224.338	-19.81
224.573	-35.81
224.808	-18.81
225.042	-10.81
225.277	-6.81
225.511	4.19
225.746	10.19
225.98	6.19
226.215	29.19
226.449	3.19
226.683	26.19
226.918	29.19
227.152	32.19
227.387	31.19
227.621	35.19
227.856	59.19
228.09	55.19
228.324	61.19
228.559	64.19
228.793	56.19
229.027	64.19
229.262	71.19
229.496	72.19
229.73	83.19
229.964	81.19
230.199	70.19
230.433	69.19
230.667	68.19
230.901	85.19
231.136	92.19
231.37	82.19
231.604	88.19
231.838	83.19
232.072	73.19
232.306	85.19
232.541	74.19
232.775	82.19
233.009	77.19
233.243	88.19
233.477	71.19
233.711	81.19
233.945	89.19
234.179	84.19
234.413	85.19
234.647	74.19
234.881	85.19
235.115	83.19
235.349	74.19
235.583	74.19
235.817	87.19
236.051	84.19
236.285	79.19
236.519	72.19
236.753	77.19
236.987	91.19
237.221	72.19
237.455	91.19
237.689	81.19
237.922	63.19
238.156	69.19
238.39	76.19
238.624	84.19
238.858	63.19
239.091	82.19
239.325	74.19
239.559	88.19
239.793	65.19
240.027	69.19
240.26	55.19
240.494	78.19
240.728	77.19
240.961	63.19
241.195	77.19
241.429	81.19
241.662	80.19
241.896	82.19
242.13	76.19
242.363	74.19
242.597	80.19
242.83	70.19
243.064	61.19
243.298	71.19
243.531	67.19
243.765	76.19
243.998	68.19
244.232	71.19
244.465	81.19
244.699	88.19
244.932	78.19
245.166	82.19
245.399	76.19
245.633	87.19
245.866	76.19
246.099	89.19
246.333	78.19
246.566	85.19
246.8	83.19
247.033	83.19
247.266	68.19
247.5	92.19
247.733	85.19
247.966	85.19
248.2	70.19
248.433	81.19
248.666	87.19
248.899	79.19
249.133	90.19
249.366	93.19
249.599	101.19
249.832	83.19
250.066	88.19
250.299	81.19
250.532	91.19
250.765	88.19
250.998	77.19
251.231	63.19
251.465	77.19
251.698	83.19
251.931	70.19
252.164	80.19
252.397	71.19
252.63	88.19
252.863	88.19
253.096	92.19
253.329	70.19
253.562	72.19
253.795	71.19
254.028	84.19
254.261	87.19
254.494	79.19
254.727	81.19
254.96	79.19
255.193	79.19
255.426	97.19
255.659	73.19
255.892	82.19
256.124	82.19
256.357	85.19
256.59	73.19
256.823	80.19
257.056	96.19
257.289	88.19
257.521	81.19
257.754	83.19
257.987	92.19
258.22	85.19
258.452	73.19
258.685	73.19
258.918	84.19
259.151	86.19
259.383	97.19
259.616	76.19
259.849	87.19
260.081	75.19
260.314	85.19
260.547	81.19
260.779	74.19
261.012	88.19
261.244	76.19
261.477	92.19
261.71	99.19
261.942	112.19
262.175	110.19
262.407	86.19
262.64	82.19
262.872	81.19
263.105	97.19
263.337	83.19
263.57	79.19
263.802	92.19
264.035	74.19
264.267	90.19
264.499	66.19
264.732	88.19
264.964	89.19
265.197	79.19
265.429	79.19
265.661	76.19
265.894	76.19
266.126	80.19
266.358	93.19
266.591	88.19
266.823	88.19
267.055	67.19
267.287	70.19
267.52	76.19
267.752	86.19
267.984	80.19
268.216	83.19
268.448	84.19
268.681	76.19
268.913	83.19
269.145	72.19
269.377	80.19
269.609	91.19
269.841	83.19
270.073	95.19
270.306	85.19
270.538	83.19
270.77	88.19
271.002	74.19
271.234	85.19
271.466	100.19
271.698	90.19
271.93	88.19
272.162	75.19
272.394	85.19
272.626	81.19
272.858	79.19
273.09	84.19
273.322	85.19
273.553	90.19
273.785	85.19
274.017	78.19
274.249	83.19
274.481	94.19
274.713	83.19
274.945	79.19
275.176	73.19
275.408	83.19
275.64	67.19
275.872	91.19
276.104	85.19
276.335	103.19
276.567	109.19
276.799	121.19
277.031	107.19
277.262	99.19
277.494	90.19
277.726	80.19
277.957	81.19
278.189	91.19
278.421	92.19
278.652	89.19
278.884	91.19
279.115	98.19
279.347	84.19
279.579	95.19
279.81	80.19
280.042	100.19
280.273	108.19
280.505	92.19
280.736	79.19
280.968	97.19
281.199	72.19
281.431	89.19
281.662	85.19
281.894	99.19
282.125	81.19
282.356	99.19
282.588	120.19
282.819	122.19
283.051	92.19
283.282	90.19
283.513	93.19
283.745	86.19
283.976	88.19
284.207	88.19
284.439	96.19
284.67	93.19
284.901	76.19
285.132	68.19
285.364	80.19
285.595	83.19
285.826	74.19
286.057	79.19
286.288	90.19
286.52	91.19
286.751	76.19
286.982	95.19
287.213	94.19
287.444	86.19
287.675	91.19
287.906	82.19
288.138	61.19
288.369	84.19
288.6	83.19
288.831	73.19
289.062	85.19
289.293	90.19
289.524	63.19
289.755	82.19
289.986	80.19
290.217	83.19
290.448	74.19
290.679	80.19
290.91	73.19
291.141	87.19
291.371	83.19
291.602	76.19
291.833	85.19
292.064	88.19
292.295	89.19
292.526	107.19
292.757	93.19
292.987	87.19
293.218	97.19
293.449	92.19
293.68	85.19
293.91	89.19
294.141	100.19
294.372	86.19
294.603	98.19
294.833	73.19
295.064	81.19
295.295	87.19
295.525	80.19
295.756	89.19
295.987	109.19
296.217	129.19
296.448	116.19
296.679	92.19
296.909	101.19
297.14	90.19
297.37	93.19
297.601	80.19
297.831	79.19
298.062	87.19
298.292	82.19
298.523	81.19
298.753	81.19
298.984	105.19
299.214	93.19
299.445	78.19
299.675	89.19
299.905	75.19
300.136	89.19
300.366	85.19
300.597	102.19
300.827	88.19
301.057	109.19
301.288	110.19
301.518	84.19
301.748	87.19
301.979	100.19
302.209	81.19
302.439	99.19
302.669	85.19
302.9	86.19
303.13	76.19
303.36	95.19
303.59	100.19
303.82	104.19
304.051	88.19
304.281	89.19
304.511	95.19
304.741	89.19
304.971	74.19
305.201	89.19
305.431	88.19
305.661	79.19
305.891	95.19
306.121	103.19
306.352	88.19
306.582	103.19
306.812	87.19
307.042	84.19
307.272	106.19
307.502	108.19
307.731	81.19
307.961	87.19
308.191	88.19
308.421	103.19
308.651	100.19
308.881	77.19
309.111	88.19
309.341	101.19
309.571	102.19
309.8	89.19
310.03	88.19
310.26	91.19
310.49	90.19
310.72	90.19
310.949	111.19
311.179	108.19
311.409	91.19
311.639	96.19
311.868	100.19
312.098	96.19
312.328	93.19
312.557	98.19
312.787	97.19
313.017	103.19
313.246	96.19
313.476	93.19
313.706	106.19
313.935	92.19
314.165	115.19
314.394	100.19
314.624	91.19
314.853	107.19
315.083	96.19
315.312	104.19
315.542	95.19
315.771	97.19
316.001	87.19
316.23	97.19
316.46	97.19
316.689	101.19
316.919	92.19
317.148	80.19
317.377	95.19
317.607	90.19
317.836	98.19
318.065	94.19
318.295	97.19
318.524	99.19
318.753	91.19
318.983	91.19
319.212	113.19
319.441	85.19
319.67	104.19
319.9	87.19
320.129	91.19
320.358	88.19
320.587	100.19
320.816	98.19
321.046	109.19
321.275	97.19
321.504	82.19
321.733	80.19
321.962	112.19
322.191	88.19
322.42	103.19
322.649	111.19
322.878	99.19
323.108	116.19
323.337	114.19
323.566	136.19
323.795	133.19
324.024	196.19
324.253	346.19
324.482	713.19
324.71	1453.19
324.939	1891.19
325.168	703.19
325.397	233.19
325.626	150.19
325.855	119.19
326.084	120.19
326.313	136.19
326.542	143.19
326.77	211.19
326.999	373.19
327.228	786.19
327.457	1447.19
327.686	1143.19
327.914	329.19
328.143	215.19
328.372	203.19
328.6	150.19
328.829	119.19
329.058	115.19
329.287	129.19
329.515	102.19
329.744	129.19
329.972	132.19
330.201	239.19
330.43	285.19
330.658	195.19
330.887	157.19
331.115	118.19
331.344	93.19
331.572	109.19
331.801	101.19
332.03	92.19
332.258	97.19
332.486	97.19
332.715	94.19
332.943	93.19
333.172	113.19
333.4	107.19
333.629	108.19
333.857	128.19
334.085	153.19
334.314	214.19
334.542	376.19
334.771	348.19
334.999	146.19
335.227	106.19
335.455	94.19
335.684	111.19
335.912	96.19
336.14	92.19
336.369	87.19
336.597	114.19
336.825	99.19
337.053	82.19
337.281	99.19
337.51	102.19
337.738	83.19
337.966	89.19
338.194	88.19
338.422	92.19
338.65	95.19
338.878	88.19
339.106	105.19
339.334	107.19
339.562	93.19
339.79	95.19
340.018	92.19
340.246	82.19
340.474	82.19
340.702	74.19
340.93	89.19
341.158	91.19
341.386	92.19
341.614	99.19
341.842	91.19
342.07	89.19
342.298	73.19
342.526	79.19
342.754	93.19
342.981	100.19
343.209	99.19
343.437	103.19
343.665	77.19
343.893	83.19
344.12	99.19
344.348	75.19
344.576	91.19
344.804	89.19
345.031	96.19
345.259	99.19
345.487	106.19
345.714	98.19
345.942	94.19
346.17	97.19
346.397	91.19
346.625	100.19
346.853	108.19
347.08	104.19
347.308	102.19
347.535	96.19
347.763	88.19
347.99	87.19
348.218	103.19
348.445	105.19
348.673	104.19
348.9	89.19
349.128	93.19
349.355	89.19
349.583	80.19
349.81	94.19
350.037	93.19
350.265	96.19
350.492	86.19
350.72	101.19
350.947	92.19
351.174	115.19
351.402	112.19
351.629	99.19
351.856	103.19
352.083	88.19
352.311	91.19
352.538	99.19
352.765	106.19
352.992	99.19
353.22	124.19
353.447	96.19
353.674	111.19
353.901	87.19
354.128	84.19
354.355	92.19
354.583	95.19
354.81	85.19
355.037	82.19
355.264	88.19
355.491	95.19
355.718	97.19
355.945	85.19
356.172	91.19
356.399	91.19
356.626	95.19
356.853	111.19
357.08	99.19
357.307	95.19
357.534	87.19
357.761	97.19
357.988	104.19
358.215	90.19
358.441	107.19
358.668	99.19
358.895	80.19
359.122	92.19
359.349	91.19
359.576	100.19
359.802	96.19
360.029	120.19
360.256	107.19
360.483	107.19
360.709	99.19
360.936	105.19
361.163	93.19
361.39	88.19
361.616	85.19
361.843	86.19
362.07	97.19
362.296	100.19
362.523	92.19
362.749	88.19
362.976	93.19
363.203	87.19
363.429	95.19
363.656	93.19
363.882	96.19
364.109	92.19
364.335	83.19
364.562	91.19
364.788	85.19
365.015	84.19
365.241	84.19
365.468	106.19
365.694	94.19
365.92	101.19
366.147	91.19
366.373	95.19
366.599	96.19
366.826	88.19
367.052	86.19
367.278	88.19
367.505	108.19
367.731	87.19
367.957	90.19
368.184	83.19
368.41	97.19
368.636	112.19
368.862	107.19
369.089	103.19
369.315	96.19
369.541	96.19
369.767	105.19
369.993	86.19
370.219	92.19
370.445	104.19
370.672	84.19
370.898	83.19
371.124	77.19
371.35	97.19
371.576	91.19
371.802	85.19
372.028	79.19
372.254	81.19
372.48	88.19
372.706	99.19
372.932	85.19
373.158	90.19
373.384	83.19
373.61	100.19
373.835	90.19
374.061	86.19
374.287	86.19
374.513	90.19
374.739	100.19
374.965	92.19
375.191	107.19
375.416	82.19
375.642	99.19
375.868	104.19
376.094	83.19
376.319	78.19
376.545	97.19
376.771	96.19
376.997	80.19
377.222	84.19
377.448	100.19
377.674	84.19
377.899	93.19
378.125	91.19
378.35	95.19
378.576	97.19
378.802	103.19
379.027	97.19
379.253	107.19
379.478	92.19
379.704	91.19
379.929	95.19
380.155	92.19
380.38	102.19
380.606	85.19
380.831	87.19
381.057	88.19
381.282	85.19
381.507	89.19
381.733	95.19
381.958	92.19
382.184	104.19
382.409	88.19
382.634	84.19
382.86	84.19
383.085	95.19
383.31	106.19
383.535	98.19
383.761	101.19
383.986	94.19
384.211	100.19
384.436	102.19
384.662	102.19
384.887	96.19
385.112	97.19
385.337	104.19
385.562	107.19
385.787	99.19
386.013	103.19
386.238	97.19
386.463	104.19
386.688	112.19
386.913	103.19
387.138	110.19
387.363	100.19
387.588	105.19
387.813	97.19
388.038	109.19
388.263	90.19
388.488	116.19
388.713	102.19
388.938	83.19
389.163	86.19
389.387	106.19
389.612	112.19
389.837	98.19
390.062	88.19
390.287	82.19
390.512	94.19
390.736	79.19
390.961	81.19
391.186	99.19
391.411	91.19
391.636	106.19
391.86	87.19
392.085	81.19
392.31	79.19
392.534	103.19
392.759	76.19
392.984	79.19
393.208	95.19
393.433	74.19
393.658	98.19
393.882	85.19
394.107	98.19
394.331	76.19
394.556	85.19
394.78	83.19
395.005	104.19
395.229	85.19
395.454	98.19
395.678	106.19
395.903	85.19
396.127	97.19
396.352	84.19
396.576	90.19
396.801	95.19
397.025	94.19
397.249	85.19
397.474	84.19
397.698	89.19
397.922	98.19
398.147	94.19
398.371	81.19
398.595	86.19
398.82	88.19
399.044	95.19
399.268	75.19
399.492	72.19
399.717	95.19
399.941	84.19
400.165	87.19
400.389	102.19
400.613	83.19
400.837	91.19
401.062	90.19
401.286	81.19
401.51	77.19
401.734	84.19
401.958	105.19
402.182	125.19
402.406	163.19
402.63	95.19
402.854	87.19
403.078	89.19
403.302	92.19
403.526	87.19
403.75	95.19
403.974	76.19
404.198	95.19
404.422	86.19
404.645	76.19
404.869	76.19
405.093	90.19
405.317	98.19
405.541	106.19
405.765	96.19
405.988	113.19
406.212	159.19
406.436	221.19
406.66	139.19
406.883	102.19
407.107	99.19
407.331	112.19
407.555	103.19
407.778	108.19
408.002	87.19
408.226	88.19
408.449	93.19
408.673	89.19
408.896	92.19
409.12	91.19
409.344	85.19
409.567	88.19
409.791	85.19
410.014	85.19
410.238	86.19
410.461	86.19
410.685	99.19
410.908	97.19
411.132	117.19
411.355	98.19
411.578	82.19
411.802	82.19
412.025	87.19
412.249	90.19
412.472	104.19
412.695	91.19
412.919	101.19
413.142	81.19
413.365	99.19
413.589	88.19
413.812	82.19
414.035	88.19
414.258	99.19
414.482	98.19
414.705	87.19
414.928	94.19
415.151	77.19
415.374	77.19
415.597	91.19
415.821	79.19
416.044	92.19
416.267	89.19
416.49	89.19
416.713	101.19
416.936	96.19
417.159	102.19
417.382	89.19
417.605	70.19
417.828	92.19
418.051	84.19
418.274	83.19
418.497	84.19
418.72	85.19
418.943	99.19
419.166	91.19
419.389	81.19
419.611	85.19
419.834	77.19
420.057	96.19
420.28	97.19
420.503	91.19
420.726	85.19
420.948	83.19
421.171	97.19
421.394	91.19
421.617	81.19
421.839	101.19
422.062	103.19
422.285	100.19
422.507	97.19
422.73	116.19
422.953	87.19
423.175	88.19
423.398	86.19
423.621	90.19
423.843	91.19
424.066	90.19
424.288	89.19
424.511	84.19
424.733	92.19
424.956	89.19
425.178	87.19
425.401	93.19
425.623	104.19
425.846	73.19
426.068	93.19
426.291	104.19
426.513	85.19
426.735	79.19
426.958	95.19
427.18	98.19
427.402	122.19
427.625	159.19
427.847	118.19
428.069	111.19
428.292	99.19
428.514	85.19
428.736	90.19
428.958	88.19
429.181	84.19
429.403	101.19
429.625	98.19
429.847	89.19
430.069	103.19
430.292	103.19
430.514	94.19
430.736	97.19
430.958	89.19
431.18	82.19
431.402	93.19
431.624	86.19
431.846	83.19
432.068	82.19
432.29	89.19
432.512	91.19
432.734	100.19
432.956	88.19
433.178	100.19
433.4	98.19
433.622	99.19
433.844	90.19
434.066	71.19
434.287	90.19
434.509	87.19
434.731	96.19
434.953	84.19
435.175	84.19
435.397	99.19
435.618	83.19
435.84	96.19
436.062	115.19
436.284	108.19
436.505	93.19
436.727	106.19
436.949	88.19
437.17	80.19
437.392	88.19
437.614	94.19
437.835	99.19
438.057	97.19
438.278	115.19
438.5	99.19
438.721	108.19
438.943	88.19
439.165	71.19
439.386	99.19
439.608	101.19
439.829	97.19
440.05	119.19
440.272	117.19
440.493	93.19
440.715	79.19
440.936	87.19
441.158	92.19
441.379	83.19
441.6	103.19
441.822	93.19
442.043	87.19
442.264	112.19
442.486	93.19
442.707	79.19
442.928	91.19
443.149	130.19
443.371	121.19
443.592	99.19
443.813	113.19
444.034	108.19
444.255	99.19
444.476	92.19
444.698	97.19
444.919	89.19
445.14	124.19
445.361	129.19
445.582	123.19
445.803	122.19
446.024	125.19
446.245	132.19
446.466	124.19
446.687	81.19
446.908	83.19
447.129	89.19
447.35	83.19
447.571	90.19
447.792	93.19
448.013	91.19
448.234	104.19
448.455	91.19
448.675	109.19
448.896	114.19
449.117	97.19
449.338	105.19
449.559	121.19
449.779	133.19
450	93.19
450.221	86.19
450.442	87.19
450.662	93.19
450.883	112.19
451.104	103.19
451.324	108.19
451.545	94.19
451.766	79.19
451.986	87.19
452.207	94.19
452.428	85.19
452.648	96.19
452.869	106.19
453.089	102.19
453.31	104.19
453.53	92.19
453.751	91.19
453.971	92.19
454.192	103.19
454.412	100.19
454.633	84.19
454.853	76.19
455.073	79.19
455.294	93.19
455.514	98.19
455.734	83.19
455.955	91.19
456.175	82.19
456.395	89.19
456.616	87.19
456.836	91.19
457.056	88.19
457.276	72.19
457.497	88.19
457.717	85.19
457.937	104.19
458.157	92.19
458.377	88.19
458.598	95.19
458.818	139.19
459.038	146.19
459.258	114.19
459.478	88.19
459.698	86.19
459.918	85.19
460.138	87.19
460.358	82.19
460.578	93.19
460.798	84.19
461.018	84.19
461.238	80.19
461.458	86.19
461.678	83.19
461.898	83.19
462.118	91.19
462.338	84.19
462.558	85.19
462.777	88.19
462.997	99.19
463.217	77.19
463.437	90.19
463.657	96.19
463.876	79.19
464.096	95.19
464.316	98.19
464.536	90.19
464.755	92.19
464.975	93.19
465.195	137.19
465.414	145.19
465.634	89.19
465.854	84.19
466.073	90.19
466.293	77.19
466.512	76.19
466.732	91.19
466.951	78.19
467.171	91.19
467.391	81.19
467.61	95.19
467.829	111.19
468.049	156.19
468.268	190.19
468.488	103.19
468.707	89.19
468.927	76.19
469.146	80.19
469.365	71.19
469.585	97.19
469.804	96.19
470.023	92.19
470.243	90.19
470.462	99.19
470.681	102.19
470.901	92.19
471.12	88.19
471.339	103.19
471.558	88.19
471.777	108.19
471.997	114.19
472.216	258.19
472.435	454.19
472.654	161.19
472.873	104.19
473.092	77.19
473.311	72.19
473.53	88.19
473.749	86.19
473.968	107.19
474.187	104.19
474.406	97.19
474.625	105.19
474.844	79.19
475.063	76.19
475.282	88.19
475.501	102.19
475.72	98.19
475.939	95.19
476.158	83.19
476.377	97.19
476.596	87.19
476.814	77.19
477.033	87.19
477.252	95.19
477.471	92.19
477.69	89.19
477.908	64.19
478.127	79.19
478.346	95.19
478.564	90.19
478.783	92.19
479.002	86.19
479.22	96.19
479.439	106.19
479.658	96.19
479.876	90.19
480.095	87.19
480.313	84.19
480.532	113.19
480.751	124.19
480.969	238.19
481.188	777.19
481.406	457.19
481.624	124.19
481.843	93.19
482.061	84.19
482.28	89.19
482.498	89.19
482.717	92.19
482.935	79.19
483.153	89.19
483.372	101.19
483.59	91.19
483.808	83.19
484.027	89.19
484.245	89.19
484.463	74.19
484.681	102.19
484.9	99.19
485.118	87.19
485.336	96.19
485.554	95.19
485.772	95.19
485.99	106.19
486.209	103.19
486.427	101.19
486.645	101.19
486.863	107.19
487.081	87.19
487.299	90.19
487.517	90.19
487.735	104.19
487.953	101.19
488.171	86.19
488.389	89.19
488.607	99.19
488.825	96.19
489.043	98.19
489.261	99.19
489.479	89.19
489.696	82.19
489.914	89.19
490.132	87.19
490.35	89.19
490.568	81.19
490.786	85.19
491.003	86.19
491.221	97.19
491.439	90.19
491.657	94.19
491.874	91.19
492.092	79.19
492.31	99.19
492.527	84.19
492.745	97.19
492.963	79.19
493.18	87.19
493.398	88.19
493.615	94.19
493.833	84.19
494.05	82.19
494.268	82.19
494.485	87.19
494.703	84.19
494.92	83.19
495.138	80.19
495.355	87.19
495.573	91.19
495.79	82.19
496.008	102.19
496.225	91.19
496.442	97.19
496.66	91.19
496.877	87.19
497.094	88.19
497.312	86.19
497.529	102.19
497.746	91.19
497.963	83.19
498.181	99.19
498.398	89.19
498.615	106.19
498.832	112.19
499.049	94.19
499.267	91.19
499.484	92.19
499.701	96.19
499.918	106.19
500.135	85.19
500.352	88.19
500.569	90.19
500.786	93.19
501.003	91.19
501.22	92.19
501.437	82.19
501.654	92.19
501.871	89.19
502.088	91.19
502.305	96.19
502.522	73.19
502.739	83.19
502.956	99.19
503.172	108.19
503.389	85.19
503.606	98.19
503.823	94.19
504.04	81.19
504.256	88.19
504.473	84.19
504.69	91.19
504.907	74.19
505.123	107.19
505.34	88.19
505.557	85.19
505.773	93.19
505.99	92.19
506.207	89.19
506.423	88.19
506.64	93.19
506.856	86.19
507.073	98.19
507.289	92.19
507.506	99.19
507.722	96.19
507.939	113.19
508.155	91.19
508.372	82.19
508.588	85.19
508.805	99.19
509.021	102.19
509.238	104.19
509.454	98.19
509.67	84.19
509.887	99.19
510.103	122.19
510.319	201.19
510.536	673.19
510.752	2170.19
510.968	581.19
511.184	159.19
511.401	117.19
511.617	95.19
511.833	97.19
512.049	101.19
512.265	73.19
512.481	94.19
512.698	85.19
512.914	96.19
513.13	96.19
513.346	100.19
513.562	86.19
513.778	101.19
513.994	98.19
514.21	100.19
514.426	113.19
514.642	130.19
514.858	122.19
515.074	159.19
515.29	400.19
515.506	1317.19
515.721	475.19
