Data from Circ_1984_H10_HRD10591_00094.txt Node
Date: Wed Jan 03 12:23:00 EST 2024
User: Yrep
Spectrometer: HR+D1059
Trigger mode: 1
Integration Time (sec): 1.000000E-1
Scans to average: 1
Electric dark correction enabled: true
Nonlinearity correction enabled: false
Boxcar width: 0
XAxis mode: Wavelengths
Number of Pixels in Spectrum: 2048
>>>>>Begin Spectral Data<<<<<
223.165	-17.31
223.4	-17.31
223.635	-17.31
223.869	-13.31
224.104	-24.31
224.338	-18.31
224.573	-27.31
224.808	0.69
225.042	-18.31
225.277	-10.31
225.511	-4.31
225.746	-2.31
225.98	11.69
226.215	16.69
226.449	13.69
226.683	22.69
226.918	33.69
227.152	36.69
227.387	29.69
227.621	13.69
227.856	40.69
228.09	50.69
228.324	50.69
228.559	47.69
228.793	59.69
229.027	50.69
229.262	62.69
229.496	72.69
229.73	71.69
229.964	74.69
230.199	92.69
230.433	69.69
230.667	83.69
230.901	76.69
231.136	68.69
231.37	76.69
231.604	75.69
231.838	66.69
232.072	68.69
232.306	87.69
232.541	78.69
232.775	85.69
233.009	76.69
233.243	68.69
233.477	84.69
233.711	78.69
233.945	65.69
234.179	76.69
234.413	76.69
234.647	75.69
234.881	70.69
235.115	78.69
235.349	60.69
235.583	80.69
235.817	72.69
236.051	60.69
236.285	63.69
236.519	73.69
236.753	61.69
236.987	66.69
237.221	80.69
237.455	78.69
237.689	78.69
237.922	63.69
238.156	67.69
238.39	67.69
238.624	69.69
238.858	80.69
239.091	66.69
239.325	66.69
239.559	74.69
239.793	78.69
240.027	79.69
240.26	82.69
240.494	68.69
240.728	84.69
240.961	72.69
241.195	93.69
241.429	82.69
241.662	64.69
241.896	75.69
242.13	74.69
242.363	82.69
242.597	64.69
242.83	68.69
243.064	72.69
243.298	68.69
243.531	74.69
243.765	77.69
243.998	63.69
244.232	79.69
244.465	80.69
244.699	69.69
244.932	74.69
245.166	64.69
245.399	86.69
245.633	62.69
245.866	63.69
246.099	67.69
246.333	65.69
246.566	65.69
246.8	58.69
247.033	76.69
247.266	61.69
247.5	71.69
247.733	82.69
247.966	84.69
248.2	78.69
248.433	89.69
248.666	82.69
248.899	68.69
249.133	89.69
249.366	67.69
249.599	94.69
249.832	88.69
250.066	69.69
250.299	63.69
250.532	77.69
250.765	76.69
250.998	90.69
251.231	80.69
251.465	70.69
251.698	67.69
251.931	75.69
252.164	78.69
252.397	82.69
252.63	80.69
252.863	82.69
253.096	69.69
253.329	70.69
253.562	69.69
253.795	93.69
254.028	81.69
254.261	78.69
254.494	58.69
254.727	83.69
254.96	83.69
255.193	61.69
255.426	83.69
255.659	80.69
255.892	61.69
256.124	63.69
256.357	75.69
256.59	90.69
256.823	78.69
257.056	81.69
257.289	72.69
257.521	84.69
257.754	78.69
257.987	76.69
258.22	80.69
258.452	61.69
258.685	83.69
258.918	80.69
259.151	82.69
259.383	75.69
259.616	68.69
259.849	69.69
260.081	66.69
260.314	72.69
260.547	81.69
260.779	71.69
261.012	71.69
261.244	81.69
261.477	69.69
261.71	80.69
261.942	93.69
262.175	98.69
262.407	78.69
262.64	78.69
262.872	76.69
263.105	74.69
263.337	83.69
263.57	84.69
263.802	70.69
264.035	66.69
264.267	64.69
264.499	60.69
264.732	84.69
264.964	81.69
265.197	82.69
265.429	82.69
265.661	80.69
265.894	71.69
266.126	80.69
266.358	77.69
266.591	69.69
266.823	74.69
267.055	85.69
267.287	67.69
267.52	82.69
267.752	77.69
267.984	85.69
268.216	82.69
268.448	87.69
268.681	71.69
268.913	71.69
269.145	73.69
269.377	82.69
269.609	78.69
269.841	81.69
270.073	78.69
270.306	85.69
270.538	84.69
270.77	86.69
271.002	69.69
271.234	82.69
271.466	86.69
271.698	100.69
271.93	91.69
272.162	71.69
272.394	91.69
272.626	84.69
272.858	85.69
273.09	88.69
273.322	84.69
273.553	81.69
273.785	81.69
274.017	87.69
274.249	85.69
274.481	66.69
274.713	66.69
274.945	82.69
275.176	80.69
275.408	82.69
275.64	81.69
275.872	79.69
276.104	65.69
276.335	76.69
276.567	82.69
276.799	93.69
277.031	76.69
277.262	91.69
277.494	76.69
277.726	85.69
277.957	81.69
278.189	67.69
278.421	79.69
278.652	86.69
278.884	88.69
279.115	69.69
279.347	82.69
279.579	85.69
279.81	75.69
280.042	94.69
280.273	100.69
280.505	83.69
280.736	75.69
280.968	79.69
281.199	85.69
281.431	76.69
281.662	75.69
281.894	78.69
282.125	95.69
282.356	95.69
282.588	118.69
282.819	108.69
283.051	80.69
283.282	64.69
283.513	75.69
283.745	87.69
283.976	73.69
284.207	84.69
284.439	87.69
284.67	70.69
284.901	70.69
285.132	75.69
285.364	79.69
285.595	87.69
285.826	81.69
286.057	95.69
286.288	81.69
286.52	82.69
286.751	80.69
286.982	83.69
287.213	93.69
287.444	76.69
287.675	90.69
287.906	78.69
288.138	75.69
288.369	76.69
288.6	79.69
288.831	74.69
289.062	82.69
289.293	78.69
289.524	74.69
289.755	71.69
289.986	75.69
290.217	83.69
290.448	79.69
290.679	79.69
290.91	81.69
291.141	74.69
291.371	81.69
291.602	81.69
291.833	78.69
292.064	90.69
292.295	82.69
292.526	84.69
292.757	68.69
292.987	82.69
293.218	94.69
293.449	75.69
293.68	84.69
293.91	82.69
294.141	92.69
294.372	96.69
294.603	95.69
294.833	84.69
295.064	91.69
295.295	80.69
295.525	85.69
295.756	90.69
295.987	116.69
296.217	124.69
296.448	116.69
296.679	80.69
296.909	93.69
297.14	74.69
297.37	87.69
297.601	92.69
297.831	80.69
298.062	84.69
298.292	98.69
298.523	83.69
298.753	77.69
298.984	71.69
299.214	72.69
299.445	81.69
299.675	82.69
299.905	98.69
300.136	86.69
300.366	82.69
300.597	95.69
300.827	76.69
301.057	81.69
301.288	73.69
301.518	92.69
301.748	86.69
301.979	92.69
302.209	85.69
302.439	77.69
302.669	93.69
302.9	91.69
303.13	89.69
303.36	88.69
303.59	80.69
303.82	106.69
304.051	79.69
304.281	86.69
304.511	90.69
304.741	93.69
304.971	82.69
305.201	80.69
305.431	78.69
305.661	83.69
305.891	83.69
306.121	84.69
306.352	97.69
306.582	104.69
306.812	80.69
307.042	85.69
307.272	99.69
307.502	93.69
307.731	102.69
307.961	100.69
308.191	77.69
308.421	77.69
308.651	83.69
308.881	85.69
309.111	77.69
309.341	81.69
309.571	92.69
309.8	83.69
310.03	95.69
310.26	108.69
310.49	102.69
310.72	84.69
310.949	82.69
311.179	97.69
311.409	82.69
311.639	92.69
311.868	97.69
312.098	77.69
312.328	93.69
312.557	84.69
312.787	102.69
313.017	83.69
313.246	99.69
313.476	88.69
313.706	85.69
313.935	86.69
314.165	92.69
314.394	80.69
314.624	85.69
314.853	79.69
315.083	87.69
315.312	84.69
315.542	93.69
315.771	93.69
316.001	86.69
316.23	72.69
316.46	94.69
316.689	96.69
316.919	85.69
317.148	91.69
317.377	83.69
317.607	72.69
317.836	85.69
318.065	88.69
318.295	85.69
318.524	87.69
318.753	90.69
318.983	87.69
319.212	95.69
319.441	99.69
319.67	94.69
319.9	68.69
320.129	74.69
320.358	94.69
320.587	87.69
320.816	100.69
321.046	93.69
321.275	76.69
321.504	84.69
321.733	85.69
321.962	80.69
322.191	87.69
322.42	92.69
322.649	98.69
322.878	102.69
323.108	95.69
323.337	111.69
323.566	101.69
323.795	128.69
324.024	166.69
324.253	309.69
324.482	635.69
324.71	1320.69
324.939	1800.69
325.168	665.69
325.397	206.69
325.626	117.69
325.855	120.69
326.084	115.69
326.313	115.69
326.542	120.69
326.77	190.69
326.999	383.69
327.228	727.69
327.457	1380.69
327.686	1109.69
327.914	327.69
328.143	209.69
328.372	206.69
328.6	140.69
328.829	111.69
329.058	106.69
329.287	118.69
329.515	117.69
329.744	118.69
329.972	164.69
330.201	233.69
330.43	319.69
330.658	178.69
330.887	142.69
331.115	126.69
331.344	92.69
331.572	96.69
331.801	97.69
332.03	91.69
332.258	98.69
332.486	88.69
332.715	89.69
332.943	86.69
333.172	83.69
333.4	91.69
333.629	90.69
333.857	116.69
334.085	159.69
334.314	241.69
334.542	386.69
334.771	378.69
334.999	143.69
335.227	99.69
335.455	96.69
335.684	97.69
335.912	80.69
336.14	79.69
336.369	103.69
336.597	85.69
336.825	90.69
337.053	83.69
337.281	76.69
337.51	79.69
337.738	77.69
337.966	84.69
338.194	69.69
338.422	92.69
338.65	83.69
338.878	95.69
339.106	82.69
339.334	92.69
339.562	84.69
339.79	80.69
340.018	84.69
340.246	100.69
340.474	82.69
340.702	83.69
340.93	75.69
341.158	91.69
341.386	81.69
341.614	101.69
341.842	87.69
342.07	80.69
342.298	93.69
342.526	86.69
342.754	95.69
342.981	73.69
343.209	83.69
343.437	94.69
343.665	86.69
343.893	75.69
344.12	86.69
344.348	86.69
344.576	87.69
344.804	80.69
345.031	75.69
345.259	86.69
345.487	96.69
345.714	88.69
345.942	90.69
346.17	80.69
346.397	91.69
346.625	103.69
346.853	93.69
347.08	85.69
347.308	90.69
347.535	106.69
347.763	104.69
347.99	84.69
348.218	92.69
348.445	86.69
348.673	79.69
348.9	86.69
349.128	93.69
349.355	93.69
349.583	98.69
349.81	94.69
350.037	88.69
350.265	104.69
350.492	92.69
350.72	101.69
350.947	81.69
351.174	103.69
351.402	107.69
351.629	86.69
351.856	99.69
352.083	96.69
352.311	97.69
352.538	105.69
352.765	107.69
352.992	94.69
353.22	105.69
353.447	94.69
353.674	88.69
353.901	87.69
354.128	78.69
354.355	96.69
354.583	83.69
354.81	93.69
355.037	102.69
355.264	93.69
355.491	74.69
355.718	85.69
355.945	75.69
356.172	72.69
356.399	92.69
356.626	88.69
356.853	103.69
357.08	79.69
357.307	77.69
357.534	80.69
357.761	84.69
357.988	95.69
358.215	97.69
358.441	79.69
358.668	85.69
358.895	67.69
359.122	86.69
359.349	90.69
359.576	87.69
359.802	96.69
360.029	109.69
360.256	110.69
360.483	81.69
360.709	82.69
360.936	88.69
361.163	93.69
361.39	73.69
361.616	89.69
361.843	92.69
362.07	80.69
362.296	85.69
362.523	80.69
362.749	82.69
362.976	83.69
363.203	89.69
363.429	90.69
363.656	96.69
363.882	89.69
364.109	96.69
364.335	89.69
364.562	86.69
364.788	76.69
365.015	91.69
365.241	110.69
365.468	103.69
365.694	82.69
365.92	70.69
366.147	77.69
366.373	87.69
366.599	69.69
366.826	85.69
367.052	79.69
367.278	79.69
367.505	78.69
367.731	83.69
367.957	75.69
368.184	76.69
368.41	88.69
368.636	103.69
368.862	108.69
369.089	106.69
369.315	86.69
369.541	71.69
369.767	80.69
369.993	89.69
370.219	86.69
370.445	83.69
370.672	89.69
370.898	82.69
371.124	91.69
371.35	92.69
371.576	88.69
371.802	82.69
372.028	86.69
372.254	86.69
372.48	85.69
372.706	76.69
372.932	82.69
373.158	91.69
373.384	90.69
373.61	99.69
373.835	80.69
374.061	79.69
374.287	87.69
374.513	94.69
374.739	88.69
374.965	77.69
375.191	84.69
375.416	84.69
375.642	81.69
375.868	82.69
376.094	81.69
376.319	75.69
376.545	71.69
376.771	80.69
376.997	69.69
377.222	87.69
377.448	105.69
377.674	84.69
377.899	89.69
378.125	88.69
378.35	85.69
378.576	93.69
378.802	96.69
379.027	80.69
379.253	96.69
379.478	78.69
379.704	82.69
379.929	93.69
380.155	79.69
380.38	95.69
380.606	109.69
380.831	93.69
381.057	82.69
381.282	100.69
381.507	94.69
381.733	93.69
381.958	67.69
382.184	95.69
382.409	77.69
382.634	108.69
382.86	101.69
383.085	98.69
383.31	86.69
383.535	89.69
383.761	98.69
383.986	94.69
384.211	92.69
384.436	102.69
384.662	85.69
384.887	90.69
385.112	95.69
385.337	85.69
385.562	104.69
385.787	104.69
386.013	100.69
386.238	104.69
386.463	107.69
386.688	98.69
386.913	91.69
387.138	108.69
387.363	98.69
387.588	99.69
387.813	82.69
388.038	91.69
388.263	98.69
388.488	100.69
388.713	88.69
388.938	91.69
389.163	100.69
389.387	101.69
389.612	90.69
389.837	90.69
390.062	77.69
390.287	90.69
390.512	86.69
390.736	102.69
390.961	78.69
391.186	78.69
391.411	83.69
391.636	101.69
391.86	76.69
392.085	83.69
392.31	90.69
392.534	75.69
392.759	77.69
392.984	86.69
393.208	74.69
393.433	93.69
393.658	74.69
393.882	83.69
394.107	92.69
394.331	84.69
394.556	70.69
394.78	74.69
395.005	79.69
395.229	86.69
395.454	87.69
395.678	74.69
395.903	93.69
396.127	94.69
396.352	86.69
396.576	69.69
396.801	87.69
397.025	86.69
397.249	81.69
397.474	83.69
397.698	93.69
397.922	79.69
398.147	88.69
398.371	82.69
398.595	74.69
398.82	85.69
399.044	88.69
399.268	72.69
399.492	86.69
399.717	87.69
399.941	86.69
400.165	100.69
400.389	92.69
400.613	82.69
400.837	77.69
401.062	78.69
401.286	72.69
401.51	76.69
401.734	81.69
401.958	93.69
402.182	111.69
402.406	123.69
402.63	107.69
402.854	87.69
403.078	86.69
403.302	88.69
403.526	87.69
403.75	79.69
403.974	75.69
404.198	70.69
404.422	78.69
404.645	95.69
404.869	99.69
405.093	104.69
405.317	113.69
405.541	95.69
405.765	80.69
405.988	111.69
406.212	127.69
406.436	176.69
406.66	126.69
406.883	84.69
407.107	92.69
407.331	95.69
407.555	101.69
407.778	96.69
408.002	81.69
408.226	76.69
408.449	87.69
408.673	88.69
408.896	90.69
409.12	87.69
409.344	93.69
409.567	71.69
409.791	81.69
410.014	82.69
410.238	90.69
410.461	85.69
410.685	97.69
410.908	92.69
411.132	101.69
411.355	86.69
411.578	88.69
411.802	76.69
412.025	71.69
412.249	92.69
412.472	100.69
412.695	91.69
412.919	95.69
413.142	91.69
413.365	90.69
413.589	67.69
413.812	75.69
414.035	92.69
414.258	90.69
414.482	99.69
414.705	85.69
414.928	96.69
415.151	93.69
415.374	92.69
415.597	91.69
415.821	79.69
416.044	93.69
416.267	82.69
416.49	75.69
416.713	84.69
416.936	89.69
417.159	72.69
417.382	84.69
417.605	84.69
417.828	91.69
418.051	87.69
418.274	82.69
418.497	84.69
418.72	84.69
418.943	60.69
419.166	85.69
419.389	90.69
419.611	84.69
419.834	87.69
420.057	90.69
420.28	84.69
420.503	94.69
420.726	93.69
420.948	107.69
421.171	94.69
421.394	91.69
421.617	90.69
421.839	79.69
422.062	85.69
422.285	85.69
422.507	107.69
422.73	102.69
422.953	79.69
423.175	91.69
423.398	86.69
423.621	88.69
423.843	80.69
424.066	89.69
424.288	77.69
424.511	79.69
424.733	102.69
424.956	90.69
425.178	98.69
425.401	82.69
425.623	91.69
425.846	79.69
426.068	98.69
426.291	89.69
426.513	84.69
426.735	97.69
426.958	65.69
427.18	86.69
427.402	111.69
427.625	141.69
427.847	140.69
428.069	128.69
428.292	92.69
428.514	78.69
428.736	87.69
428.958	71.69
429.181	83.69
429.403	80.69
429.625	90.69
429.847	82.69
430.069	100.69
430.292	89.69
430.514	76.69
430.736	79.69
430.958	90.69
431.18	60.69
431.402	99.69
431.624	86.69
431.846	84.69
432.068	80.69
432.29	85.69
432.512	92.69
432.734	78.69
432.956	94.69
433.178	83.69
433.4	90.69
433.622	74.69
433.844	80.69
434.066	78.69
434.287	91.69
434.509	80.69
434.731	83.69
434.953	75.69
435.175	74.69
435.397	83.69
435.618	88.69
435.84	87.69
436.062	118.69
436.284	108.69
436.505	84.69
436.727	75.69
436.949	97.69
437.17	87.69
437.392	76.69
437.614	96.69
437.835	88.69
438.057	96.69
438.278	111.69
438.5	101.69
438.721	111.69
438.943	98.69
439.165	81.69
439.386	87.69
439.608	81.69
439.829	85.69
440.05	106.69
440.272	115.69
440.493	93.69
440.715	90.69
440.936	65.69
441.158	85.69
441.379	76.69
441.6	85.69
441.822	83.69
442.043	89.69
442.264	88.69
442.486	96.69
442.707	79.69
442.928	98.69
443.149	121.69
443.371	99.69
443.592	107.69
443.813	106.69
444.034	100.69
444.255	93.69
444.476	70.69
444.698	95.69
444.919	97.69
445.14	140.69
445.361	131.69
445.582	99.69
445.803	126.69
446.024	123.69
446.245	120.69
446.466	87.69
446.687	68.69
446.908	84.69
447.129	92.69
447.35	85.69
447.571	92.69
447.792	87.69
448.013	90.69
448.234	99.69
448.455	99.69
448.675	118.69
448.896	121.69
449.117	106.69
449.338	100.69
449.559	118.69
449.779	106.69
450	76.69
450.221	85.69
450.442	82.69
450.662	82.69
450.883	103.69
451.104	102.69
451.324	83.69
451.545	78.69
451.766	97.69
451.986	88.69
452.207	97.69
452.428	82.69
452.648	72.69
452.869	102.69
453.089	102.69
453.31	92.69
453.53	95.69
453.751	82.69
453.971	84.69
454.192	107.69
454.412	75.69
454.633	74.69
454.853	91.69
455.073	84.69
455.294	80.69
455.514	84.69
455.734	95.69
455.955	87.69
456.175	88.69
456.395	79.69
456.616	84.69
456.836	80.69
457.056	78.69
457.276	62.69
457.497	79.69
457.717	76.69
457.937	82.69
458.157	70.69
458.377	87.69
458.598	108.69
458.818	134.69
459.038	135.69
459.258	93.69
459.478	75.69
459.698	78.69
459.918	88.69
460.138	76.69
460.358	68.69
460.578	67.69
460.798	103.69
461.018	88.69
461.238	96.69
461.458	87.69
461.678	79.69
461.898	93.69
462.118	80.69
462.338	78.69
462.558	85.69
462.777	77.69
462.997	84.69
463.217	94.69
463.437	69.69
463.657	83.69
463.876	82.69
464.096	80.69
464.316	87.69
464.536	80.69
464.755	87.69
464.975	91.69
465.195	134.69
465.414	136.69
465.634	99.69
465.854	76.69
466.073	100.69
466.293	79.69
466.512	91.69
466.732	82.69
466.951	82.69
467.171	100.69
467.391	101.69
467.61	96.69
467.829	100.69
468.049	173.69
468.268	211.69
468.488	106.69
468.707	77.69
468.927	90.69
469.146	78.69
469.365	83.69
469.585	86.69
469.804	92.69
470.023	80.69
470.243	84.69
470.462	94.69
470.681	108.69
470.901	89.69
471.12	82.69
471.339	80.69
471.558	71.69
471.777	104.69
471.997	135.69
472.216	266.69
472.435	508.69
472.654	164.69
472.873	94.69
473.092	93.69
473.311	85.69
473.53	77.69
473.749	72.69
473.968	70.69
474.187	89.69
474.406	87.69
474.625	78.69
474.844	85.69
475.063	91.69
475.282	71.69
475.501	93.69
475.72	85.69
475.939	75.69
476.158	78.69
476.377	76.69
476.596	78.69
476.814	85.69
477.033	76.69
477.252	84.69
477.471	66.69
477.69	66.69
477.908	85.69
478.127	84.69
478.346	87.69
478.564	89.69
478.783	97.69
479.002	100.69
479.22	95.69
479.439	95.69
479.658	92.69
479.876	79.69
480.095	82.69
480.313	86.69
480.532	91.69
480.751	112.69
480.969	270.69
481.188	875.69
481.406	512.69
481.624	133.69
481.843	100.69
482.061	95.69
482.28	90.69
482.498	85.69
482.717	86.69
482.935	91.69
483.153	83.69
483.372	86.69
483.59	83.69
483.808	78.69
484.027	91.69
484.245	85.69
484.463	94.69
484.681	89.69
484.9	92.69
485.118	85.69
485.336	97.69
485.554	106.69
485.772	98.69
485.99	110.69
486.209	100.69
486.427	98.69
486.645	118.69
486.863	117.69
487.081	80.69
487.299	94.69
487.517	92.69
487.735	84.69
487.953	92.69
488.171	83.69
488.389	90.69
488.607	81.69
488.825	86.69
489.043	72.69
489.261	79.69
489.479	92.69
489.696	86.69
489.914	69.69
490.132	99.69
490.35	89.69
490.568	81.69
490.786	84.69
491.003	76.69
491.221	69.69
491.439	86.69
491.657	79.69
491.874	91.69
492.092	84.69
492.31	91.69
492.527	85.69
492.745	86.69
492.963	89.69
493.18	80.69
493.398	92.69
493.615	82.69
493.833	75.69
494.05	84.69
494.268	80.69
494.485	82.69
494.703	69.69
494.92	100.69
495.138	71.69
495.355	79.69
495.573	94.69
495.79	87.69
496.008	85.69
496.225	93.69
496.442	103.69
496.66	93.69
496.877	108.69
497.094	90.69
497.312	81.69
497.529	92.69
497.746	85.69
497.963	80.69
498.181	86.69
498.398	111.69
498.615	104.69
498.832	98.69
499.049	77.69
499.267	82.69
499.484	75.69
499.701	82.69
499.918	77.69
500.135	84.69
500.352	82.69
500.569	96.69
500.786	96.69
501.003	95.69
501.22	101.69
501.437	97.69
501.654	79.69
501.871	94.69
502.088	85.69
502.305	94.69
502.522	74.69
502.739	87.69
502.956	89.69
503.172	84.69
503.389	96.69
503.606	87.69
503.823	103.69
504.04	80.69
504.256	76.69
504.473	79.69
504.69	78.69
504.907	87.69
505.123	80.69
505.34	88.69
505.557	67.69
505.773	85.69
505.99	79.69
506.207	83.69
506.423	87.69
506.64	58.69
506.856	78.69
507.073	65.69
507.289	82.69
507.506	92.69
507.722	91.69
507.939	99.69
508.155	96.69
508.372	87.69
508.588	92.69
508.805	84.69
509.021	90.69
509.238	93.69
509.454	83.69
509.67	87.69
509.887	95.69
510.103	105.69
510.319	161.69
510.536	563.69
510.752	1822.69
510.968	495.69
511.184	123.69
511.401	102.69
511.617	92.69
511.833	84.69
512.049	100.69
512.265	87.69
512.481	99.69
512.698	88.69
512.914	86.69
513.13	99.69
513.346	91.69
513.562	93.69
513.778	98.69
513.994	97.69
514.21	92.69
514.426	110.69
514.642	119.69
514.858	113.69
515.074	149.69
515.29	335.69
515.506	1051.69
515.721	400.69
515.937	149.69
516.153	77.69
516.369	83.69
516.585	76.69
516.801	84.69
517.016	91.69
517.232	90.69
