Data from Circ_1984_H10_HRD10591_00079.txt Node
Date: Wed Jan 03 12:22:57 EST 2024
User: Yrep
Spectrometer: HR+D1059
Trigger mode: 1
Integration Time (sec): 1.000000E-1
Scans to average: 1
Electric dark correction enabled: true
Nonlinearity correction enabled: false
Boxcar width: 0
XAxis mode: Wavelengths
Number of Pixels in Spectrum: 2048
>>>>>Begin Spectral Data<<<<<
223.165	-17
223.4	-17
223.635	-17
223.869	-27
224.104	-21
224.338	-1
224.573	-10
224.808	-9
225.042	-2
225.277	-14
225.511	-6
225.746	13
225.98	9
226.215	7
226.449	14
226.683	21
226.918	10
227.152	33
227.387	48
227.621	43
227.856	45
228.09	51
228.324	65
228.559	72
228.793	75
229.027	65
229.262	70
229.496	73
229.73	81
229.964	85
230.199	89
230.433	76
230.667	74
230.901	72
231.136	71
231.37	89
231.604	71
231.838	91
232.072	89
232.306	93
232.541	98
232.775	86
233.009	82
233.243	85
233.477	69
233.711	77
233.945	75
234.179	86
234.413	81
234.647	92
234.881	86
235.115	65
235.349	91
235.583	78
235.817	76
236.051	74
236.285	92
236.519	76
236.753	86
236.987	77
237.221	79
237.455	83
237.689	69
237.922	73
238.156	60
238.39	75
238.624	85
238.858	87
239.091	84
239.325	64
239.559	76
239.793	76
240.027	76
240.26	82
240.494	90
240.728	89
240.961	85
241.195	70
241.429	79
241.662	81
241.896	83
242.13	85
242.363	77
242.597	66
242.83	66
243.064	83
243.298	77
243.531	63
243.765	77
243.998	71
244.232	82
244.465	92
244.699	76
244.932	75
245.166	82
245.399	78
245.633	77
245.866	83
246.099	78
246.333	81
246.566	94
246.8	87
247.033	90
247.266	83
247.5	78
247.733	87
247.966	75
248.2	70
248.433	74
248.666	70
248.899	81
249.133	88
249.366	98
249.599	87
249.832	78
250.066	86
250.299	75
250.532	89
250.765	104
250.998	85
251.231	83
251.465	76
251.698	81
251.931	77
252.164	77
252.397	76
252.63	86
252.863	72
253.096	84
253.329	88
253.562	66
253.795	76
254.028	92
254.261	89
254.494	87
254.727	84
254.96	86
255.193	98
255.426	90
255.659	92
255.892	75
256.124	67
256.357	88
256.59	89
256.823	97
257.056	90
257.289	85
257.521	94
257.754	83
257.987	89
258.22	85
258.452	85
258.685	101
258.918	79
259.151	79
259.383	74
259.616	75
259.849	104
260.081	90
260.314	74
260.547	87
260.779	81
261.012	93
261.244	98
261.477	85
261.71	97
261.942	100
262.175	106
262.407	98
262.64	79
262.872	85
263.105	88
263.337	106
263.57	73
263.802	81
264.035	83
264.267	98
264.499	78
264.732	96
264.964	77
265.197	87
265.429	82
265.661	93
265.894	91
266.126	72
266.358	79
266.591	84
266.823	95
267.055	85
267.287	75
267.52	82
267.752	83
267.984	98
268.216	86
268.448	83
268.681	85
268.913	82
269.145	94
269.377	86
269.609	78
269.841	88
270.073	94
270.306	79
270.538	91
270.77	93
271.002	86
271.234	85
271.466	79
271.698	79
271.93	82
272.162	76
272.394	74
272.626	90
272.858	88
273.09	85
273.322	97
273.553	77
273.785	75
274.017	86
274.249	91
274.481	71
274.713	85
274.945	87
275.176	88
275.408	94
275.64	94
275.872	82
276.104	102
276.335	88
276.567	95
276.799	103
277.031	98
277.262	101
277.494	100
277.726	91
277.957	90
278.189	86
278.421	89
278.652	76
278.884	91
279.115	85
279.347	89
279.579	86
279.81	93
280.042	98
280.273	114
280.505	89
280.736	80
280.968	83
281.199	87
281.431	75
281.662	82
281.894	90
282.125	98
282.356	125
282.588	131
282.819	103
283.051	89
283.282	81
283.513	90
283.745	92
283.976	89
284.207	87
284.439	83
284.67	87
284.901	97
285.132	92
285.364	93
285.595	93
285.826	75
286.057	84
286.288	92
286.52	90
286.751	90
286.982	83
287.213	94
287.444	92
287.675	95
287.906	94
288.138	93
288.369	88
288.6	89
288.831	87
289.062	87
289.293	96
289.524	96
289.755	92
289.986	78
290.217	89
290.448	74
290.679	73
290.91	77
291.141	86
291.371	89
291.602	92
291.833	92
292.064	85
292.295	101
292.526	94
292.757	99
292.987	70
293.218	98
293.449	88
293.68	97
293.91	87
294.141	87
294.372	92
294.603	82
294.833	87
295.064	84
295.295	107
295.525	99
295.756	95
295.987	108
296.217	141
296.448	119
296.679	97
296.909	98
297.14	105
297.37	93
297.601	92
297.831	74
298.062	94
298.292	86
298.523	84
298.753	101
298.984	101
299.214	86
299.445	98
299.675	100
299.905	102
300.136	106
300.366	84
300.597	87
300.827	104
301.057	90
301.288	98
301.518	86
301.748	83
301.979	106
302.209	88
302.439	83
302.669	91
302.9	90
303.13	94
303.36	107
303.59	106
303.82	97
304.051	108
304.281	89
304.511	85
304.741	100
304.971	79
305.201	89
305.431	87
305.661	92
305.891	84
306.121	110
306.352	105
306.582	96
306.812	91
307.042	94
307.272	97
307.502	93
307.731	105
307.961	89
308.191	93
308.421	94
308.651	101
308.881	93
309.111	85
309.341	102
309.571	100
309.8	88
310.03	91
310.26	104
310.49	97
310.72	84
310.949	105
311.179	101
311.409	89
311.639	107
311.868	87
312.098	102
312.328	99
312.557	99
312.787	107
313.017	93
313.246	100
313.476	92
313.706	95
313.935	97
314.165	103
314.394	92
314.624	102
314.853	106
315.083	98
315.312	83
315.542	89
315.771	92
316.001	81
316.23	104
316.46	100
316.689	102
316.919	98
317.148	97
317.377	96
317.607	90
317.836	97
318.065	87
318.295	86
318.524	98
318.753	90
318.983	95
319.212	86
319.441	113
319.67	112
319.9	104
320.129	89
320.358	98
320.587	83
320.816	104
321.046	97
321.275	89
321.504	97
321.733	101
321.962	105
322.191	90
322.42	98
322.649	95
322.878	102
323.108	95
323.337	94
323.566	120
323.795	147
324.024	181
324.253	294
324.482	637
324.71	1212
324.939	1631
325.168	618
325.397	189
325.626	143
325.855	126
326.084	101
326.313	125
326.542	145
326.77	190
326.999	362
327.228	721
327.457	1284
327.686	1059
327.914	316
328.143	221
328.372	188
328.6	144
328.829	113
329.058	110
329.287	132
329.515	106
329.744	117
329.972	147
330.201	209
330.43	278
330.658	172
330.887	125
331.115	103
331.344	111
331.572	107
331.801	102
332.03	105
332.258	83
332.486	101
332.715	102
332.943	103
333.172	104
333.4	109
333.629	107
333.857	127
334.085	150
334.314	209
334.542	334
334.771	301
334.999	147
335.227	111
335.455	103
335.684	101
335.912	82
336.14	99
336.369	104
336.597	106
336.825	87
337.053	87
337.281	81
337.51	88
337.738	94
337.966	91
338.194	92
338.422	102
338.65	93
338.878	115
339.106	104
339.334	93
339.562	89
339.79	96
340.018	81
340.246	97
340.474	101
340.702	87
340.93	104
341.158	92
341.386	91
341.614	93
341.842	91
342.07	100
342.298	87
342.526	86
342.754	94
342.981	87
343.209	102
343.437	91
343.665	90
343.893	95
344.12	101
344.348	99
344.576	97
344.804	104
345.031	87
345.259	106
345.487	78
345.714	85
345.942	81
346.17	86
346.397	99
346.625	106
346.853	89
347.08	100
347.308	89
347.535	91
347.763	86
347.99	93
348.218	108
348.445	99
348.673	87
348.9	97
349.128	87
349.355	93
349.583	93
349.81	88
350.037	102
350.265	106
350.492	102
350.72	102
350.947	99
351.174	108
351.402	95
351.629	89
351.856	100
352.083	105
352.311	94
352.538	106
352.765	106
352.992	112
353.22	115
353.447	103
353.674	91
353.901	96
354.128	109
354.355	101
354.583	107
354.81	104
355.037	102
355.264	101
355.491	87
355.718	91
355.945	101
356.172	92
356.399	89
356.626	95
356.853	96
357.08	94
357.307	97
357.534	92
357.761	105
357.988	107
358.215	107
358.441	90
358.668	95
358.895	100
359.122	82
359.349	82
359.576	91
359.802	88
360.029	109
360.256	109
360.483	96
360.709	88
360.936	102
361.163	99
361.39	95
361.616	99
361.843	98
362.07	95
362.296	99
362.523	93
362.749	102
362.976	89
363.203	98
363.429	91
363.656	91
363.882	87
364.109	105
364.335	104
364.562	78
364.788	83
365.015	91
365.241	107
365.468	106
365.694	99
365.92	109
366.147	84
366.373	82
366.599	74
366.826	110
367.052	89
367.278	85
367.505	77
367.731	91
367.957	102
368.184	91
368.41	104
368.636	98
368.862	107
369.089	93
369.315	78
369.541	91
369.767	93
369.993	88
370.219	102
370.445	97
370.672	79
370.898	83
371.124	94
371.35	84
371.576	78
371.802	77
372.028	69
372.254	79
372.48	90
372.706	97
372.932	93
373.158	101
373.384	90
373.61	102
373.835	87
374.061	89
374.287	85
374.513	75
374.739	78
374.965	87
375.191	85
375.416	78
375.642	87
375.868	90
376.094	84
376.319	97
376.545	100
376.771	102
376.997	89
377.222	88
377.448	102
377.674	78
377.899	89
378.125	105
378.35	94
378.576	98
378.802	90
379.027	95
379.253	94
379.478	111
379.704	90
379.929	89
380.155	84
380.38	92
380.606	85
380.831	105
381.057	95
381.282	61
381.507	89
381.733	97
381.958	102
382.184	103
382.409	81
382.634	88
382.86	89
383.085	100
383.31	103
383.535	119
383.761	93
383.986	98
384.211	100
384.436	105
384.662	97
384.887	90
385.112	93
385.337	94
385.562	106
385.787	92
386.013	108
386.238	108
386.463	93
386.688	100
386.913	100
387.138	100
387.363	109
387.588	98
387.813	95
388.038	107
388.263	104
388.488	106
388.713	98
388.938	97
389.163	90
389.387	63
389.612	101
389.837	85
390.062	87
390.287	99
390.512	108
390.736	83
390.961	106
391.186	98
391.411	93
391.636	96
391.86	82
392.085	105
392.31	79
392.534	85
392.759	101
392.984	90
393.208	98
393.433	98
393.658	100
393.882	107
394.107	93
394.331	89
394.556	97
394.78	91
395.005	88
395.229	84
395.454	94
395.678	83
395.903	80
396.127	102
396.352	79
396.576	104
396.801	88
397.025	70
397.249	91
397.474	92
397.698	98
397.922	86
398.147	83
398.371	97
398.595	86
398.82	75
399.044	82
399.268	85
399.492	94
399.717	86
399.941	109
400.165	101
400.389	93
400.613	97
400.837	89
401.062	91
401.286	72
401.51	96
401.734	83
401.958	101
402.182	123
402.406	118
402.63	126
402.854	79
403.078	88
403.302	110
403.526	80
403.75	104
403.974	83
404.198	96
404.422	97
404.645	100
404.869	97
405.093	98
405.317	103
405.541	105
405.765	97
405.988	109
406.212	129
406.436	173
406.66	116
406.883	93
407.107	85
407.331	97
407.555	85
407.778	90
408.002	94
408.226	87
408.449	93
408.673	87
408.896	91
409.12	93
409.344	81
409.567	89
409.791	98
410.014	97
410.238	97
410.461	85
410.685	97
410.908	94
411.132	93
411.355	99
411.578	99
411.802	91
412.025	92
412.249	82
412.472	97
412.695	101
412.919	82
413.142	81
413.365	95
413.589	90
413.812	93
414.035	87
414.258	98
414.482	96
414.705	91
414.928	104
415.151	89
415.374	102
415.597	94
415.821	90
416.044	91
416.267	83
416.49	98
416.713	99
416.936	91
417.159	92
417.382	82
417.605	106
417.828	102
418.051	93
418.274	92
418.497	87
418.72	90
418.943	83
419.166	84
419.389	92
419.611	88
419.834	105
420.057	103
420.28	90
420.503	85
420.726	100
420.948	90
421.171	92
421.394	101
421.617	108
421.839	92
422.062	83
422.285	89
422.507	100
422.73	95
422.953	90
423.175	75
423.398	81
423.621	89
423.843	102
424.066	99
424.288	95
424.511	89
424.733	92
424.956	99
425.178	85
425.401	95
425.623	98
425.846	86
426.068	92
426.291	78
426.513	87
426.735	90
426.958	91
427.18	109
427.402	132
427.625	142
427.847	126
428.069	106
428.292	97
428.514	102
428.736	73
428.958	87
429.181	75
429.403	83
429.625	93
429.847	85
430.069	98
430.292	93
430.514	89
430.736	86
430.958	90
431.18	74
431.402	86
431.624	92
431.846	85
432.068	89
432.29	85
432.512	98
432.734	83
432.956	94
433.178	99
433.4	89
433.622	77
433.844	92
434.066	82
434.287	81
434.509	107
434.731	73
434.953	99
435.175	90
435.397	89
435.618	90
435.84	99
436.062	110
436.284	111
436.505	106
436.727	96
436.949	86
437.17	73
437.392	95
437.614	93
437.835	109
438.057	110
438.278	98
438.5	99
438.721	111
438.943	86
439.165	76
439.386	83
439.608	92
439.829	92
440.05	109
440.272	129
440.493	99
440.715	102
440.936	87
441.158	85
441.379	79
441.6	106
441.822	107
442.043	100
442.264	100
442.486	83
442.707	92
442.928	103
443.149	119
443.371	111
443.592	103
443.813	92
444.034	104
444.255	96
444.476	89
444.698	83
444.919	99
445.14	147
445.361	127
445.582	117
445.803	138
446.024	126
446.245	119
446.466	97
446.687	86
446.908	86
447.129	89
447.35	98
447.571	83
447.792	95
448.013	86
448.234	103
448.455	110
448.675	105
448.896	98
449.117	105
449.338	85
449.559	115
449.779	120
450	97
450.221	90
450.442	78
450.662	91
450.883	106
451.104	118
451.324	94
451.545	95
451.766	83
451.986	103
452.207	87
452.428	96
452.648	93
452.869	114
453.089	104
453.31	94
453.53	85
453.751	92
453.971	83
454.192	90
454.412	87
454.633	93
454.853	97
455.073	97
455.294	80
455.514	98
455.734	79
455.955	79
456.175	85
456.395	78
456.616	85
456.836	83
457.056	78
457.276	81
457.497	87
457.717	85
457.937	70
458.157	78
458.377	89
458.598	95
458.818	120
459.038	148
459.258	107
459.478	79
459.698	75
459.918	96
460.138	93
460.358	89
460.578	94
460.798	78
461.018	85
461.238	82
461.458	88
461.678	92
461.898	89
462.118	84
462.338	89
462.558	84
462.777	89
462.997	100
463.217	94
463.437	95
463.657	89
463.876	81
464.096	82
464.316	95
464.536	97
464.755	87
464.975	101
465.195	158
465.414	117
465.634	93
465.854	74
466.073	86
466.293	90
466.512	99
466.732	90
466.951	98
467.171	83
467.391	88
467.61	99
467.829	107
468.049	157
468.268	206
468.488	101
468.707	71
468.927	85
469.146	89
469.365	84
469.585	90
469.804	94
470.023	97
470.243	85
470.462	98
470.681	93
470.901	87
471.12	88
471.339	95
471.558	65
471.777	102
471.997	114
472.216	254
472.435	434
472.654	166
472.873	95
473.092	110
473.311	90
473.53	76
473.749	81
473.968	92
474.187	95
474.406	91
474.625	88
474.844	99
475.063	85
475.282	88
475.501	72
475.72	90
475.939	85
476.158	77
476.377	108
476.596	93
476.814	83
477.033	101
477.252	93
477.471	87
477.69	88
477.908	89
478.127	90
478.346	96
478.564	108
478.783	81
479.002	89
479.22	90
479.439	89
479.658	106
479.876	93
480.095	90
480.313	96
480.532	119
480.751	129
480.969	229
481.188	730
481.406	437
481.624	132
481.843	85
482.061	82
482.28	89
482.498	97
482.717	89
482.935	101
483.153	94
483.372	94
483.59	87
483.808	88
484.027	97
484.245	94
484.463	93
484.681	97
484.9	90
485.118	102
485.336	108
485.554	101
485.772	95
485.99	107
486.209	102
486.427	94
486.645	101
486.863	100
487.081	104
487.299	94
487.517	79
487.735	93
487.953	101
488.171	92
488.389	86
488.607	92
488.825	77
489.043	93
489.261	81
489.479	88
489.696	87
489.914	102
490.132	88
490.35	86
490.568	88
490.786	92
491.003	95
491.221	88
491.439	84
491.657	102
491.874	94
492.092	101
492.31	91
492.527	98
492.745	83
492.963	95
493.18	85
493.398	87
493.615	101
493.833	103
494.05	101
494.268	102
494.485	111
494.703	75
494.92	92
495.138	94
495.355	94
495.573	94
495.79	94
496.008	95
496.225	95
496.442	100
496.66	100
496.877	82
497.094	89
497.312	98
497.529	92
497.746	88
497.963	89
498.181	93
498.398	94
498.615	104
498.832	106
499.049	90
499.267	90
499.484	84
499.701	89
499.918	98
500.135	89
500.352	89
500.569	88
500.786	93
501.003	93
501.22	88
501.437	100
501.654	98
501.871	97
502.088	89
502.305	89
502.522	81
502.739	88
502.956	92
503.172	98
503.389	94
503.606	103
503.823	83
504.04	89
504.256	100
504.473	99
504.69	103
504.907	95
505.123	89
505.34	97
505.557	95
505.773	93
505.99	74
506.207	89
506.423	98
506.64	91
506.856	92
507.073	98
507.289	95
507.506	96
507.722	101
507.939	103
508.155	89
508.372	78
508.588	95
508.805	110
509.021	104
509.238	98
509.454	102
509.67	107
509.887	104
510.103	121
510.319	187
510.536	542
510.752	1688
510.968	494
511.184	148
511.401	103
511.617	97
511.833	95
512.049	75
512.265	97
512.481	111
512.698	100
512.914	106
513.13	121
513.346	100
513.562	85
513.778	90
513.994	91
514.21	79
514.426	122
514.642	127
514.858	110
515.074	138
515.29	316
515.506	974
515.721	370
515.937	134
516.153	116
516.369	92
516.585	97
516.801	99
517.016	89
517.232	83
517.448	75
517.664	91
517.879	93
518.095	88
518.311	113
518.527	98
518.742	105
518.958	94
519.173	90
519.389	99
519.605	86
519.82	87
520.036	106
520.251	99
520.467	107
520.682	96
520.898	106
521.113	107
521.329	107
521.544	155
521.76	381
521.975	1616
522.19	966
522.406	233
522.621	108
522.836	118
523.052	106
523.267	105
523.482	89
523.698	100
523.913	112
524.128	97
524.343	89
524.559	93
524.774	83
524.989	100
525.204	113
525.419	89
525.634	95
525.849	86
526.064	81
526.28	92
526.495	103
526.71	86
526.925	85
527.14	95
527.355	76
527.57	94
527.785	92
527.999	121
528.214	90
528.429	87
528.644	87
528.859	79
529.074	94
529.289	116
529.503	157
529.718	94
529.933	102
530.148	99
530.363	92
530.577	93
530.792	85
531.007	101
531.221	104
531.436	99
531.651	101
531.865	89
532.08	87
532.295	70
532.509	83
532.724	100
532.938	105
533.153	93
533.367	90
533.582	79
533.796	91
534.011	81
534.225	87
534.44	81
534.654	86
534.868	91
535.083	98
535.297	84
535.511	88
535.726	98
535.94	92
536.154	90
536.369	87
536.583	92
536.797	96
537.011	72
537.225	84
537.44	88
537.654	94
537.868	85
538.082	97
538.296	83
538.51	85
538.724	87
538.938	101
539.153	84
539.367	108
539.581	107
539.795	92
540.009	80
540.222	92
540.436	97
540.65	89
540.864	93
541.078	78
541.292	102
541.506	98
541.72	106
541.934	95
542.147	97
542.361	92
542.575	79
542.789	93
543.002	98
543.216	99
543.43	94
543.644	84
543.857	95
544.071	107
544.285	86
544.498	95
544.712	83
544.925	86
545.139	89
545.352	91
545.566	97
545.779	79
545.993	92
546.206	101
546.42	91
546.633	97
546.847	91
547.06	101
547.274	87
547.487	95
547.7	97
547.914	80
548.127	95
548.34	88
548.554	97
548.767	85
548.98	94
549.193	92
549.407	83
549.62	89
549.833	94
550.046	91
550.259	109
550.473	90
550.686	89
550.899	98
551.112	91
551.325	95
551.538	89
551.751	97
551.964	87
552.177	98
552.39	89
552.603	90
552.816	101
553.029	73
553.242	94
553.455	90
553.667	110
553.88	105
554.093	91
554.306	109
554.519	107
554.732	107
554.944	89
555.157	89
555.37	87
555.583	86
555.795	74
556.008	92
556.221	97
556.433	89
556.646	88
556.859	90
557.071	98
557.284	90
557.496	76
557.709	100
557.921	88
558.134	93
558.346	81
558.559	106
558.771	71
558.984	100
559.196	94
559.409	88
559.621	89
559.833	92
560.046	97
560.258	95
560.47	88
560.683	93
560.895	89
561.107	90
561.32	102
561.532	97
561.744	102
561.956	107
562.168	96
562.381	101
562.593	83
562.805	83
563.017	91
563.229	84
563.441	102
563.653	95
563.865	97
564.077	89
564.289	94
564.501	90
564.713	82
564.925	93
565.137	103
565.349	95
565.561	100
565.773	92
565.985	101
566.197	90
566.408	89
566.62	85
566.832	86
567.044	86
567.255	83
567.467	86
567.679	99
567.891	99
568.102	94
568.314	88
568.526	90
568.737	86
568.949	99
569.161	92
569.372	101
569.584	84
569.795	90
570.007	102
570.218	185
570.43	125
570.641	83
570.853	87
571.064	94
571.276	86
571.487	101
571.698	94
571.91	90
572.121	88
572.333	90
572.544	74
572.755	91
572.966	89
573.178	98
573.389	77
573.6	81
573.811	99
574.023	74
574.234	101
574.445	95
574.656	86
574.867	89
575.078	100
575.289	100
575.501	103
575.712	97
575.923	80
576.134	90
576.345	97
576.556	97
576.767	94
576.978	106
577.188	91
577.399	102
577.61	93
577.821	93
578.032	99
578.243	215
578.454	512
578.665	151
578.875	104
579.086	90
579.297	71
579.508	89
579.718	81
579.929	101
580.14	102
580.35	101
580.561	87
580.772	93
580.982	73
581.193	92
581.403	108
581.614	94
581.825	88
582.035	99
582.246	89
582.456	85
582.667	110
582.877	85
583.087	76
583.298	105
583.508	85
