Data from Circ_1984_H10_HRD10591_00006.txt Node
Date: Wed Jan 03 12:22:43 EST 2024
User: Yrep
Spectrometer: HR+D1059
Trigger mode: 1
Integration Time (sec): 1.000000E-1
Scans to average: 1
Electric dark correction enabled: true
Nonlinearity correction enabled: false
Boxcar width: 0
XAxis mode: Wavelengths
Number of Pixels in Spectrum: 2048
>>>>>Begin Spectral Data<<<<<
223.165	-15.88
223.4	-15.88
223.635	-15.88
223.869	-28.88
224.104	-15.88
224.338	-24.88
224.573	-9.88
224.808	-16.88
225.042	-12.88
225.277	0.12
225.511	7.12
225.746	-5.88
225.98	0.12
226.215	4.12
226.449	22.12
226.683	25.12
226.918	35.12
227.152	37.12
227.387	33.12
227.621	32.12
227.856	52.12
228.09	35.12
228.324	52.12
228.559	61.12
228.793	54.12
229.027	65.12
229.262	71.12
229.496	73.12
229.73	60.12
229.964	68.12
230.199	68.12
230.433	67.12
230.667	82.12
230.901	88.12
231.136	93.12
231.37	81.12
231.604	86.12
231.838	73.12
232.072	81.12
232.306	79.12
232.541	79.12
232.775	87.12
233.009	79.12
233.243	83.12
233.477	82.12
233.711	79.12
233.945	75.12
234.179	80.12
234.413	74.12
234.647	77.12
234.881	77.12
235.115	81.12
235.349	79.12
235.583	75.12
235.817	93.12
236.051	87.12
236.285	77.12
236.519	70.12
236.753	77.12
236.987	92.12
237.221	90.12
237.455	85.12
237.689	93.12
237.922	81.12
238.156	69.12
238.39	69.12
238.624	96.12
238.858	74.12
239.091	85.12
239.325	75.12
239.559	91.12
239.793	88.12
240.027	79.12
240.26	74.12
240.494	62.12
240.728	73.12
240.961	64.12
241.195	67.12
241.429	75.12
241.662	78.12
241.896	74.12
242.13	66.12
242.363	73.12
242.597	82.12
242.83	77.12
243.064	83.12
243.298	63.12
243.531	82.12
243.765	83.12
243.998	83.12
244.232	77.12
244.465	67.12
244.699	68.12
244.932	74.12
245.166	77.12
245.399	81.12
245.633	85.12
245.866	74.12
246.099	95.12
246.333	85.12
246.566	75.12
246.8	67.12
247.033	84.12
247.266	71.12
247.5	72.12
247.733	93.12
247.966	78.12
248.2	79.12
248.433	69.12
248.666	74.12
248.899	86.12
249.133	81.12
249.366	83.12
249.599	87.12
249.832	83.12
250.066	75.12
250.299	61.12
250.532	88.12
250.765	79.12
250.998	77.12
251.231	67.12
251.465	71.12
251.698	66.12
251.931	69.12
252.164	86.12
252.397	80.12
252.63	86.12
252.863	91.12
253.096	75.12
253.329	77.12
253.562	77.12
253.795	80.12
254.028	60.12
254.261	79.12
254.494	77.12
254.727	70.12
254.96	71.12
255.193	91.12
255.426	81.12
255.659	83.12
255.892	73.12
256.124	73.12
256.357	71.12
256.59	93.12
256.823	90.12
257.056	87.12
257.289	81.12
257.521	72.12
257.754	92.12
257.987	80.12
258.22	100.12
258.452	74.12
258.685	81.12
258.918	81.12
259.151	82.12
259.383	73.12
259.616	86.12
259.849	68.12
260.081	75.12
260.314	82.12
260.547	85.12
260.779	79.12
261.012	87.12
261.244	60.12
261.477	82.12
261.71	92.12
261.942	107.12
262.175	100.12
262.407	87.12
262.64	78.12
262.872	74.12
263.105	76.12
263.337	94.12
263.57	88.12
263.802	76.12
264.035	75.12
264.267	72.12
264.499	87.12
264.732	89.12
264.964	87.12
265.197	100.12
265.429	93.12
265.661	89.12
265.894	76.12
266.126	89.12
266.358	91.12
266.591	66.12
266.823	93.12
267.055	72.12
267.287	88.12
267.52	90.12
267.752	69.12
267.984	60.12
268.216	91.12
268.448	74.12
268.681	82.12
268.913	86.12
269.145	83.12
269.377	79.12
269.609	85.12
269.841	81.12
270.073	82.12
270.306	84.12
270.538	81.12
270.77	86.12
271.002	90.12
271.234	80.12
271.466	77.12
271.698	76.12
271.93	84.12
272.162	82.12
272.394	87.12
272.626	74.12
272.858	70.12
273.09	85.12
273.322	89.12
273.553	80.12
273.785	82.12
274.017	89.12
274.249	71.12
274.481	80.12
274.713	90.12
274.945	72.12
275.176	72.12
275.408	75.12
275.64	88.12
275.872	75.12
276.104	86.12
276.335	92.12
276.567	87.12
276.799	102.12
277.031	99.12
277.262	92.12
277.494	89.12
277.726	71.12
277.957	93.12
278.189	94.12
278.421	70.12
278.652	90.12
278.884	88.12
279.115	77.12
279.347	69.12
279.579	79.12
279.81	79.12
280.042	81.12
280.273	90.12
280.505	91.12
280.736	85.12
280.968	81.12
281.199	82.12
281.431	75.12
281.662	81.12
281.894	99.12
282.125	90.12
282.356	103.12
282.588	111.12
282.819	95.12
283.051	74.12
283.282	72.12
283.513	76.12
283.745	74.12
283.976	70.12
284.207	93.12
284.439	92.12
284.67	103.12
284.901	96.12
285.132	85.12
285.364	93.12
285.595	83.12
285.826	88.12
286.057	93.12
286.288	84.12
286.52	89.12
286.751	84.12
286.982	88.12
287.213	82.12
287.444	90.12
287.675	94.12
287.906	88.12
288.138	85.12
288.369	96.12
288.6	84.12
288.831	85.12
289.062	88.12
289.293	96.12
289.524	88.12
289.755	83.12
289.986	72.12
290.217	81.12
290.448	73.12
290.679	81.12
290.91	95.12
291.141	85.12
291.371	97.12
291.602	71.12
291.833	73.12
292.064	81.12
292.295	68.12
292.526	85.12
292.757	96.12
292.987	68.12
293.218	81.12
293.449	75.12
293.68	85.12
293.91	86.12
294.141	81.12
294.372	87.12
294.603	94.12
294.833	98.12
295.064	80.12
295.295	87.12
295.525	90.12
295.756	97.12
295.987	107.12
296.217	116.12
296.448	120.12
296.679	87.12
296.909	80.12
297.14	88.12
297.37	83.12
297.601	92.12
297.831	85.12
298.062	93.12
298.292	80.12
298.523	89.12
298.753	87.12
298.984	86.12
299.214	86.12
299.445	83.12
299.675	78.12
299.905	83.12
300.136	89.12
300.366	96.12
300.597	83.12
300.827	85.12
301.057	81.12
301.288	97.12
301.518	78.12
301.748	83.12
301.979	95.12
302.209	85.12
302.439	95.12
302.669	87.12
302.9	90.12
303.13	83.12
303.36	86.12
303.59	104.12
303.82	100.12
304.051	86.12
304.281	85.12
304.511	104.12
304.741	81.12
304.971	86.12
305.201	95.12
305.431	73.12
305.661	76.12
305.891	90.12
306.121	99.12
306.352	93.12
306.582	103.12
306.812	101.12
307.042	89.12
307.272	96.12
307.502	95.12
307.731	106.12
307.961	100.12
308.191	94.12
308.421	87.12
308.651	79.12
308.881	91.12
309.111	84.12
309.341	85.12
309.571	85.12
309.8	77.12
310.03	112.12
310.26	93.12
310.49	97.12
310.72	88.12
310.949	101.12
311.179	85.12
311.409	89.12
311.639	94.12
311.868	99.12
312.098	80.12
312.328	66.12
312.557	91.12
312.787	95.12
313.017	83.12
313.246	89.12
313.476	94.12
313.706	86.12
313.935	93.12
314.165	85.12
314.394	92.12
314.624	87.12
314.853	90.12
315.083	98.12
315.312	83.12
315.542	84.12
315.771	85.12
316.001	98.12
316.23	95.12
316.46	87.12
316.689	85.12
316.919	93.12
317.148	107.12
317.377	99.12
317.607	88.12
317.836	89.12
318.065	79.12
318.295	95.12
318.524	92.12
318.753	94.12
318.983	90.12
319.212	110.12
319.441	107.12
319.67	83.12
319.9	104.12
320.129	90.12
320.358	88.12
320.587	93.12
320.816	103.12
321.046	97.12
321.275	93.12
321.504	86.12
321.733	89.12
321.962	90.12
322.191	94.12
322.42	91.12
322.649	85.12
322.878	101.12
323.108	111.12
323.337	118.12
323.566	125.12
323.795	120.12
324.024	163.12
324.253	291.12
324.482	589.12
324.71	1197.12
324.939	1526.12
325.168	583.12
325.397	189.12
325.626	127.12
325.855	110.12
326.084	105.12
326.313	119.12
326.542	132.12
326.77	191.12
326.999	341.12
327.228	666.12
327.457	1225.12
327.686	993.12
327.914	291.12
328.143	191.12
328.372	127.12
328.6	117.12
328.829	105.12
329.058	112.12
329.287	113.12
329.515	102.12
329.744	113.12
329.972	109.12
330.201	109.12
330.43	138.12
330.658	118.12
330.887	125.12
331.115	117.12
331.344	84.12
331.572	102.12
331.801	107.12
332.03	75.12
332.258	91.12
332.486	88.12
332.715	94.12
332.943	78.12
333.172	85.12
333.4	106.12
333.629	91.12
333.857	123.12
334.085	105.12
334.314	115.12
334.542	160.12
334.771	136.12
334.999	94.12
335.227	88.12
335.455	104.12
335.684	99.12
335.912	97.12
336.14	99.12
336.369	93.12
336.597	98.12
336.825	93.12
337.053	85.12
337.281	82.12
337.51	83.12
337.738	87.12
337.966	90.12
338.194	91.12
338.422	98.12
338.65	93.12
338.878	94.12
339.106	73.12
339.334	96.12
339.562	96.12
339.79	92.12
340.018	88.12
340.246	80.12
340.474	86.12
340.702	104.12
340.93	88.12
341.158	91.12
341.386	88.12
341.614	82.12
341.842	70.12
342.07	82.12
342.298	89.12
342.526	64.12
342.754	87.12
342.981	104.12
343.209	81.12
343.437	97.12
343.665	98.12
343.893	95.12
344.12	95.12
344.348	80.12
344.576	89.12
344.804	95.12
345.031	90.12
345.259	91.12
345.487	107.12
345.714	94.12
345.942	90.12
346.17	96.12
346.397	87.12
346.625	81.12
346.853	93.12
347.08	98.12
347.308	96.12
347.535	101.12
347.763	89.12
347.99	81.12
348.218	89.12
348.445	92.12
348.673	95.12
348.9	88.12
349.128	83.12
349.355	87.12
349.583	90.12
349.81	92.12
350.037	93.12
350.265	98.12
350.492	106.12
350.72	100.12
350.947	88.12
351.174	95.12
351.402	91.12
351.629	90.12
351.856	103.12
352.083	88.12
352.311	98.12
352.538	99.12
352.765	113.12
352.992	100.12
353.22	104.12
353.447	90.12
353.674	94.12
353.901	105.12
354.128	97.12
354.355	98.12
354.583	94.12
354.81	89.12
355.037	98.12
355.264	82.12
355.491	95.12
355.718	93.12
355.945	90.12
356.172	90.12
356.399	92.12
356.626	91.12
356.853	103.12
357.08	83.12
357.307	101.12
357.534	79.12
357.761	80.12
357.988	109.12
358.215	88.12
358.441	85.12
358.668	98.12
358.895	82.12
359.122	92.12
359.349	94.12
359.576	97.12
359.802	104.12
360.029	113.12
360.256	94.12
360.483	85.12
360.709	95.12
360.936	100.12
361.163	98.12
361.39	112.12
361.616	95.12
361.843	96.12
362.07	75.12
362.296	95.12
362.523	91.12
362.749	81.12
362.976	104.12
363.203	81.12
363.429	91.12
363.656	88.12
363.882	94.12
364.109	89.12
364.335	85.12
364.562	78.12
364.788	73.12
365.015	95.12
365.241	93.12
365.468	106.12
365.694	95.12
365.92	85.12
366.147	88.12
366.373	91.12
366.599	90.12
366.826	78.12
367.052	87.12
367.278	89.12
367.505	89.12
367.731	95.12
367.957	83.12
368.184	89.12
368.41	105.12
368.636	93.12
368.862	111.12
369.089	103.12
369.315	102.12
369.541	97.12
369.767	85.12
369.993	72.12
370.219	84.12
370.445	79.12
370.672	93.12
370.898	92.12
371.124	81.12
371.35	81.12
371.576	98.12
371.802	92.12
372.028	79.12
372.254	88.12
372.48	89.12
372.706	83.12
372.932	86.12
373.158	89.12
373.384	81.12
373.61	93.12
373.835	89.12
374.061	75.12
374.287	90.12
374.513	81.12
374.739	93.12
374.965	90.12
375.191	85.12
375.416	106.12
375.642	89.12
375.868	92.12
376.094	82.12
376.319	92.12
376.545	95.12
376.771	105.12
376.997	93.12
377.222	101.12
377.448	84.12
377.674	85.12
377.899	91.12
378.125	98.12
378.35	101.12
378.576	90.12
378.802	100.12
379.027	96.12
379.253	94.12
379.478	88.12
379.704	97.12
379.929	89.12
380.155	86.12
380.38	106.12
380.606	100.12
380.831	93.12
381.057	105.12
381.282	96.12
381.507	82.12
381.733	87.12
381.958	102.12
382.184	93.12
382.409	106.12
382.634	91.12
382.86	98.12
383.085	113.12
383.31	109.12
383.535	110.12
383.761	99.12
383.986	107.12
384.211	76.12
384.436	110.12
384.662	101.12
384.887	110.12
385.112	116.12
385.337	111.12
385.562	120.12
385.787	100.12
386.013	100.12
386.238	106.12
386.463	117.12
386.688	114.12
386.913	106.12
387.138	122.12
387.363	109.12
387.588	97.12
387.813	101.12
388.038	124.12
388.263	115.12
388.488	109.12
388.713	103.12
388.938	94.12
389.163	93.12
389.387	103.12
389.612	90.12
389.837	84.12
390.062	91.12
390.287	89.12
390.512	89.12
390.736	94.12
390.961	93.12
391.186	99.12
391.411	86.12
391.636	96.12
391.86	86.12
392.085	83.12
392.31	97.12
392.534	81.12
392.759	82.12
392.984	101.12
393.208	95.12
393.433	99.12
393.658	93.12
393.882	87.12
394.107	73.12
394.331	93.12
394.556	84.12
394.78	86.12
395.005	98.12
395.229	89.12
395.454	86.12
395.678	91.12
395.903	81.12
396.127	86.12
396.352	81.12
396.576	82.12
396.801	95.12
397.025	102.12
397.249	90.12
397.474	88.12
397.698	105.12
397.922	91.12
398.147	86.12
398.371	85.12
398.595	80.12
398.82	64.12
399.044	84.12
399.268	75.12
399.492	75.12
399.717	99.12
399.941	86.12
400.165	93.12
400.389	102.12
400.613	86.12
400.837	90.12
401.062	96.12
401.286	90.12
401.51	87.12
401.734	86.12
401.958	89.12
402.182	126.12
402.406	137.12
402.63	104.12
402.854	87.12
403.078	78.12
403.302	77.12
403.526	81.12
403.75	94.12
403.974	76.12
404.198	71.12
404.422	76.12
404.645	102.12
404.869	88.12
405.093	86.12
405.317	95.12
405.541	87.12
405.765	79.12
405.988	94.12
406.212	149.12
406.436	168.12
406.66	115.12
406.883	77.12
407.107	86.12
407.331	93.12
407.555	83.12
407.778	83.12
408.002	89.12
408.226	96.12
408.449	97.12
408.673	83.12
408.896	73.12
409.12	99.12
409.344	104.12
409.567	87.12
409.791	83.12
410.014	89.12
410.238	99.12
410.461	89.12
410.685	85.12
410.908	91.12
411.132	106.12
411.355	89.12
411.578	81.12
411.802	87.12
412.025	97.12
412.249	86.12
412.472	93.12
412.695	101.12
412.919	90.12
413.142	95.12
413.365	95.12
413.589	86.12
413.812	83.12
414.035	90.12
414.258	90.12
414.482	92.12
414.705	82.12
414.928	93.12
415.151	93.12
415.374	93.12
415.597	104.12
415.821	105.12
416.044	89.12
416.267	101.12
416.49	93.12
416.713	87.12
416.936	90.12
417.159	90.12
417.382	88.12
417.605	78.12
417.828	93.12
418.051	91.12
418.274	88.12
418.497	87.12
418.72	83.12
418.943	86.12
419.166	84.12
419.389	79.12
419.611	107.12
419.834	111.12
420.057	75.12
420.28	86.12
420.503	83.12
420.726	77.12
420.948	105.12
421.171	90.12
421.394	86.12
421.617	80.12
421.839	79.12
422.062	80.12
422.285	86.12
422.507	102.12
422.73	96.12
422.953	85.12
423.175	92.12
423.398	99.12
423.621	87.12
423.843	87.12
424.066	70.12
424.288	85.12
424.511	85.12
424.733	97.12
424.956	102.12
425.178	89.12
425.401	88.12
425.623	87.12
425.846	85.12
426.068	82.12
426.291	107.12
426.513	95.12
426.735	98.12
426.958	84.12
427.18	81.12
427.402	103.12
427.625	135.12
427.847	112.12
428.069	104.12
428.292	98.12
428.514	81.12
428.736	82.12
428.958	85.12
429.181	83.12
429.403	86.12
429.625	87.12
429.847	75.12
430.069	85.12
430.292	95.12
430.514	91.12
430.736	98.12
430.958	66.12
431.18	84.12
431.402	94.12
431.624	79.12
431.846	87.12
432.068	87.12
432.29	65.12
432.512	87.12
432.734	81.12
432.956	72.12
433.178	114.12
433.4	97.12
433.622	89.12
433.844	98.12
434.066	86.12
434.287	110.12
434.509	96.12
434.731	91.12
434.953	81.12
435.175	84.12
435.397	94.12
435.618	87.12
435.84	99.12
436.062	104.12
436.284	101.12
436.505	103.12
436.727	91.12
436.949	82.12
437.17	89.12
437.392	77.12
437.614	84.12
437.835	99.12
438.057	113.12
438.278	99.12
438.5	110.12
438.721	105.12
438.943	93.12
439.165	69.12
439.386	83.12
439.608	100.12
439.829	100.12
440.05	105.12
440.272	103.12
440.493	97.12
440.715	83.12
440.936	83.12
441.158	97.12
441.379	83.12
441.6	94.12
441.822	98.12
442.043	80.12
442.264	103.12
442.486	94.12
442.707	86.12
442.928	106.12
443.149	111.12
443.371	115.12
443.592	99.12
443.813	102.12
444.034	102.12
444.255	86.12
444.476	78.12
444.698	85.12
444.919	88.12
445.14	130.12
445.361	107.12
445.582	106.12
445.803	104.12
446.024	127.12
446.245	106.12
446.466	112.12
446.687	99.12
446.908	97.12
447.129	101.12
447.35	86.12
447.571	85.12
447.792	82.12
448.013	100.12
448.234	101.12
448.455	90.12
448.675	96.12
448.896	112.12
449.117	100.12
449.338	104.12
449.559	117.12
449.779	114.12
450	87.12
450.221	90.12
450.442	98.12
450.662	81.12
450.883	88.12
451.104	86.12
451.324	84.12
451.545	82.12
451.766	97.12
451.986	100.12
452.207	89.12
452.428	89.12
452.648	88.12
452.869	96.12
453.089	98.12
453.31	116.12
453.53	87.12
453.751	96.12
453.971	97.12
454.192	95.12
454.412	75.12
454.633	80.12
454.853	79.12
455.073	98.12
455.294	84.12
455.514	97.12
455.734	79.12
455.955	74.12
456.175	85.12
456.395	75.12
456.616	80.12
456.836	94.12
457.056	88.12
457.276	87.12
457.497	93.12
457.717	85.12
457.937	91.12
458.157	78.12
458.377	94.12
458.598	92.12
458.818	110.12
459.038	124.12
459.258	101.12
459.478	88.12
459.698	102.12
459.918	88.12
460.138	82.12
460.358	89.12
460.578	65.12
460.798	91.12
461.018	80.12
461.238	83.12
461.458	88.12
461.678	77.12
461.898	99.12
462.118	87.12
462.338	89.12
462.558	94.12
462.777	76.12
462.997	73.12
463.217	70.12
463.437	85.12
463.657	95.12
463.876	86.12
464.096	82.12
464.316	86.12
464.536	83.12
464.755	88.12
464.975	97.12
465.195	138.12
465.414	127.12
465.634	91.12
465.854	69.12
466.073	83.12
466.293	79.12
466.512	81.12
466.732	94.12
466.951	92.12
467.171	87.12
467.391	84.12
467.61	88.12
467.829	94.12
468.049	86.12
468.268	98.12
468.488	86.12
468.707	82.12
468.927	88.12
469.146	78.12
469.365	79.12
469.585	87.12
469.804	97.12
470.023	70.12
470.243	77.12
470.462	94.12
470.681	86.12
470.901	113.12
471.12	86.12
471.339	88.12
471.558	90.12
471.777	91.12
471.997	91.12
472.216	119.12
472.435	132.12
472.654	110.12
472.873	93.12
473.092	86.12
473.311	91.12
473.53	92.12
473.749	81.12
473.968	98.12
474.187	109.12
474.406	96.12
474.625	87.12
474.844	89.12
475.063	89.12
475.282	86.12
475.501	72.12
475.72	83.12
475.939	79.12
476.158	87.12
476.377	84.12
476.596	72.12
476.814	91.12
477.033	98.12
477.252	71.12
477.471	90.12
477.69	89.12
477.908	81.12
478.127	86.12
478.346	88.12
478.564	87.12
478.783	90.12
479.002	95.12
479.22	90.12
479.439	105.12
479.658	92.12
479.876	84.12
480.095	89.12
480.313	92.12
480.532	88.12
480.751	92.12
480.969	129.12
481.188	225.12
481.406	157.12
481.624	93.12
481.843	94.12
482.061	70.12
482.28	83.12
482.498	92.12
482.717	99.12
482.935	94.12
483.153	88.12
483.372	98.12
483.59	97.12
483.808	89.12
484.027	78.12
484.245	83.12
484.463	77.12
484.681	96.12
484.9	90.12
485.118	106.12
485.336	97.12
485.554	89.12
485.772	91.12
485.99	107.12
486.209	95.12
486.427	98.12
486.645	112.12
486.863	111.12
487.081	102.12
487.299	79.12
487.517	89.12
487.735	82.12
487.953	89.12
488.171	96.12
488.389	95.12
488.607	87.12
488.825	97.12
489.043	106.12
489.261	92.12
489.479	84.12
489.696	73.12
489.914	90.12
490.132	95.12
490.35	91.12
490.568	100.12
490.786	85.12
491.003	89.12
491.221	102.12
491.439	84.12
491.657	84.12
491.874	100.12
492.092	93.12
492.31	84.12
492.527	94.12
492.745	90.12
492.963	72.12
493.18	92.12
493.398	89.12
493.615	104.12
493.833	88.12
494.05	80.12
494.268	90.12
494.485	83.12
494.703	77.12
494.92	88.12
495.138	93.12
495.355	90.12
495.573	94.12
495.79	84.12
496.008	99.12
496.225	88.12
496.442	80.12
496.66	96.12
496.877	93.12
497.094	79.12
497.312	94.12
497.529	100.12
497.746	91.12
497.963	90.12
498.181	98.12
498.398	88.12
498.615	88.12
498.832	91.12
499.049	86.12
499.267	78.12
499.484	86.12
499.701	89.12
499.918	86.12
500.135	75.12
500.352	85.12
500.569	77.12
500.786	91.12
501.003	89.12
501.22	78.12
501.437	84.12
501.654	82.12
501.871	92.12
502.088	106.12
502.305	74.12
502.522	98.12
502.739	89.12
502.956	91.12
503.172	81.12
503.389	101.12
503.606	87.12
503.823	95.12
504.04	101.12
504.256	89.12
504.473	96.12
504.69	89.12
504.907	89.12
505.123	90.12
505.34	89.12
505.557	85.12
505.773	81.12
505.99	84.12
506.207	96.12
506.423	98.12
506.64	87.12
506.856	82.12
507.073	81.12
507.289	78.12
507.506	77.12
507.722	91.12
507.939	111.12
508.155	91.12
508.372	82.12
508.588	90.12
508.805	85.12
509.021	99.12
509.238	95.12
509.454	85.12
509.67	103.12
509.887	87.12
510.103	110.12
510.319	167.12
510.536	528.12
510.752	1659.12
510.968	482.12
511.184	137.12
511.401	98.12
511.617	93.12
511.833	97.12
512.049	87.12
512.265	100.12
512.481	79.12
512.698	77.12
512.914	83.12
513.13	105.12
513.346	85.12
513.562	87.12
513.778	93.12
513.994	97.12
514.21	99.12
514.426	105.12
514.642	113.12
514.858	114.12
515.074	129.12
515.29	314.12
515.506	949.12
515.721	374.12
515.937	118.12
516.153	108.12
516.369	96.12
516.585	105.12
516.801	105.12
