Data from Circ_1984_H10_HRD10591_00028.txt Node
Date: Wed Jan 03 12:22:47 EST 2024
User: Yrep
Spectrometer: HR+D1059
Trigger mode: 1
Integration Time (sec): 1.000000E-1
Scans to average: 1
Electric dark correction enabled: true
Nonlinearity correction enabled: false
Boxcar width: 0
XAxis mode: Wavelengths
Number of Pixels in Spectrum: 2048
>>>>>Begin Spectral Data<<<<<
223.165	-20.81
223.4	-20.81
223.635	-20.81
223.869	-4.81
224.104	-28.81
224.338	-13.81
224.573	-14.81
224.808	-7.81
225.042	-9.81
225.277	-1.81
225.511	-3.81
225.746	7.19
225.98	-7.81
226.215	8.19
226.449	18.19
226.683	15.19
226.918	16.19
227.152	49.19
227.387	25.19
227.621	30.19
227.856	51.19
228.09	44.19
228.324	53.19
228.559	54.19
228.793	55.19
229.027	71.19
229.262	67.19
229.496	63.19
229.73	79.19
229.964	79.19
230.199	79.19
230.433	73.19
230.667	73.19
230.901	67.19
231.136	78.19
231.37	84.19
231.604	87.19
231.838	79.19
232.072	71.19
232.306	90.19
232.541	80.19
232.775	81.19
233.009	65.19
233.243	72.19
233.477	75.19
233.711	85.19
233.945	79.19
234.179	75.19
234.413	73.19
234.647	66.19
234.881	76.19
235.115	77.19
235.349	72.19
235.583	79.19
235.817	69.19
236.051	70.19
236.285	67.19
236.519	87.19
236.753	76.19
236.987	85.19
237.221	67.19
237.455	81.19
237.689	67.19
237.922	69.19
238.156	75.19
238.39	83.19
238.624	79.19
238.858	75.19
239.091	82.19
239.325	63.19
239.559	80.19
239.793	75.19
240.027	72.19
240.26	72.19
240.494	69.19
240.728	68.19
240.961	65.19
241.195	88.19
241.429	87.19
241.662	62.19
241.896	69.19
242.13	88.19
242.363	79.19
242.597	70.19
242.83	75.19
243.064	72.19
243.298	65.19
243.531	69.19
243.765	67.19
243.998	81.19
244.232	77.19
244.465	72.19
244.699	89.19
244.932	90.19
245.166	77.19
245.399	75.19
245.633	65.19
245.866	67.19
246.099	86.19
246.333	78.19
246.566	84.19
246.8	83.19
247.033	76.19
247.266	71.19
247.5	69.19
247.733	74.19
247.966	93.19
248.2	82.19
248.433	84.19
248.666	76.19
248.899	67.19
249.133	92.19
249.366	87.19
249.599	78.19
249.832	80.19
250.066	85.19
250.299	73.19
250.532	78.19
250.765	69.19
250.998	95.19
251.231	83.19
251.465	83.19
251.698	71.19
251.931	81.19
252.164	62.19
252.397	91.19
252.63	88.19
252.863	83.19
253.096	81.19
253.329	80.19
253.562	71.19
253.795	77.19
254.028	79.19
254.261	82.19
254.494	63.19
254.727	81.19
254.96	75.19
255.193	89.19
255.426	77.19
255.659	60.19
255.892	96.19
256.124	81.19
256.357	81.19
256.59	76.19
256.823	73.19
257.056	81.19
257.289	67.19
257.521	83.19
257.754	69.19
257.987	78.19
258.22	75.19
258.452	66.19
258.685	82.19
258.918	84.19
259.151	87.19
259.383	70.19
259.616	65.19
259.849	84.19
260.081	79.19
260.314	85.19
260.547	84.19
260.779	94.19
261.012	69.19
261.244	68.19
261.477	79.19
261.71	93.19
261.942	101.19
262.175	113.19
262.407	95.19
262.64	84.19
262.872	77.19
263.105	73.19
263.337	72.19
263.57	83.19
263.802	79.19
264.035	77.19
264.267	83.19
264.499	85.19
264.732	91.19
264.964	67.19
265.197	77.19
265.429	68.19
265.661	70.19
265.894	78.19
266.126	69.19
266.358	81.19
266.591	85.19
266.823	77.19
267.055	75.19
267.287	84.19
267.52	66.19
267.752	71.19
267.984	74.19
268.216	71.19
268.448	88.19
268.681	75.19
268.913	84.19
269.145	81.19
269.377	80.19
269.609	82.19
269.841	79.19
270.073	91.19
270.306	66.19
270.538	74.19
270.77	85.19
271.002	87.19
271.234	81.19
271.466	79.19
271.698	78.19
271.93	71.19
272.162	81.19
272.394	82.19
272.626	94.19
272.858	67.19
273.09	72.19
273.322	84.19
273.553	72.19
273.785	93.19
274.017	68.19
274.249	91.19
274.481	94.19
274.713	81.19
274.945	89.19
275.176	72.19
275.408	82.19
275.64	88.19
275.872	90.19
276.104	78.19
276.335	70.19
276.567	86.19
276.799	115.19
277.031	93.19
277.262	96.19
277.494	91.19
277.726	83.19
277.957	79.19
278.189	90.19
278.421	86.19
278.652	89.19
278.884	75.19
279.115	83.19
279.347	81.19
279.579	78.19
279.81	79.19
280.042	76.19
280.273	88.19
280.505	90.19
280.736	92.19
280.968	78.19
281.199	77.19
281.431	93.19
281.662	93.19
281.894	81.19
282.125	86.19
282.356	100.19
282.588	125.19
282.819	96.19
283.051	102.19
283.282	77.19
283.513	75.19
283.745	87.19
283.976	83.19
284.207	83.19
284.439	86.19
284.67	92.19
284.901	81.19
285.132	78.19
285.364	81.19
285.595	81.19
285.826	89.19
286.057	82.19
286.288	75.19
286.52	92.19
286.751	69.19
286.982	86.19
287.213	83.19
287.444	95.19
287.675	81.19
287.906	78.19
288.138	78.19
288.369	108.19
288.6	95.19
288.831	67.19
289.062	83.19
289.293	81.19
289.524	83.19
289.755	83.19
289.986	71.19
290.217	81.19
290.448	85.19
290.679	92.19
290.91	88.19
291.141	85.19
291.371	81.19
291.602	83.19
291.833	87.19
292.064	95.19
292.295	84.19
292.526	80.19
292.757	79.19
292.987	95.19
293.218	70.19
293.449	89.19
293.68	89.19
293.91	97.19
294.141	78.19
294.372	87.19
294.603	85.19
294.833	77.19
295.064	75.19
295.295	93.19
295.525	95.19
295.756	83.19
295.987	103.19
296.217	112.19
296.448	106.19
296.679	96.19
296.909	84.19
297.14	80.19
297.37	84.19
297.601	82.19
297.831	89.19
298.062	70.19
298.292	87.19
298.523	83.19
298.753	85.19
298.984	79.19
299.214	93.19
299.445	98.19
299.675	73.19
299.905	77.19
300.136	79.19
300.366	80.19
300.597	84.19
300.827	92.19
301.057	89.19
301.288	101.19
301.518	91.19
301.748	94.19
301.979	87.19
302.209	70.19
302.439	81.19
302.669	81.19
302.9	92.19
303.13	81.19
303.36	80.19
303.59	78.19
303.82	83.19
304.051	95.19
304.281	86.19
304.511	92.19
304.741	93.19
304.971	83.19
305.201	88.19
305.431	95.19
305.661	86.19
305.891	96.19
306.121	88.19
306.352	69.19
306.582	109.19
306.812	83.19
307.042	91.19
307.272	87.19
307.502	91.19
307.731	98.19
307.961	88.19
308.191	81.19
308.421	72.19
308.651	79.19
308.881	79.19
309.111	89.19
309.341	86.19
309.571	82.19
309.8	83.19
310.03	89.19
310.26	78.19
310.49	79.19
310.72	71.19
310.949	80.19
311.179	97.19
311.409	75.19
311.639	77.19
311.868	87.19
312.098	93.19
312.328	94.19
312.557	89.19
312.787	93.19
313.017	98.19
313.246	96.19
313.476	81.19
313.706	83.19
313.935	94.19
314.165	87.19
314.394	88.19
314.624	76.19
314.853	78.19
315.083	81.19
315.312	84.19
315.542	82.19
315.771	85.19
316.001	89.19
316.23	86.19
316.46	77.19
316.689	74.19
316.919	67.19
317.148	86.19
317.377	97.19
317.607	85.19
317.836	78.19
318.065	95.19
318.295	81.19
318.524	103.19
318.753	88.19
318.983	84.19
319.212	94.19
319.441	95.19
319.67	102.19
319.9	63.19
320.129	79.19
320.358	85.19
320.587	89.19
320.816	97.19
321.046	97.19
321.275	103.19
321.504	92.19
321.733	87.19
321.962	84.19
322.191	81.19
322.42	75.19
322.649	101.19
322.878	105.19
323.108	103.19
323.337	115.19
323.566	123.19
323.795	132.19
324.024	177.19
324.253	331.19
324.482	689.19
324.71	1381.19
324.939	1784.19
325.168	665.19
325.397	226.19
325.626	141.19
325.855	115.19
326.084	115.19
326.313	117.19
326.542	130.19
326.77	180.19
326.999	364.19
327.228	765.19
327.457	1411.19
327.686	1124.19
327.914	331.19
328.143	189.19
328.372	158.19
328.6	126.19
328.829	107.19
329.058	102.19
329.287	121.19
329.515	108.19
329.744	92.19
329.972	115.19
330.201	161.19
330.43	193.19
330.658	142.19
330.887	140.19
331.115	127.19
331.344	86.19
331.572	88.19
331.801	90.19
332.03	91.19
332.258	84.19
332.486	98.19
332.715	87.19
332.943	82.19
333.172	89.19
333.4	73.19
333.629	111.19
333.857	112.19
334.085	121.19
334.314	165.19
334.542	216.19
334.771	239.19
334.999	124.19
335.227	94.19
335.455	97.19
335.684	92.19
335.912	99.19
336.14	93.19
336.369	89.19
336.597	74.19
336.825	83.19
337.053	89.19
337.281	87.19
337.51	87.19
337.738	91.19
337.966	96.19
338.194	89.19
338.422	84.19
338.65	85.19
338.878	92.19
339.106	84.19
339.334	78.19
339.562	85.19
339.79	88.19
340.018	86.19
340.246	99.19
340.474	101.19
340.702	88.19
340.93	88.19
341.158	93.19
341.386	104.19
341.614	103.19
341.842	87.19
342.07	80.19
342.298	79.19
342.526	99.19
342.754	82.19
342.981	71.19
343.209	76.19
343.437	109.19
343.665	96.19
343.893	83.19
344.12	92.19
344.348	91.19
344.576	85.19
344.804	83.19
345.031	92.19
345.259	81.19
345.487	97.19
345.714	103.19
345.942	81.19
346.17	86.19
346.397	85.19
346.625	91.19
346.853	89.19
347.08	79.19
347.308	97.19
347.535	91.19
347.763	101.19
347.99	86.19
348.218	90.19
348.445	101.19
348.673	96.19
348.9	87.19
349.128	93.19
349.355	88.19
349.583	92.19
349.81	92.19
350.037	88.19
350.265	87.19
350.492	99.19
350.72	79.19
350.947	91.19
351.174	95.19
351.402	101.19
351.629	106.19
351.856	95.19
352.083	81.19
352.311	100.19
352.538	104.19
352.765	88.19
352.992	110.19
353.22	101.19
353.447	94.19
353.674	80.19
353.901	95.19
354.128	99.19
354.355	84.19
354.583	93.19
354.81	83.19
355.037	84.19
355.264	98.19
355.491	86.19
355.718	98.19
355.945	93.19
356.172	82.19
356.399	88.19
356.626	95.19
356.853	90.19
357.08	86.19
357.307	76.19
357.534	99.19
357.761	88.19
357.988	101.19
358.215	99.19
358.441	77.19
358.668	75.19
358.895	79.19
359.122	72.19
359.349	91.19
359.576	92.19
359.802	92.19
360.029	99.19
360.256	102.19
360.483	90.19
360.709	79.19
360.936	91.19
361.163	108.19
361.39	89.19
361.616	93.19
361.843	81.19
362.07	83.19
362.296	78.19
362.523	88.19
362.749	100.19
362.976	94.19
363.203	79.19
363.429	80.19
363.656	67.19
363.882	88.19
364.109	85.19
364.335	96.19
364.562	86.19
364.788	80.19
365.015	70.19
365.241	87.19
365.468	95.19
365.694	112.19
365.92	93.19
366.147	91.19
366.373	84.19
366.599	87.19
366.826	85.19
367.052	61.19
367.278	89.19
367.505	88.19
367.731	85.19
367.957	84.19
368.184	91.19
368.41	90.19
368.636	93.19
368.862	110.19
369.089	91.19
369.315	85.19
369.541	83.19
369.767	98.19
369.993	84.19
370.219	80.19
370.445	81.19
370.672	80.19
370.898	78.19
371.124	78.19
371.35	83.19
371.576	91.19
371.802	89.19
372.028	72.19
372.254	83.19
372.48	82.19
372.706	93.19
372.932	89.19
373.158	81.19
373.384	85.19
373.61	94.19
373.835	81.19
374.061	75.19
374.287	93.19
374.513	80.19
374.739	79.19
374.965	93.19
375.191	92.19
375.416	92.19
375.642	89.19
375.868	91.19
376.094	91.19
376.319	80.19
376.545	79.19
376.771	64.19
376.997	81.19
377.222	84.19
377.448	93.19
377.674	94.19
377.899	85.19
378.125	86.19
378.35	84.19
378.576	83.19
378.802	79.19
379.027	93.19
379.253	87.19
379.478	87.19
379.704	93.19
379.929	90.19
380.155	94.19
380.38	97.19
380.606	91.19
380.831	69.19
381.057	91.19
381.282	83.19
381.507	99.19
381.733	88.19
381.958	109.19
382.184	78.19
382.409	87.19
382.634	90.19
382.86	91.19
383.085	84.19
383.31	79.19
383.535	97.19
383.761	103.19
383.986	96.19
384.211	83.19
384.436	91.19
384.662	104.19
384.887	93.19
385.112	102.19
385.337	94.19
385.562	88.19
385.787	98.19
386.013	95.19
386.238	121.19
386.463	110.19
386.688	108.19
386.913	96.19
387.138	92.19
387.363	102.19
387.588	91.19
387.813	94.19
388.038	106.19
388.263	102.19
388.488	100.19
388.713	87.19
388.938	92.19
389.163	81.19
389.387	73.19
389.612	79.19
389.837	101.19
390.062	94.19
390.287	77.19
390.512	89.19
390.736	85.19
390.961	111.19
391.186	98.19
391.411	92.19
391.636	88.19
391.86	88.19
392.085	71.19
392.31	90.19
392.534	78.19
392.759	75.19
392.984	84.19
393.208	81.19
393.433	96.19
393.658	95.19
393.882	98.19
394.107	95.19
394.331	94.19
394.556	81.19
394.78	75.19
395.005	77.19
395.229	80.19
395.454	79.19
395.678	72.19
395.903	87.19
396.127	100.19
396.352	96.19
396.576	84.19
396.801	101.19
397.025	99.19
397.249	95.19
397.474	84.19
397.698	87.19
397.922	91.19
398.147	88.19
398.371	90.19
398.595	79.19
398.82	87.19
399.044	77.19
399.268	92.19
399.492	72.19
399.717	85.19
399.941	87.19
400.165	96.19
400.389	81.19
400.613	85.19
400.837	87.19
401.062	75.19
401.286	86.19
401.51	80.19
401.734	88.19
401.958	100.19
402.182	112.19
402.406	139.19
402.63	109.19
402.854	85.19
403.078	85.19
403.302	96.19
403.526	89.19
403.75	80.19
403.974	92.19
404.198	83.19
404.422	81.19
404.645	75.19
404.869	95.19
405.093	102.19
405.317	92.19
405.541	99.19
405.765	100.19
405.988	91.19
406.212	159.19
406.436	195.19
406.66	118.19
406.883	97.19
407.107	94.19
407.331	87.19
407.555	85.19
407.778	93.19
408.002	95.19
408.226	82.19
408.449	76.19
408.673	87.19
408.896	95.19
409.12	95.19
409.344	80.19
409.567	87.19
409.791	85.19
410.014	83.19
410.238	112.19
410.461	89.19
410.685	91.19
410.908	99.19
411.132	94.19
411.355	96.19
411.578	100.19
411.802	87.19
412.025	89.19
412.249	73.19
412.472	92.19
412.695	93.19
412.919	96.19
413.142	81.19
413.365	86.19
413.589	81.19
413.812	70.19
414.035	100.19
414.258	71.19
414.482	89.19
414.705	69.19
414.928	99.19
415.151	77.19
415.374	81.19
415.597	78.19
415.821	86.19
416.044	88.19
416.267	71.19
416.49	86.19
416.713	92.19
416.936	86.19
417.159	87.19
417.382	80.19
417.605	81.19
417.828	91.19
418.051	88.19
418.274	75.19
418.497	81.19
418.72	72.19
418.943	79.19
419.166	86.19
419.389	80.19
419.611	92.19
419.834	82.19
420.057	83.19
420.28	80.19
420.503	83.19
420.726	89.19
420.948	89.19
421.171	95.19
421.394	85.19
421.617	79.19
421.839	76.19
422.062	88.19
422.285	93.19
422.507	101.19
422.73	103.19
422.953	99.19
423.175	89.19
423.398	88.19
423.621	89.19
423.843	86.19
424.066	80.19
424.288	68.19
424.511	71.19
424.733	95.19
424.956	87.19
425.178	82.19
425.401	83.19
425.623	96.19
425.846	86.19
426.068	92.19
426.291	84.19
426.513	87.19
426.735	81.19
426.958	97.19
427.18	84.19
427.402	120.19
427.625	145.19
427.847	135.19
428.069	121.19
428.292	80.19
428.514	90.19
428.736	77.19
428.958	76.19
429.181	77.19
429.403	62.19
429.625	75.19
429.847	92.19
430.069	99.19
430.292	92.19
430.514	77.19
430.736	87.19
430.958	72.19
431.18	76.19
431.402	86.19
431.624	85.19
431.846	99.19
432.068	79.19
432.29	89.19
432.512	88.19
432.734	84.19
432.956	86.19
433.178	95.19
433.4	88.19
433.622	85.19
433.844	85.19
434.066	80.19
434.287	76.19
434.509	86.19
434.731	86.19
434.953	88.19
435.175	92.19
435.397	89.19
435.618	99.19
435.84	100.19
436.062	107.19
436.284	100.19
436.505	95.19
436.727	101.19
436.949	95.19
437.17	83.19
437.392	84.19
437.614	78.19
437.835	95.19
438.057	117.19
438.278	98.19
438.5	111.19
438.721	111.19
438.943	103.19
439.165	89.19
439.386	81.19
439.608	80.19
439.829	92.19
440.05	102.19
440.272	132.19
440.493	103.19
440.715	87.19
440.936	83.19
441.158	65.19
441.379	79.19
441.6	77.19
441.822	83.19
442.043	65.19
442.264	88.19
442.486	99.19
442.707	79.19
442.928	103.19
443.149	113.19
443.371	121.19
443.592	109.19
443.813	111.19
444.034	99.19
444.255	85.19
444.476	83.19
444.698	85.19
444.919	94.19
445.14	117.19
445.361	125.19
445.582	107.19
445.803	113.19
446.024	121.19
446.245	97.19
446.466	105.19
446.687	88.19
446.908	98.19
447.129	80.19
447.35	88.19
447.571	87.19
447.792	92.19
448.013	84.19
448.234	98.19
448.455	92.19
448.675	98.19
448.896	108.19
449.117	88.19
449.338	103.19
449.559	118.19
449.779	107.19
450	91.19
450.221	68.19
450.442	81.19
450.662	84.19
450.883	107.19
451.104	109.19
451.324	96.19
451.545	89.19
451.766	92.19
451.986	83.19
452.207	90.19
452.428	88.19
452.648	88.19
452.869	97.19
453.089	118.19
453.31	114.19
453.53	78.19
453.751	77.19
453.971	98.19
454.192	91.19
454.412	83.19
454.633	80.19
454.853	93.19
455.073	78.19
455.294	89.19
455.514	89.19
455.734	90.19
455.955	92.19
456.175	90.19
456.395	77.19
456.616	78.19
456.836	80.19
457.056	87.19
457.276	83.19
457.497	85.19
457.717	83.19
457.937	73.19
458.157	81.19
458.377	93.19
458.598	85.19
458.818	120.19
459.038	133.19
459.258	91.19
459.478	84.19
459.698	75.19
459.918	71.19
460.138	88.19
460.358	102.19
460.578	71.19
460.798	88.19
461.018	79.19
461.238	83.19
461.458	100.19
461.678	82.19
461.898	83.19
462.118	88.19
462.338	92.19
462.558	87.19
462.777	80.19
462.997	80.19
463.217	96.19
463.437	82.19
463.657	86.19
463.876	97.19
464.096	101.19
464.316	92.19
464.536	97.19
464.755	79.19
464.975	105.19
465.195	153.19
465.414	132.19
465.634	91.19
465.854	68.19
466.073	83.19
466.293	79.19
466.512	84.19
466.732	81.19
466.951	76.19
467.171	75.19
467.391	92.19
467.61	101.19
467.829	97.19
468.049	118.19
468.268	151.19
468.488	90.19
468.707	96.19
468.927	79.19
469.146	100.19
469.365	72.19
469.585	76.19
469.804	85.19
470.023	111.19
470.243	96.19
470.462	95.19
470.681	91.19
470.901	92.19
471.12	95.19
471.339	83.19
471.558	87.19
471.777	85.19
471.997	103.19
472.216	173.19
472.435	287.19
472.654	113.19
472.873	86.19
473.092	69.19
473.311	85.19
473.53	84.19
473.749	88.19
473.968	87.19
474.187	101.19
474.406	90.19
474.625	79.19
474.844	93.19
475.063	92.19
475.282	86.19
475.501	83.19
475.72	85.19
475.939	83.19
476.158	80.19
476.377	89.19
476.596	79.19
476.814	89.19
477.033	80.19
477.252	83.19
477.471	76.19
477.69	83.19
477.908	86.19
478.127	98.19
478.346	89.19
478.564	83.19
478.783	89.19
479.002	76.19
479.22	84.19
479.439	88.19
479.658	101.19
479.876	107.19
480.095	103.19
480.313	85.19
480.532	95.19
480.751	108.19
480.969	187.19
481.188	434.19
481.406	303.19
481.624	111.19
481.843	79.19
482.061	85.19
482.28	85.19
482.498	84.19
482.717	81.19
482.935	80.19
483.153	79.19
483.372	94.19
483.59	90.19
483.808	96.19
484.027	80.19
484.245	87.19
484.463	91.19
484.681	91.19
484.9	87.19
485.118	90.19
485.336	87.19
485.554	96.19
485.772	95.19
485.99	111.19
486.209	94.19
486.427	96.19
486.645	98.19
486.863	102.19
487.081	102.19
487.299	94.19
487.517	93.19
487.735	96.19
487.953	93.19
488.171	87.19
488.389	87.19
488.607	89.19
488.825	86.19
489.043	74.19
489.261	98.19
489.479	85.19
489.696	87.19
489.914	82.19
490.132	67.19
490.35	88.19
490.568	75.19
490.786	83.19
491.003	90.19
491.221	87.19
491.439	88.19
491.657	87.19
491.874	83.19
492.092	93.19
492.31	69.19
492.527	72.19
492.745	83.19
492.963	89.19
493.18	99.19
493.398	102.19
493.615	93.19
493.833	95.19
494.05	84.19
494.268	72.19
494.485	91.19
494.703	87.19
494.92	86.19
495.138	82.19
495.355	77.19
495.573	91.19
495.79	89.19
496.008	99.19
496.225	82.19
496.442	94.19
496.66	89.19
496.877	91.19
497.094	93.19
497.312	92.19
497.529	87.19
497.746	70.19
497.963	88.19
498.181	81.19
498.398	80.19
498.615	103.19
498.832	96.19
499.049	88.19
499.267	85.19
499.484	87.19
499.701	91.19
499.918	81.19
500.135	75.19
500.352	84.19
500.569	94.19
500.786	88.19
501.003	95.19
501.22	94.19
501.437	88.19
501.654	91.19
501.871	104.19
502.088	81.19
502.305	70.19
502.522	86.19
502.739	80.19
502.956	94.19
503.172	77.19
503.389	87.19
503.606	103.19
503.823	89.19
504.04	92.19
504.256	91.19
504.473	87.19
504.69	88.19
504.907	80.19
505.123	80.19
505.34	80.19
505.557	86.19
505.773	78.19
505.99	79.19
506.207	85.19
506.423	88.19
506.64	90.19
506.856	85.19
507.073	93.19
507.289	79.19
507.506	97.19
507.722	105.19
507.939	105.19
508.155	83.19
508.372	88.19
508.588	96.19
508.805	100.19
509.021	96.19
509.238	96.19
509.454	84.19
509.67	99.19
509.887	111.19
510.103	109.19
510.319	177.19
510.536	644.19
510.752	2017.19
510.968	571.19
511.184	134.19
511.401	103.19
511.617	83.19
511.833	94.19
512.049	88.19
512.265	82.19
512.481	80.19
512.698	95.19
512.914	82.19
513.13	88.19
513.346	85.19
513.562	85.19
513.778	85.19
513.994	94.19
514.21	109.19
514.426	116.19
514.642	121.19
514.858	120.19
515.074	132.19
515.29	358.19
515.506	1192.19
515.721	456.19
515.937	140.19
516.153	100.19
516.369	114.19
516.585	97.19
516.801	82.19
517.016	109.19
517.232	90.19
