Data from Circ_1984_H10_HRD10591_00090.txt Node
Date: Wed Jan 03 12:23:00 EST 2024
User: Yrep
Spectrometer: HR+D1059
Trigger mode: 1
Integration Time (sec): 1.000000E-1
Scans to average: 1
Electric dark correction enabled: true
Nonlinearity correction enabled: false
Boxcar width: 0
XAxis mode: Wavelengths
Number of Pixels in Spectrum: 2048
>>>>>Begin Spectral Data<<<<<
223.165	-18.25
223.4	-18.25
223.635	-18.25
223.869	-15.25
224.104	-14.25
224.338	-24.25
224.573	-23.25
224.808	-3.25
225.042	-13.25
225.277	-11.25
225.511	2.75
225.746	6.75
225.98	0.75
226.215	2.75
226.449	12.75
226.683	28.75
226.918	41.75
227.152	26.75
227.387	36.75
227.621	40.75
227.856	46.75
228.09	28.75
228.324	56.75
228.559	57.75
228.793	50.75
229.027	67.75
229.262	55.75
229.496	52.75
229.73	80.75
229.964	63.75
230.199	81.75
230.433	76.75
230.667	80.75
230.901	67.75
231.136	59.75
231.37	84.75
231.604	71.75
231.838	82.75
232.072	81.75
232.306	86.75
232.541	80.75
232.775	87.75
233.009	90.75
233.243	79.75
233.477	85.75
233.711	83.75
233.945	90.75
234.179	88.75
234.413	75.75
234.647	72.75
234.881	83.75
235.115	75.75
235.349	80.75
235.583	82.75
235.817	83.75
236.051	90.75
236.285	78.75
236.519	60.75
236.753	66.75
236.987	80.75
237.221	78.75
237.455	84.75
237.689	81.75
237.922	78.75
238.156	70.75
238.39	81.75
238.624	90.75
238.858	76.75
239.091	77.75
239.325	65.75
239.559	82.75
239.793	71.75
240.027	74.75
240.26	67.75
240.494	76.75
240.728	67.75
240.961	74.75
241.195	78.75
241.429	68.75
241.662	87.75
241.896	71.75
242.13	73.75
242.363	66.75
242.597	78.75
242.83	82.75
243.064	80.75
243.298	76.75
243.531	78.75
243.765	73.75
243.998	75.75
244.232	72.75
244.465	78.75
244.699	94.75
244.932	71.75
245.166	74.75
245.399	79.75
245.633	74.75
245.866	62.75
246.099	82.75
246.333	72.75
246.566	73.75
246.8	71.75
247.033	80.75
247.266	84.75
247.5	72.75
247.733	84.75
247.966	68.75
248.2	74.75
248.433	74.75
248.666	73.75
248.899	84.75
249.133	84.75
249.366	92.75
249.599	84.75
249.832	83.75
250.066	81.75
250.299	80.75
250.532	79.75
250.765	94.75
250.998	82.75
251.231	76.75
251.465	89.75
251.698	78.75
251.931	89.75
252.164	77.75
252.397	68.75
252.63	48.75
252.863	75.75
253.096	76.75
253.329	80.75
253.562	96.75
253.795	84.75
254.028	98.75
254.261	86.75
254.494	83.75
254.727	89.75
254.96	82.75
255.193	61.75
255.426	73.75
255.659	95.75
255.892	80.75
256.124	82.75
256.357	85.75
256.59	74.75
256.823	84.75
257.056	95.75
257.289	70.75
257.521	82.75
257.754	64.75
257.987	99.75
258.22	79.75
258.452	92.75
258.685	85.75
258.918	88.75
259.151	83.75
259.383	88.75
259.616	65.75
259.849	88.75
260.081	80.75
260.314	86.75
260.547	82.75
260.779	70.75
261.012	86.75
261.244	82.75
261.477	99.75
261.71	78.75
261.942	102.75
262.175	103.75
262.407	85.75
262.64	83.75
262.872	78.75
263.105	86.75
263.337	82.75
263.57	79.75
263.802	75.75
264.035	80.75
264.267	69.75
264.499	90.75
264.732	86.75
264.964	78.75
265.197	98.75
265.429	76.75
265.661	81.75
265.894	91.75
266.126	88.75
266.358	81.75
266.591	84.75
266.823	80.75
267.055	72.75
267.287	83.75
267.52	72.75
267.752	91.75
267.984	82.75
268.216	70.75
268.448	85.75
268.681	88.75
268.913	85.75
269.145	83.75
269.377	75.75
269.609	84.75
269.841	82.75
270.073	87.75
270.306	91.75
270.538	95.75
270.77	90.75
271.002	88.75
271.234	78.75
271.466	93.75
271.698	87.75
271.93	75.75
272.162	74.75
272.394	89.75
272.626	91.75
272.858	73.75
273.09	82.75
273.322	82.75
273.553	108.75
273.785	94.75
274.017	79.75
274.249	82.75
274.481	95.75
274.713	86.75
274.945	88.75
275.176	78.75
275.408	72.75
275.64	83.75
275.872	72.75
276.104	86.75
276.335	108.75
276.567	97.75
276.799	111.75
277.031	116.75
277.262	99.75
277.494	86.75
277.726	75.75
277.957	65.75
278.189	80.75
278.421	84.75
278.652	87.75
278.884	94.75
279.115	86.75
279.347	90.75
279.579	75.75
279.81	89.75
280.042	96.75
280.273	119.75
280.505	93.75
280.736	86.75
280.968	85.75
281.199	75.75
281.431	91.75
281.662	68.75
281.894	88.75
282.125	91.75
282.356	100.75
282.588	138.75
282.819	108.75
283.051	103.75
283.282	83.75
283.513	87.75
283.745	88.75
283.976	89.75
284.207	81.75
284.439	79.75
284.67	95.75
284.901	80.75
285.132	89.75
285.364	72.75
285.595	90.75
285.826	83.75
286.057	82.75
286.288	83.75
286.52	82.75
286.751	71.75
286.982	90.75
287.213	83.75
287.444	70.75
287.675	96.75
287.906	84.75
288.138	92.75
288.369	85.75
288.6	85.75
288.831	94.75
289.062	76.75
289.293	83.75
289.524	80.75
289.755	80.75
289.986	86.75
290.217	75.75
290.448	84.75
290.679	76.75
290.91	93.75
291.141	80.75
291.371	86.75
291.602	88.75
291.833	99.75
292.064	89.75
292.295	94.75
292.526	83.75
292.757	73.75
292.987	88.75
293.218	89.75
293.449	98.75
293.68	75.75
293.91	86.75
294.141	96.75
294.372	104.75
294.603	81.75
294.833	76.75
295.064	100.75
295.295	82.75
295.525	91.75
295.756	81.75
295.987	105.75
296.217	123.75
296.448	129.75
296.679	92.75
296.909	75.75
297.14	90.75
297.37	95.75
297.601	79.75
297.831	93.75
298.062	82.75
298.292	84.75
298.523	88.75
298.753	90.75
298.984	85.75
299.214	91.75
299.445	88.75
299.675	97.75
299.905	99.75
300.136	88.75
300.366	92.75
300.597	91.75
300.827	104.75
301.057	98.75
301.288	112.75
301.518	92.75
301.748	96.75
301.979	93.75
302.209	80.75
302.439	84.75
302.669	84.75
302.9	81.75
303.13	88.75
303.36	102.75
303.59	108.75
303.82	119.75
304.051	81.75
304.281	90.75
304.511	94.75
304.741	94.75
304.971	100.75
305.201	106.75
305.431	88.75
305.661	96.75
305.891	82.75
306.121	95.75
306.352	96.75
306.582	96.75
306.812	95.75
307.042	89.75
307.272	108.75
307.502	104.75
307.731	104.75
307.961	84.75
308.191	94.75
308.421	93.75
308.651	90.75
308.881	82.75
309.111	79.75
309.341	100.75
309.571	87.75
309.8	90.75
310.03	78.75
310.26	77.75
310.49	84.75
310.72	96.75
310.949	94.75
311.179	101.75
311.409	83.75
311.639	94.75
311.868	91.75
312.098	88.75
312.328	98.75
312.557	97.75
312.787	90.75
313.017	104.75
313.246	96.75
313.476	85.75
313.706	80.75
313.935	93.75
314.165	102.75
314.394	81.75
314.624	110.75
314.853	96.75
315.083	95.75
315.312	94.75
315.542	103.75
315.771	87.75
316.001	95.75
316.23	87.75
316.46	89.75
316.689	99.75
316.919	94.75
317.148	96.75
317.377	95.75
317.607	86.75
317.836	78.75
318.065	98.75
318.295	74.75
318.524	92.75
318.753	89.75
318.983	98.75
319.212	105.75
319.441	94.75
319.67	97.75
319.9	89.75
320.129	94.75
320.358	91.75
320.587	102.75
320.816	89.75
321.046	88.75
321.275	97.75
321.504	87.75
321.733	88.75
321.962	90.75
322.191	98.75
322.42	95.75
322.649	107.75
322.878	94.75
323.108	109.75
323.337	114.75
323.566	115.75
323.795	126.75
324.024	177.75
324.253	321.75
324.482	666.75
324.71	1344.75
324.939	1799.75
325.168	678.75
325.397	217.75
325.626	145.75
325.855	113.75
326.084	120.75
326.313	122.75
326.542	124.75
326.77	214.75
326.999	373.75
327.228	760.75
327.457	1371.75
327.686	1072.75
327.914	342.75
328.143	233.75
328.372	192.75
328.6	143.75
328.829	123.75
329.058	121.75
329.287	107.75
329.515	103.75
329.744	118.75
329.972	164.75
330.201	241.75
330.43	314.75
330.658	180.75
330.887	160.75
331.115	122.75
331.344	91.75
331.572	124.75
331.801	106.75
332.03	106.75
332.258	89.75
332.486	90.75
332.715	97.75
332.943	100.75
333.172	100.75
333.4	112.75
333.629	113.75
333.857	134.75
334.085	172.75
334.314	240.75
334.542	393.75
334.771	384.75
334.999	151.75
335.227	108.75
335.455	97.75
335.684	101.75
335.912	97.75
336.14	102.75
336.369	93.75
336.597	91.75
336.825	96.75
337.053	108.75
337.281	85.75
337.51	97.75
337.738	86.75
337.966	82.75
338.194	84.75
338.422	95.75
338.65	88.75
338.878	86.75
339.106	85.75
339.334	87.75
339.562	97.75
339.79	98.75
340.018	100.75
340.246	72.75
340.474	88.75
340.702	88.75
340.93	95.75
341.158	94.75
341.386	96.75
341.614	82.75
341.842	82.75
342.07	89.75
342.298	86.75
342.526	82.75
342.754	79.75
342.981	75.75
343.209	86.75
343.437	91.75
343.665	91.75
343.893	87.75
344.12	75.75
344.348	84.75
344.576	95.75
344.804	83.75
345.031	97.75
345.259	107.75
345.487	91.75
345.714	79.75
345.942	91.75
346.17	83.75
346.397	89.75
346.625	95.75
346.853	91.75
347.08	85.75
347.308	99.75
347.535	84.75
347.763	90.75
347.99	83.75
348.218	103.75
348.445	98.75
348.673	116.75
348.9	102.75
349.128	101.75
349.355	106.75
349.583	100.75
349.81	95.75
350.037	90.75
350.265	91.75
350.492	98.75
350.72	88.75
350.947	102.75
351.174	95.75
351.402	104.75
351.629	99.75
351.856	100.75
352.083	83.75
352.311	103.75
352.538	92.75
352.765	108.75
352.992	121.75
353.22	105.75
353.447	111.75
353.674	104.75
353.901	105.75
354.128	76.75
354.355	97.75
354.583	105.75
354.81	95.75
355.037	108.75
355.264	105.75
355.491	94.75
355.718	78.75
355.945	86.75
356.172	91.75
356.399	89.75
356.626	91.75
356.853	87.75
357.08	85.75
357.307	78.75
357.534	79.75
357.761	94.75
357.988	94.75
358.215	91.75
358.441	91.75
358.668	88.75
358.895	90.75
359.122	79.75
359.349	95.75
359.576	84.75
359.802	83.75
360.029	81.75
360.256	94.75
360.483	94.75
360.709	72.75
360.936	92.75
361.163	94.75
361.39	79.75
361.616	85.75
361.843	83.75
362.07	94.75
362.296	84.75
362.523	83.75
362.749	83.75
362.976	86.75
363.203	92.75
363.429	82.75
363.656	85.75
363.882	75.75
364.109	80.75
364.335	86.75
364.562	89.75
364.788	74.75
365.015	77.75
365.241	92.75
365.468	104.75
365.694	99.75
365.92	94.75
366.147	106.75
366.373	94.75
366.599	86.75
366.826	88.75
367.052	88.75
367.278	85.75
367.505	115.75
367.731	96.75
367.957	105.75
368.184	92.75
368.41	96.75
368.636	106.75
368.862	108.75
369.089	111.75
369.315	86.75
369.541	94.75
369.767	90.75
369.993	83.75
370.219	86.75
370.445	90.75
370.672	87.75
370.898	88.75
371.124	85.75
371.35	90.75
371.576	90.75
371.802	89.75
372.028	82.75
372.254	99.75
372.48	96.75
372.706	95.75
372.932	90.75
373.158	78.75
373.384	104.75
373.61	75.75
373.835	81.75
374.061	94.75
374.287	94.75
374.513	81.75
374.739	76.75
374.965	84.75
375.191	92.75
375.416	96.75
375.642	82.75
375.868	89.75
376.094	81.75
376.319	86.75
376.545	89.75
376.771	94.75
376.997	87.75
377.222	69.75
377.448	89.75
377.674	85.75
377.899	71.75
378.125	97.75
378.35	80.75
378.576	87.75
378.802	102.75
379.027	85.75
379.253	95.75
379.478	102.75
379.704	105.75
379.929	102.75
380.155	87.75
380.38	92.75
380.606	83.75
380.831	96.75
381.057	95.75
381.282	85.75
381.507	89.75
381.733	84.75
381.958	76.75
382.184	75.75
382.409	91.75
382.634	96.75
382.86	101.75
383.085	95.75
383.31	84.75
383.535	106.75
383.761	74.75
383.986	106.75
384.211	111.75
384.436	96.75
384.662	68.75
384.887	86.75
385.112	99.75
385.337	111.75
385.562	97.75
385.787	102.75
386.013	97.75
386.238	95.75
386.463	97.75
386.688	99.75
386.913	111.75
387.138	102.75
387.363	103.75
387.588	100.75
387.813	99.75
388.038	97.75
388.263	108.75
388.488	107.75
388.713	99.75
388.938	81.75
389.163	96.75
389.387	90.75
389.612	103.75
389.837	78.75
390.062	97.75
390.287	95.75
390.512	82.75
390.736	80.75
390.961	87.75
391.186	87.75
391.411	81.75
391.636	84.75
391.86	90.75
392.085	83.75
392.31	91.75
392.534	89.75
392.759	92.75
392.984	89.75
393.208	100.75
393.433	97.75
393.658	81.75
393.882	88.75
394.107	83.75
394.331	86.75
394.556	82.75
394.78	94.75
395.005	94.75
395.229	91.75
395.454	82.75
395.678	85.75
395.903	86.75
396.127	106.75
396.352	90.75
396.576	96.75
396.801	90.75
397.025	86.75
397.249	83.75
397.474	80.75
397.698	95.75
397.922	89.75
398.147	89.75
398.371	88.75
398.595	92.75
398.82	84.75
399.044	71.75
399.268	94.75
399.492	84.75
399.717	90.75
399.941	84.75
400.165	88.75
400.389	90.75
400.613	87.75
400.837	83.75
401.062	96.75
401.286	85.75
401.51	85.75
401.734	88.75
401.958	97.75
402.182	124.75
402.406	138.75
402.63	117.75
402.854	76.75
403.078	98.75
403.302	93.75
403.526	95.75
403.75	84.75
403.974	81.75
404.198	87.75
404.422	87.75
404.645	76.75
404.869	92.75
405.093	102.75
405.317	112.75
405.541	104.75
405.765	97.75
405.988	105.75
406.212	136.75
406.436	199.75
406.66	129.75
406.883	82.75
407.107	74.75
407.331	89.75
407.555	94.75
407.778	86.75
408.002	89.75
408.226	75.75
408.449	96.75
408.673	97.75
408.896	103.75
409.12	89.75
409.344	92.75
409.567	88.75
409.791	85.75
410.014	93.75
410.238	98.75
410.461	101.75
410.685	98.75
410.908	89.75
411.132	104.75
411.355	90.75
411.578	100.75
411.802	99.75
412.025	101.75
412.249	91.75
412.472	82.75
412.695	95.75
412.919	98.75
413.142	86.75
413.365	82.75
413.589	83.75
413.812	78.75
414.035	86.75
414.258	82.75
414.482	86.75
414.705	83.75
414.928	96.75
415.151	88.75
415.374	87.75
415.597	87.75
415.821	66.75
416.044	82.75
416.267	99.75
416.49	100.75
416.713	94.75
416.936	86.75
417.159	89.75
417.382	93.75
417.605	90.75
417.828	82.75
418.051	102.75
418.274	109.75
418.497	87.75
418.72	92.75
418.943	79.75
419.166	88.75
419.389	93.75
419.611	87.75
419.834	105.75
420.057	107.75
420.28	96.75
420.503	83.75
420.726	89.75
420.948	96.75
421.171	84.75
421.394	87.75
421.617	88.75
421.839	90.75
422.062	71.75
422.285	90.75
422.507	93.75
422.73	104.75
422.953	89.75
423.175	84.75
423.398	86.75
423.621	90.75
423.843	86.75
424.066	85.75
424.288	91.75
424.511	87.75
424.733	108.75
424.956	103.75
425.178	96.75
425.401	96.75
425.623	85.75
425.846	84.75
426.068	91.75
426.291	90.75
426.513	82.75
426.735	89.75
426.958	71.75
427.18	116.75
427.402	121.75
427.625	158.75
427.847	148.75
428.069	131.75
428.292	92.75
428.514	84.75
428.736	90.75
428.958	95.75
429.181	80.75
429.403	75.75
429.625	95.75
429.847	93.75
430.069	95.75
430.292	87.75
430.514	81.75
430.736	80.75
430.958	87.75
431.18	69.75
431.402	86.75
431.624	84.75
431.846	89.75
432.068	86.75
432.29	99.75
432.512	88.75
432.734	91.75
432.956	91.75
433.178	96.75
433.4	83.75
433.622	102.75
433.844	79.75
434.066	94.75
434.287	88.75
434.509	84.75
434.731	76.75
434.953	90.75
435.175	82.75
435.397	84.75
435.618	94.75
435.84	108.75
436.062	103.75
436.284	95.75
436.505	104.75
436.727	86.75
436.949	95.75
437.17	100.75
437.392	93.75
437.614	86.75
437.835	109.75
438.057	117.75
438.278	99.75
438.5	106.75
438.721	120.75
438.943	89.75
439.165	89.75
439.386	83.75
439.608	74.75
439.829	110.75
440.05	112.75
440.272	111.75
440.493	94.75
440.715	89.75
440.936	67.75
441.158	75.75
441.379	86.75
441.6	87.75
441.822	84.75
442.043	106.75
442.264	105.75
442.486	90.75
442.707	92.75
442.928	97.75
443.149	114.75
443.371	118.75
443.592	112.75
443.813	101.75
444.034	93.75
444.255	82.75
444.476	88.75
444.698	96.75
444.919	92.75
445.14	152.75
445.361	118.75
445.582	97.75
445.803	128.75
446.024	127.75
446.245	125.75
446.466	108.75
446.687	87.75
446.908	76.75
447.129	82.75
447.35	86.75
447.571	92.75
447.792	86.75
448.013	105.75
448.234	96.75
448.455	93.75
448.675	105.75
448.896	95.75
449.117	87.75
449.338	94.75
449.559	121.75
449.779	113.75
450	92.75
450.221	78.75
450.442	95.75
450.662	94.75
450.883	92.75
451.104	97.75
451.324	85.75
451.545	89.75
451.766	96.75
451.986	82.75
452.207	86.75
452.428	90.75
452.648	100.75
452.869	101.75
453.089	104.75
453.31	115.75
453.53	82.75
453.751	76.75
453.971	86.75
454.192	97.75
454.412	84.75
454.633	102.75
454.853	86.75
455.073	95.75
455.294	74.75
455.514	100.75
455.734	86.75
455.955	84.75
456.175	75.75
456.395	84.75
456.616	79.75
456.836	88.75
457.056	87.75
457.276	98.75
457.497	95.75
457.717	79.75
457.937	98.75
458.157	74.75
458.377	90.75
458.598	100.75
458.818	127.75
459.038	136.75
459.258	113.75
459.478	94.75
459.698	89.75
459.918	88.75
460.138	92.75
460.358	87.75
460.578	78.75
460.798	98.75
461.018	82.75
461.238	88.75
461.458	80.75
461.678	59.75
461.898	81.75
462.118	75.75
462.338	86.75
462.558	77.75
462.777	70.75
462.997	91.75
463.217	88.75
463.437	78.75
463.657	82.75
463.876	98.75
464.096	95.75
464.316	94.75
464.536	86.75
464.755	92.75
464.975	111.75
465.195	138.75
465.414	128.75
465.634	89.75
465.854	82.75
466.073	112.75
466.293	87.75
466.512	82.75
466.732	78.75
466.951	78.75
467.171	91.75
467.391	99.75
467.61	101.75
467.829	108.75
468.049	175.75
468.268	198.75
468.488	109.75
468.707	101.75
468.927	83.75
469.146	94.75
469.365	80.75
469.585	79.75
469.804	102.75
470.023	100.75
470.243	78.75
470.462	105.75
470.681	121.75
470.901	97.75
471.12	97.75
471.339	82.75
471.558	96.75
471.777	103.75
471.997	134.75
472.216	282.75
472.435	519.75
472.654	180.75
472.873	109.75
473.092	92.75
473.311	85.75
473.53	82.75
473.749	69.75
473.968	90.75
474.187	96.75
474.406	94.75
474.625	87.75
474.844	79.75
475.063	86.75
475.282	84.75
475.501	88.75
475.72	101.75
475.939	92.75
476.158	80.75
476.377	83.75
476.596	91.75
476.814	81.75
477.033	83.75
477.252	98.75
477.471	90.75
477.69	87.75
477.908	87.75
478.127	84.75
478.346	96.75
478.564	87.75
478.783	90.75
479.002	90.75
479.22	74.75
479.439	105.75
479.658	108.75
479.876	96.75
480.095	88.75
480.313	97.75
480.532	118.75
480.751	120.75
480.969	289.75
481.188	899.75
481.406	507.75
481.624	133.75
481.843	86.75
482.061	97.75
482.28	80.75
482.498	78.75
482.717	91.75
482.935	67.75
483.153	88.75
483.372	94.75
483.59	85.75
483.808	92.75
484.027	97.75
484.245	100.75
484.463	95.75
484.681	88.75
484.9	76.75
485.118	94.75
485.336	91.75
485.554	94.75
485.772	94.75
485.99	103.75
486.209	91.75
486.427	102.75
486.645	102.75
486.863	106.75
487.081	96.75
487.299	76.75
487.517	99.75
487.735	80.75
487.953	86.75
488.171	83.75
488.389	99.75
488.607	103.75
488.825	92.75
489.043	98.75
489.261	82.75
489.479	100.75
489.696	102.75
489.914	78.75
490.132	88.75
490.35	94.75
490.568	87.75
490.786	88.75
491.003	83.75
491.221	96.75
491.439	88.75
491.657	104.75
491.874	88.75
492.092	81.75
492.31	88.75
492.527	84.75
492.745	84.75
492.963	80.75
493.18	79.75
493.398	75.75
493.615	86.75
493.833	91.75
494.05	91.75
494.268	82.75
494.485	90.75
494.703	97.75
494.92	86.75
495.138	102.75
495.355	74.75
495.573	84.75
495.79	91.75
496.008	86.75
496.225	93.75
496.442	86.75
496.66	94.75
496.877	78.75
497.094	91.75
497.312	97.75
497.529	86.75
497.746	86.75
497.963	79.75
498.181	100.75
498.398	103.75
498.615	108.75
498.832	103.75
499.049	89.75
499.267	83.75
499.484	83.75
499.701	80.75
499.918	91.75
500.135	87.75
500.352	93.75
500.569	104.75
500.786	106.75
501.003	96.75
501.22	81.75
501.437	89.75
501.654	84.75
501.871	105.75
502.088	90.75
502.305	93.75
502.522	72.75
502.739	81.75
502.956	93.75
503.172	92.75
503.389	80.75
503.606	96.75
503.823	94.75
504.04	94.75
504.256	94.75
504.473	79.75
504.69	80.75
504.907	86.75
505.123	78.75
505.34	79.75
505.557	91.75
505.773	84.75
505.99	90.75
506.207	84.75
506.423	85.75
506.64	82.75
506.856	80.75
507.073	93.75
507.289	88.75
507.506	93.75
507.722	110.75
507.939	106.75
508.155	97.75
508.372	87.75
508.588	91.75
508.805	86.75
509.021	97.75
509.238	95.75
509.454	89.75
509.67	108.75
509.887	109.75
510.103	133.75
510.319	202.75
510.536	633.75
510.752	1955.75
510.968	556.75
511.184	150.75
511.401	103.75
511.617	103.75
511.833	96.75
512.049	98.75
512.265	88.75
512.481	91.75
512.698	77.75
512.914	88.75
513.13	104.75
513.346	99.75
513.562	91.75
513.778	105.75
513.994	97.75
514.21	81.75
514.426	95.75
514.642	119.75
514.858	112.75
515.074	146.75
515.29	366.75
515.506	1145.75
515.721	434.75
515.937	124.75
516.153	104.75
