Data from Circ_1984_H10_HRD10591_00025.txt Node
Date: Wed Jan 03 12:22:47 EST 2024
User: Yrep
Spectrometer: HR+D1059
Trigger mode: 1
Integration Time (sec): 1.000000E-1
Scans to average: 1
Electric dark correction enabled: true
Nonlinearity correction enabled: false
Boxcar width: 0
XAxis mode: Wavelengths
Number of Pixels in Spectrum: 2048
>>>>>Begin Spectral Data<<<<<
223.165	-15.81
223.4	-15.81
223.635	-15.81
223.869	-22.81
224.104	-20.81
224.338	-18.81
224.573	-15.81
224.808	-18.81
225.042	-2.81
225.277	-0.81
225.511	9.19
225.746	-0.81
225.98	2.19
226.215	21.19
226.449	14.19
226.683	27.19
226.918	17.19
227.152	26.19
227.387	30.19
227.621	42.19
227.856	38.19
228.09	59.19
228.324	50.19
228.559	54.19
228.793	59.19
229.027	68.19
229.262	57.19
229.496	67.19
229.73	76.19
229.964	74.19
230.199	76.19
230.433	87.19
230.667	67.19
230.901	79.19
231.136	79.19
231.37	82.19
231.604	89.19
231.838	75.19
232.072	82.19
232.306	72.19
232.541	86.19
232.775	87.19
233.009	69.19
233.243	80.19
233.477	76.19
233.711	87.19
233.945	85.19
234.179	88.19
234.413	84.19
234.647	84.19
234.881	87.19
235.115	69.19
235.349	71.19
235.583	72.19
235.817	84.19
236.051	80.19
236.285	73.19
236.519	87.19
236.753	95.19
236.987	76.19
237.221	87.19
237.455	84.19
237.689	87.19
237.922	82.19
238.156	74.19
238.39	76.19
238.624	84.19
238.858	73.19
239.091	84.19
239.325	77.19
239.559	87.19
239.793	71.19
240.027	81.19
240.26	76.19
240.494	86.19
240.728	77.19
240.961	79.19
241.195	71.19
241.429	92.19
241.662	78.19
241.896	74.19
242.13	77.19
242.363	72.19
242.597	74.19
242.83	92.19
243.064	83.19
243.298	77.19
243.531	71.19
243.765	84.19
243.998	66.19
244.232	78.19
244.465	75.19
244.699	72.19
244.932	76.19
245.166	75.19
245.399	66.19
245.633	76.19
245.866	72.19
246.099	80.19
246.333	75.19
246.566	73.19
246.8	67.19
247.033	66.19
247.266	73.19
247.5	84.19
247.733	85.19
247.966	64.19
248.2	82.19
248.433	89.19
248.666	74.19
248.899	92.19
249.133	79.19
249.366	82.19
249.599	88.19
249.832	81.19
250.066	74.19
250.299	80.19
250.532	83.19
250.765	87.19
250.998	83.19
251.231	66.19
251.465	72.19
251.698	80.19
251.931	79.19
252.164	81.19
252.397	69.19
252.63	84.19
252.863	106.19
253.096	91.19
253.329	75.19
253.562	86.19
253.795	81.19
254.028	77.19
254.261	83.19
254.494	84.19
254.727	97.19
254.96	85.19
255.193	81.19
255.426	87.19
255.659	88.19
255.892	82.19
256.124	68.19
256.357	73.19
256.59	73.19
256.823	66.19
257.056	84.19
257.289	67.19
257.521	86.19
257.754	76.19
257.987	79.19
258.22	73.19
258.452	80.19
258.685	88.19
258.918	82.19
259.151	91.19
259.383	89.19
259.616	61.19
259.849	97.19
260.081	86.19
260.314	88.19
260.547	71.19
260.779	79.19
261.012	70.19
261.244	81.19
261.477	92.19
261.71	99.19
261.942	105.19
262.175	108.19
262.407	83.19
262.64	87.19
262.872	86.19
263.105	77.19
263.337	84.19
263.57	81.19
263.802	82.19
264.035	85.19
264.267	84.19
264.499	93.19
264.732	84.19
264.964	81.19
265.197	78.19
265.429	79.19
265.661	88.19
265.894	80.19
266.126	83.19
266.358	84.19
266.591	71.19
266.823	89.19
267.055	91.19
267.287	87.19
267.52	76.19
267.752	96.19
267.984	79.19
268.216	81.19
268.448	77.19
268.681	89.19
268.913	85.19
269.145	81.19
269.377	78.19
269.609	89.19
269.841	79.19
270.073	67.19
270.306	82.19
270.538	81.19
270.77	95.19
271.002	88.19
271.234	95.19
271.466	84.19
271.698	83.19
271.93	84.19
272.162	81.19
272.394	78.19
272.626	75.19
272.858	85.19
273.09	92.19
273.322	97.19
273.553	79.19
273.785	66.19
274.017	89.19
274.249	79.19
274.481	88.19
274.713	90.19
274.945	87.19
275.176	85.19
275.408	83.19
275.64	89.19
275.872	101.19
276.104	81.19
276.335	87.19
276.567	77.19
276.799	91.19
277.031	91.19
277.262	94.19
277.494	97.19
277.726	72.19
277.957	95.19
278.189	76.19
278.421	85.19
278.652	91.19
278.884	86.19
279.115	92.19
279.347	83.19
279.579	81.19
279.81	83.19
280.042	91.19
280.273	100.19
280.505	86.19
280.736	79.19
280.968	72.19
281.199	79.19
281.431	80.19
281.662	99.19
281.894	77.19
282.125	98.19
282.356	105.19
282.588	109.19
282.819	106.19
283.051	101.19
283.282	84.19
283.513	76.19
283.745	86.19
283.976	79.19
284.207	85.19
284.439	67.19
284.67	70.19
284.901	66.19
285.132	88.19
285.364	90.19
285.595	96.19
285.826	70.19
286.057	89.19
286.288	89.19
286.52	85.19
286.751	89.19
286.982	92.19
287.213	95.19
287.444	85.19
287.675	83.19
287.906	79.19
288.138	92.19
288.369	100.19
288.6	97.19
288.831	93.19
289.062	89.19
289.293	88.19
289.524	77.19
289.755	89.19
289.986	86.19
290.217	80.19
290.448	92.19
290.679	105.19
290.91	95.19
291.141	76.19
291.371	83.19
291.602	90.19
291.833	84.19
292.064	92.19
292.295	103.19
292.526	81.19
292.757	99.19
292.987	99.19
293.218	76.19
293.449	92.19
293.68	93.19
293.91	90.19
294.141	97.19
294.372	103.19
294.603	88.19
294.833	82.19
295.064	87.19
295.295	103.19
295.525	101.19
295.756	93.19
295.987	88.19
296.217	111.19
296.448	116.19
296.679	80.19
296.909	86.19
297.14	99.19
297.37	81.19
297.601	89.19
297.831	87.19
298.062	82.19
298.292	77.19
298.523	92.19
298.753	76.19
298.984	81.19
299.214	92.19
299.445	82.19
299.675	104.19
299.905	103.19
300.136	79.19
300.366	91.19
300.597	96.19
300.827	87.19
301.057	95.19
301.288	100.19
301.518	95.19
301.748	83.19
301.979	113.19
302.209	83.19
302.439	86.19
302.669	97.19
302.9	75.19
303.13	88.19
303.36	88.19
303.59	108.19
303.82	119.19
304.051	85.19
304.281	85.19
304.511	94.19
304.741	98.19
304.971	84.19
305.201	87.19
305.431	83.19
305.661	93.19
305.891	90.19
306.121	92.19
306.352	80.19
306.582	97.19
306.812	102.19
307.042	102.19
307.272	93.19
307.502	96.19
307.731	92.19
307.961	103.19
308.191	81.19
308.421	81.19
308.651	100.19
308.881	100.19
309.111	82.19
309.341	93.19
309.571	102.19
309.8	94.19
310.03	92.19
310.26	98.19
310.49	95.19
310.72	91.19
310.949	109.19
311.179	83.19
311.409	83.19
311.639	91.19
311.868	89.19
312.098	87.19
312.328	84.19
312.557	98.19
312.787	93.19
313.017	87.19
313.246	80.19
313.476	87.19
313.706	99.19
313.935	83.19
314.165	78.19
314.394	98.19
314.624	96.19
314.853	103.19
315.083	91.19
315.312	103.19
315.542	93.19
315.771	97.19
316.001	103.19
316.23	90.19
316.46	81.19
316.689	79.19
316.919	85.19
317.148	96.19
317.377	89.19
317.607	91.19
317.836	92.19
318.065	98.19
318.295	90.19
318.524	98.19
318.753	85.19
318.983	93.19
319.212	92.19
319.441	91.19
319.67	91.19
319.9	102.19
320.129	100.19
320.358	98.19
320.587	81.19
320.816	90.19
321.046	85.19
321.275	80.19
321.504	96.19
321.733	89.19
321.962	84.19
322.191	103.19
322.42	95.19
322.649	92.19
322.878	103.19
323.108	108.19
323.337	104.19
323.566	111.19
323.795	133.19
324.024	169.19
324.253	282.19
324.482	581.19
324.71	1159.19
324.939	1527.19
325.168	605.19
325.397	202.19
325.626	118.19
325.855	110.19
326.084	128.19
326.313	115.19
326.542	141.19
326.77	179.19
326.999	320.19
327.228	674.19
327.457	1185.19
327.686	969.19
327.914	283.19
328.143	185.19
328.372	140.19
328.6	128.19
328.829	107.19
329.058	119.19
329.287	102.19
329.515	103.19
329.744	101.19
329.972	118.19
330.201	134.19
330.43	168.19
330.658	134.19
330.887	128.19
331.115	112.19
331.344	104.19
331.572	99.19
331.801	104.19
332.03	105.19
332.258	108.19
332.486	90.19
332.715	98.19
332.943	79.19
333.172	93.19
333.4	82.19
333.629	93.19
333.857	112.19
334.085	112.19
334.314	144.19
334.542	199.19
334.771	175.19
334.999	108.19
335.227	95.19
335.455	104.19
335.684	84.19
335.912	92.19
336.14	99.19
336.369	90.19
336.597	99.19
336.825	89.19
337.053	92.19
337.281	99.19
337.51	80.19
337.738	100.19
337.966	95.19
338.194	91.19
338.422	97.19
338.65	97.19
338.878	94.19
339.106	81.19
339.334	87.19
339.562	84.19
339.79	76.19
340.018	95.19
340.246	90.19
340.474	97.19
340.702	83.19
340.93	87.19
341.158	91.19
341.386	100.19
341.614	77.19
341.842	95.19
342.07	93.19
342.298	86.19
342.526	88.19
342.754	98.19
342.981	90.19
343.209	101.19
343.437	113.19
343.665	81.19
343.893	87.19
344.12	106.19
344.348	95.19
344.576	89.19
344.804	89.19
345.031	99.19
345.259	92.19
345.487	98.19
345.714	85.19
345.942	101.19
346.17	95.19
346.397	94.19
346.625	97.19
346.853	80.19
347.08	93.19
347.308	96.19
347.535	94.19
347.763	89.19
347.99	87.19
348.218	91.19
348.445	102.19
348.673	104.19
348.9	95.19
349.128	94.19
349.355	94.19
349.583	88.19
349.81	93.19
350.037	86.19
350.265	96.19
350.492	108.19
350.72	102.19
350.947	97.19
351.174	91.19
351.402	103.19
351.629	94.19
351.856	92.19
352.083	92.19
352.311	98.19
352.538	104.19
352.765	83.19
352.992	106.19
353.22	97.19
353.447	96.19
353.674	92.19
353.901	95.19
354.128	94.19
354.355	100.19
354.583	87.19
354.81	89.19
355.037	92.19
355.264	86.19
355.491	79.19
355.718	92.19
355.945	95.19
356.172	103.19
356.399	80.19
356.626	75.19
356.853	93.19
357.08	89.19
357.307	90.19
357.534	93.19
357.761	104.19
357.988	83.19
358.215	106.19
358.441	83.19
358.668	99.19
358.895	91.19
359.122	94.19
359.349	87.19
359.576	83.19
359.802	89.19
360.029	86.19
360.256	92.19
360.483	90.19
360.709	89.19
360.936	90.19
361.163	84.19
361.39	72.19
361.616	91.19
361.843	87.19
362.07	95.19
362.296	85.19
362.523	84.19
362.749	79.19
362.976	88.19
363.203	80.19
363.429	79.19
363.656	96.19
363.882	71.19
364.109	83.19
364.335	98.19
364.562	100.19
364.788	101.19
365.015	87.19
365.241	95.19
365.468	104.19
365.694	102.19
365.92	89.19
366.147	91.19
366.373	81.19
366.599	88.19
366.826	88.19
367.052	83.19
367.278	91.19
367.505	83.19
367.731	88.19
367.957	86.19
368.184	89.19
368.41	92.19
368.636	108.19
368.862	108.19
369.089	102.19
369.315	96.19
369.541	89.19
369.767	86.19
369.993	95.19
370.219	85.19
370.445	85.19
370.672	88.19
370.898	95.19
371.124	91.19
371.35	90.19
371.576	85.19
371.802	89.19
372.028	87.19
372.254	87.19
372.48	86.19
372.706	92.19
372.932	87.19
373.158	97.19
373.384	77.19
373.61	99.19
373.835	91.19
374.061	97.19
374.287	80.19
374.513	73.19
374.739	88.19
374.965	87.19
375.191	76.19
375.416	84.19
375.642	82.19
375.868	106.19
376.094	90.19
376.319	96.19
376.545	85.19
376.771	82.19
376.997	92.19
377.222	90.19
377.448	93.19
377.674	92.19
377.899	83.19
378.125	76.19
378.35	98.19
378.576	89.19
378.802	85.19
379.027	90.19
379.253	95.19
379.478	86.19
379.704	77.19
379.929	72.19
380.155	83.19
380.38	100.19
380.606	104.19
380.831	99.19
381.057	91.19
381.282	92.19
381.507	95.19
381.733	109.19
381.958	108.19
382.184	105.19
382.409	95.19
382.634	98.19
382.86	108.19
383.085	89.19
383.31	91.19
383.535	97.19
383.761	89.19
383.986	86.19
384.211	96.19
384.436	100.19
384.662	91.19
384.887	106.19
385.112	105.19
385.337	102.19
385.562	119.19
385.787	82.19
386.013	108.19
386.238	108.19
386.463	118.19
386.688	117.19
386.913	111.19
387.138	104.19
387.363	90.19
387.588	91.19
387.813	87.19
388.038	104.19
388.263	119.19
388.488	109.19
388.713	94.19
388.938	90.19
389.163	93.19
389.387	97.19
389.612	86.19
389.837	101.19
390.062	84.19
390.287	92.19
390.512	98.19
390.736	97.19
390.961	94.19
391.186	93.19
391.411	101.19
391.636	83.19
391.86	92.19
392.085	89.19
392.31	85.19
392.534	88.19
392.759	87.19
392.984	99.19
393.208	95.19
393.433	96.19
393.658	106.19
393.882	85.19
394.107	95.19
394.331	86.19
394.556	97.19
394.78	79.19
395.005	87.19
395.229	77.19
395.454	91.19
395.678	96.19
395.903	77.19
396.127	84.19
396.352	94.19
396.576	77.19
396.801	94.19
397.025	100.19
397.249	95.19
397.474	83.19
397.698	93.19
397.922	80.19
398.147	88.19
398.371	86.19
398.595	96.19
398.82	81.19
399.044	85.19
399.268	84.19
399.492	84.19
399.717	73.19
399.941	85.19
400.165	85.19
400.389	88.19
400.613	82.19
400.837	98.19
401.062	85.19
401.286	92.19
401.51	85.19
401.734	76.19
401.958	91.19
402.182	103.19
402.406	128.19
402.63	112.19
402.854	92.19
403.078	95.19
403.302	95.19
403.526	84.19
403.75	90.19
403.974	83.19
404.198	92.19
404.422	83.19
404.645	75.19
404.869	108.19
405.093	103.19
405.317	99.19
405.541	102.19
405.765	97.19
405.988	108.19
406.212	131.19
406.436	182.19
406.66	118.19
406.883	86.19
407.107	95.19
407.331	85.19
407.555	100.19
407.778	80.19
408.002	90.19
408.226	87.19
408.449	88.19
408.673	84.19
408.896	74.19
409.12	87.19
409.344	69.19
409.567	74.19
409.791	87.19
410.014	100.19
410.238	86.19
410.461	92.19
410.685	100.19
410.908	89.19
411.132	97.19
411.355	81.19
411.578	101.19
411.802	79.19
412.025	96.19
412.249	93.19
412.472	89.19
412.695	91.19
412.919	94.19
413.142	87.19
413.365	93.19
413.589	83.19
413.812	89.19
414.035	96.19
414.258	92.19
414.482	77.19
414.705	74.19
414.928	81.19
415.151	91.19
415.374	106.19
415.597	90.19
415.821	90.19
416.044	95.19
416.267	90.19
416.49	73.19
416.713	92.19
416.936	83.19
417.159	87.19
417.382	83.19
417.605	82.19
417.828	87.19
418.051	93.19
418.274	76.19
418.497	81.19
418.72	71.19
418.943	91.19
419.166	93.19
419.389	83.19
419.611	81.19
419.834	88.19
420.057	87.19
420.28	82.19
420.503	101.19
420.726	87.19
420.948	90.19
421.171	99.19
421.394	91.19
421.617	96.19
421.839	81.19
422.062	85.19
422.285	93.19
422.507	79.19
422.73	94.19
422.953	81.19
423.175	87.19
423.398	73.19
423.621	81.19
423.843	74.19
424.066	79.19
424.288	83.19
424.511	87.19
424.733	90.19
424.956	95.19
425.178	91.19
425.401	98.19
425.623	88.19
425.846	93.19
426.068	84.19
426.291	76.19
426.513	71.19
426.735	89.19
426.958	104.19
427.18	104.19
427.402	123.19
427.625	121.19
427.847	107.19
428.069	99.19
428.292	79.19
428.514	82.19
428.736	87.19
428.958	72.19
429.181	67.19
429.403	85.19
429.625	90.19
429.847	90.19
430.069	105.19
430.292	89.19
430.514	66.19
430.736	88.19
430.958	99.19
431.18	89.19
431.402	79.19
431.624	93.19
431.846	89.19
432.068	85.19
432.29	85.19
432.512	74.19
432.734	76.19
432.956	83.19
433.178	106.19
433.4	90.19
433.622	101.19
433.844	92.19
434.066	95.19
434.287	98.19
434.509	85.19
434.731	90.19
434.953	93.19
435.175	83.19
435.397	86.19
435.618	83.19
435.84	92.19
436.062	106.19
436.284	103.19
436.505	88.19
436.727	81.19
436.949	86.19
437.17	96.19
437.392	84.19
437.614	80.19
437.835	77.19
438.057	99.19
438.278	111.19
438.5	99.19
438.721	116.19
438.943	95.19
439.165	89.19
439.386	96.19
439.608	105.19
439.829	82.19
440.05	97.19
440.272	114.19
440.493	96.19
440.715	102.19
440.936	90.19
441.158	81.19
441.379	83.19
441.6	89.19
441.822	93.19
442.043	98.19
442.264	116.19
442.486	92.19
442.707	84.19
442.928	99.19
443.149	111.19
443.371	105.19
443.592	84.19
443.813	107.19
444.034	96.19
444.255	87.19
444.476	82.19
444.698	88.19
444.919	85.19
445.14	140.19
445.361	124.19
445.582	111.19
445.803	123.19
446.024	107.19
446.245	112.19
446.466	94.19
446.687	96.19
446.908	97.19
447.129	83.19
447.35	87.19
447.571	87.19
447.792	87.19
448.013	87.19
448.234	79.19
448.455	91.19
448.675	118.19
448.896	113.19
449.117	88.19
449.338	92.19
449.559	116.19
449.779	114.19
450	99.19
450.221	82.19
450.442	75.19
450.662	72.19
450.883	95.19
451.104	93.19
451.324	97.19
451.545	97.19
451.766	95.19
451.986	86.19
452.207	88.19
452.428	81.19
452.648	90.19
452.869	113.19
453.089	98.19
453.31	113.19
453.53	93.19
453.751	94.19
453.971	98.19
454.192	100.19
454.412	92.19
454.633	70.19
454.853	95.19
455.073	79.19
455.294	93.19
455.514	96.19
455.734	99.19
455.955	86.19
456.175	79.19
456.395	77.19
456.616	76.19
456.836	79.19
457.056	84.19
457.276	73.19
457.497	83.19
457.717	82.19
457.937	98.19
458.157	95.19
458.377	82.19
458.598	98.19
458.818	131.19
459.038	136.19
459.258	101.19
459.478	88.19
459.698	84.19
459.918	96.19
460.138	74.19
460.358	104.19
460.578	91.19
460.798	90.19
461.018	89.19
461.238	83.19
461.458	89.19
461.678	92.19
461.898	78.19
462.118	87.19
462.338	86.19
462.558	74.19
462.777	81.19
462.997	72.19
463.217	87.19
463.437	79.19
463.657	86.19
463.876	81.19
464.096	90.19
464.316	93.19
464.536	75.19
464.755	101.19
464.975	91.19
465.195	125.19
465.414	126.19
465.634	90.19
465.854	93.19
466.073	91.19
466.293	96.19
466.512	73.19
466.732	81.19
466.951	93.19
467.171	92.19
467.391	97.19
467.61	93.19
467.829	91.19
468.049	103.19
468.268	127.19
468.488	97.19
468.707	86.19
468.927	78.19
469.146	82.19
469.365	81.19
469.585	90.19
469.804	93.19
470.023	93.19
470.243	98.19
470.462	100.19
470.681	94.19
470.901	91.19
471.12	89.19
471.339	94.19
471.558	76.19
471.777	73.19
471.997	97.19
472.216	148.19
472.435	230.19
472.654	108.19
472.873	83.19
473.092	88.19
473.311	73.19
473.53	83.19
473.749	99.19
473.968	96.19
474.187	103.19
474.406	105.19
474.625	83.19
474.844	83.19
475.063	96.19
475.282	97.19
475.501	82.19
475.72	92.19
475.939	99.19
476.158	87.19
476.377	87.19
476.596	93.19
476.814	95.19
477.033	97.19
477.252	93.19
477.471	82.19
477.69	91.19
477.908	98.19
478.127	73.19
478.346	89.19
478.564	89.19
478.783	85.19
479.002	89.19
479.22	87.19
479.439	93.19
479.658	101.19
479.876	87.19
480.095	89.19
480.313	99.19
480.532	107.19
480.751	107.19
480.969	166.19
481.188	357.19
481.406	236.19
481.624	87.19
481.843	93.19
482.061	86.19
482.28	85.19
482.498	90.19
482.717	87.19
482.935	98.19
483.153	82.19
483.372	91.19
483.59	81.19
483.808	87.19
484.027	90.19
484.245	92.19
484.463	95.19
484.681	95.19
484.9	103.19
485.118	116.19
485.336	100.19
485.554	101.19
485.772	103.19
485.99	113.19
486.209	112.19
486.427	98.19
486.645	112.19
486.863	103.19
487.081	102.19
487.299	103.19
487.517	103.19
487.735	91.19
487.953	111.19
488.171	106.19
488.389	104.19
488.607	88.19
488.825	92.19
489.043	102.19
489.261	86.19
489.479	97.19
489.696	93.19
489.914	90.19
490.132	92.19
490.35	88.19
490.568	88.19
490.786	84.19
491.003	95.19
491.221	89.19
491.439	103.19
491.657	89.19
491.874	89.19
492.092	84.19
492.31	90.19
492.527	99.19
492.745	92.19
492.963	85.19
493.18	96.19
493.398	87.19
493.615	103.19
493.833	87.19
494.05	97.19
494.268	71.19
494.485	77.19
494.703	88.19
494.92	91.19
495.138	85.19
495.355	92.19
495.573	84.19
495.79	88.19
496.008	94.19
496.225	88.19
496.442	96.19
496.66	90.19
496.877	93.19
497.094	92.19
497.312	91.19
497.529	98.19
497.746	99.19
497.963	88.19
498.181	90.19
498.398	91.19
498.615	93.19
498.832	90.19
499.049	92.19
499.267	97.19
499.484	95.19
499.701	85.19
499.918	95.19
500.135	92.19
500.352	106.19
500.569	96.19
500.786	112.19
501.003	88.19
501.22	91.19
501.437	86.19
501.654	103.19
501.871	94.19
502.088	83.19
502.305	91.19
502.522	77.19
502.739	79.19
502.956	87.19
503.172	79.19
503.389	114.19
503.606	98.19
503.823	90.19
504.04	86.19
504.256	81.19
504.473	100.19
504.69	93.19
504.907	95.19
505.123	99.19
505.34	83.19
505.557	89.19
505.773	104.19
505.99	89.19
506.207	71.19
506.423	85.19
506.64	91.19
506.856	91.19
507.073	90.19
507.289	104.19
507.506	80.19
507.722	94.19
507.939	89.19
508.155	89.19
508.372	87.19
508.588	95.19
508.805	103.19
509.021	86.19
509.238	83.19
509.454	93.19
509.67	107.19
509.887	99.19
510.103	120.19
510.319	167.19
510.536	547.19
510.752	1670.19
510.968	508.19
511.184	146.19
511.401	106.19
511.617	96.19
511.833	96.19
512.049	92.19
512.265	95.19
512.481	93.19
512.698	100.19
512.914	96.19
513.13	99.19
513.346	95.19
513.562	90.19
513.778	104.19
513.994	89.19
514.21	93.19
514.426	105.19
514.642	109.19
514.858	116.19
515.074	135.19
515.29	309.19
515.506	940.19
515.721	353.19
515.937	123.19
516.153	99.19
516.369	105.19
516.585	94.19
