Data from Circ_1984_H10_HRD10591_00016.txt Node
Date: Wed Jan 03 12:22:45 EST 2024
User: Yrep
Spectrometer: HR+D1059
Trigger mode: 1
Integration Time (sec): 1.000000E-1
Scans to average: 1
Electric dark correction enabled: true
Nonlinearity correction enabled: false
Boxcar width: 0
XAxis mode: Wavelengths
Number of Pixels in Spectrum: 2048
>>>>>Begin Spectral Data<<<<<
223.165	-12.25
223.4	-12.25
223.635	-12.25
223.869	-14.25
224.104	-18.25
224.338	-16.25
224.573	-3.25
224.808	-7.25
225.042	-3.25
225.277	-13.25
225.511	-10.25
225.746	-1.25
225.98	-2.25
226.215	9.75
226.449	18.75
226.683	11.75
226.918	23.75
227.152	37.75
227.387	43.75
227.621	54.75
227.856	34.75
228.09	34.75
228.324	57.75
228.559	51.75
228.793	53.75
229.027	62.75
229.262	63.75
229.496	65.75
229.73	81.75
229.964	78.75
230.199	91.75
230.433	71.75
230.667	74.75
230.901	80.75
231.136	74.75
231.37	62.75
231.604	77.75
231.838	83.75
232.072	93.75
232.306	75.75
232.541	86.75
232.775	69.75
233.009	77.75
233.243	81.75
233.477	85.75
233.711	88.75
233.945	79.75
234.179	67.75
234.413	83.75
234.647	91.75
234.881	82.75
235.115	82.75
235.349	70.75
235.583	95.75
235.817	78.75
236.051	89.75
236.285	73.75
236.519	74.75
236.753	71.75
236.987	90.75
237.221	82.75
237.455	83.75
237.689	66.75
237.922	78.75
238.156	73.75
238.39	68.75
238.624	64.75
238.858	73.75
239.091	83.75
239.325	72.75
239.559	86.75
239.793	70.75
240.027	68.75
240.26	70.75
240.494	97.75
240.728	79.75
240.961	77.75
241.195	84.75
241.429	70.75
241.662	82.75
241.896	86.75
242.13	69.75
242.363	74.75
242.597	66.75
242.83	58.75
243.064	76.75
243.298	78.75
243.531	75.75
243.765	77.75
243.998	77.75
244.232	67.75
244.465	82.75
244.699	81.75
244.932	79.75
245.166	86.75
245.399	89.75
245.633	78.75
245.866	89.75
246.099	81.75
246.333	73.75
246.566	78.75
246.8	84.75
247.033	93.75
247.266	84.75
247.5	89.75
247.733	70.75
247.966	74.75
248.2	83.75
248.433	86.75
248.666	70.75
248.899	89.75
249.133	83.75
249.366	80.75
249.599	89.75
249.832	81.75
250.066	71.75
250.299	79.75
250.532	82.75
250.765	62.75
250.998	89.75
251.231	75.75
251.465	84.75
251.698	73.75
251.931	71.75
252.164	88.75
252.397	72.75
252.63	85.75
252.863	80.75
253.096	71.75
253.329	71.75
253.562	74.75
253.795	73.75
254.028	77.75
254.261	85.75
254.494	68.75
254.727	84.75
254.96	79.75
255.193	72.75
255.426	81.75
255.659	77.75
255.892	84.75
256.124	77.75
256.357	71.75
256.59	80.75
256.823	68.75
257.056	75.75
257.289	67.75
257.521	82.75
257.754	94.75
257.987	68.75
258.22	90.75
258.452	89.75
258.685	74.75
258.918	93.75
259.151	85.75
259.383	80.75
259.616	70.75
259.849	83.75
260.081	88.75
260.314	92.75
260.547	82.75
260.779	74.75
261.012	87.75
261.244	97.75
261.477	87.75
261.71	86.75
261.942	108.75
262.175	98.75
262.407	88.75
262.64	82.75
262.872	75.75
263.105	82.75
263.337	74.75
263.57	81.75
263.802	92.75
264.035	77.75
264.267	79.75
264.499	83.75
264.732	77.75
264.964	74.75
265.197	67.75
265.429	75.75
265.661	82.75
265.894	79.75
266.126	72.75
266.358	75.75
266.591	81.75
266.823	86.75
267.055	75.75
267.287	85.75
267.52	95.75
267.752	73.75
267.984	84.75
268.216	97.75
268.448	88.75
268.681	88.75
268.913	80.75
269.145	64.75
269.377	74.75
269.609	73.75
269.841	72.75
270.073	78.75
270.306	77.75
270.538	72.75
270.77	86.75
271.002	81.75
271.234	83.75
271.466	77.75
271.698	85.75
271.93	86.75
272.162	83.75
272.394	78.75
272.626	82.75
272.858	85.75
273.09	83.75
273.322	59.75
273.553	74.75
273.785	81.75
274.017	83.75
274.249	96.75
274.481	77.75
274.713	79.75
274.945	84.75
275.176	79.75
275.408	78.75
275.64	86.75
275.872	101.75
276.104	73.75
276.335	77.75
276.567	79.75
276.799	106.75
277.031	86.75
277.262	94.75
277.494	96.75
277.726	89.75
277.957	81.75
278.189	79.75
278.421	76.75
278.652	89.75
278.884	91.75
279.115	85.75
279.347	70.75
279.579	90.75
279.81	72.75
280.042	85.75
280.273	93.75
280.505	78.75
280.736	99.75
280.968	94.75
281.199	83.75
281.431	94.75
281.662	85.75
281.894	89.75
282.125	87.75
282.356	115.75
282.588	122.75
282.819	118.75
283.051	87.75
283.282	91.75
283.513	83.75
283.745	72.75
283.976	88.75
284.207	78.75
284.439	85.75
284.67	83.75
284.901	86.75
285.132	77.75
285.364	96.75
285.595	80.75
285.826	80.75
286.057	77.75
286.288	96.75
286.52	91.75
286.751	98.75
286.982	87.75
287.213	81.75
287.444	78.75
287.675	104.75
287.906	94.75
288.138	89.75
288.369	88.75
288.6	93.75
288.831	98.75
289.062	96.75
289.293	98.75
289.524	71.75
289.755	89.75
289.986	89.75
290.217	89.75
290.448	88.75
290.679	86.75
290.91	98.75
291.141	89.75
291.371	86.75
291.602	90.75
291.833	99.75
292.064	98.75
292.295	90.75
292.526	82.75
292.757	96.75
292.987	87.75
293.218	89.75
293.449	92.75
293.68	90.75
293.91	79.75
294.141	87.75
294.372	85.75
294.603	92.75
294.833	91.75
295.064	97.75
295.295	85.75
295.525	101.75
295.756	89.75
295.987	101.75
296.217	113.75
296.448	125.75
296.679	107.75
296.909	98.75
297.14	90.75
297.37	68.75
297.601	83.75
297.831	81.75
298.062	92.75
298.292	91.75
298.523	85.75
298.753	101.75
298.984	101.75
299.214	74.75
299.445	91.75
299.675	86.75
299.905	77.75
300.136	82.75
300.366	87.75
300.597	92.75
300.827	90.75
301.057	90.75
301.288	88.75
301.518	94.75
301.748	95.75
301.979	94.75
302.209	97.75
302.439	84.75
302.669	92.75
302.9	79.75
303.13	90.75
303.36	93.75
303.59	97.75
303.82	98.75
304.051	82.75
304.281	80.75
304.511	86.75
304.741	77.75
304.971	88.75
305.201	100.75
305.431	77.75
305.661	94.75
305.891	96.75
306.121	94.75
306.352	96.75
306.582	105.75
306.812	98.75
307.042	97.75
307.272	91.75
307.502	93.75
307.731	94.75
307.961	92.75
308.191	74.75
308.421	85.75
308.651	105.75
308.881	97.75
309.111	102.75
309.341	90.75
309.571	79.75
309.8	82.75
310.03	92.75
310.26	84.75
310.49	89.75
310.72	95.75
310.949	87.75
311.179	99.75
311.409	93.75
311.639	94.75
311.868	101.75
312.098	83.75
312.328	118.75
312.557	95.75
312.787	106.75
313.017	106.75
313.246	93.75
313.476	90.75
313.706	88.75
313.935	80.75
314.165	82.75
314.394	90.75
314.624	95.75
314.853	94.75
315.083	89.75
315.312	91.75
315.542	94.75
315.771	91.75
316.001	81.75
316.23	92.75
316.46	91.75
316.689	103.75
316.919	89.75
317.148	95.75
317.377	91.75
317.607	106.75
317.836	97.75
318.065	85.75
318.295	94.75
318.524	72.75
318.753	79.75
318.983	95.75
319.212	99.75
319.441	91.75
319.67	101.75
319.9	96.75
320.129	81.75
320.358	99.75
320.587	104.75
320.816	96.75
321.046	102.75
321.275	93.75
321.504	98.75
321.733	103.75
321.962	104.75
322.191	94.75
322.42	95.75
322.649	98.75
322.878	102.75
323.108	122.75
323.337	109.75
323.566	110.75
323.795	135.75
324.024	172.75
324.253	333.75
324.482	689.75
324.71	1351.75
324.939	1800.75
325.168	676.75
325.397	219.75
325.626	132.75
325.855	117.75
326.084	113.75
326.313	125.75
326.542	136.75
326.77	193.75
326.999	353.75
327.228	753.75
327.457	1351.75
327.686	1105.75
327.914	314.75
328.143	185.75
328.372	157.75
328.6	122.75
328.829	101.75
329.058	117.75
329.287	122.75
329.515	113.75
329.744	102.75
329.972	106.75
330.201	136.75
330.43	181.75
330.658	145.75
330.887	126.75
331.115	109.75
331.344	103.75
331.572	93.75
331.801	87.75
332.03	105.75
332.258	90.75
332.486	88.75
332.715	99.75
332.943	90.75
333.172	96.75
333.4	103.75
333.629	102.75
333.857	107.75
334.085	115.75
334.314	131.75
334.542	194.75
334.771	185.75
334.999	111.75
335.227	85.75
335.455	92.75
335.684	88.75
335.912	78.75
336.14	90.75
336.369	81.75
336.597	93.75
336.825	107.75
337.053	97.75
337.281	102.75
337.51	90.75
337.738	113.75
337.966	86.75
338.194	82.75
338.422	107.75
338.65	97.75
338.878	88.75
339.106	79.75
339.334	93.75
339.562	89.75
339.79	75.75
340.018	81.75
340.246	80.75
340.474	93.75
340.702	93.75
340.93	91.75
341.158	95.75
341.386	106.75
341.614	97.75
341.842	99.75
342.07	95.75
342.298	86.75
342.526	82.75
342.754	82.75
342.981	87.75
343.209	80.75
343.437	107.75
343.665	93.75
343.893	90.75
344.12	98.75
344.348	85.75
344.576	79.75
344.804	95.75
345.031	88.75
345.259	94.75
345.487	96.75
345.714	103.75
345.942	81.75
346.17	87.75
346.397	79.75
346.625	85.75
346.853	82.75
347.08	89.75
347.308	95.75
347.535	88.75
347.763	89.75
347.99	95.75
348.218	94.75
348.445	112.75
348.673	102.75
348.9	106.75
349.128	81.75
349.355	81.75
349.583	93.75
349.81	84.75
350.037	79.75
350.265	90.75
350.492	80.75
350.72	92.75
350.947	104.75
351.174	100.75
351.402	107.75
351.629	111.75
351.856	87.75
352.083	86.75
352.311	115.75
352.538	115.75
352.765	101.75
352.992	115.75
353.22	106.75
353.447	118.75
353.674	98.75
353.901	88.75
354.128	86.75
354.355	112.75
354.583	89.75
354.81	90.75
355.037	102.75
355.264	86.75
355.491	97.75
355.718	82.75
355.945	85.75
356.172	81.75
356.399	97.75
356.626	79.75
356.853	93.75
357.08	93.75
357.307	89.75
357.534	92.75
357.761	78.75
357.988	77.75
358.215	93.75
358.441	93.75
358.668	81.75
358.895	92.75
359.122	86.75
359.349	95.75
359.576	86.75
359.802	78.75
360.029	97.75
360.256	105.75
360.483	88.75
360.709	93.75
360.936	95.75
361.163	96.75
361.39	87.75
361.616	95.75
361.843	96.75
362.07	95.75
362.296	81.75
362.523	85.75
362.749	96.75
362.976	85.75
363.203	90.75
363.429	99.75
363.656	92.75
363.882	81.75
364.109	92.75
364.335	83.75
364.562	96.75
364.788	87.75
365.015	105.75
365.241	87.75
365.468	109.75
365.694	109.75
365.92	87.75
366.147	87.75
366.373	85.75
366.599	82.75
366.826	87.75
367.052	81.75
367.278	79.75
367.505	95.75
367.731	103.75
367.957	85.75
368.184	89.75
368.41	88.75
368.636	99.75
368.862	106.75
369.089	117.75
369.315	77.75
369.541	84.75
369.767	103.75
369.993	85.75
370.219	72.75
370.445	89.75
370.672	90.75
370.898	87.75
371.124	87.75
371.35	84.75
371.576	91.75
371.802	89.75
372.028	78.75
372.254	88.75
372.48	80.75
372.706	82.75
372.932	75.75
373.158	96.75
373.384	98.75
373.61	96.75
373.835	97.75
374.061	106.75
374.287	88.75
374.513	78.75
374.739	84.75
374.965	89.75
375.191	95.75
375.416	88.75
375.642	93.75
375.868	86.75
376.094	80.75
376.319	87.75
376.545	85.75
376.771	104.75
376.997	85.75
377.222	79.75
377.448	79.75
377.674	96.75
377.899	86.75
378.125	94.75
378.35	89.75
378.576	91.75
378.802	80.75
379.027	92.75
379.253	102.75
379.478	97.75
379.704	99.75
379.929	86.75
380.155	77.75
380.38	102.75
380.606	90.75
380.831	83.75
381.057	89.75
381.282	84.75
381.507	103.75
381.733	89.75
381.958	102.75
382.184	96.75
382.409	101.75
382.634	86.75
382.86	99.75
383.085	103.75
383.31	106.75
383.535	116.75
383.761	113.75
383.986	102.75
384.211	101.75
384.436	104.75
384.662	114.75
384.887	109.75
385.112	106.75
385.337	97.75
385.562	101.75
385.787	117.75
386.013	129.75
386.238	116.75
386.463	113.75
386.688	117.75
386.913	118.75
387.138	112.75
387.363	110.75
387.588	116.75
387.813	94.75
388.038	104.75
388.263	107.75
388.488	111.75
388.713	104.75
388.938	108.75
389.163	102.75
389.387	94.75
389.612	75.75
389.837	103.75
390.062	95.75
390.287	89.75
390.512	99.75
390.736	77.75
390.961	90.75
391.186	97.75
391.411	91.75
391.636	84.75
391.86	98.75
392.085	88.75
392.31	80.75
392.534	74.75
392.759	90.75
392.984	98.75
393.208	85.75
393.433	107.75
393.658	104.75
393.882	79.75
394.107	85.75
394.331	89.75
394.556	82.75
394.78	82.75
395.005	93.75
395.229	83.75
395.454	96.75
395.678	87.75
395.903	85.75
396.127	93.75
396.352	86.75
396.576	80.75
396.801	99.75
397.025	114.75
397.249	92.75
397.474	89.75
397.698	69.75
397.922	94.75
398.147	81.75
398.371	87.75
398.595	84.75
398.82	90.75
399.044	86.75
399.268	88.75
399.492	92.75
399.717	101.75
399.941	86.75
400.165	108.75
400.389	95.75
400.613	83.75
400.837	86.75
401.062	79.75
401.286	77.75
401.51	87.75
401.734	81.75
401.958	91.75
402.182	105.75
402.406	137.75
402.63	107.75
402.854	96.75
403.078	84.75
403.302	90.75
403.526	85.75
403.75	89.75
403.974	85.75
404.198	83.75
404.422	98.75
404.645	86.75
404.869	85.75
405.093	83.75
405.317	98.75
405.541	102.75
405.765	92.75
405.988	105.75
406.212	151.75
406.436	196.75
406.66	136.75
406.883	89.75
407.107	96.75
407.331	94.75
407.555	102.75
407.778	101.75
408.002	92.75
408.226	79.75
408.449	90.75
408.673	86.75
408.896	90.75
409.12	97.75
409.344	83.75
409.567	89.75
409.791	96.75
410.014	92.75
410.238	96.75
410.461	95.75
410.685	98.75
410.908	100.75
411.132	98.75
411.355	87.75
411.578	89.75
411.802	95.75
412.025	83.75
412.249	91.75
412.472	86.75
412.695	98.75
412.919	87.75
413.142	100.75
413.365	93.75
413.589	82.75
413.812	75.75
414.035	93.75
414.258	83.75
414.482	92.75
414.705	98.75
414.928	82.75
415.151	96.75
415.374	89.75
415.597	83.75
415.821	90.75
416.044	81.75
416.267	90.75
416.49	81.75
416.713	83.75
416.936	102.75
417.159	105.75
417.382	84.75
417.605	88.75
417.828	97.75
418.051	91.75
418.274	90.75
418.497	101.75
418.72	87.75
418.943	71.75
419.166	88.75
419.389	80.75
419.611	80.75
419.834	91.75
420.057	100.75
420.28	75.75
420.503	88.75
420.726	85.75
420.948	93.75
421.171	102.75
421.394	86.75
421.617	84.75
421.839	89.75
422.062	86.75
422.285	92.75
422.507	109.75
422.73	106.75
422.953	100.75
423.175	98.75
423.398	90.75
423.621	73.75
423.843	75.75
424.066	85.75
424.288	101.75
424.511	107.75
424.733	90.75
424.956	94.75
425.178	94.75
425.401	91.75
425.623	98.75
425.846	89.75
426.068	96.75
426.291	88.75
426.513	82.75
426.735	93.75
426.958	93.75
427.18	85.75
427.402	115.75
427.625	145.75
427.847	138.75
428.069	111.75
428.292	98.75
428.514	84.75
428.736	93.75
428.958	79.75
429.181	79.75
429.403	84.75
429.625	87.75
429.847	87.75
430.069	83.75
430.292	80.75
430.514	91.75
430.736	91.75
430.958	83.75
431.18	79.75
431.402	81.75
431.624	85.75
431.846	74.75
432.068	89.75
432.29	84.75
432.512	77.75
432.734	95.75
432.956	91.75
433.178	92.75
433.4	91.75
433.622	90.75
433.844	85.75
434.066	100.75
434.287	82.75
434.509	93.75
434.731	81.75
434.953	71.75
435.175	83.75
435.397	86.75
435.618	82.75
435.84	84.75
436.062	109.75
436.284	106.75
436.505	96.75
436.727	98.75
436.949	96.75
437.17	94.75
437.392	93.75
437.614	90.75
437.835	112.75
438.057	107.75
438.278	89.75
438.5	93.75
438.721	118.75
438.943	97.75
439.165	89.75
439.386	96.75
439.608	81.75
439.829	79.75
440.05	119.75
440.272	139.75
440.493	93.75
440.715	88.75
440.936	88.75
441.158	79.75
441.379	90.75
441.6	91.75
441.822	82.75
442.043	81.75
442.264	93.75
442.486	96.75
442.707	86.75
442.928	95.75
443.149	103.75
443.371	116.75
443.592	94.75
443.813	101.75
444.034	101.75
444.255	94.75
444.476	77.75
444.698	88.75
444.919	100.75
445.14	129.75
445.361	112.75
445.582	106.75
445.803	118.75
446.024	111.75
446.245	107.75
446.466	110.75
446.687	93.75
446.908	96.75
447.129	85.75
447.35	86.75
447.571	88.75
447.792	98.75
448.013	85.75
448.234	100.75
448.455	95.75
448.675	96.75
448.896	99.75
449.117	96.75
449.338	88.75
449.559	106.75
449.779	128.75
450	99.75
450.221	83.75
450.442	74.75
450.662	95.75
450.883	104.75
451.104	112.75
451.324	103.75
451.545	85.75
451.766	79.75
451.986	82.75
452.207	90.75
452.428	97.75
452.648	93.75
452.869	104.75
453.089	109.75
453.31	104.75
453.53	75.75
453.751	82.75
453.971	90.75
454.192	103.75
454.412	89.75
454.633	70.75
454.853	68.75
455.073	79.75
455.294	84.75
455.514	94.75
455.734	90.75
455.955	72.75
456.175	77.75
456.395	77.75
456.616	84.75
456.836	95.75
457.056	73.75
457.276	88.75
457.497	97.75
457.717	81.75
457.937	89.75
458.157	87.75
458.377	93.75
458.598	99.75
458.818	114.75
459.038	134.75
459.258	126.75
459.478	93.75
459.698	103.75
459.918	95.75
460.138	78.75
460.358	89.75
460.578	87.75
460.798	81.75
461.018	79.75
461.238	78.75
461.458	94.75
461.678	89.75
461.898	82.75
462.118	82.75
462.338	84.75
462.558	77.75
462.777	87.75
462.997	90.75
463.217	103.75
463.437	84.75
463.657	86.75
463.876	79.75
464.096	85.75
464.316	86.75
464.536	105.75
464.755	74.75
464.975	97.75
465.195	153.75
465.414	142.75
465.634	99.75
465.854	89.75
466.073	77.75
466.293	75.75
466.512	78.75
466.732	78.75
466.951	97.75
467.171	85.75
467.391	102.75
467.61	105.75
467.829	107.75
468.049	108.75
468.268	113.75
468.488	82.75
468.707	86.75
468.927	89.75
469.146	99.75
469.365	97.75
469.585	96.75
469.804	84.75
470.023	95.75
470.243	93.75
470.462	89.75
470.681	80.75
470.901	80.75
471.12	94.75
471.339	90.75
471.558	89.75
471.777	89.75
471.997	100.75
472.216	169.75
472.435	225.75
472.654	113.75
472.873	97.75
473.092	91.75
473.311	88.75
473.53	74.75
473.749	82.75
473.968	81.75
474.187	89.75
474.406	94.75
474.625	93.75
474.844	77.75
475.063	77.75
475.282	85.75
475.501	87.75
475.72	104.75
475.939	80.75
476.158	95.75
476.377	91.75
476.596	90.75
476.814	99.75
477.033	79.75
477.252	79.75
477.471	80.75
477.69	82.75
477.908	91.75
478.127	89.75
478.346	87.75
478.564	93.75
478.783	93.75
479.002	93.75
479.22	90.75
479.439	106.75
479.658	98.75
479.876	101.75
480.095	86.75
480.313	87.75
480.532	89.75
480.751	103.75
480.969	141.75
481.188	326.75
481.406	244.75
481.624	97.75
481.843	89.75
482.061	82.75
482.28	90.75
482.498	85.75
482.717	85.75
482.935	86.75
483.153	79.75
483.372	86.75
483.59	90.75
483.808	93.75
484.027	94.75
484.245	82.75
484.463	98.75
484.681	90.75
484.9	96.75
485.118	89.75
485.336	92.75
485.554	108.75
485.772	102.75
485.99	91.75
486.209	105.75
486.427	92.75
486.645	108.75
486.863	90.75
487.081	100.75
487.299	113.75
487.517	108.75
487.735	69.75
487.953	92.75
488.171	83.75
488.389	87.75
488.607	100.75
488.825	90.75
489.043	91.75
489.261	80.75
489.479	89.75
489.696	84.75
489.914	90.75
490.132	95.75
490.35	91.75
490.568	103.75
490.786	92.75
491.003	92.75
491.221	89.75
491.439	97.75
491.657	80.75
491.874	79.75
492.092	87.75
492.31	90.75
492.527	97.75
492.745	97.75
492.963	99.75
493.18	83.75
493.398	90.75
493.615	96.75
493.833	88.75
494.05	90.75
494.268	88.75
494.485	67.75
494.703	89.75
494.92	94.75
495.138	70.75
495.355	87.75
495.573	90.75
495.79	89.75
496.008	99.75
496.225	82.75
496.442	79.75
496.66	86.75
496.877	82.75
497.094	90.75
497.312	82.75
497.529	82.75
497.746	86.75
497.963	81.75
498.181	99.75
498.398	90.75
498.615	94.75
498.832	104.75
499.049	89.75
499.267	99.75
499.484	96.75
499.701	87.75
499.918	82.75
500.135	97.75
500.352	96.75
500.569	93.75
500.786	85.75
501.003	75.75
501.22	90.75
501.437	73.75
501.654	85.75
501.871	82.75
502.088	85.75
502.305	73.75
502.522	85.75
502.739	90.75
502.956	80.75
503.172	89.75
503.389	83.75
503.606	95.75
503.823	92.75
504.04	96.75
504.256	95.75
504.473	75.75
504.69	90.75
504.907	79.75
505.123	95.75
505.34	97.75
505.557	79.75
505.773	88.75
505.99	97.75
506.207	67.75
506.423	93.75
506.64	79.75
506.856	79.75
507.073	98.75
507.289	99.75
507.506	103.75
507.722	111.75
507.939	101.75
508.155	75.75
508.372	95.75
508.588	99.75
508.805	69.75
509.021	97.75
509.238	92.75
509.454	87.75
509.67	102.75
509.887	94.75
510.103	113.75
510.319	200.75
510.536	658.75
510.752	2041.75
510.968	565.75
511.184	131.75
511.401	96.75
511.617	96.75
511.833	90.75
512.049	101.75
512.265	91.75
512.481	98.75
512.698	93.75
512.914	88.75
513.13	88.75
513.346	91.75
513.562	115.75
513.778	95.75
513.994	91.75
514.21	92.75
514.426	111.75
514.642	110.75
514.858	107.75
515.074	142.75
515.29	373.75
515.506	1187.75
515.721	458.75
515.937	129.75
516.153	105.75
516.369	97.75
