Data from Circ_1984_H10_HRD10591_00005.txt Node
Date: Wed Jan 03 12:22:43 EST 2024
User: Yrep
Spectrometer: HR+D1059
Trigger mode: 1
Integration Time (sec): 1.000000E-1
Scans to average: 1
Electric dark correction enabled: true
Nonlinearity correction enabled: false
Boxcar width: 0
XAxis mode: Wavelengths
Number of Pixels in Spectrum: 2048
>>>>>Begin Spectral Data<<<<<
223.165	-19.69
223.4	-19.69
223.635	-19.69
223.869	-26.69
224.104	-23.69
224.338	-8.69
224.573	-16.69
224.808	-10.69
225.042	-17.69
225.277	2.31
225.511	-6.69
225.746	6.31
225.98	15.31
226.215	15.31
226.449	26.31
226.683	17.31
226.918	23.31
227.152	24.31
227.387	34.31
227.621	39.31
227.856	51.31
228.09	63.31
228.324	46.31
228.559	57.31
228.793	42.31
229.027	56.31
229.262	61.31
229.496	69.31
229.73	83.31
229.964	88.31
230.199	73.31
230.433	78.31
230.667	92.31
230.901	80.31
231.136	75.31
231.37	73.31
231.604	81.31
231.838	70.31
232.072	66.31
232.306	77.31
232.541	69.31
232.775	77.31
233.009	73.31
233.243	79.31
233.477	82.31
233.711	78.31
233.945	88.31
234.179	81.31
234.413	87.31
234.647	85.31
234.881	74.31
235.115	80.31
235.349	79.31
235.583	71.31
235.817	87.31
236.051	67.31
236.285	80.31
236.519	70.31
236.753	74.31
236.987	73.31
237.221	96.31
237.455	80.31
237.689	71.31
237.922	66.31
238.156	82.31
238.39	72.31
238.624	74.31
238.858	68.31
239.091	84.31
239.325	80.31
239.559	77.31
239.793	65.31
240.027	70.31
240.26	87.31
240.494	68.31
240.728	79.31
240.961	74.31
241.195	82.31
241.429	81.31
241.662	71.31
241.896	67.31
242.13	70.31
242.363	72.31
242.597	79.31
242.83	81.31
243.064	83.31
243.298	66.31
243.531	77.31
243.765	65.31
243.998	66.31
244.232	88.31
244.465	93.31
244.699	89.31
244.932	80.31
245.166	79.31
245.399	64.31
245.633	65.31
245.866	83.31
246.099	74.31
246.333	66.31
246.566	76.31
246.8	80.31
247.033	63.31
247.266	83.31
247.5	84.31
247.733	82.31
247.966	72.31
248.2	68.31
248.433	72.31
248.666	77.31
248.899	71.31
249.133	86.31
249.366	91.31
249.599	77.31
249.832	78.31
250.066	66.31
250.299	81.31
250.532	81.31
250.765	82.31
250.998	79.31
251.231	81.31
251.465	71.31
251.698	83.31
251.931	74.31
252.164	72.31
252.397	63.31
252.63	65.31
252.863	75.31
253.096	88.31
253.329	74.31
253.562	82.31
253.795	94.31
254.028	82.31
254.261	83.31
254.494	72.31
254.727	77.31
254.96	73.31
255.193	81.31
255.426	80.31
255.659	75.31
255.892	80.31
256.124	84.31
256.357	79.31
256.59	76.31
256.823	71.31
257.056	87.31
257.289	82.31
257.521	78.31
257.754	86.31
257.987	80.31
258.22	88.31
258.452	74.31
258.685	71.31
258.918	77.31
259.151	81.31
259.383	85.31
259.616	92.31
259.849	80.31
260.081	74.31
260.314	88.31
260.547	61.31
260.779	85.31
261.012	81.31
261.244	86.31
261.477	89.31
261.71	99.31
261.942	104.31
262.175	104.31
262.407	80.31
262.64	89.31
262.872	65.31
263.105	74.31
263.337	85.31
263.57	75.31
263.802	67.31
264.035	86.31
264.267	71.31
264.499	68.31
264.732	93.31
264.964	85.31
265.197	77.31
265.429	85.31
265.661	75.31
265.894	81.31
266.126	72.31
266.358	85.31
266.591	81.31
266.823	81.31
267.055	75.31
267.287	88.31
267.52	85.31
267.752	71.31
267.984	91.31
268.216	86.31
268.448	83.31
268.681	87.31
268.913	88.31
269.145	103.31
269.377	88.31
269.609	82.31
269.841	84.31
270.073	96.31
270.306	79.31
270.538	84.31
270.77	86.31
271.002	89.31
271.234	92.31
271.466	97.31
271.698	78.31
271.93	80.31
272.162	81.31
272.394	91.31
272.626	90.31
272.858	93.31
273.09	73.31
273.322	86.31
273.553	79.31
273.785	82.31
274.017	90.31
274.249	83.31
274.481	91.31
274.713	81.31
274.945	79.31
275.176	85.31
275.408	84.31
275.64	79.31
275.872	73.31
276.104	100.31
276.335	91.31
276.567	92.31
276.799	91.31
277.031	102.31
277.262	106.31
277.494	88.31
277.726	87.31
277.957	84.31
278.189	85.31
278.421	86.31
278.652	82.31
278.884	85.31
279.115	86.31
279.347	79.31
279.579	83.31
279.81	88.31
280.042	79.31
280.273	85.31
280.505	88.31
280.736	72.31
280.968	88.31
281.199	73.31
281.431	101.31
281.662	91.31
281.894	84.31
282.125	90.31
282.356	115.31
282.588	128.31
282.819	101.31
283.051	79.31
283.282	84.31
283.513	93.31
283.745	79.31
283.976	101.31
284.207	85.31
284.439	86.31
284.67	72.31
284.901	81.31
285.132	91.31
285.364	85.31
285.595	88.31
285.826	93.31
286.057	83.31
286.288	98.31
286.52	94.31
286.751	81.31
286.982	78.31
287.213	75.31
287.444	89.31
287.675	99.31
287.906	82.31
288.138	95.31
288.369	72.31
288.6	93.31
288.831	93.31
289.062	89.31
289.293	84.31
289.524	89.31
289.755	71.31
289.986	90.31
290.217	92.31
290.448	80.31
290.679	88.31
290.91	91.31
291.141	76.31
291.371	82.31
291.602	98.31
291.833	72.31
292.064	93.31
292.295	84.31
292.526	84.31
292.757	84.31
292.987	75.31
293.218	87.31
293.449	97.31
293.68	74.31
293.91	79.31
294.141	88.31
294.372	87.31
294.603	80.31
294.833	70.31
295.064	72.31
295.295	64.31
295.525	72.31
295.756	99.31
295.987	109.31
296.217	135.31
296.448	125.31
296.679	84.31
296.909	88.31
297.14	86.31
297.37	82.31
297.601	88.31
297.831	81.31
298.062	91.31
298.292	79.31
298.523	82.31
298.753	90.31
298.984	84.31
299.214	84.31
299.445	83.31
299.675	91.31
299.905	98.31
300.136	93.31
300.366	85.31
300.597	82.31
300.827	85.31
301.057	98.31
301.288	91.31
301.518	103.31
301.748	82.31
301.979	108.31
302.209	91.31
302.439	104.31
302.669	103.31
302.9	102.31
303.13	82.31
303.36	88.31
303.59	94.31
303.82	95.31
304.051	99.31
304.281	93.31
304.511	82.31
304.741	86.31
304.971	82.31
305.201	88.31
305.431	90.31
305.661	89.31
305.891	94.31
306.121	77.31
306.352	96.31
306.582	97.31
306.812	99.31
307.042	88.31
307.272	84.31
307.502	98.31
307.731	93.31
307.961	88.31
308.191	92.31
308.421	97.31
308.651	81.31
308.881	78.31
309.111	89.31
309.341	89.31
309.571	95.31
309.8	94.31
310.03	81.31
310.26	89.31
310.49	94.31
310.72	98.31
310.949	107.31
311.179	94.31
311.409	91.31
311.639	98.31
311.868	94.31
312.098	85.31
312.328	97.31
312.557	93.31
312.787	79.31
313.017	96.31
313.246	81.31
313.476	83.31
313.706	77.31
313.935	99.31
314.165	94.31
314.394	66.31
314.624	106.31
314.853	94.31
315.083	82.31
315.312	97.31
315.542	74.31
315.771	97.31
316.001	89.31
316.23	92.31
316.46	92.31
316.689	90.31
316.919	82.31
317.148	78.31
317.377	90.31
317.607	89.31
317.836	78.31
318.065	87.31
318.295	86.31
318.524	83.31
318.753	95.31
318.983	95.31
319.212	96.31
319.441	103.31
319.67	89.31
319.9	81.31
320.129	84.31
320.358	93.31
320.587	98.31
320.816	89.31
321.046	109.31
321.275	93.31
321.504	98.31
321.733	100.31
321.962	110.31
322.191	94.31
322.42	100.31
322.649	115.31
322.878	103.31
323.108	102.31
323.337	112.31
323.566	117.31
323.795	134.31
324.024	161.31
324.253	330.31
324.482	658.31
324.71	1355.31
324.939	1812.31
325.168	672.31
325.397	201.31
325.626	139.31
325.855	137.31
326.084	109.31
326.313	131.31
326.542	145.31
326.77	182.31
326.999	378.31
327.228	730.31
327.457	1334.31
327.686	1091.31
327.914	324.31
328.143	182.31
328.372	143.31
328.6	124.31
328.829	103.31
329.058	119.31
329.287	120.31
329.515	112.31
329.744	94.31
329.972	98.31
330.201	118.31
330.43	131.31
330.658	120.31
330.887	106.31
331.115	105.31
331.344	99.31
331.572	102.31
331.801	108.31
332.03	113.31
332.258	90.31
332.486	95.31
332.715	83.31
332.943	101.31
333.172	87.31
333.4	90.31
333.629	104.31
333.857	89.31
334.085	104.31
334.314	128.31
334.542	156.31
334.771	131.31
334.999	101.31
335.227	99.31
335.455	101.31
335.684	106.31
335.912	109.31
336.14	96.31
336.369	98.31
336.597	94.31
336.825	93.31
337.053	97.31
337.281	90.31
337.51	105.31
337.738	86.31
337.966	81.31
338.194	91.31
338.422	81.31
338.65	105.31
338.878	95.31
339.106	93.31
339.334	84.31
339.562	94.31
339.79	93.31
340.018	72.31
340.246	91.31
340.474	89.31
340.702	84.31
340.93	91.31
341.158	70.31
341.386	93.31
341.614	96.31
341.842	99.31
342.07	89.31
342.298	83.31
342.526	98.31
342.754	91.31
342.981	85.31
343.209	82.31
343.437	75.31
343.665	77.31
343.893	77.31
344.12	86.31
344.348	91.31
344.576	96.31
344.804	83.31
345.031	85.31
345.259	96.31
345.487	91.31
345.714	97.31
345.942	98.31
346.17	90.31
346.397	100.31
346.625	102.31
346.853	89.31
347.08	94.31
347.308	108.31
347.535	102.31
347.763	83.31
347.99	96.31
348.218	90.31
348.445	114.31
348.673	89.31
348.9	85.31
349.128	100.31
349.355	77.31
349.583	95.31
349.81	95.31
350.037	87.31
350.265	79.31
350.492	101.31
350.72	102.31
350.947	85.31
351.174	111.31
351.402	103.31
351.629	105.31
351.856	99.31
352.083	99.31
352.311	105.31
352.538	105.31
352.765	112.31
352.992	89.31
353.22	95.31
353.447	99.31
353.674	86.31
353.901	97.31
354.128	89.31
354.355	103.31
354.583	100.31
354.81	107.31
355.037	90.31
355.264	86.31
355.491	103.31
355.718	106.31
355.945	93.31
356.172	88.31
356.399	102.31
356.626	104.31
356.853	99.31
357.08	101.31
357.307	102.31
357.534	91.31
357.761	74.31
357.988	91.31
358.215	90.31
358.441	85.31
358.668	93.31
358.895	97.31
359.122	90.31
359.349	86.31
359.576	81.31
359.802	93.31
360.029	102.31
360.256	100.31
360.483	95.31
360.709	83.31
360.936	80.31
361.163	87.31
361.39	80.31
361.616	92.31
361.843	93.31
362.07	84.31
362.296	104.31
362.523	88.31
362.749	93.31
362.976	103.31
363.203	87.31
363.429	92.31
363.656	89.31
363.882	74.31
364.109	92.31
364.335	73.31
364.562	75.31
364.788	90.31
365.015	85.31
365.241	99.31
365.468	92.31
365.694	112.31
365.92	90.31
366.147	101.31
366.373	95.31
366.599	83.31
366.826	78.31
367.052	83.31
367.278	98.31
367.505	90.31
367.731	102.31
367.957	84.31
368.184	95.31
368.41	104.31
368.636	100.31
368.862	122.31
369.089	104.31
369.315	75.31
369.541	89.31
369.767	90.31
369.993	88.31
370.219	99.31
370.445	81.31
370.672	89.31
370.898	85.31
371.124	93.31
371.35	77.31
371.576	93.31
371.802	95.31
372.028	90.31
372.254	87.31
372.48	87.31
372.706	95.31
372.932	96.31
373.158	97.31
373.384	95.31
373.61	79.31
373.835	82.31
374.061	86.31
374.287	95.31
374.513	87.31
374.739	98.31
374.965	95.31
375.191	91.31
375.416	87.31
375.642	88.31
375.868	98.31
376.094	97.31
376.319	89.31
376.545	88.31
376.771	89.31
376.997	109.31
377.222	93.31
377.448	93.31
377.674	91.31
377.899	96.31
378.125	73.31
378.35	85.31
378.576	102.31
378.802	100.31
379.027	81.31
379.253	86.31
379.478	86.31
379.704	108.31
379.929	89.31
380.155	98.31
380.38	85.31
380.606	90.31
380.831	86.31
381.057	101.31
381.282	93.31
381.507	98.31
381.733	112.31
381.958	97.31
382.184	94.31
382.409	93.31
382.634	102.31
382.86	91.31
383.085	96.31
383.31	99.31
383.535	95.31
383.761	102.31
383.986	104.31
384.211	101.31
384.436	106.31
384.662	101.31
384.887	118.31
385.112	102.31
385.337	109.31
385.562	113.31
385.787	111.31
386.013	106.31
386.238	110.31
386.463	117.31
386.688	113.31
386.913	109.31
387.138	105.31
387.363	109.31
387.588	85.31
387.813	93.31
388.038	101.31
388.263	129.31
388.488	117.31
388.713	96.31
388.938	101.31
389.163	87.31
389.387	87.31
389.612	94.31
389.837	80.31
390.062	94.31
390.287	103.31
390.512	100.31
390.736	82.31
390.961	84.31
391.186	90.31
391.411	89.31
391.636	85.31
391.86	81.31
392.085	101.31
392.31	84.31
392.534	87.31
392.759	107.31
392.984	85.31
393.208	99.31
393.433	109.31
393.658	104.31
393.882	90.31
394.107	74.31
394.331	77.31
394.556	79.31
394.78	90.31
395.005	82.31
395.229	82.31
395.454	98.31
395.678	70.31
395.903	83.31
396.127	97.31
396.352	86.31
396.576	96.31
396.801	112.31
397.025	107.31
397.249	80.31
397.474	66.31
397.698	88.31
397.922	87.31
398.147	76.31
398.371	81.31
398.595	83.31
398.82	70.31
399.044	93.31
399.268	87.31
399.492	83.31
399.717	72.31
399.941	96.31
400.165	90.31
400.389	86.31
400.613	88.31
400.837	77.31
401.062	89.31
401.286	81.31
401.51	80.31
401.734	83.31
401.958	90.31
402.182	125.31
402.406	130.31
402.63	106.31
402.854	89.31
403.078	77.31
403.302	88.31
403.526	91.31
403.75	91.31
403.974	83.31
404.198	77.31
404.422	80.31
404.645	91.31
404.869	91.31
405.093	94.31
405.317	99.31
405.541	98.31
405.765	93.31
405.988	101.31
406.212	141.31
406.436	198.31
406.66	128.31
406.883	91.31
407.107	86.31
407.331	103.31
407.555	103.31
407.778	82.31
408.002	97.31
408.226	87.31
408.449	90.31
408.673	91.31
408.896	90.31
409.12	72.31
409.344	91.31
409.567	89.31
409.791	92.31
410.014	93.31
410.238	93.31
410.461	106.31
410.685	87.31
410.908	102.31
411.132	105.31
411.355	96.31
411.578	90.31
411.802	80.31
412.025	95.31
412.249	88.31
412.472	93.31
412.695	99.31
412.919	94.31
413.142	97.31
413.365	93.31
413.589	88.31
413.812	89.31
414.035	84.31
414.258	99.31
414.482	88.31
414.705	83.31
414.928	78.31
415.151	69.31
415.374	90.31
415.597	89.31
415.821	86.31
416.044	96.31
416.267	97.31
416.49	93.31
416.713	89.31
416.936	90.31
417.159	66.31
417.382	85.31
417.605	85.31
417.828	94.31
418.051	95.31
418.274	82.31
418.497	102.31
418.72	69.31
418.943	94.31
419.166	80.31
419.389	78.31
419.611	80.31
419.834	82.31
420.057	79.31
420.28	76.31
420.503	86.31
420.726	91.31
420.948	95.31
421.171	78.31
421.394	98.31
421.617	94.31
421.839	90.31
422.062	87.31
422.285	82.31
422.507	90.31
422.73	82.31
422.953	86.31
423.175	91.31
423.398	84.31
423.621	95.31
423.843	88.31
424.066	98.31
424.288	85.31
424.511	82.31
424.733	87.31
424.956	105.31
425.178	99.31
425.401	94.31
425.623	88.31
425.846	87.31
426.068	95.31
426.291	89.31
426.513	86.31
426.735	83.31
426.958	96.31
427.18	95.31
427.402	122.31
427.625	147.31
427.847	120.31
428.069	107.31
428.292	98.31
428.514	84.31
428.736	83.31
428.958	78.31
429.181	87.31
429.403	71.31
429.625	87.31
429.847	86.31
430.069	88.31
430.292	86.31
430.514	81.31
430.736	96.31
430.958	86.31
431.18	87.31
431.402	82.31
431.624	94.31
431.846	90.31
432.068	81.31
432.29	93.31
432.512	83.31
432.734	87.31
432.956	90.31
433.178	94.31
433.4	87.31
433.622	94.31
433.844	107.31
434.066	108.31
434.287	81.31
434.509	72.31
434.731	79.31
434.953	84.31
435.175	83.31
435.397	94.31
435.618	77.31
435.84	102.31
436.062	106.31
436.284	86.31
436.505	98.31
436.727	83.31
436.949	87.31
437.17	80.31
437.392	86.31
437.614	77.31
437.835	100.31
438.057	107.31
438.278	97.31
438.5	94.31
438.721	95.31
438.943	86.31
439.165	86.31
439.386	91.31
439.608	89.31
439.829	92.31
440.05	105.31
440.272	125.31
440.493	98.31
440.715	77.31
440.936	79.31
441.158	79.31
441.379	83.31
441.6	86.31
441.822	95.31
442.043	101.31
442.264	85.31
442.486	95.31
442.707	85.31
442.928	92.31
443.149	102.31
443.371	103.31
443.592	116.31
443.813	111.31
444.034	99.31
444.255	96.31
444.476	91.31
444.698	88.31
444.919	96.31
445.14	123.31
445.361	113.31
445.582	107.31
445.803	120.31
446.024	106.31
446.245	119.31
446.466	105.31
446.687	92.31
446.908	92.31
447.129	88.31
447.35	100.31
447.571	83.31
447.792	90.31
448.013	86.31
448.234	74.31
448.455	90.31
448.675	102.31
448.896	104.31
449.117	85.31
449.338	92.31
449.559	109.31
449.779	106.31
450	81.31
450.221	95.31
450.442	95.31
450.662	90.31
450.883	92.31
451.104	113.31
451.324	79.31
451.545	94.31
451.766	78.31
451.986	78.31
452.207	77.31
452.428	77.31
452.648	81.31
452.869	98.31
453.089	97.31
453.31	105.31
453.53	92.31
453.751	97.31
453.971	93.31
454.192	103.31
454.412	82.31
454.633	81.31
454.853	91.31
455.073	93.31
455.294	87.31
455.514	90.31
455.734	83.31
455.955	77.31
456.175	81.31
456.395	80.31
456.616	89.31
456.836	91.31
457.056	78.31
457.276	89.31
457.497	75.31
457.717	87.31
457.937	79.31
458.157	81.31
458.377	80.31
458.598	88.31
458.818	120.31
459.038	130.31
459.258	105.31
459.478	89.31
459.698	104.31
459.918	69.31
460.138	79.31
460.358	94.31
460.578	70.31
460.798	103.31
461.018	98.31
461.238	85.31
461.458	74.31
461.678	75.31
461.898	79.31
462.118	83.31
462.338	89.31
462.558	106.31
462.777	91.31
462.997	93.31
463.217	89.31
463.437	77.31
463.657	82.31
463.876	86.31
464.096	88.31
464.316	73.31
464.536	93.31
464.755	94.31
464.975	109.31
465.195	151.31
465.414	143.31
465.634	105.31
465.854	75.31
466.073	70.31
466.293	68.31
466.512	89.31
466.732	64.31
466.951	94.31
467.171	89.31
467.391	82.31
467.61	104.31
467.829	97.31
468.049	100.31
468.268	102.31
468.488	86.31
468.707	89.31
468.927	86.31
469.146	80.31
469.365	83.31
469.585	77.31
469.804	97.31
470.023	104.31
470.243	88.31
470.462	87.31
470.681	105.31
470.901	85.31
471.12	90.31
471.339	76.31
471.558	82.31
471.777	87.31
471.997	98.31
472.216	121.31
472.435	167.31
472.654	101.31
472.873	92.31
473.092	97.31
473.311	97.31
473.53	85.31
473.749	65.31
473.968	84.31
474.187	81.31
474.406	80.31
474.625	83.31
474.844	79.31
475.063	80.31
475.282	90.31
475.501	82.31
475.72	101.31
475.939	85.31
476.158	80.31
476.377	77.31
476.596	87.31
476.814	99.31
477.033	84.31
477.252	79.31
477.471	69.31
477.69	77.31
477.908	93.31
478.127	72.31
478.346	97.31
478.564	94.31
478.783	85.31
479.002	91.31
479.22	93.31
479.439	88.31
479.658	90.31
479.876	100.31
480.095	75.31
480.313	101.31
480.532	101.31
480.751	104.31
480.969	121.31
481.188	228.31
481.406	145.31
481.624	104.31
481.843	82.31
482.061	75.31
482.28	89.31
482.498	84.31
482.717	79.31
482.935	94.31
483.153	93.31
483.372	74.31
483.59	79.31
483.808	88.31
484.027	90.31
484.245	100.31
484.463	94.31
484.681	88.31
484.9	89.31
485.118	75.31
485.336	103.31
485.554	101.31
485.772	91.31
485.99	100.31
486.209	96.31
486.427	103.31
486.645	106.31
486.863	98.31
487.081	96.31
487.299	84.31
487.517	100.31
487.735	99.31
487.953	90.31
488.171	83.31
488.389	86.31
488.607	84.31
488.825	94.31
489.043	89.31
489.261	88.31
489.479	92.31
489.696	81.31
489.914	91.31
490.132	82.31
490.35	95.31
490.568	83.31
490.786	88.31
491.003	94.31
491.221	85.31
491.439	84.31
491.657	84.31
491.874	84.31
492.092	89.31
492.31	84.31
492.527	72.31
492.745	88.31
492.963	85.31
493.18	85.31
493.398	97.31
493.615	99.31
493.833	85.31
494.05	85.31
494.268	94.31
494.485	89.31
494.703	88.31
494.92	85.31
495.138	77.31
495.355	82.31
495.573	82.31
495.79	87.31
496.008	79.31
496.225	90.31
496.442	83.31
496.66	70.31
496.877	103.31
497.094	89.31
497.312	90.31
497.529	94.31
497.746	92.31
497.963	89.31
498.181	100.31
498.398	94.31
498.615	112.31
498.832	103.31
499.049	98.31
499.267	87.31
499.484	96.31
499.701	88.31
499.918	93.31
500.135	98.31
500.352	95.31
500.569	83.31
500.786	102.31
501.003	95.31
501.22	101.31
501.437	85.31
501.654	93.31
501.871	93.31
502.088	88.31
502.305	90.31
502.522	64.31
502.739	68.31
502.956	88.31
503.172	86.31
503.389	97.31
503.606	102.31
503.823	88.31
504.04	96.31
504.256	77.31
504.473	89.31
504.69	81.31
504.907	94.31
505.123	79.31
505.34	82.31
505.557	79.31
505.773	97.31
505.99	98.31
506.207	101.31
506.423	79.31
506.64	73.31
506.856	89.31
507.073	86.31
507.289	93.31
507.506	90.31
507.722	94.31
507.939	94.31
508.155	85.31
508.372	85.31
508.588	74.31
508.805	86.31
509.021	79.31
509.238	93.31
509.454	93.31
509.67	104.31
509.887	105.31
510.103	114.31
510.319	175.31
510.536	631.31
510.752	1939.31
510.968	557.31
511.184	157.31
511.401	117.31
511.617	101.31
511.833	93.31
512.049	82.31
512.265	84.31
512.481	90.31
512.698	88.31
512.914	85.31
513.13	95.31
513.346	93.31
513.562	83.31
513.778	97.31
513.994	88.31
514.21	88.31
514.426	103.31
514.642	111.31
514.858	111.31
515.074	152.31
515.29	351.31
515.506	1119.31
515.721	430.31
515.937	120.31
516.153	107.31
516.369	102.31
