Data from Circ_1984_H10_HRD10591_00034.txt Node
Date: Wed Jan 03 12:22:48 EST 2024
User: Yrep
Spectrometer: HR+D1059
Trigger mode: 1
Integration Time (sec): 1.000000E-1
Scans to average: 1
Electric dark correction enabled: true
Nonlinearity correction enabled: false
Boxcar width: 0
XAxis mode: Wavelengths
Number of Pixels in Spectrum: 2048
>>>>>Begin Spectral Data<<<<<
223.165	-15.12
223.4	-15.12
223.635	-15.12
223.869	-21.12
224.104	-11.12
224.338	-12.12
224.573	-24.12
224.808	-8.12
225.042	-3.12
225.277	-7.12
225.511	-4.12
225.746	13.88
225.98	13.88
226.215	5.88
226.449	10.88
226.683	10.88
226.918	21.88
227.152	28.88
227.387	35.88
227.621	33.88
227.856	38.88
228.09	50.88
228.324	57.88
228.559	67.88
228.793	67.88
229.027	51.88
229.262	64.88
229.496	61.88
229.73	66.88
229.964	92.88
230.199	79.88
230.433	71.88
230.667	88.88
230.901	83.88
231.136	76.88
231.37	87.88
231.604	75.88
231.838	71.88
232.072	71.88
232.306	82.88
232.541	95.88
232.775	84.88
233.009	89.88
233.243	85.88
233.477	90.88
233.711	89.88
233.945	86.88
234.179	87.88
234.413	75.88
234.647	83.88
234.881	89.88
235.115	69.88
235.349	75.88
235.583	73.88
235.817	86.88
236.051	60.88
236.285	69.88
236.519	81.88
236.753	79.88
236.987	75.88
237.221	90.88
237.455	98.88
237.689	76.88
237.922	79.88
238.156	78.88
238.39	75.88
238.624	73.88
238.858	74.88
239.091	85.88
239.325	79.88
239.559	83.88
239.793	82.88
240.027	83.88
240.26	85.88
240.494	79.88
240.728	76.88
240.961	83.88
241.195	87.88
241.429	90.88
241.662	79.88
241.896	72.88
242.13	76.88
242.363	64.88
242.597	76.88
242.83	89.88
243.064	65.88
243.298	80.88
243.531	90.88
243.765	83.88
243.998	67.88
244.232	84.88
244.465	76.88
244.699	89.88
244.932	76.88
245.166	77.88
245.399	84.88
245.633	77.88
245.866	79.88
246.099	73.88
246.333	77.88
246.566	95.88
246.8	69.88
247.033	63.88
247.266	71.88
247.5	78.88
247.733	87.88
247.966	83.88
248.2	78.88
248.433	77.88
248.666	85.88
248.899	76.88
249.133	88.88
249.366	93.88
249.599	86.88
249.832	76.88
250.066	87.88
250.299	77.88
250.532	87.88
250.765	91.88
250.998	72.88
251.231	68.88
251.465	79.88
251.698	91.88
251.931	82.88
252.164	75.88
252.397	68.88
252.63	65.88
252.863	100.88
253.096	73.88
253.329	91.88
253.562	81.88
253.795	83.88
254.028	70.88
254.261	72.88
254.494	66.88
254.727	77.88
254.96	84.88
255.193	82.88
255.426	68.88
255.659	76.88
255.892	74.88
256.124	77.88
256.357	84.88
256.59	81.88
256.823	90.88
257.056	75.88
257.289	66.88
257.521	91.88
257.754	84.88
257.987	78.88
258.22	77.88
258.452	83.88
258.685	65.88
258.918	86.88
259.151	88.88
259.383	85.88
259.616	76.88
259.849	72.88
260.081	83.88
260.314	82.88
260.547	82.88
260.779	80.88
261.012	93.88
261.244	83.88
261.477	81.88
261.71	93.88
261.942	95.88
262.175	104.88
262.407	88.88
262.64	89.88
262.872	80.88
263.105	75.88
263.337	86.88
263.57	70.88
263.802	74.88
264.035	86.88
264.267	79.88
264.499	72.88
264.732	90.88
264.964	76.88
265.197	74.88
265.429	103.88
265.661	81.88
265.894	76.88
266.126	95.88
266.358	66.88
266.591	71.88
266.823	72.88
267.055	99.88
267.287	81.88
267.52	94.88
267.752	88.88
267.984	91.88
268.216	76.88
268.448	97.88
268.681	76.88
268.913	90.88
269.145	89.88
269.377	84.88
269.609	81.88
269.841	75.88
270.073	97.88
270.306	83.88
270.538	85.88
270.77	80.88
271.002	80.88
271.234	60.88
271.466	81.88
271.698	82.88
271.93	76.88
272.162	88.88
272.394	74.88
272.626	92.88
272.858	74.88
273.09	89.88
273.322	74.88
273.553	81.88
273.785	95.88
274.017	84.88
274.249	80.88
274.481	96.88
274.713	78.88
274.945	94.88
275.176	75.88
275.408	80.88
275.64	99.88
275.872	94.88
276.104	84.88
276.335	88.88
276.567	98.88
276.799	95.88
277.031	93.88
277.262	89.88
277.494	94.88
277.726	85.88
277.957	83.88
278.189	89.88
278.421	74.88
278.652	84.88
278.884	96.88
279.115	94.88
279.347	91.88
279.579	89.88
279.81	82.88
280.042	89.88
280.273	109.88
280.505	98.88
280.736	75.88
280.968	76.88
281.199	82.88
281.431	75.88
281.662	88.88
281.894	89.88
282.125	106.88
282.356	113.88
282.588	118.88
282.819	111.88
283.051	82.88
283.282	91.88
283.513	89.88
283.745	88.88
283.976	59.88
284.207	75.88
284.439	92.88
284.67	76.88
284.901	83.88
285.132	85.88
285.364	84.88
285.595	75.88
285.826	93.88
286.057	92.88
286.288	81.88
286.52	93.88
286.751	83.88
286.982	90.88
287.213	76.88
287.444	94.88
287.675	96.88
287.906	89.88
288.138	77.88
288.369	89.88
288.6	98.88
288.831	87.88
289.062	99.88
289.293	81.88
289.524	92.88
289.755	86.88
289.986	90.88
290.217	73.88
290.448	93.88
290.679	101.88
290.91	99.88
291.141	81.88
291.371	95.88
291.602	73.88
291.833	80.88
292.064	95.88
292.295	76.88
292.526	100.88
292.757	99.88
292.987	89.88
293.218	95.88
293.449	99.88
293.68	94.88
293.91	75.88
294.141	99.88
294.372	96.88
294.603	83.88
294.833	76.88
295.064	92.88
295.295	90.88
295.525	89.88
295.756	93.88
295.987	110.88
296.217	125.88
296.448	117.88
296.679	88.88
296.909	91.88
297.14	71.88
297.37	88.88
297.601	91.88
297.831	84.88
298.062	83.88
298.292	98.88
298.523	96.88
298.753	93.88
298.984	100.88
299.214	102.88
299.445	82.88
299.675	83.88
299.905	88.88
300.136	101.88
300.366	97.88
300.597	90.88
300.827	79.88
301.057	101.88
301.288	109.88
301.518	101.88
301.748	85.88
301.979	104.88
302.209	77.88
302.439	88.88
302.669	104.88
302.9	107.88
303.13	85.88
303.36	106.88
303.59	103.88
303.82	113.88
304.051	85.88
304.281	85.88
304.511	103.88
304.741	104.88
304.971	97.88
305.201	85.88
305.431	98.88
305.661	99.88
305.891	92.88
306.121	71.88
306.352	112.88
306.582	106.88
306.812	98.88
307.042	89.88
307.272	87.88
307.502	94.88
307.731	91.88
307.961	93.88
308.191	86.88
308.421	94.88
308.651	83.88
308.881	102.88
309.111	90.88
309.341	99.88
309.571	107.88
309.8	92.88
310.03	99.88
310.26	102.88
310.49	85.88
310.72	108.88
310.949	97.88
311.179	98.88
311.409	85.88
311.639	87.88
311.868	75.88
312.098	92.88
312.328	95.88
312.557	93.88
312.787	107.88
313.017	113.88
313.246	88.88
313.476	98.88
313.706	94.88
313.935	89.88
314.165	100.88
314.394	98.88
314.624	104.88
314.853	83.88
315.083	92.88
315.312	82.88
315.542	84.88
315.771	110.88
316.001	90.88
316.23	97.88
316.46	81.88
316.689	89.88
316.919	87.88
317.148	104.88
317.377	88.88
317.607	96.88
317.836	93.88
318.065	87.88
318.295	88.88
318.524	104.88
318.753	94.88
318.983	87.88
319.212	93.88
319.441	101.88
319.67	104.88
319.9	88.88
320.129	92.88
320.358	88.88
320.587	93.88
320.816	86.88
321.046	99.88
321.275	81.88
321.504	85.88
321.733	95.88
321.962	95.88
322.191	89.88
322.42	89.88
322.649	103.88
322.878	109.88
323.108	122.88
323.337	113.88
323.566	112.88
323.795	121.88
324.024	159.88
324.253	304.88
324.482	661.88
324.71	1333.88
324.939	1818.88
325.168	690.88
325.397	202.88
325.626	136.88
325.855	112.88
326.084	113.88
326.313	124.88
326.542	147.88
326.77	199.88
326.999	383.88
327.228	747.88
327.457	1377.88
327.686	1103.88
327.914	311.88
328.143	184.88
328.372	169.88
328.6	132.88
328.829	107.88
329.058	112.88
329.287	120.88
329.515	103.88
329.744	120.88
329.972	124.88
330.201	168.88
330.43	203.88
330.658	148.88
330.887	127.88
331.115	123.88
331.344	105.88
331.572	100.88
331.801	103.88
332.03	93.88
332.258	92.88
332.486	96.88
332.715	102.88
332.943	93.88
333.172	87.88
333.4	93.88
333.629	87.88
333.857	106.88
334.085	117.88
334.314	167.88
334.542	251.88
334.771	236.88
334.999	125.88
335.227	112.88
335.455	98.88
335.684	94.88
335.912	94.88
336.14	100.88
336.369	100.88
336.597	102.88
336.825	93.88
337.053	97.88
337.281	96.88
337.51	94.88
337.738	93.88
337.966	92.88
338.194	101.88
338.422	101.88
338.65	102.88
338.878	99.88
339.106	90.88
339.334	93.88
339.562	81.88
339.79	79.88
340.018	106.88
340.246	82.88
340.474	106.88
340.702	105.88
340.93	91.88
341.158	81.88
341.386	95.88
341.614	91.88
341.842	84.88
342.07	90.88
342.298	100.88
342.526	87.88
342.754	87.88
342.981	85.88
343.209	86.88
343.437	114.88
343.665	92.88
343.893	81.88
344.12	99.88
344.348	90.88
344.576	83.88
344.804	74.88
345.031	91.88
345.259	91.88
345.487	82.88
345.714	98.88
345.942	98.88
346.17	94.88
346.397	89.88
346.625	93.88
346.853	87.88
347.08	100.88
347.308	90.88
347.535	104.88
347.763	100.88
347.99	99.88
348.218	99.88
348.445	95.88
348.673	88.88
348.9	100.88
349.128	89.88
349.355	99.88
349.583	99.88
349.81	104.88
350.037	106.88
350.265	99.88
350.492	93.88
350.72	97.88
350.947	100.88
351.174	99.88
351.402	100.88
351.629	97.88
351.856	100.88
352.083	97.88
352.311	103.88
352.538	104.88
352.765	113.88
352.992	122.88
353.22	127.88
353.447	96.88
353.674	99.88
353.901	102.88
354.128	97.88
354.355	98.88
354.583	100.88
354.81	102.88
355.037	96.88
355.264	97.88
355.491	92.88
355.718	91.88
355.945	89.88
356.172	93.88
356.399	88.88
356.626	87.88
356.853	91.88
357.08	94.88
357.307	104.88
357.534	88.88
357.761	83.88
357.988	96.88
358.215	93.88
358.441	101.88
358.668	105.88
358.895	81.88
359.122	85.88
359.349	94.88
359.576	85.88
359.802	85.88
360.029	111.88
360.256	93.88
360.483	92.88
360.709	88.88
360.936	103.88
361.163	84.88
361.39	92.88
361.616	84.88
361.843	82.88
362.07	87.88
362.296	103.88
362.523	97.88
362.749	98.88
362.976	91.88
363.203	91.88
363.429	84.88
363.656	98.88
363.882	85.88
364.109	97.88
364.335	90.88
364.562	97.88
364.788	88.88
365.015	91.88
365.241	99.88
365.468	106.88
365.694	95.88
365.92	75.88
366.147	85.88
366.373	88.88
366.599	88.88
366.826	76.88
367.052	84.88
367.278	91.88
367.505	91.88
367.731	91.88
367.957	87.88
368.184	89.88
368.41	97.88
368.636	109.88
368.862	116.88
369.089	100.88
369.315	92.88
369.541	91.88
369.767	89.88
369.993	83.88
370.219	90.88
370.445	91.88
370.672	106.88
370.898	88.88
371.124	84.88
371.35	91.88
371.576	94.88
371.802	89.88
372.028	91.88
372.254	87.88
372.48	89.88
372.706	86.88
372.932	85.88
373.158	91.88
373.384	95.88
373.61	91.88
373.835	87.88
374.061	87.88
374.287	72.88
374.513	97.88
374.739	80.88
374.965	74.88
375.191	102.88
375.416	89.88
375.642	95.88
375.868	102.88
376.094	86.88
376.319	89.88
376.545	98.88
376.771	94.88
376.997	88.88
377.222	79.88
377.448	79.88
377.674	99.88
377.899	107.88
378.125	81.88
378.35	82.88
378.576	103.88
378.802	87.88
379.027	99.88
379.253	101.88
379.478	87.88
379.704	97.88
379.929	101.88
380.155	110.88
380.38	93.88
380.606	99.88
380.831	99.88
381.057	97.88
381.282	89.88
381.507	101.88
381.733	106.88
381.958	111.88
382.184	98.88
382.409	93.88
382.634	119.88
382.86	106.88
383.085	100.88
383.31	115.88
383.535	95.88
383.761	87.88
383.986	109.88
384.211	109.88
384.436	109.88
384.662	104.88
384.887	117.88
385.112	102.88
385.337	106.88
385.562	101.88
385.787	95.88
386.013	103.88
386.238	116.88
386.463	109.88
386.688	90.88
386.913	117.88
387.138	109.88
387.363	98.88
387.588	106.88
387.813	89.88
388.038	87.88
388.263	103.88
388.488	104.88
388.713	92.88
388.938	94.88
389.163	97.88
389.387	99.88
389.612	89.88
389.837	88.88
390.062	92.88
390.287	90.88
390.512	98.88
390.736	85.88
390.961	99.88
391.186	89.88
391.411	80.88
391.636	108.88
391.86	87.88
392.085	71.88
392.31	94.88
392.534	91.88
392.759	90.88
392.984	89.88
393.208	89.88
393.433	103.88
393.658	89.88
393.882	71.88
394.107	77.88
394.331	93.88
394.556	103.88
394.78	87.88
395.005	114.88
395.229	86.88
395.454	92.88
395.678	80.88
395.903	93.88
396.127	87.88
396.352	83.88
396.576	81.88
396.801	83.88
397.025	100.88
397.249	82.88
397.474	79.88
397.698	87.88
397.922	72.88
398.147	89.88
398.371	95.88
398.595	97.88
398.82	90.88
399.044	87.88
399.268	96.88
399.492	87.88
399.717	83.88
399.941	93.88
400.165	87.88
400.389	102.88
400.613	97.88
400.837	90.88
401.062	92.88
401.286	88.88
401.51	80.88
401.734	85.88
401.958	100.88
402.182	108.88
402.406	132.88
402.63	109.88
402.854	98.88
403.078	92.88
403.302	95.88
403.526	67.88
403.75	86.88
403.974	89.88
404.198	85.88
404.422	87.88
404.645	90.88
404.869	85.88
405.093	109.88
405.317	98.88
405.541	89.88
405.765	95.88
405.988	96.88
406.212	150.88
406.436	200.88
406.66	135.88
406.883	88.88
407.107	80.88
407.331	88.88
407.555	108.88
407.778	85.88
408.002	77.88
408.226	103.88
408.449	95.88
408.673	104.88
408.896	97.88
409.12	86.88
409.344	80.88
409.567	95.88
409.791	71.88
410.014	88.88
410.238	106.88
410.461	89.88
410.685	85.88
410.908	79.88
411.132	95.88
411.355	108.88
411.578	90.88
411.802	91.88
412.025	78.88
412.249	97.88
412.472	87.88
412.695	105.88
412.919	105.88
413.142	91.88
413.365	82.88
413.589	97.88
413.812	102.88
414.035	99.88
414.258	93.88
414.482	85.88
414.705	93.88
414.928	89.88
415.151	94.88
415.374	89.88
415.597	94.88
415.821	91.88
416.044	82.88
416.267	94.88
416.49	87.88
416.713	91.88
416.936	99.88
417.159	88.88
417.382	102.88
417.605	84.88
417.828	84.88
418.051	88.88
418.274	93.88
418.497	97.88
418.72	68.88
418.943	95.88
419.166	92.88
419.389	103.88
419.611	83.88
419.834	87.88
420.057	80.88
420.28	92.88
420.503	90.88
420.726	88.88
420.948	76.88
421.171	99.88
421.394	90.88
421.617	85.88
421.839	78.88
422.062	90.88
422.285	83.88
422.507	101.88
422.73	104.88
422.953	94.88
423.175	80.88
423.398	87.88
423.621	97.88
423.843	83.88
424.066	93.88
424.288	92.88
424.511	88.88
424.733	98.88
424.956	109.88
425.178	92.88
425.401	111.88
425.623	89.88
425.846	97.88
426.068	83.88
426.291	86.88
426.513	87.88
426.735	98.88
426.958	91.88
427.18	116.88
427.402	112.88
427.625	144.88
427.847	124.88
428.069	107.88
428.292	75.88
428.514	89.88
428.736	83.88
428.958	90.88
429.181	87.88
429.403	81.88
429.625	104.88
429.847	87.88
430.069	110.88
430.292	106.88
430.514	83.88
430.736	66.88
430.958	81.88
431.18	84.88
431.402	89.88
431.624	83.88
431.846	70.88
432.068	79.88
432.29	84.88
432.512	89.88
432.734	87.88
432.956	105.88
433.178	99.88
433.4	96.88
433.622	99.88
433.844	96.88
434.066	82.88
434.287	77.88
434.509	85.88
434.731	81.88
434.953	96.88
435.175	86.88
435.397	99.88
435.618	84.88
435.84	84.88
436.062	103.88
436.284	106.88
436.505	89.88
436.727	101.88
436.949	87.88
437.17	86.88
437.392	97.88
437.614	89.88
437.835	103.88
438.057	106.88
438.278	118.88
438.5	96.88
438.721	106.88
438.943	93.88
439.165	93.88
439.386	84.88
439.608	99.88
439.829	96.88
440.05	108.88
440.272	131.88
440.493	98.88
440.715	84.88
440.936	102.88
441.158	77.88
441.379	89.88
441.6	97.88
441.822	106.88
442.043	81.88
442.264	105.88
442.486	100.88
442.707	97.88
442.928	104.88
443.149	120.88
443.371	117.88
443.592	104.88
443.813	115.88
444.034	116.88
444.255	100.88
444.476	93.88
444.698	74.88
444.919	85.88
445.14	148.88
445.361	121.88
445.582	110.88
445.803	125.88
446.024	115.88
446.245	122.88
446.466	108.88
446.687	109.88
446.908	89.88
447.129	88.88
447.35	98.88
447.571	90.88
447.792	94.88
448.013	88.88
448.234	105.88
448.455	99.88
448.675	86.88
448.896	104.88
449.117	106.88
449.338	87.88
449.559	106.88
449.779	120.88
450	75.88
450.221	96.88
450.442	93.88
450.662	80.88
450.883	114.88
451.104	100.88
451.324	97.88
451.545	85.88
451.766	89.88
451.986	91.88
452.207	93.88
452.428	77.88
452.648	89.88
452.869	86.88
453.089	96.88
453.31	99.88
453.53	86.88
453.751	81.88
453.971	85.88
454.192	98.88
454.412	90.88
454.633	92.88
454.853	83.88
455.073	84.88
455.294	83.88
455.514	92.88
455.734	85.88
455.955	86.88
456.175	76.88
456.395	93.88
456.616	90.88
456.836	98.88
457.056	88.88
457.276	76.88
457.497	84.88
457.717	95.88
457.937	97.88
458.157	89.88
458.377	96.88
458.598	98.88
458.818	130.88
459.038	136.88
459.258	99.88
459.478	85.88
459.698	87.88
459.918	85.88
460.138	89.88
460.358	80.88
460.578	96.88
460.798	86.88
461.018	87.88
461.238	78.88
461.458	101.88
461.678	85.88
461.898	76.88
462.118	80.88
462.338	83.88
462.558	91.88
462.777	89.88
462.997	93.88
463.217	96.88
463.437	88.88
463.657	85.88
463.876	101.88
464.096	71.88
464.316	90.88
464.536	95.88
464.755	97.88
464.975	118.88
465.195	140.88
465.414	137.88
465.634	108.88
465.854	99.88
466.073	81.88
466.293	89.88
466.512	85.88
466.732	91.88
466.951	91.88
467.171	92.88
467.391	102.88
467.61	110.88
467.829	98.88
468.049	122.88
468.268	136.88
468.488	86.88
468.707	80.88
468.927	95.88
469.146	83.88
469.365	87.88
469.585	88.88
469.804	86.88
470.023	83.88
470.243	86.88
470.462	100.88
470.681	102.88
470.901	91.88
471.12	107.88
471.339	89.88
471.558	93.88
471.777	104.88
471.997	104.88
472.216	194.88
472.435	301.88
472.654	136.88
472.873	80.88
473.092	85.88
473.311	94.88
473.53	70.88
473.749	83.88
473.968	103.88
474.187	93.88
474.406	105.88
474.625	88.88
474.844	90.88
475.063	89.88
475.282	99.88
475.501	71.88
475.72	89.88
475.939	96.88
476.158	105.88
476.377	96.88
476.596	98.88
476.814	91.88
477.033	86.88
477.252	88.88
477.471	95.88
477.69	97.88
477.908	87.88
478.127	88.88
478.346	92.88
478.564	74.88
478.783	89.88
479.002	90.88
479.22	95.88
479.439	107.88
479.658	86.88
479.876	96.88
480.095	104.88
480.313	101.88
480.532	115.88
480.751	118.88
480.969	193.88
481.188	499.88
481.406	319.88
481.624	123.88
481.843	98.88
482.061	87.88
482.28	90.88
482.498	83.88
482.717	83.88
482.935	94.88
483.153	74.88
483.372	72.88
483.59	89.88
483.808	86.88
484.027	97.88
484.245	81.88
484.463	88.88
484.681	98.88
484.9	101.88
485.118	93.88
485.336	91.88
485.554	94.88
485.772	105.88
485.99	112.88
486.209	104.88
486.427	103.88
486.645	106.88
486.863	116.88
487.081	98.88
487.299	87.88
487.517	100.88
487.735	109.88
487.953	99.88
488.171	93.88
488.389	89.88
488.607	99.88
488.825	93.88
489.043	95.88
489.261	85.88
489.479	96.88
489.696	96.88
489.914	80.88
490.132	92.88
490.35	72.88
490.568	97.88
490.786	85.88
491.003	86.88
491.221	79.88
491.439	100.88
491.657	104.88
491.874	91.88
492.092	72.88
492.31	81.88
492.527	81.88
492.745	85.88
492.963	89.88
493.18	89.88
493.398	83.88
493.615	96.88
493.833	88.88
494.05	90.88
494.268	84.88
494.485	79.88
494.703	83.88
494.92	83.88
495.138	97.88
495.355	95.88
495.573	100.88
495.79	77.88
496.008	104.88
496.225	77.88
496.442	83.88
496.66	104.88
496.877	113.88
497.094	91.88
497.312	84.88
497.529	86.88
497.746	92.88
497.963	92.88
498.181	87.88
498.398	97.88
498.615	98.88
498.832	107.88
499.049	90.88
499.267	84.88
499.484	93.88
499.701	83.88
499.918	92.88
500.135	82.88
500.352	104.88
500.569	85.88
500.786	91.88
501.003	82.88
501.22	104.88
501.437	98.88
501.654	95.88
501.871	103.88
502.088	88.88
502.305	84.88
502.522	83.88
502.739	92.88
502.956	81.88
503.172	86.88
503.389	96.88
503.606	105.88
503.823	93.88
504.04	95.88
504.256	84.88
504.473	88.88
504.69	95.88
504.907	87.88
505.123	97.88
505.34	97.88
505.557	85.88
505.773	89.88
505.99	91.88
506.207	88.88
506.423	91.88
506.64	84.88
506.856	90.88
507.073	92.88
507.289	94.88
507.506	107.88
507.722	102.88
507.939	104.88
508.155	95.88
508.372	87.88
508.588	90.88
508.805	90.88
509.021	97.88
509.238	93.88
509.454	95.88
509.67	93.88
509.887	117.88
510.103	135.88
510.319	184.88
510.536	617.88
510.752	1928.88
510.968	537.88
511.184	143.88
511.401	96.88
511.617	103.88
511.833	92.88
512.049	100.88
512.265	78.88
512.481	106.88
512.698	89.88
512.914	112.88
513.13	100.88
513.346	92.88
513.562	106.88
513.778	97.88
513.994	97.88
514.21	96.88
514.426	120.88
514.642	124.88
514.858	109.88
515.074	133.88
515.29	363.88
515.506	1140.88
515.721	436.88
