Data from Circ_1984_H10_HRD10591_00009.txt Node
Date: Wed Jan 03 12:22:43 EST 2024
User: Yrep
Spectrometer: HR+D1059
Trigger mode: 1
Integration Time (sec): 1.000000E-1
Scans to average: 1
Electric dark correction enabled: true
Nonlinearity correction enabled: false
Boxcar width: 0
XAxis mode: Wavelengths
Number of Pixels in Spectrum: 2048
>>>>>Begin Spectral Data<<<<<
223.165	-14.88
223.4	-14.88
223.635	-14.88
223.869	-9.88
224.104	-13.88
224.338	-7.88
224.573	-28.88
224.808	-15.88
225.042	1.12
225.277	-11.88
225.511	-6.88
225.746	6.12
225.98	-0.88
226.215	22.12
226.449	6.12
226.683	29.12
226.918	18.12
227.152	28.12
227.387	38.12
227.621	59.12
227.856	49.12
228.09	45.12
228.324	43.12
228.559	65.12
228.793	58.12
229.027	57.12
229.262	58.12
229.496	67.12
229.73	78.12
229.964	78.12
230.199	77.12
230.433	87.12
230.667	86.12
230.901	74.12
231.136	74.12
231.37	80.12
231.604	67.12
231.838	77.12
232.072	89.12
232.306	93.12
232.541	72.12
232.775	83.12
233.009	70.12
233.243	79.12
233.477	71.12
233.711	67.12
233.945	77.12
234.179	85.12
234.413	85.12
234.647	81.12
234.881	77.12
235.115	72.12
235.349	76.12
235.583	73.12
235.817	78.12
236.051	72.12
236.285	77.12
236.519	62.12
236.753	90.12
236.987	77.12
237.221	78.12
237.455	83.12
237.689	75.12
237.922	91.12
238.156	83.12
238.39	80.12
238.624	64.12
238.858	73.12
239.091	88.12
239.325	66.12
239.559	95.12
239.793	80.12
240.027	74.12
240.26	83.12
240.494	72.12
240.728	66.12
240.961	78.12
241.195	83.12
241.429	67.12
241.662	69.12
241.896	72.12
242.13	75.12
242.363	78.12
242.597	81.12
242.83	78.12
243.064	85.12
243.298	75.12
243.531	69.12
243.765	74.12
243.998	73.12
244.232	92.12
244.465	74.12
244.699	65.12
244.932	69.12
245.166	72.12
245.399	71.12
245.633	62.12
245.866	75.12
246.099	80.12
246.333	78.12
246.566	71.12
246.8	69.12
247.033	65.12
247.266	72.12
247.5	85.12
247.733	89.12
247.966	81.12
248.2	67.12
248.433	74.12
248.666	85.12
248.899	85.12
249.133	85.12
249.366	95.12
249.599	87.12
249.832	88.12
250.066	87.12
250.299	93.12
250.532	79.12
250.765	78.12
250.998	89.12
251.231	76.12
251.465	69.12
251.698	70.12
251.931	87.12
252.164	89.12
252.397	90.12
252.63	74.12
252.863	85.12
253.096	81.12
253.329	74.12
253.562	88.12
253.795	77.12
254.028	81.12
254.261	91.12
254.494	88.12
254.727	83.12
254.96	85.12
255.193	78.12
255.426	87.12
255.659	66.12
255.892	85.12
256.124	74.12
256.357	85.12
256.59	79.12
256.823	93.12
257.056	58.12
257.289	74.12
257.521	61.12
257.754	93.12
257.987	80.12
258.22	86.12
258.452	94.12
258.685	74.12
258.918	86.12
259.151	79.12
259.383	84.12
259.616	85.12
259.849	90.12
260.081	75.12
260.314	94.12
260.547	87.12
260.779	87.12
261.012	94.12
261.244	87.12
261.477	79.12
261.71	86.12
261.942	95.12
262.175	119.12
262.407	86.12
262.64	86.12
262.872	76.12
263.105	77.12
263.337	85.12
263.57	80.12
263.802	83.12
264.035	78.12
264.267	88.12
264.499	80.12
264.732	88.12
264.964	91.12
265.197	90.12
265.429	62.12
265.661	80.12
265.894	80.12
266.126	75.12
266.358	79.12
266.591	83.12
266.823	81.12
267.055	78.12
267.287	93.12
267.52	75.12
267.752	85.12
267.984	86.12
268.216	87.12
268.448	97.12
268.681	91.12
268.913	89.12
269.145	72.12
269.377	81.12
269.609	91.12
269.841	93.12
270.073	83.12
270.306	87.12
270.538	93.12
270.77	89.12
271.002	85.12
271.234	83.12
271.466	83.12
271.698	95.12
271.93	91.12
272.162	72.12
272.394	84.12
272.626	84.12
272.858	86.12
273.09	73.12
273.322	83.12
273.553	81.12
273.785	87.12
274.017	86.12
274.249	83.12
274.481	79.12
274.713	93.12
274.945	77.12
275.176	86.12
275.408	83.12
275.64	83.12
275.872	64.12
276.104	89.12
276.335	87.12
276.567	96.12
276.799	112.12
277.031	87.12
277.262	91.12
277.494	87.12
277.726	87.12
277.957	98.12
278.189	71.12
278.421	78.12
278.652	78.12
278.884	79.12
279.115	87.12
279.347	87.12
279.579	75.12
279.81	79.12
280.042	86.12
280.273	73.12
280.505	91.12
280.736	95.12
280.968	88.12
281.199	88.12
281.431	69.12
281.662	89.12
281.894	90.12
282.125	95.12
282.356	108.12
282.588	128.12
282.819	101.12
283.051	101.12
283.282	82.12
283.513	98.12
283.745	82.12
283.976	86.12
284.207	79.12
284.439	101.12
284.67	77.12
284.901	72.12
285.132	73.12
285.364	91.12
285.595	87.12
285.826	89.12
286.057	91.12
286.288	78.12
286.52	78.12
286.751	84.12
286.982	89.12
287.213	79.12
287.444	85.12
287.675	83.12
287.906	93.12
288.138	81.12
288.369	89.12
288.6	93.12
288.831	86.12
289.062	87.12
289.293	74.12
289.524	70.12
289.755	89.12
289.986	89.12
290.217	81.12
290.448	82.12
290.679	63.12
290.91	92.12
291.141	91.12
291.371	78.12
291.602	94.12
291.833	94.12
292.064	93.12
292.295	89.12
292.526	78.12
292.757	98.12
292.987	92.12
293.218	96.12
293.449	90.12
293.68	91.12
293.91	90.12
294.141	88.12
294.372	84.12
294.603	95.12
294.833	85.12
295.064	74.12
295.295	79.12
295.525	97.12
295.756	99.12
295.987	115.12
296.217	128.12
296.448	97.12
296.679	90.12
296.909	77.12
297.14	93.12
297.37	90.12
297.601	85.12
297.831	80.12
298.062	80.12
298.292	83.12
298.523	92.12
298.753	83.12
298.984	70.12
299.214	90.12
299.445	81.12
299.675	86.12
299.905	95.12
300.136	79.12
300.366	82.12
300.597	79.12
300.827	89.12
301.057	94.12
301.288	89.12
301.518	98.12
301.748	90.12
301.979	108.12
302.209	90.12
302.439	103.12
302.669	80.12
302.9	97.12
303.13	88.12
303.36	87.12
303.59	96.12
303.82	99.12
304.051	99.12
304.281	90.12
304.511	89.12
304.741	94.12
304.971	97.12
305.201	102.12
305.431	83.12
305.661	92.12
305.891	95.12
306.121	81.12
306.352	86.12
306.582	104.12
306.812	91.12
307.042	88.12
307.272	97.12
307.502	87.12
307.731	108.12
307.961	113.12
308.191	87.12
308.421	94.12
308.651	93.12
308.881	93.12
309.111	106.12
309.341	91.12
309.571	98.12
309.8	82.12
310.03	101.12
310.26	98.12
310.49	104.12
310.72	90.12
310.949	86.12
311.179	101.12
311.409	96.12
311.639	95.12
311.868	96.12
312.098	109.12
312.328	89.12
312.557	105.12
312.787	104.12
313.017	95.12
313.246	104.12
313.476	94.12
313.706	86.12
313.935	94.12
314.165	97.12
314.394	69.12
314.624	79.12
314.853	86.12
315.083	90.12
315.312	84.12
315.542	88.12
315.771	103.12
316.001	95.12
316.23	79.12
316.46	95.12
316.689	101.12
316.919	87.12
317.148	92.12
317.377	87.12
317.607	98.12
317.836	93.12
318.065	83.12
318.295	72.12
318.524	87.12
318.753	80.12
318.983	92.12
319.212	86.12
319.441	106.12
319.67	101.12
319.9	88.12
320.129	85.12
320.358	93.12
320.587	97.12
320.816	105.12
321.046	96.12
321.275	107.12
321.504	94.12
321.733	97.12
321.962	89.12
322.191	98.12
322.42	91.12
322.649	104.12
322.878	119.12
323.108	116.12
323.337	105.12
323.566	122.12
323.795	129.12
324.024	176.12
324.253	328.12
324.482	663.12
324.71	1361.12
324.939	1881.12
325.168	688.12
325.397	209.12
325.626	128.12
325.855	128.12
326.084	134.12
326.313	111.12
326.542	129.12
326.77	200.12
326.999	351.12
327.228	781.12
327.457	1384.12
327.686	1125.12
327.914	323.12
328.143	186.12
328.372	167.12
328.6	118.12
328.829	108.12
329.058	120.12
329.287	125.12
329.515	118.12
329.744	104.12
329.972	124.12
330.201	134.12
330.43	134.12
330.658	123.12
330.887	117.12
331.115	114.12
331.344	103.12
331.572	103.12
331.801	117.12
332.03	103.12
332.258	104.12
332.486	94.12
332.715	86.12
332.943	90.12
333.172	88.12
333.4	105.12
333.629	92.12
333.857	103.12
334.085	116.12
334.314	118.12
334.542	148.12
334.771	160.12
334.999	99.12
335.227	89.12
335.455	107.12
335.684	106.12
335.912	97.12
336.14	99.12
336.369	99.12
336.597	105.12
336.825	98.12
337.053	94.12
337.281	87.12
337.51	89.12
337.738	93.12
337.966	91.12
338.194	93.12
338.422	89.12
338.65	88.12
338.878	92.12
339.106	95.12
339.334	85.12
339.562	86.12
339.79	96.12
340.018	85.12
340.246	97.12
340.474	88.12
340.702	84.12
340.93	82.12
341.158	85.12
341.386	98.12
341.614	96.12
341.842	97.12
342.07	77.12
342.298	86.12
342.526	79.12
342.754	98.12
342.981	73.12
343.209	86.12
343.437	92.12
343.665	99.12
343.893	91.12
344.12	80.12
344.348	80.12
344.576	86.12
344.804	84.12
345.031	79.12
345.259	94.12
345.487	91.12
345.714	84.12
345.942	101.12
346.17	90.12
346.397	91.12
346.625	91.12
346.853	82.12
347.08	71.12
347.308	97.12
347.535	86.12
347.763	95.12
347.99	102.12
348.218	105.12
348.445	96.12
348.673	89.12
348.9	104.12
349.128	98.12
349.355	80.12
349.583	97.12
349.81	102.12
350.037	97.12
350.265	94.12
350.492	89.12
350.72	86.12
350.947	92.12
351.174	93.12
351.402	109.12
351.629	116.12
351.856	91.12
352.083	95.12
352.311	110.12
352.538	106.12
352.765	114.12
352.992	111.12
353.22	103.12
353.447	93.12
353.674	85.12
353.901	102.12
354.128	95.12
354.355	85.12
354.583	103.12
354.81	108.12
355.037	99.12
355.264	85.12
355.491	101.12
355.718	85.12
355.945	99.12
356.172	81.12
356.399	92.12
356.626	90.12
356.853	95.12
357.08	105.12
357.307	86.12
357.534	93.12
357.761	89.12
357.988	95.12
358.215	102.12
358.441	102.12
358.668	98.12
358.895	89.12
359.122	95.12
359.349	100.12
359.576	98.12
359.802	104.12
360.029	96.12
360.256	103.12
360.483	98.12
360.709	86.12
360.936	73.12
361.163	88.12
361.39	106.12
361.616	93.12
361.843	95.12
362.07	93.12
362.296	97.12
362.523	86.12
362.749	85.12
362.976	87.12
363.203	84.12
363.429	75.12
363.656	91.12
363.882	83.12
364.109	87.12
364.335	69.12
364.562	97.12
364.788	91.12
365.015	85.12
365.241	106.12
365.468	115.12
365.694	94.12
365.92	93.12
366.147	86.12
366.373	85.12
366.599	85.12
366.826	85.12
367.052	78.12
367.278	79.12
367.505	94.12
367.731	97.12
367.957	87.12
368.184	86.12
368.41	86.12
368.636	100.12
368.862	113.12
369.089	95.12
369.315	90.12
369.541	75.12
369.767	93.12
369.993	79.12
370.219	83.12
370.445	90.12
370.672	83.12
370.898	86.12
371.124	82.12
371.35	76.12
371.576	98.12
371.802	90.12
372.028	85.12
372.254	80.12
372.48	74.12
372.706	77.12
372.932	87.12
373.158	85.12
373.384	80.12
373.61	87.12
373.835	79.12
374.061	88.12
374.287	95.12
374.513	93.12
374.739	83.12
374.965	90.12
375.191	82.12
375.416	89.12
375.642	79.12
375.868	92.12
376.094	89.12
376.319	102.12
376.545	81.12
376.771	77.12
376.997	88.12
377.222	99.12
377.448	101.12
377.674	77.12
377.899	69.12
378.125	91.12
378.35	102.12
378.576	93.12
378.802	93.12
379.027	81.12
379.253	96.12
379.478	86.12
379.704	105.12
379.929	88.12
380.155	90.12
380.38	99.12
380.606	93.12
380.831	94.12
381.057	107.12
381.282	85.12
381.507	83.12
381.733	111.12
381.958	93.12
382.184	72.12
382.409	90.12
382.634	98.12
382.86	98.12
383.085	113.12
383.31	101.12
383.535	100.12
383.761	107.12
383.986	85.12
384.211	89.12
384.436	91.12
384.662	92.12
384.887	87.12
385.112	86.12
385.337	114.12
385.562	116.12
385.787	95.12
386.013	113.12
386.238	117.12
386.463	115.12
386.688	98.12
386.913	106.12
387.138	112.12
387.363	104.12
387.588	102.12
387.813	95.12
388.038	111.12
388.263	128.12
388.488	113.12
388.713	101.12
388.938	78.12
389.163	85.12
389.387	91.12
389.612	90.12
389.837	89.12
390.062	101.12
390.287	82.12
390.512	70.12
390.736	90.12
390.961	86.12
391.186	93.12
391.411	91.12
391.636	87.12
391.86	65.12
392.085	83.12
392.31	100.12
392.534	86.12
392.759	88.12
392.984	83.12
393.208	91.12
393.433	117.12
393.658	113.12
393.882	91.12
394.107	81.12
394.331	79.12
394.556	99.12
394.78	84.12
395.005	88.12
395.229	81.12
395.454	85.12
395.678	78.12
395.903	90.12
396.127	89.12
396.352	84.12
396.576	70.12
396.801	101.12
397.025	93.12
397.249	75.12
397.474	85.12
397.698	87.12
397.922	87.12
398.147	76.12
398.371	72.12
398.595	79.12
398.82	85.12
399.044	91.12
399.268	96.12
399.492	93.12
399.717	63.12
399.941	90.12
400.165	85.12
400.389	85.12
400.613	91.12
400.837	85.12
401.062	79.12
401.286	87.12
401.51	90.12
401.734	90.12
401.958	97.12
402.182	115.12
402.406	143.12
402.63	106.12
402.854	76.12
403.078	87.12
403.302	91.12
403.526	85.12
403.75	85.12
403.974	86.12
404.198	72.12
404.422	77.12
404.645	80.12
404.869	91.12
405.093	88.12
405.317	98.12
405.541	101.12
405.765	101.12
405.988	99.12
406.212	153.12
406.436	210.12
406.66	123.12
406.883	89.12
407.107	90.12
407.331	102.12
407.555	93.12
407.778	92.12
408.002	78.12
408.226	91.12
408.449	80.12
408.673	83.12
408.896	82.12
409.12	91.12
409.344	98.12
409.567	94.12
409.791	79.12
410.014	79.12
410.238	74.12
410.461	88.12
410.685	81.12
410.908	89.12
411.132	93.12
411.355	85.12
411.578	81.12
411.802	83.12
412.025	87.12
412.249	91.12
412.472	89.12
412.695	93.12
412.919	86.12
413.142	92.12
413.365	82.12
413.589	89.12
413.812	87.12
414.035	93.12
414.258	90.12
414.482	87.12
414.705	89.12
414.928	91.12
415.151	89.12
415.374	84.12
415.597	85.12
415.821	88.12
416.044	93.12
416.267	82.12
416.49	87.12
416.713	79.12
416.936	87.12
417.159	74.12
417.382	100.12
417.605	79.12
417.828	102.12
418.051	109.12
418.274	74.12
418.497	93.12
418.72	87.12
418.943	85.12
419.166	79.12
419.389	89.12
419.611	82.12
419.834	81.12
420.057	87.12
420.28	82.12
420.503	91.12
420.726	98.12
420.948	75.12
421.171	78.12
421.394	93.12
421.617	91.12
421.839	79.12
422.062	89.12
422.285	85.12
422.507	104.12
422.73	106.12
422.953	98.12
423.175	90.12
423.398	90.12
423.621	95.12
423.843	79.12
424.066	59.12
424.288	74.12
424.511	81.12
424.733	104.12
424.956	87.12
425.178	93.12
425.401	98.12
425.623	81.12
425.846	73.12
426.068	86.12
426.291	76.12
426.513	76.12
426.735	91.12
426.958	77.12
427.18	95.12
427.402	111.12
427.625	138.12
427.847	120.12
428.069	109.12
428.292	75.12
428.514	87.12
428.736	95.12
428.958	82.12
429.181	87.12
429.403	83.12
429.625	80.12
429.847	90.12
430.069	90.12
430.292	94.12
430.514	69.12
430.736	87.12
430.958	87.12
431.18	64.12
431.402	70.12
431.624	68.12
431.846	80.12
432.068	85.12
432.29	73.12
432.512	83.12
432.734	81.12
432.956	78.12
433.178	95.12
433.4	74.12
433.622	89.12
433.844	93.12
434.066	85.12
434.287	88.12
434.509	95.12
434.731	91.12
434.953	82.12
435.175	81.12
435.397	98.12
435.618	89.12
435.84	97.12
436.062	112.12
436.284	113.12
436.505	84.12
436.727	88.12
436.949	89.12
437.17	93.12
437.392	73.12
437.614	79.12
437.835	94.12
438.057	97.12
438.278	90.12
438.5	98.12
438.721	106.12
438.943	83.12
439.165	78.12
439.386	84.12
439.608	76.12
439.829	88.12
440.05	104.12
440.272	121.12
440.493	84.12
440.715	86.12
440.936	80.12
441.158	97.12
441.379	94.12
441.6	93.12
441.822	88.12
442.043	92.12
442.264	94.12
442.486	101.12
442.707	75.12
442.928	104.12
443.149	131.12
443.371	130.12
443.592	101.12
443.813	98.12
444.034	93.12
444.255	71.12
444.476	88.12
444.698	94.12
444.919	91.12
445.14	104.12
445.361	117.12
445.582	102.12
445.803	114.12
446.024	119.12
446.245	118.12
446.466	102.12
446.687	90.12
446.908	85.12
447.129	99.12
447.35	75.12
447.571	91.12
447.792	102.12
448.013	96.12
448.234	107.12
448.455	82.12
448.675	108.12
448.896	106.12
449.117	97.12
449.338	79.12
449.559	114.12
449.779	101.12
450	102.12
450.221	80.12
450.442	74.12
450.662	98.12
450.883	106.12
451.104	99.12
451.324	91.12
451.545	80.12
451.766	75.12
451.986	83.12
452.207	86.12
452.428	114.12
452.648	98.12
452.869	101.12
453.089	104.12
453.31	98.12
453.53	86.12
453.751	81.12
453.971	91.12
454.192	101.12
454.412	98.12
454.633	87.12
454.853	89.12
455.073	87.12
455.294	93.12
455.514	84.12
455.734	83.12
455.955	83.12
456.175	85.12
456.395	64.12
456.616	82.12
456.836	86.12
457.056	88.12
457.276	77.12
457.497	88.12
457.717	70.12
457.937	83.12
458.157	81.12
458.377	87.12
458.598	96.12
458.818	118.12
459.038	138.12
459.258	111.12
459.478	86.12
459.698	83.12
459.918	83.12
460.138	84.12
460.358	83.12
460.578	91.12
460.798	79.12
461.018	85.12
461.238	74.12
461.458	84.12
461.678	97.12
461.898	91.12
462.118	91.12
462.338	86.12
462.558	91.12
462.777	92.12
462.997	86.12
463.217	82.12
463.437	79.12
463.657	80.12
463.876	85.12
464.096	87.12
464.316	90.12
464.536	74.12
464.755	94.12
464.975	85.12
465.195	136.12
465.414	153.12
465.634	72.12
465.854	73.12
466.073	79.12
466.293	79.12
466.512	83.12
466.732	92.12
466.951	93.12
467.171	80.12
467.391	79.12
467.61	100.12
467.829	91.12
468.049	97.12
468.268	104.12
468.488	77.12
468.707	86.12
468.927	77.12
469.146	74.12
469.365	88.12
469.585	87.12
469.804	97.12
470.023	92.12
470.243	87.12
470.462	85.12
470.681	94.12
470.901	79.12
471.12	83.12
471.339	97.12
471.558	77.12
471.777	78.12
471.997	96.12
472.216	115.12
472.435	171.12
472.654	94.12
472.873	72.12
473.092	84.12
473.311	87.12
473.53	91.12
473.749	80.12
473.968	86.12
474.187	104.12
474.406	97.12
474.625	88.12
474.844	88.12
475.063	74.12
475.282	88.12
475.501	89.12
475.72	80.12
475.939	87.12
476.158	96.12
476.377	88.12
476.596	89.12
476.814	98.12
477.033	89.12
477.252	88.12
477.471	98.12
477.69	99.12
477.908	90.12
478.127	90.12
478.346	87.12
478.564	94.12
478.783	103.12
479.002	85.12
479.22	83.12
479.439	93.12
479.658	87.12
479.876	86.12
480.095	100.12
480.313	94.12
480.532	97.12
480.751	107.12
480.969	131.12
481.188	255.12
481.406	189.12
481.624	98.12
481.843	64.12
482.061	80.12
482.28	90.12
482.498	88.12
482.717	82.12
482.935	92.12
483.153	90.12
483.372	90.12
483.59	86.12
483.808	83.12
484.027	91.12
484.245	87.12
484.463	86.12
484.681	81.12
484.9	82.12
485.118	94.12
485.336	102.12
485.554	89.12
485.772	100.12
485.99	100.12
486.209	91.12
486.427	97.12
486.645	106.12
486.863	106.12
487.081	99.12
487.299	100.12
487.517	98.12
487.735	101.12
487.953	98.12
488.171	85.12
488.389	92.12
488.607	89.12
488.825	93.12
489.043	99.12
489.261	83.12
489.479	80.12
489.696	88.12
489.914	86.12
490.132	95.12
490.35	87.12
490.568	84.12
490.786	86.12
491.003	91.12
491.221	81.12
491.439	87.12
491.657	81.12
491.874	85.12
492.092	92.12
492.31	90.12
492.527	91.12
492.745	88.12
492.963	82.12
493.18	77.12
493.398	90.12
493.615	103.12
493.833	70.12
494.05	84.12
494.268	71.12
494.485	79.12
494.703	82.12
494.92	77.12
495.138	94.12
495.355	91.12
495.573	90.12
495.79	72.12
496.008	81.12
496.225	80.12
496.442	101.12
496.66	86.12
496.877	74.12
497.094	95.12
497.312	78.12
497.529	82.12
497.746	87.12
497.963	97.12
498.181	77.12
498.398	89.12
498.615	99.12
498.832	98.12
499.049	88.12
499.267	78.12
499.484	93.12
499.701	84.12
499.918	93.12
500.135	82.12
500.352	95.12
500.569	93.12
500.786	93.12
501.003	96.12
501.22	97.12
501.437	90.12
501.654	89.12
501.871	93.12
502.088	83.12
502.305	90.12
502.522	90.12
502.739	78.12
502.956	86.12
503.172	85.12
503.389	95.12
503.606	101.12
503.823	94.12
504.04	102.12
504.256	85.12
504.473	86.12
504.69	97.12
504.907	94.12
505.123	89.12
505.34	81.12
505.557	95.12
505.773	97.12
505.99	86.12
506.207	68.12
506.423	83.12
506.64	93.12
506.856	91.12
507.073	90.12
507.289	95.12
507.506	95.12
507.722	106.12
507.939	121.12
508.155	89.12
508.372	90.12
508.588	86.12
508.805	87.12
509.021	90.12
509.238	106.12
509.454	96.12
509.67	106.12
509.887	104.12
510.103	125.12
510.319	201.12
510.536	682.12
510.752	2174.12
510.968	593.12
511.184	143.12
511.401	116.12
511.617	83.12
511.833	69.12
512.049	93.12
512.265	97.12
512.481	101.12
512.698	91.12
512.914	89.12
513.13	80.12
513.346	97.12
513.562	85.12
513.778	92.12
513.994	98.12
514.21	100.12
514.426	106.12
514.642	124.12
514.858	120.12
515.074	133.12
515.29	395.12
515.506	1294.12
515.721	480.12
515.937	138.12
516.153	104.12
516.369	114.12
516.585	99.12
516.801	85.12
