Data from Circ_1984_H10_HRD10591_00047.txt Node
Date: Wed Jan 03 12:22:51 EST 2024
User: Yrep
Spectrometer: HR+D1059
Trigger mode: 1
Integration Time (sec): 1.000000E-1
Scans to average: 1
Electric dark correction enabled: true
Nonlinearity correction enabled: false
Boxcar width: 0
XAxis mode: Wavelengths
Number of Pixels in Spectrum: 2048
>>>>>Begin Spectral Data<<<<<
223.165	-0.31
223.4	-0.31
223.635	-0.31
223.869	-29.31
224.104	-21.31
224.338	-20.31
224.573	-6.31
224.808	-14.31
225.042	-3.31
225.277	-5.31
225.511	-3.31
225.746	-12.31
225.98	3.69
226.215	21.69
226.449	17.69
226.683	24.69
226.918	20.69
227.152	27.69
227.387	23.69
227.621	35.69
227.856	38.69
228.09	49.69
228.324	59.69
228.559	58.69
228.793	56.69
229.027	64.69
229.262	63.69
229.496	79.69
229.73	79.69
229.964	74.69
230.199	80.69
230.433	62.69
230.667	78.69
230.901	72.69
231.136	87.69
231.37	83.69
231.604	72.69
231.838	96.69
232.072	76.69
232.306	82.69
232.541	86.69
232.775	87.69
233.009	81.69
233.243	70.69
233.477	80.69
233.711	67.69
233.945	85.69
234.179	78.69
234.413	76.69
234.647	86.69
234.881	92.69
235.115	78.69
235.349	74.69
235.583	58.69
235.817	80.69
236.051	71.69
236.285	83.69
236.519	63.69
236.753	78.69
236.987	78.69
237.221	84.69
237.455	76.69
237.689	75.69
237.922	81.69
238.156	69.69
238.39	64.69
238.624	76.69
238.858	84.69
239.091	63.69
239.325	80.69
239.559	93.69
239.793	82.69
240.027	90.69
240.26	76.69
240.494	74.69
240.728	75.69
240.961	78.69
241.195	78.69
241.429	78.69
241.662	67.69
241.896	73.69
242.13	71.69
242.363	82.69
242.597	61.69
242.83	51.69
243.064	76.69
243.298	81.69
243.531	79.69
243.765	81.69
243.998	84.69
244.232	84.69
244.465	84.69
244.699	84.69
244.932	79.69
245.166	68.69
245.399	83.69
245.633	78.69
245.866	84.69
246.099	89.69
246.333	82.69
246.566	87.69
246.8	74.69
247.033	75.69
247.266	75.69
247.5	85.69
247.733	74.69
247.966	72.69
248.2	86.69
248.433	69.69
248.666	65.69
248.899	78.69
249.133	78.69
249.366	99.69
249.599	81.69
249.832	78.69
250.066	94.69
250.299	85.69
250.532	65.69
250.765	83.69
250.998	98.69
251.231	67.69
251.465	86.69
251.698	91.69
251.931	89.69
252.164	86.69
252.397	72.69
252.63	87.69
252.863	91.69
253.096	78.69
253.329	70.69
253.562	87.69
253.795	80.69
254.028	86.69
254.261	78.69
254.494	84.69
254.727	70.69
254.96	87.69
255.193	74.69
255.426	81.69
255.659	81.69
255.892	83.69
256.124	81.69
256.357	69.69
256.59	76.69
256.823	79.69
257.056	75.69
257.289	82.69
257.521	74.69
257.754	98.69
257.987	87.69
258.22	78.69
258.452	87.69
258.685	79.69
258.918	90.69
259.151	86.69
259.383	81.69
259.616	89.69
259.849	84.69
260.081	88.69
260.314	92.69
260.547	71.69
260.779	76.69
261.012	100.69
261.244	90.69
261.477	80.69
261.71	92.69
261.942	92.69
262.175	108.69
262.407	84.69
262.64	84.69
262.872	99.69
263.105	83.69
263.337	79.69
263.57	87.69
263.802	84.69
264.035	79.69
264.267	83.69
264.499	86.69
264.732	83.69
264.964	70.69
265.197	76.69
265.429	81.69
265.661	81.69
265.894	70.69
266.126	82.69
266.358	86.69
266.591	86.69
266.823	86.69
267.055	75.69
267.287	86.69
267.52	89.69
267.752	82.69
267.984	73.69
268.216	74.69
268.448	95.69
268.681	87.69
268.913	87.69
269.145	93.69
269.377	84.69
269.609	83.69
269.841	86.69
270.073	78.69
270.306	86.69
270.538	94.69
270.77	89.69
271.002	94.69
271.234	77.69
271.466	90.69
271.698	92.69
271.93	96.69
272.162	75.69
272.394	85.69
272.626	92.69
272.858	83.69
273.09	82.69
273.322	87.69
273.553	84.69
273.785	92.69
274.017	83.69
274.249	87.69
274.481	84.69
274.713	87.69
274.945	88.69
275.176	81.69
275.408	79.69
275.64	66.69
275.872	80.69
276.104	88.69
276.335	96.69
276.567	97.69
276.799	102.69
277.031	101.69
277.262	105.69
277.494	83.69
277.726	80.69
277.957	91.69
278.189	91.69
278.421	87.69
278.652	91.69
278.884	82.69
279.115	89.69
279.347	101.69
279.579	97.69
279.81	90.69
280.042	90.69
280.273	84.69
280.505	94.69
280.736	88.69
280.968	89.69
281.199	83.69
281.431	82.69
281.662	80.69
281.894	82.69
282.125	96.69
282.356	122.69
282.588	129.69
282.819	118.69
283.051	86.69
283.282	98.69
283.513	81.69
283.745	80.69
283.976	93.69
284.207	91.69
284.439	82.69
284.67	90.69
284.901	86.69
285.132	85.69
285.364	75.69
285.595	87.69
285.826	89.69
286.057	69.69
286.288	77.69
286.52	88.69
286.751	91.69
286.982	80.69
287.213	87.69
287.444	93.69
287.675	83.69
287.906	100.69
288.138	99.69
288.369	104.69
288.6	100.69
288.831	91.69
289.062	106.69
289.293	95.69
289.524	96.69
289.755	83.69
289.986	82.69
290.217	87.69
290.448	98.69
290.679	84.69
290.91	74.69
291.141	88.69
291.371	99.69
291.602	96.69
291.833	103.69
292.064	83.69
292.295	96.69
292.526	82.69
292.757	86.69
292.987	87.69
293.218	91.69
293.449	89.69
293.68	81.69
293.91	81.69
294.141	96.69
294.372	87.69
294.603	72.69
294.833	92.69
295.064	83.69
295.295	80.69
295.525	91.69
295.756	102.69
295.987	114.69
296.217	122.69
296.448	119.69
296.679	94.69
296.909	101.69
297.14	89.69
297.37	75.69
297.601	84.69
297.831	89.69
298.062	82.69
298.292	98.69
298.523	103.69
298.753	81.69
298.984	97.69
299.214	84.69
299.445	94.69
299.675	87.69
299.905	74.69
300.136	90.69
300.366	93.69
300.597	96.69
300.827	85.69
301.057	115.69
301.288	95.69
301.518	91.69
301.748	104.69
301.979	101.69
302.209	83.69
302.439	80.69
302.669	87.69
302.9	82.69
303.13	93.69
303.36	108.69
303.59	104.69
303.82	103.69
304.051	90.69
304.281	76.69
304.511	78.69
304.741	82.69
304.971	89.69
305.201	90.69
305.431	82.69
305.661	92.69
305.891	95.69
306.121	93.69
306.352	100.69
306.582	93.69
306.812	84.69
307.042	86.69
307.272	106.69
307.502	108.69
307.731	116.69
307.961	100.69
308.191	91.69
308.421	74.69
308.651	75.69
308.881	81.69
309.111	91.69
309.341	90.69
309.571	99.69
309.8	93.69
310.03	84.69
310.26	98.69
310.49	97.69
310.72	93.69
310.949	95.69
311.179	91.69
311.409	103.69
311.639	87.69
311.868	82.69
312.098	86.69
312.328	100.69
312.557	98.69
312.787	94.69
313.017	86.69
313.246	101.69
313.476	97.69
313.706	87.69
313.935	96.69
314.165	94.69
314.394	102.69
314.624	94.69
314.853	105.69
315.083	85.69
315.312	98.69
315.542	83.69
315.771	82.69
316.001	96.69
316.23	93.69
316.46	85.69
316.689	77.69
316.919	108.69
317.148	87.69
317.377	99.69
317.607	97.69
317.836	94.69
318.065	84.69
318.295	96.69
318.524	93.69
318.753	89.69
318.983	84.69
319.212	102.69
319.441	108.69
319.67	103.69
319.9	100.69
320.129	99.69
320.358	99.69
320.587	85.69
320.816	101.69
321.046	104.69
321.275	82.69
321.504	83.69
321.733	99.69
321.962	98.69
322.191	99.69
322.42	99.69
322.649	100.69
322.878	121.69
323.108	108.69
323.337	119.69
323.566	116.69
323.795	131.69
324.024	181.69
324.253	343.69
324.482	706.69
324.71	1440.69
324.939	1921.69
325.168	692.69
325.397	227.69
325.626	150.69
325.855	131.69
326.084	110.69
326.313	136.69
326.542	131.69
326.77	206.69
326.999	409.69
327.228	798.69
327.457	1477.69
327.686	1172.69
327.914	353.69
328.143	199.69
328.372	182.69
328.6	136.69
328.829	117.69
329.058	116.69
329.287	126.69
329.515	98.69
329.744	116.69
329.972	140.69
330.201	190.69
330.43	262.69
330.658	166.69
330.887	133.69
331.115	119.69
331.344	101.69
331.572	108.69
331.801	103.69
332.03	91.69
332.258	114.69
332.486	93.69
332.715	99.69
332.943	96.69
333.172	104.69
333.4	105.69
333.629	106.69
333.857	119.69
334.085	133.69
334.314	193.69
334.542	298.69
334.771	273.69
334.999	120.69
335.227	116.69
335.455	94.69
335.684	111.69
335.912	102.69
336.14	108.69
336.369	96.69
336.597	96.69
336.825	97.69
337.053	91.69
337.281	91.69
337.51	94.69
337.738	94.69
337.966	85.69
338.194	90.69
338.422	86.69
338.65	101.69
338.878	86.69
339.106	87.69
339.334	82.69
339.562	91.69
339.79	99.69
340.018	73.69
340.246	86.69
340.474	96.69
340.702	90.69
340.93	98.69
341.158	90.69
341.386	85.69
341.614	108.69
341.842	91.69
342.07	91.69
342.298	87.69
342.526	87.69
342.754	71.69
342.981	82.69
343.209	82.69
343.437	106.69
343.665	109.69
343.893	102.69
344.12	86.69
344.348	87.69
344.576	88.69
344.804	78.69
345.031	83.69
345.259	98.69
345.487	90.69
345.714	89.69
345.942	99.69
346.17	84.69
346.397	82.69
346.625	101.69
346.853	93.69
347.08	89.69
347.308	95.69
347.535	102.69
347.763	93.69
347.99	110.69
348.218	116.69
348.445	101.69
348.673	102.69
348.9	95.69
349.128	104.69
349.355	96.69
349.583	111.69
349.81	100.69
350.037	92.69
350.265	91.69
350.492	94.69
350.72	86.69
350.947	108.69
351.174	107.69
351.402	106.69
351.629	90.69
351.856	96.69
352.083	110.69
352.311	82.69
352.538	107.69
352.765	106.69
352.992	101.69
353.22	101.69
353.447	107.69
353.674	106.69
353.901	98.69
354.128	97.69
354.355	81.69
354.583	95.69
354.81	101.69
355.037	111.69
355.264	83.69
355.491	123.69
355.718	89.69
355.945	86.69
356.172	95.69
356.399	94.69
356.626	92.69
356.853	82.69
357.08	92.69
357.307	83.69
357.534	85.69
357.761	102.69
357.988	98.69
358.215	87.69
358.441	91.69
358.668	87.69
358.895	89.69
359.122	95.69
359.349	76.69
359.576	88.69
359.802	101.69
360.029	113.69
360.256	118.69
360.483	90.69
360.709	84.69
360.936	100.69
361.163	107.69
361.39	99.69
361.616	95.69
361.843	94.69
362.07	79.69
362.296	84.69
362.523	87.69
362.749	85.69
362.976	90.69
363.203	93.69
363.429	85.69
363.656	84.69
363.882	94.69
364.109	95.69
364.335	86.69
364.562	99.69
364.788	86.69
365.015	89.69
365.241	87.69
365.468	102.69
365.694	111.69
365.92	91.69
366.147	96.69
366.373	96.69
366.599	87.69
366.826	95.69
367.052	101.69
367.278	89.69
367.505	93.69
367.731	91.69
367.957	98.69
368.184	80.69
368.41	88.69
368.636	121.69
368.862	105.69
369.089	107.69
369.315	104.69
369.541	97.69
369.767	86.69
369.993	79.69
370.219	90.69
370.445	105.69
370.672	91.69
370.898	88.69
371.124	84.69
371.35	87.69
371.576	82.69
371.802	88.69
372.028	97.69
372.254	96.69
372.48	89.69
372.706	91.69
372.932	83.69
373.158	98.69
373.384	81.69
373.61	79.69
373.835	96.69
374.061	96.69
374.287	87.69
374.513	78.69
374.739	99.69
374.965	80.69
375.191	79.69
375.416	88.69
375.642	91.69
375.868	98.69
376.094	95.69
376.319	93.69
376.545	86.69
376.771	96.69
376.997	90.69
377.222	90.69
377.448	100.69
377.674	90.69
377.899	85.69
378.125	95.69
378.35	89.69
378.576	68.69
378.802	90.69
379.027	77.69
379.253	89.69
379.478	97.69
379.704	90.69
379.929	89.69
380.155	98.69
380.38	91.69
380.606	94.69
380.831	97.69
381.057	110.69
381.282	100.69
381.507	93.69
381.733	104.69
381.958	95.69
382.184	82.69
382.409	94.69
382.634	101.69
382.86	87.69
383.085	98.69
383.31	109.69
383.535	106.69
383.761	91.69
383.986	95.69
384.211	99.69
384.436	98.69
384.662	93.69
384.887	99.69
385.112	102.69
385.337	114.69
385.562	94.69
385.787	113.69
386.013	116.69
386.238	108.69
386.463	109.69
386.688	96.69
386.913	102.69
387.138	117.69
387.363	100.69
387.588	114.69
387.813	103.69
388.038	100.69
388.263	113.69
388.488	119.69
388.713	95.69
388.938	103.69
389.163	100.69
389.387	96.69
389.612	101.69
389.837	82.69
390.062	95.69
390.287	96.69
390.512	88.69
390.736	78.69
390.961	85.69
391.186	88.69
391.411	97.69
391.636	94.69
391.86	93.69
392.085	83.69
392.31	82.69
392.534	98.69
392.759	102.69
392.984	98.69
393.208	86.69
393.433	101.69
393.658	97.69
393.882	77.69
394.107	94.69
394.331	75.69
394.556	88.69
394.78	78.69
395.005	83.69
395.229	67.69
395.454	83.69
395.678	79.69
395.903	95.69
396.127	87.69
396.352	75.69
396.576	82.69
396.801	98.69
397.025	100.69
397.249	103.69
397.474	98.69
397.698	89.69
397.922	98.69
398.147	91.69
398.371	82.69
398.595	81.69
398.82	79.69
399.044	91.69
399.268	98.69
399.492	94.69
399.717	107.69
399.941	99.69
400.165	76.69
400.389	68.69
400.613	83.69
400.837	91.69
401.062	83.69
401.286	99.69
401.51	99.69
401.734	87.69
401.958	99.69
402.182	119.69
402.406	151.69
402.63	107.69
402.854	98.69
403.078	91.69
403.302	93.69
403.526	88.69
403.75	90.69
403.974	88.69
404.198	82.69
404.422	72.69
404.645	84.69
404.869	96.69
405.093	94.69
405.317	90.69
405.541	106.69
405.765	98.69
405.988	107.69
406.212	148.69
406.436	200.69
406.66	132.69
406.883	87.69
407.107	84.69
407.331	90.69
407.555	94.69
407.778	95.69
408.002	85.69
408.226	90.69
408.449	83.69
408.673	83.69
408.896	84.69
409.12	101.69
409.344	105.69
409.567	99.69
409.791	92.69
410.014	100.69
410.238	94.69
410.461	94.69
410.685	98.69
410.908	90.69
411.132	102.69
411.355	103.69
411.578	86.69
411.802	87.69
412.025	82.69
412.249	95.69
412.472	89.69
412.695	102.69
412.919	92.69
413.142	95.69
413.365	91.69
413.589	85.69
413.812	82.69
414.035	94.69
414.258	77.69
414.482	78.69
414.705	89.69
414.928	87.69
415.151	99.69
415.374	100.69
415.597	95.69
415.821	88.69
416.044	93.69
416.267	99.69
416.49	99.69
416.713	89.69
416.936	92.69
417.159	89.69
417.382	91.69
417.605	80.69
417.828	96.69
418.051	81.69
418.274	87.69
418.497	89.69
418.72	79.69
418.943	79.69
419.166	95.69
419.389	72.69
419.611	84.69
419.834	91.69
420.057	76.69
420.28	73.69
420.503	86.69
420.726	88.69
420.948	94.69
421.171	90.69
421.394	96.69
421.617	104.69
421.839	91.69
422.062	89.69
422.285	96.69
422.507	97.69
422.73	106.69
422.953	97.69
423.175	92.69
423.398	95.69
423.621	87.69
423.843	75.69
424.066	86.69
424.288	90.69
424.511	90.69
424.733	97.69
424.956	97.69
425.178	88.69
425.401	85.69
425.623	88.69
425.846	111.69
426.068	108.69
426.291	100.69
426.513	75.69
426.735	102.69
426.958	83.69
427.18	91.69
427.402	126.69
427.625	144.69
427.847	124.69
428.069	124.69
428.292	94.69
428.514	98.69
428.736	85.69
428.958	88.69
429.181	88.69
429.403	89.69
429.625	95.69
429.847	98.69
430.069	94.69
430.292	76.69
430.514	94.69
430.736	98.69
430.958	83.69
431.18	92.69
431.402	78.69
431.624	86.69
431.846	95.69
432.068	86.69
432.29	74.69
432.512	84.69
432.734	75.69
432.956	78.69
433.178	103.69
433.4	106.69
433.622	83.69
433.844	96.69
434.066	86.69
434.287	81.69
434.509	85.69
434.731	94.69
434.953	90.69
435.175	87.69
435.397	87.69
435.618	95.69
435.84	98.69
436.062	112.69
436.284	101.69
436.505	91.69
436.727	100.69
436.949	107.69
437.17	93.69
437.392	99.69
437.614	85.69
437.835	96.69
438.057	106.69
438.278	114.69
438.5	107.69
438.721	106.69
438.943	101.69
439.165	90.69
439.386	74.69
439.608	82.69
439.829	89.69
440.05	114.69
440.272	128.69
440.493	89.69
440.715	98.69
440.936	88.69
441.158	97.69
441.379	81.69
441.6	92.69
441.822	87.69
442.043	95.69
442.264	105.69
442.486	107.69
442.707	87.69
442.928	94.69
443.149	119.69
443.371	129.69
443.592	88.69
443.813	107.69
444.034	104.69
444.255	86.69
444.476	79.69
444.698	95.69
444.919	80.69
445.14	125.69
445.361	122.69
445.582	116.69
445.803	122.69
446.024	136.69
446.245	129.69
446.466	101.69
446.687	91.69
446.908	92.69
447.129	81.69
447.35	82.69
447.571	74.69
447.792	99.69
448.013	95.69
448.234	96.69
448.455	111.69
448.675	107.69
448.896	112.69
449.117	90.69
449.338	102.69
449.559	126.69
449.779	120.69
450	92.69
450.221	94.69
450.442	80.69
450.662	98.69
450.883	96.69
451.104	95.69
451.324	104.69
451.545	83.69
451.766	87.69
451.986	86.69
452.207	89.69
452.428	96.69
452.648	98.69
452.869	104.69
453.089	105.69
453.31	112.69
453.53	99.69
453.751	93.69
453.971	106.69
454.192	98.69
454.412	84.69
454.633	88.69
454.853	89.69
455.073	83.69
455.294	78.69
455.514	95.69
455.734	98.69
455.955	78.69
456.175	83.69
456.395	90.69
456.616	86.69
456.836	80.69
457.056	85.69
457.276	95.69
457.497	78.69
457.717	73.69
457.937	91.69
458.157	87.69
458.377	88.69
458.598	106.69
458.818	138.69
459.038	147.69
459.258	113.69
459.478	85.69
459.698	94.69
459.918	90.69
460.138	87.69
460.358	82.69
460.578	100.69
460.798	86.69
461.018	68.69
461.238	94.69
461.458	72.69
461.678	91.69
461.898	90.69
462.118	91.69
462.338	107.69
462.558	97.69
462.777	73.69
462.997	91.69
463.217	77.69
463.437	88.69
463.657	80.69
463.876	80.69
464.096	97.69
464.316	90.69
464.536	73.69
464.755	85.69
464.975	76.69
465.195	150.69
465.414	138.69
465.634	108.69
465.854	93.69
466.073	82.69
466.293	95.69
466.512	91.69
466.732	74.69
466.951	86.69
467.171	100.69
467.391	92.69
467.61	92.69
467.829	82.69
468.049	143.69
468.268	160.69
468.488	102.69
468.707	89.69
468.927	81.69
469.146	80.69
469.365	88.69
469.585	80.69
469.804	107.69
470.023	95.69
470.243	90.69
470.462	104.69
470.681	100.69
470.901	88.69
471.12	78.69
471.339	82.69
471.558	89.69
471.777	87.69
471.997	107.69
472.216	214.69
472.435	362.69
472.654	135.69
472.873	101.69
473.092	83.69
473.311	92.69
473.53	89.69
473.749	90.69
473.968	91.69
474.187	105.69
474.406	94.69
474.625	81.69
474.844	85.69
475.063	83.69
475.282	89.69
475.501	82.69
475.72	106.69
475.939	94.69
476.158	100.69
476.377	78.69
476.596	78.69
476.814	85.69
477.033	102.69
477.252	84.69
477.471	82.69
477.69	98.69
477.908	90.69
478.127	82.69
478.346	76.69
478.564	88.69
478.783	92.69
479.002	104.69
479.22	90.69
479.439	99.69
479.658	91.69
479.876	115.69
480.095	96.69
480.313	79.69
480.532	94.69
480.751	104.69
480.969	203.69
481.188	606.69
481.406	382.69
481.624	123.69
481.843	91.69
482.061	95.69
482.28	62.69
482.498	82.69
482.717	92.69
482.935	95.69
483.153	71.69
483.372	91.69
483.59	89.69
483.808	90.69
484.027	105.69
484.245	99.69
484.463	103.69
484.681	108.69
484.9	96.69
485.118	86.69
485.336	90.69
485.554	92.69
485.772	96.69
485.99	107.69
486.209	94.69
486.427	104.69
486.645	109.69
486.863	100.69
487.081	95.69
487.299	78.69
487.517	93.69
487.735	94.69
487.953	93.69
488.171	96.69
488.389	103.69
488.607	107.69
488.825	82.69
489.043	89.69
489.261	98.69
489.479	87.69
489.696	69.69
489.914	77.69
490.132	87.69
490.35	96.69
490.568	100.69
490.786	78.69
491.003	87.69
491.221	100.69
491.439	90.69
491.657	106.69
491.874	107.69
492.092	99.69
492.31	99.69
492.527	86.69
492.745	88.69
492.963	83.69
493.18	93.69
493.398	89.69
493.615	93.69
493.833	79.69
494.05	77.69
494.268	103.69
494.485	88.69
494.703	92.69
494.92	80.69
495.138	86.69
495.355	84.69
495.573	89.69
495.79	94.69
496.008	73.69
496.225	101.69
496.442	96.69
496.66	91.69
496.877	91.69
497.094	95.69
497.312	89.69
497.529	99.69
497.746	91.69
497.963	90.69
498.181	91.69
498.398	76.69
498.615	107.69
498.832	104.69
499.049	81.69
499.267	91.69
499.484	87.69
499.701	91.69
499.918	75.69
500.135	98.69
500.352	97.69
500.569	89.69
500.786	102.69
501.003	94.69
501.22	93.69
501.437	84.69
501.654	79.69
501.871	113.69
502.088	68.69
502.305	95.69
502.522	94.69
502.739	89.69
502.956	81.69
503.172	91.69
503.389	98.69
503.606	101.69
503.823	96.69
504.04	87.69
504.256	95.69
504.473	78.69
504.69	88.69
504.907	86.69
505.123	93.69
505.34	93.69
505.557	85.69
505.773	89.69
505.99	79.69
506.207	90.69
506.423	78.69
506.64	86.69
506.856	95.69
507.073	87.69
507.289	76.69
507.506	72.69
507.722	108.69
507.939	113.69
508.155	94.69
508.372	99.69
508.588	90.69
508.805	87.69
509.021	90.69
509.238	94.69
509.454	98.69
509.67	94.69
509.887	103.69
510.103	119.69
510.319	190.69
510.536	675.69
510.752	2154.69
510.968	620.69
511.184	159.69
511.401	119.69
511.617	101.69
511.833	79.69
512.049	89.69
512.265	92.69
512.481	87.69
512.698	78.69
512.914	97.69
513.13	86.69
513.346	86.69
513.562	90.69
513.778	92.69
513.994	87.69
514.21	105.69
514.426	112.69
514.642	127.69
514.858	114.69
515.074	158.69
515.29	386.69
515.506	1260.69
515.721	460.69
