Data from Circ_1984_H10_HRD10591_00055.txt Node
Date: Wed Jan 03 12:22:53 EST 2024
User: Yrep
Spectrometer: HR+D1059
Trigger mode: 1
Integration Time (sec): 1.000000E-1
Scans to average: 1
Electric dark correction enabled: true
Nonlinearity correction enabled: false
Boxcar width: 0
XAxis mode: Wavelengths
Number of Pixels in Spectrum: 2048
>>>>>Begin Spectral Data<<<<<
223.165	-14.31
223.4	-14.31
223.635	-14.31
223.869	-19.31
224.104	-20.31
224.338	-16.31
224.573	-6.31
224.808	-26.31
225.042	8.69
225.277	-5.31
225.511	-0.31
225.746	2.69
225.98	-2.31
226.215	12.69
226.449	21.69
226.683	28.69
226.918	16.69
227.152	19.69
227.387	26.69
227.621	38.69
227.856	44.69
228.09	44.69
228.324	54.69
228.559	43.69
228.793	63.69
229.027	56.69
229.262	63.69
229.496	80.69
229.73	90.69
229.964	85.69
230.199	72.69
230.433	86.69
230.667	82.69
230.901	82.69
231.136	76.69
231.37	76.69
231.604	83.69
231.838	85.69
232.072	88.69
232.306	74.69
232.541	84.69
232.775	77.69
233.009	77.69
233.243	82.69
233.477	80.69
233.711	93.69
233.945	78.69
234.179	72.69
234.413	74.69
234.647	72.69
234.881	82.69
235.115	91.69
235.349	77.69
235.583	71.69
235.817	72.69
236.051	88.69
236.285	90.69
236.519	78.69
236.753	80.69
236.987	85.69
237.221	88.69
237.455	102.69
237.689	82.69
237.922	86.69
238.156	87.69
238.39	79.69
238.624	74.69
238.858	74.69
239.091	75.69
239.325	71.69
239.559	73.69
239.793	77.69
240.027	69.69
240.26	85.69
240.494	84.69
240.728	69.69
240.961	94.69
241.195	89.69
241.429	83.69
241.662	82.69
241.896	78.69
242.13	70.69
242.363	81.69
242.597	77.69
242.83	89.69
243.064	76.69
243.298	84.69
243.531	71.69
243.765	85.69
243.998	92.69
244.232	88.69
244.465	84.69
244.699	81.69
244.932	77.69
245.166	77.69
245.399	81.69
245.633	72.69
245.866	86.69
246.099	76.69
246.333	72.69
246.566	85.69
246.8	92.69
247.033	83.69
247.266	85.69
247.5	87.69
247.733	87.69
247.966	85.69
248.2	72.69
248.433	74.69
248.666	75.69
248.899	88.69
249.133	90.69
249.366	88.69
249.599	98.69
249.832	94.69
250.066	91.69
250.299	77.69
250.532	86.69
250.765	82.69
250.998	82.69
251.231	71.69
251.465	70.69
251.698	86.69
251.931	93.69
252.164	89.69
252.397	85.69
252.63	74.69
252.863	65.69
253.096	92.69
253.329	73.69
253.562	80.69
253.795	84.69
254.028	81.69
254.261	72.69
254.494	95.69
254.727	86.69
254.96	82.69
255.193	81.69
255.426	96.69
255.659	73.69
255.892	92.69
256.124	100.69
256.357	88.69
256.59	81.69
256.823	76.69
257.056	77.69
257.289	84.69
257.521	76.69
257.754	71.69
257.987	89.69
258.22	96.69
258.452	72.69
258.685	78.69
258.918	96.69
259.151	86.69
259.383	86.69
259.616	80.69
259.849	68.69
260.081	72.69
260.314	91.69
260.547	84.69
260.779	88.69
261.012	90.69
261.244	81.69
261.477	84.69
261.71	85.69
261.942	93.69
262.175	110.69
262.407	101.69
262.64	83.69
262.872	92.69
263.105	88.69
263.337	105.69
263.57	82.69
263.802	80.69
264.035	74.69
264.267	85.69
264.499	90.69
264.732	94.69
264.964	93.69
265.197	83.69
265.429	85.69
265.661	88.69
265.894	77.69
266.126	80.69
266.358	68.69
266.591	76.69
266.823	89.69
267.055	87.69
267.287	88.69
267.52	83.69
267.752	92.69
267.984	86.69
268.216	72.69
268.448	90.69
268.681	78.69
268.913	81.69
269.145	84.69
269.377	84.69
269.609	80.69
269.841	90.69
270.073	76.69
270.306	81.69
270.538	96.69
270.77	79.69
271.002	97.69
271.234	85.69
271.466	93.69
271.698	82.69
271.93	81.69
272.162	82.69
272.394	79.69
272.626	83.69
272.858	71.69
273.09	68.69
273.322	82.69
273.553	89.69
273.785	73.69
274.017	76.69
274.249	75.69
274.481	92.69
274.713	93.69
274.945	86.69
275.176	88.69
275.408	84.69
275.64	90.69
275.872	96.69
276.104	97.69
276.335	103.69
276.567	104.69
276.799	109.69
277.031	101.69
277.262	92.69
277.494	101.69
277.726	98.69
277.957	72.69
278.189	70.69
278.421	77.69
278.652	92.69
278.884	82.69
279.115	89.69
279.347	94.69
279.579	84.69
279.81	90.69
280.042	98.69
280.273	121.69
280.505	103.69
280.736	99.69
280.968	91.69
281.199	87.69
281.431	90.69
281.662	87.69
281.894	85.69
282.125	99.69
282.356	110.69
282.588	132.69
282.819	113.69
283.051	96.69
283.282	105.69
283.513	101.69
283.745	92.69
283.976	88.69
284.207	84.69
284.439	86.69
284.67	85.69
284.901	89.69
285.132	84.69
285.364	95.69
285.595	93.69
285.826	84.69
286.057	88.69
286.288	73.69
286.52	74.69
286.751	90.69
286.982	96.69
287.213	93.69
287.444	88.69
287.675	76.69
287.906	87.69
288.138	94.69
288.369	98.69
288.6	92.69
288.831	87.69
289.062	84.69
289.293	79.69
289.524	70.69
289.755	90.69
289.986	88.69
290.217	83.69
290.448	93.69
290.679	79.69
290.91	92.69
291.141	75.69
291.371	87.69
291.602	91.69
291.833	91.69
292.064	70.69
292.295	75.69
292.526	79.69
292.757	82.69
292.987	96.69
293.218	85.69
293.449	75.69
293.68	82.69
293.91	90.69
294.141	95.69
294.372	80.69
294.603	97.69
294.833	102.69
295.064	80.69
295.295	88.69
295.525	113.69
295.756	96.69
295.987	98.69
296.217	132.69
296.448	109.69
296.679	75.69
296.909	101.69
297.14	103.69
297.37	94.69
297.601	89.69
297.831	85.69
298.062	90.69
298.292	98.69
298.523	86.69
298.753	75.69
298.984	91.69
299.214	84.69
299.445	80.69
299.675	95.69
299.905	92.69
300.136	100.69
300.366	92.69
300.597	90.69
300.827	81.69
301.057	101.69
301.288	119.69
301.518	99.69
301.748	91.69
301.979	107.69
302.209	89.69
302.439	82.69
302.669	80.69
302.9	92.69
303.13	103.69
303.36	93.69
303.59	100.69
303.82	94.69
304.051	101.69
304.281	90.69
304.511	99.69
304.741	85.69
304.971	89.69
305.201	91.69
305.431	104.69
305.661	97.69
305.891	98.69
306.121	99.69
306.352	101.69
306.582	107.69
306.812	92.69
307.042	88.69
307.272	96.69
307.502	100.69
307.731	106.69
307.961	90.69
308.191	97.69
308.421	87.69
308.651	89.69
308.881	85.69
309.111	99.69
309.341	96.69
309.571	99.69
309.8	99.69
310.03	97.69
310.26	104.69
310.49	80.69
310.72	94.69
310.949	100.69
311.179	101.69
311.409	93.69
311.639	92.69
311.868	106.69
312.098	105.69
312.328	99.69
312.557	119.69
312.787	108.69
313.017	103.69
313.246	97.69
313.476	94.69
313.706	92.69
313.935	84.69
314.165	89.69
314.394	91.69
314.624	85.69
314.853	93.69
315.083	94.69
315.312	85.69
315.542	80.69
315.771	98.69
316.001	99.69
316.23	91.69
316.46	89.69
316.689	85.69
316.919	91.69
317.148	97.69
317.377	92.69
317.607	104.69
317.836	88.69
318.065	94.69
318.295	86.69
318.524	83.69
318.753	102.69
318.983	97.69
319.212	94.69
319.441	94.69
319.67	95.69
319.9	97.69
320.129	91.69
320.358	103.69
320.587	97.69
320.816	103.69
321.046	101.69
321.275	109.69
321.504	91.69
321.733	94.69
321.962	106.69
322.191	98.69
322.42	97.69
322.649	96.69
322.878	85.69
323.108	112.69
323.337	106.69
323.566	117.69
323.795	151.69
324.024	182.69
324.253	329.69
324.482	690.69
324.71	1389.69
324.939	1856.69
325.168	703.69
325.397	229.69
325.626	138.69
325.855	128.69
326.084	128.69
326.313	121.69
326.542	139.69
326.77	195.69
326.999	398.69
327.228	789.69
327.457	1412.69
327.686	1141.69
327.914	326.69
328.143	211.69
328.372	184.69
328.6	134.69
328.829	114.69
329.058	134.69
329.287	111.69
329.515	103.69
329.744	131.69
329.972	141.69
330.201	205.69
330.43	257.69
330.658	164.69
330.887	139.69
331.115	113.69
331.344	109.69
331.572	96.69
331.801	113.69
332.03	105.69
332.258	92.69
332.486	86.69
332.715	86.69
332.943	97.69
333.172	76.69
333.4	97.69
333.629	105.69
333.857	119.69
334.085	152.69
334.314	216.69
334.542	316.69
334.771	300.69
334.999	157.69
335.227	103.69
335.455	100.69
335.684	89.69
335.912	96.69
336.14	87.69
336.369	110.69
336.597	96.69
336.825	102.69
337.053	105.69
337.281	93.69
337.51	91.69
337.738	97.69
337.966	82.69
338.194	107.69
338.422	100.69
338.65	93.69
338.878	77.69
339.106	75.69
339.334	86.69
339.562	84.69
339.79	105.69
340.018	98.69
340.246	81.69
340.474	91.69
340.702	85.69
340.93	100.69
341.158	91.69
341.386	95.69
341.614	102.69
341.842	97.69
342.07	97.69
342.298	93.69
342.526	88.69
342.754	82.69
342.981	88.69
343.209	95.69
343.437	102.69
343.665	91.69
343.893	80.69
344.12	83.69
344.348	87.69
344.576	96.69
344.804	84.69
345.031	88.69
345.259	101.69
345.487	93.69
345.714	88.69
345.942	99.69
346.17	99.69
346.397	95.69
346.625	96.69
346.853	90.69
347.08	93.69
347.308	103.69
347.535	99.69
347.763	99.69
347.99	82.69
348.218	114.69
348.445	114.69
348.673	91.69
348.9	106.69
349.128	102.69
349.355	100.69
349.583	93.69
349.81	91.69
350.037	107.69
350.265	103.69
350.492	96.69
350.72	98.69
350.947	100.69
351.174	96.69
351.402	103.69
351.629	108.69
351.856	97.69
352.083	104.69
352.311	105.69
352.538	109.69
352.765	98.69
352.992	115.69
353.22	111.69
353.447	94.69
353.674	98.69
353.901	91.69
354.128	98.69
354.355	94.69
354.583	89.69
354.81	81.69
355.037	96.69
355.264	93.69
355.491	81.69
355.718	80.69
355.945	89.69
356.172	94.69
356.399	105.69
356.626	104.69
356.853	84.69
357.08	108.69
357.307	93.69
357.534	78.69
357.761	92.69
357.988	91.69
358.215	100.69
358.441	97.69
358.668	102.69
358.895	88.69
359.122	84.69
359.349	92.69
359.576	104.69
359.802	95.69
360.029	107.69
360.256	107.69
360.483	104.69
360.709	81.69
360.936	88.69
361.163	101.69
361.39	98.69
361.616	89.69
361.843	100.69
362.07	76.69
362.296	95.69
362.523	103.69
362.749	90.69
362.976	87.69
363.203	90.69
363.429	94.69
363.656	89.69
363.882	100.69
364.109	80.69
364.335	83.69
364.562	93.69
364.788	83.69
365.015	77.69
365.241	103.69
365.468	110.69
365.694	102.69
365.92	96.69
366.147	82.69
366.373	99.69
366.599	94.69
366.826	98.69
367.052	77.69
367.278	80.69
367.505	87.69
367.731	98.69
367.957	97.69
368.184	95.69
368.41	98.69
368.636	93.69
368.862	109.69
369.089	104.69
369.315	75.69
369.541	105.69
369.767	101.69
369.993	84.69
370.219	78.69
370.445	96.69
370.672	82.69
370.898	90.69
371.124	94.69
371.35	95.69
371.576	94.69
371.802	104.69
372.028	93.69
372.254	98.69
372.48	95.69
372.706	83.69
372.932	97.69
373.158	91.69
373.384	92.69
373.61	97.69
373.835	98.69
374.061	75.69
374.287	103.69
374.513	92.69
374.739	83.69
374.965	92.69
375.191	89.69
375.416	87.69
375.642	90.69
375.868	102.69
376.094	93.69
376.319	101.69
376.545	86.69
376.771	82.69
376.997	91.69
377.222	99.69
377.448	79.69
377.674	90.69
377.899	91.69
378.125	91.69
378.35	96.69
378.576	94.69
378.802	92.69
379.027	90.69
379.253	87.69
379.478	72.69
379.704	92.69
379.929	93.69
380.155	97.69
380.38	95.69
380.606	76.69
380.831	102.69
381.057	94.69
381.282	91.69
381.507	84.69
381.733	92.69
381.958	92.69
382.184	100.69
382.409	88.69
382.634	98.69
382.86	94.69
383.085	110.69
383.31	115.69
383.535	88.69
383.761	106.69
383.986	100.69
384.211	98.69
384.436	94.69
384.662	91.69
384.887	94.69
385.112	102.69
385.337	106.69
385.562	105.69
385.787	105.69
386.013	102.69
386.238	120.69
386.463	107.69
386.688	113.69
386.913	107.69
387.138	114.69
387.363	104.69
387.588	88.69
387.813	105.69
388.038	118.69
388.263	118.69
388.488	103.69
388.713	102.69
388.938	89.69
389.163	81.69
389.387	98.69
389.612	110.69
389.837	101.69
390.062	96.69
390.287	84.69
390.512	105.69
390.736	83.69
390.961	84.69
391.186	99.69
391.411	102.69
391.636	93.69
391.86	99.69
392.085	83.69
392.31	90.69
392.534	92.69
392.759	103.69
392.984	96.69
393.208	92.69
393.433	92.69
393.658	86.69
393.882	83.69
394.107	86.69
394.331	86.69
394.556	83.69
394.78	94.69
395.005	83.69
395.229	77.69
395.454	85.69
395.678	85.69
395.903	94.69
396.127	94.69
396.352	84.69
396.576	87.69
396.801	94.69
397.025	90.69
397.249	92.69
397.474	100.69
397.698	101.69
397.922	82.69
398.147	89.69
398.371	87.69
398.595	87.69
398.82	105.69
399.044	80.69
399.268	88.69
399.492	99.69
399.717	93.69
399.941	89.69
400.165	87.69
400.389	83.69
400.613	85.69
400.837	94.69
401.062	83.69
401.286	92.69
401.51	95.69
401.734	95.69
401.958	106.69
402.182	104.69
402.406	140.69
402.63	95.69
402.854	88.69
403.078	82.69
403.302	76.69
403.526	87.69
403.75	81.69
403.974	88.69
404.198	79.69
404.422	88.69
404.645	94.69
404.869	94.69
405.093	102.69
405.317	100.69
405.541	96.69
405.765	101.69
405.988	104.69
406.212	153.69
406.436	195.69
406.66	133.69
406.883	87.69
407.107	92.69
407.331	92.69
407.555	94.69
407.778	105.69
408.002	89.69
408.226	91.69
408.449	109.69
408.673	78.69
408.896	82.69
409.12	84.69
409.344	88.69
409.567	77.69
409.791	95.69
410.014	94.69
410.238	90.69
410.461	100.69
410.685	81.69
410.908	82.69
411.132	114.69
411.355	93.69
411.578	88.69
411.802	84.69
412.025	87.69
412.249	85.69
412.472	90.69
412.695	97.69
412.919	101.69
413.142	91.69
413.365	89.69
413.589	83.69
413.812	73.69
414.035	88.69
414.258	97.69
414.482	101.69
414.705	93.69
414.928	85.69
415.151	92.69
415.374	84.69
415.597	106.69
415.821	84.69
416.044	80.69
416.267	70.69
416.49	76.69
416.713	94.69
416.936	81.69
417.159	71.69
417.382	86.69
417.605	98.69
417.828	103.69
418.051	87.69
418.274	101.69
418.497	97.69
418.72	80.69
418.943	89.69
419.166	84.69
419.389	78.69
419.611	90.69
419.834	92.69
420.057	78.69
420.28	97.69
420.503	85.69
420.726	86.69
420.948	85.69
421.171	102.69
421.394	96.69
421.617	83.69
421.839	94.69
422.062	93.69
422.285	80.69
422.507	103.69
422.73	102.69
422.953	88.69
423.175	88.69
423.398	93.69
423.621	95.69
423.843	83.69
424.066	83.69
424.288	100.69
424.511	95.69
424.733	90.69
424.956	102.69
425.178	105.69
425.401	97.69
425.623	102.69
425.846	80.69
426.068	86.69
426.291	86.69
426.513	98.69
426.735	92.69
426.958	97.69
427.18	104.69
427.402	126.69
427.625	160.69
427.847	144.69
428.069	136.69
428.292	78.69
428.514	104.69
428.736	86.69
428.958	90.69
429.181	87.69
429.403	82.69
429.625	78.69
429.847	106.69
430.069	101.69
430.292	90.69
430.514	78.69
430.736	100.69
430.958	88.69
431.18	102.69
431.402	96.69
431.624	90.69
431.846	75.69
432.068	93.69
432.29	97.69
432.512	90.69
432.734	76.69
432.956	110.69
433.178	109.69
433.4	108.69
433.622	91.69
433.844	92.69
434.066	96.69
434.287	90.69
434.509	81.69
434.731	91.69
434.953	72.69
435.175	82.69
435.397	91.69
435.618	102.69
435.84	94.69
436.062	108.69
436.284	102.69
436.505	100.69
436.727	108.69
436.949	98.69
437.17	83.69
437.392	82.69
437.614	85.69
437.835	96.69
438.057	104.69
438.278	102.69
438.5	94.69
438.721	118.69
438.943	96.69
439.165	88.69
439.386	90.69
439.608	101.69
439.829	112.69
440.05	119.69
440.272	120.69
440.493	104.69
440.715	87.69
440.936	80.69
441.158	90.69
441.379	94.69
441.6	104.69
441.822	96.69
442.043	96.69
442.264	88.69
442.486	105.69
442.707	92.69
442.928	96.69
443.149	109.69
443.371	115.69
443.592	109.69
443.813	105.69
444.034	109.69
444.255	85.69
444.476	83.69
444.698	91.69
444.919	94.69
445.14	147.69
445.361	139.69
445.582	128.69
445.803	129.69
446.024	112.69
446.245	124.69
446.466	120.69
446.687	86.69
446.908	81.69
447.129	98.69
447.35	87.69
447.571	85.69
447.792	96.69
448.013	95.69
448.234	89.69
448.455	94.69
448.675	114.69
448.896	102.69
449.117	98.69
449.338	93.69
449.559	114.69
449.779	115.69
450	86.69
450.221	92.69
450.442	93.69
450.662	109.69
450.883	105.69
451.104	105.69
451.324	85.69
451.545	86.69
451.766	90.69
451.986	90.69
452.207	89.69
452.428	84.69
452.648	94.69
452.869	115.69
453.089	117.69
453.31	116.69
453.53	93.69
453.751	105.69
453.971	102.69
454.192	97.69
454.412	80.69
454.633	82.69
454.853	98.69
455.073	80.69
455.294	72.69
455.514	93.69
455.734	103.69
455.955	84.69
456.175	71.69
456.395	76.69
456.616	89.69
456.836	80.69
457.056	90.69
457.276	77.69
457.497	88.69
457.717	70.69
457.937	87.69
458.157	87.69
458.377	88.69
458.598	103.69
458.818	141.69
459.038	149.69
459.258	117.69
459.478	77.69
459.698	76.69
459.918	92.69
460.138	84.69
460.358	89.69
460.578	99.69
460.798	97.69
461.018	74.69
461.238	93.69
461.458	98.69
461.678	88.69
461.898	80.69
462.118	80.69
462.338	88.69
462.558	84.69
462.777	89.69
462.997	86.69
463.217	82.69
463.437	85.69
463.657	89.69
463.876	97.69
464.096	89.69
464.316	92.69
464.536	91.69
464.755	105.69
464.975	115.69
465.195	150.69
465.414	120.69
465.634	73.69
465.854	75.69
466.073	85.69
466.293	76.69
466.512	88.69
466.732	82.69
466.951	91.69
467.171	104.69
467.391	97.69
467.61	103.69
467.829	114.69
468.049	164.69
468.268	185.69
468.488	93.69
468.707	98.69
468.927	78.69
469.146	86.69
469.365	88.69
469.585	93.69
469.804	90.69
470.023	109.69
470.243	84.69
470.462	106.69
470.681	105.69
470.901	97.69
471.12	73.69
471.339	85.69
471.558	95.69
471.777	88.69
471.997	117.69
472.216	253.69
472.435	410.69
472.654	162.69
472.873	96.69
473.092	97.69
473.311	81.69
473.53	92.69
473.749	90.69
473.968	102.69
474.187	98.69
474.406	97.69
474.625	86.69
474.844	98.69
475.063	77.69
475.282	95.69
475.501	97.69
475.72	96.69
475.939	93.69
476.158	90.69
476.377	85.69
476.596	75.69
476.814	99.69
477.033	92.69
477.252	80.69
477.471	101.69
477.69	90.69
477.908	95.69
478.127	95.69
478.346	95.69
478.564	77.69
478.783	88.69
479.002	97.69
479.22	117.69
479.439	101.69
479.658	122.69
479.876	94.69
480.095	100.69
480.313	89.69
480.532	102.69
480.751	121.69
480.969	220.69
481.188	658.69
481.406	423.69
481.624	131.69
481.843	100.69
482.061	100.69
482.28	84.69
482.498	89.69
482.717	76.69
482.935	89.69
483.153	74.69
483.372	80.69
483.59	98.69
483.808	88.69
484.027	78.69
484.245	87.69
484.463	79.69
484.681	92.69
484.9	94.69
485.118	113.69
485.336	100.69
485.554	95.69
485.772	107.69
485.99	119.69
486.209	106.69
486.427	104.69
486.645	108.69
486.863	121.69
487.081	98.69
487.299	113.69
487.517	95.69
487.735	85.69
487.953	104.69
488.171	92.69
488.389	93.69
488.607	93.69
488.825	97.69
489.043	86.69
489.261	97.69
489.479	93.69
489.696	91.69
489.914	85.69
490.132	97.69
490.35	105.69
490.568	90.69
490.786	93.69
491.003	73.69
491.221	78.69
491.439	88.69
491.657	85.69
491.874	77.69
492.092	100.69
492.31	80.69
492.527	98.69
492.745	84.69
492.963	92.69
493.18	97.69
493.398	84.69
493.615	99.69
493.833	110.69
494.05	106.69
494.268	97.69
494.485	82.69
494.703	101.69
494.92	88.69
495.138	86.69
495.355	98.69
495.573	93.69
495.79	85.69
496.008	100.69
496.225	98.69
496.442	87.69
496.66	99.69
496.877	94.69
497.094	96.69
497.312	84.69
497.529	103.69
497.746	91.69
497.963	93.69
498.181	99.69
498.398	88.69
498.615	110.69
498.832	113.69
499.049	98.69
499.267	102.69
499.484	93.69
499.701	102.69
499.918	96.69
500.135	82.69
500.352	70.69
500.569	86.69
500.786	101.69
501.003	85.69
501.22	93.69
501.437	96.69
501.654	96.69
501.871	101.69
502.088	86.69
502.305	78.69
502.522	93.69
502.739	106.69
502.956	94.69
503.172	91.69
503.389	100.69
503.606	101.69
503.823	105.69
504.04	98.69
504.256	88.69
504.473	83.69
504.69	104.69
504.907	112.69
505.123	98.69
505.34	78.69
505.557	86.69
505.773	98.69
505.99	97.69
506.207	102.69
506.423	86.69
506.64	92.69
506.856	97.69
507.073	86.69
507.289	89.69
507.506	96.69
507.722	106.69
507.939	97.69
508.155	94.69
508.372	88.69
508.588	93.69
508.805	106.69
509.021	90.69
509.238	107.69
509.454	98.69
509.67	100.69
509.887	83.69
510.103	129.69
510.319	194.69
510.536	632.69
510.752	2016.69
510.968	556.69
511.184	154.69
511.401	110.69
511.617	120.69
511.833	99.69
512.049	93.69
512.265	89.69
512.481	97.69
512.698	91.69
512.914	86.69
513.13	101.69
513.346	92.69
513.562	101.69
513.778	111.69
513.994	90.69
514.21	102.69
514.426	118.69
514.642	120.69
514.858	116.69
515.074	157.69
515.29	373.69
