Data from Circ_1984_H10_HRD10591_00069.txt Node
Date: Wed Jan 03 12:22:55 EST 2024
User: Yrep
Spectrometer: HR+D1059
Trigger mode: 1
Integration Time (sec): 1.000000E-1
Scans to average: 1
Electric dark correction enabled: true
Nonlinearity correction enabled: false
Boxcar width: 0
XAxis mode: Wavelengths
Number of Pixels in Spectrum: 2048
>>>>>Begin Spectral Data<<<<<
223.165	-29.69
223.4	-29.69
223.635	-29.69
223.869	-25.69
224.104	-15.69
224.338	-20.69
224.573	-14.69
224.808	-14.69
225.042	-6.69
225.277	-21.69
225.511	3.31
225.746	2.31
225.98	3.31
226.215	16.31
226.449	26.31
226.683	18.31
226.918	31.31
227.152	48.31
227.387	40.31
227.621	37.31
227.856	45.31
228.09	34.31
228.324	45.31
228.559	51.31
228.793	56.31
229.027	63.31
229.262	66.31
229.496	56.31
229.73	79.31
229.964	80.31
230.199	78.31
230.433	83.31
230.667	77.31
230.901	86.31
231.136	82.31
231.37	80.31
231.604	65.31
231.838	66.31
232.072	68.31
232.306	88.31
232.541	74.31
232.775	77.31
233.009	88.31
233.243	78.31
233.477	76.31
233.711	86.31
233.945	91.31
234.179	64.31
234.413	68.31
234.647	80.31
234.881	78.31
235.115	80.31
235.349	77.31
235.583	81.31
235.817	69.31
236.051	80.31
236.285	85.31
236.519	72.31
236.753	70.31
236.987	76.31
237.221	94.31
237.455	81.31
237.689	90.31
237.922	60.31
238.156	88.31
238.39	71.31
238.624	81.31
238.858	74.31
239.091	72.31
239.325	62.31
239.559	88.31
239.793	71.31
240.027	64.31
240.26	68.31
240.494	43.31
240.728	72.31
240.961	78.31
241.195	69.31
241.429	74.31
241.662	71.31
241.896	68.31
242.13	68.31
242.363	77.31
242.597	66.31
242.83	71.31
243.064	72.31
243.298	77.31
243.531	87.31
243.765	73.31
243.998	84.31
244.232	74.31
244.465	72.31
244.699	62.31
244.932	69.31
245.166	85.31
245.399	80.31
245.633	87.31
245.866	67.31
246.099	83.31
246.333	82.31
246.566	78.31
246.8	78.31
247.033	79.31
247.266	65.31
247.5	83.31
247.733	81.31
247.966	64.31
248.2	82.31
248.433	82.31
248.666	77.31
248.899	86.31
249.133	78.31
249.366	76.31
249.599	82.31
249.832	73.31
250.066	92.31
250.299	82.31
250.532	74.31
250.765	81.31
250.998	86.31
251.231	72.31
251.465	85.31
251.698	71.31
251.931	76.31
252.164	82.31
252.397	78.31
252.63	85.31
252.863	76.31
253.096	72.31
253.329	70.31
253.562	81.31
253.795	71.31
254.028	78.31
254.261	78.31
254.494	92.31
254.727	81.31
254.96	56.31
255.193	88.31
255.426	78.31
255.659	85.31
255.892	93.31
256.124	90.31
256.357	72.31
256.59	83.31
256.823	86.31
257.056	68.31
257.289	92.31
257.521	77.31
257.754	84.31
257.987	63.31
258.22	82.31
258.452	89.31
258.685	77.31
258.918	74.31
259.151	65.31
259.383	76.31
259.616	88.31
259.849	84.31
260.081	69.31
260.314	82.31
260.547	82.31
260.779	87.31
261.012	76.31
261.244	80.31
261.477	79.31
261.71	99.31
261.942	94.31
262.175	109.31
262.407	73.31
262.64	72.31
262.872	74.31
263.105	77.31
263.337	71.31
263.57	83.31
263.802	85.31
264.035	67.31
264.267	81.31
264.499	89.31
264.732	70.31
264.964	78.31
265.197	83.31
265.429	68.31
265.661	83.31
265.894	96.31
266.126	80.31
266.358	86.31
266.591	76.31
266.823	91.31
267.055	77.31
267.287	97.31
267.52	74.31
267.752	74.31
267.984	77.31
268.216	76.31
268.448	88.31
268.681	87.31
268.913	69.31
269.145	101.31
269.377	95.31
269.609	85.31
269.841	95.31
270.073	79.31
270.306	88.31
270.538	75.31
270.77	98.31
271.002	79.31
271.234	80.31
271.466	89.31
271.698	79.31
271.93	74.31
272.162	72.31
272.394	66.31
272.626	81.31
272.858	81.31
273.09	80.31
273.322	79.31
273.553	83.31
273.785	73.31
274.017	85.31
274.249	90.31
274.481	90.31
274.713	80.31
274.945	101.31
275.176	90.31
275.408	84.31
275.64	86.31
275.872	72.31
276.104	84.31
276.335	82.31
276.567	100.31
276.799	102.31
277.031	109.31
277.262	98.31
277.494	84.31
277.726	73.31
277.957	82.31
278.189	83.31
278.421	72.31
278.652	73.31
278.884	80.31
279.115	82.31
279.347	89.31
279.579	85.31
279.81	98.31
280.042	97.31
280.273	106.31
280.505	98.31
280.736	83.31
280.968	76.31
281.199	96.31
281.431	90.31
281.662	84.31
281.894	81.31
282.125	87.31
282.356	114.31
282.588	134.31
282.819	93.31
283.051	93.31
283.282	85.31
283.513	83.31
283.745	83.31
283.976	69.31
284.207	87.31
284.439	87.31
284.67	98.31
284.901	89.31
285.132	79.31
285.364	95.31
285.595	66.31
285.826	80.31
286.057	85.31
286.288	80.31
286.52	83.31
286.751	81.31
286.982	78.31
287.213	73.31
287.444	86.31
287.675	86.31
287.906	82.31
288.138	93.31
288.369	83.31
288.6	89.31
288.831	74.31
289.062	96.31
289.293	99.31
289.524	71.31
289.755	76.31
289.986	77.31
290.217	74.31
290.448	82.31
290.679	102.31
290.91	77.31
291.141	88.31
291.371	96.31
291.602	88.31
291.833	76.31
292.064	69.31
292.295	73.31
292.526	88.31
292.757	91.31
292.987	73.31
293.218	80.31
293.449	86.31
293.68	77.31
293.91	76.31
294.141	70.31
294.372	84.31
294.603	90.31
294.833	96.31
295.064	84.31
295.295	69.31
295.525	90.31
295.756	95.31
295.987	122.31
296.217	121.31
296.448	107.31
296.679	84.31
296.909	87.31
297.14	86.31
297.37	97.31
297.601	88.31
297.831	78.31
298.062	93.31
298.292	84.31
298.523	82.31
298.753	88.31
298.984	77.31
299.214	67.31
299.445	88.31
299.675	102.31
299.905	83.31
300.136	80.31
300.366	97.31
300.597	88.31
300.827	78.31
301.057	80.31
301.288	91.31
301.518	78.31
301.748	92.31
301.979	94.31
302.209	88.31
302.439	85.31
302.669	82.31
302.9	84.31
303.13	88.31
303.36	101.31
303.59	105.31
303.82	99.31
304.051	97.31
304.281	89.31
304.511	99.31
304.741	84.31
304.971	79.31
305.201	81.31
305.431	76.31
305.661	80.31
305.891	92.31
306.121	87.31
306.352	104.31
306.582	119.31
306.812	97.31
307.042	97.31
307.272	93.31
307.502	93.31
307.731	109.31
307.961	89.31
308.191	81.31
308.421	87.31
308.651	85.31
308.881	102.31
309.111	89.31
309.341	92.31
309.571	104.31
309.8	97.31
310.03	87.31
310.26	108.31
310.49	93.31
310.72	89.31
310.949	96.31
311.179	104.31
311.409	97.31
311.639	93.31
311.868	89.31
312.098	97.31
312.328	85.31
312.557	99.31
312.787	101.31
313.017	80.31
313.246	92.31
313.476	97.31
313.706	92.31
313.935	113.31
314.165	84.31
314.394	92.31
314.624	92.31
314.853	80.31
315.083	98.31
315.312	87.31
315.542	102.31
315.771	88.31
316.001	97.31
316.23	80.31
316.46	71.31
316.689	78.31
316.919	102.31
317.148	92.31
317.377	91.31
317.607	84.31
317.836	85.31
318.065	92.31
318.295	96.31
318.524	83.31
318.753	88.31
318.983	95.31
319.212	95.31
319.441	89.31
319.67	119.31
319.9	98.31
320.129	87.31
320.358	100.31
320.587	95.31
320.816	90.31
321.046	102.31
321.275	104.31
321.504	92.31
321.733	107.31
321.962	96.31
322.191	91.31
322.42	107.31
322.649	105.31
322.878	94.31
323.108	115.31
323.337	105.31
323.566	125.31
323.795	141.31
324.024	199.31
324.253	359.31
324.482	739.31
324.71	1519.31
324.939	2045.31
325.168	736.31
325.397	215.31
325.626	140.31
325.855	117.31
326.084	119.31
326.313	125.31
326.542	137.31
326.77	195.31
326.999	425.31
327.228	844.31
327.457	1548.31
327.686	1249.31
327.914	360.31
328.143	227.31
328.372	211.31
328.6	164.31
328.829	103.31
329.058	112.31
329.287	105.31
329.515	107.31
329.744	125.31
329.972	141.31
330.201	233.31
330.43	304.31
330.658	183.31
330.887	149.31
331.115	127.31
331.344	106.31
331.572	91.31
331.801	88.31
332.03	90.31
332.258	79.31
332.486	100.31
332.715	95.31
332.943	99.31
333.172	96.31
333.4	99.31
333.629	91.31
333.857	121.31
334.085	160.31
334.314	239.31
334.542	405.31
334.771	372.31
334.999	146.31
335.227	103.31
335.455	84.31
335.684	102.31
335.912	97.31
336.14	101.31
336.369	87.31
336.597	104.31
336.825	94.31
337.053	88.31
337.281	88.31
337.51	100.31
337.738	85.31
337.966	94.31
338.194	90.31
338.422	94.31
338.65	88.31
338.878	78.31
339.106	80.31
339.334	105.31
339.562	85.31
339.79	84.31
340.018	77.31
340.246	87.31
340.474	96.31
340.702	89.31
340.93	100.31
341.158	91.31
341.386	84.31
341.614	95.31
341.842	99.31
342.07	88.31
342.298	102.31
342.526	87.31
342.754	76.31
342.981	85.31
343.209	100.31
343.437	97.31
343.665	80.31
343.893	100.31
344.12	97.31
344.348	85.31
344.576	81.31
344.804	93.31
345.031	83.31
345.259	79.31
345.487	91.31
345.714	82.31
345.942	94.31
346.17	74.31
346.397	89.31
346.625	86.31
346.853	84.31
347.08	95.31
347.308	87.31
347.535	97.31
347.763	101.31
347.99	94.31
348.218	101.31
348.445	93.31
348.673	91.31
348.9	92.31
349.128	87.31
349.355	73.31
349.583	83.31
349.81	94.31
350.037	103.31
350.265	100.31
350.492	102.31
350.72	102.31
350.947	104.31
351.174	94.31
351.402	114.31
351.629	95.31
351.856	102.31
352.083	96.31
352.311	94.31
352.538	82.31
352.765	99.31
352.992	112.31
353.22	111.31
353.447	105.31
353.674	93.31
353.901	93.31
354.128	102.31
354.355	94.31
354.583	94.31
354.81	87.31
355.037	94.31
355.264	86.31
355.491	109.31
355.718	88.31
355.945	90.31
356.172	95.31
356.399	85.31
356.626	80.31
356.853	78.31
357.08	83.31
357.307	88.31
357.534	94.31
357.761	77.31
357.988	102.31
358.215	100.31
358.441	99.31
358.668	90.31
358.895	91.31
359.122	94.31
359.349	85.31
359.576	89.31
359.802	101.31
360.029	104.31
360.256	89.31
360.483	96.31
360.709	85.31
360.936	89.31
361.163	100.31
361.39	101.31
361.616	113.31
361.843	79.31
362.07	86.31
362.296	86.31
362.523	92.31
362.749	79.31
362.976	96.31
363.203	82.31
363.429	86.31
363.656	87.31
363.882	84.31
364.109	95.31
364.335	90.31
364.562	95.31
364.788	88.31
365.015	78.31
365.241	88.31
365.468	97.31
365.694	108.31
365.92	94.31
366.147	96.31
366.373	86.31
366.599	82.31
366.826	87.31
367.052	89.31
367.278	94.31
367.505	93.31
367.731	88.31
367.957	94.31
368.184	93.31
368.41	99.31
368.636	106.31
368.862	101.31
369.089	115.31
369.315	86.31
369.541	83.31
369.767	84.31
369.993	88.31
370.219	91.31
370.445	72.31
370.672	89.31
370.898	84.31
371.124	79.31
371.35	81.31
371.576	88.31
371.802	88.31
372.028	83.31
372.254	88.31
372.48	80.31
372.706	90.31
372.932	85.31
373.158	89.31
373.384	85.31
373.61	98.31
373.835	86.31
374.061	85.31
374.287	82.31
374.513	69.31
374.739	79.31
374.965	82.31
375.191	86.31
375.416	100.31
375.642	80.31
375.868	89.31
376.094	86.31
376.319	99.31
376.545	84.31
376.771	89.31
376.997	100.31
377.222	91.31
377.448	98.31
377.674	94.31
377.899	84.31
378.125	84.31
378.35	96.31
378.576	84.31
378.802	71.31
379.027	88.31
379.253	94.31
379.478	77.31
379.704	96.31
379.929	88.31
380.155	76.31
380.38	78.31
380.606	85.31
380.831	84.31
381.057	94.31
381.282	86.31
381.507	93.31
381.733	90.31
381.958	89.31
382.184	82.31
382.409	99.31
382.634	103.31
382.86	100.31
383.085	91.31
383.31	103.31
383.535	91.31
383.761	88.31
383.986	88.31
384.211	94.31
384.436	93.31
384.662	88.31
384.887	99.31
385.112	86.31
385.337	110.31
385.562	96.31
385.787	102.31
386.013	103.31
386.238	100.31
386.463	94.31
386.688	100.31
386.913	102.31
387.138	97.31
387.363	91.31
387.588	103.31
387.813	85.31
388.038	102.31
388.263	95.31
388.488	98.31
388.713	79.31
388.938	89.31
389.163	98.31
389.387	88.31
389.612	97.31
389.837	88.31
390.062	93.31
390.287	96.31
390.512	88.31
390.736	95.31
390.961	73.31
391.186	97.31
391.411	86.31
391.636	93.31
391.86	92.31
392.085	84.31
392.31	103.31
392.534	78.31
392.759	78.31
392.984	80.31
393.208	91.31
393.433	85.31
393.658	86.31
393.882	79.31
394.107	82.31
394.331	92.31
394.556	79.31
394.78	92.31
395.005	71.31
395.229	91.31
395.454	89.31
395.678	90.31
395.903	87.31
396.127	80.31
396.352	87.31
396.576	82.31
396.801	86.31
397.025	79.31
397.249	78.31
397.474	78.31
397.698	84.31
397.922	95.31
398.147	73.31
398.371	87.31
398.595	89.31
398.82	87.31
399.044	79.31
399.268	76.31
399.492	93.31
399.717	81.31
399.941	82.31
400.165	96.31
400.389	80.31
400.613	81.31
400.837	87.31
401.062	84.31
401.286	81.31
401.51	94.31
401.734	79.31
401.958	89.31
402.182	115.31
402.406	132.31
402.63	101.31
402.854	91.31
403.078	83.31
403.302	96.31
403.526	86.31
403.75	84.31
403.974	100.31
404.198	83.31
404.422	87.31
404.645	83.31
404.869	93.31
405.093	105.31
405.317	93.31
405.541	98.31
405.765	86.31
405.988	108.31
406.212	152.31
406.436	209.31
406.66	136.31
406.883	97.31
407.107	88.31
407.331	74.31
407.555	81.31
407.778	101.31
408.002	94.31
408.226	92.31
408.449	84.31
408.673	100.31
408.896	89.31
409.12	88.31
409.344	87.31
409.567	97.31
409.791	90.31
410.014	100.31
410.238	95.31
410.461	90.31
410.685	88.31
410.908	94.31
411.132	99.31
411.355	91.31
411.578	92.31
411.802	97.31
412.025	88.31
412.249	93.31
412.472	102.31
412.695	105.31
412.919	95.31
413.142	93.31
413.365	94.31
413.589	81.31
413.812	85.31
414.035	82.31
414.258	95.31
414.482	91.31
414.705	92.31
414.928	93.31
415.151	94.31
415.374	94.31
415.597	85.31
415.821	86.31
416.044	78.31
416.267	81.31
416.49	79.31
416.713	86.31
416.936	88.31
417.159	76.31
417.382	77.31
417.605	88.31
417.828	83.31
418.051	93.31
418.274	94.31
418.497	90.31
418.72	95.31
418.943	95.31
419.166	81.31
419.389	88.31
419.611	80.31
419.834	88.31
420.057	95.31
420.28	85.31
420.503	88.31
420.726	70.31
420.948	84.31
421.171	89.31
421.394	84.31
421.617	87.31
421.839	89.31
422.062	96.31
422.285	87.31
422.507	93.31
422.73	97.31
422.953	89.31
423.175	86.31
423.398	88.31
423.621	90.31
423.843	96.31
424.066	90.31
424.288	92.31
424.511	87.31
424.733	97.31
424.956	102.31
425.178	99.31
425.401	106.31
425.623	90.31
425.846	96.31
426.068	100.31
426.291	89.31
426.513	69.31
426.735	88.31
426.958	97.31
427.18	95.31
427.402	116.31
427.625	156.31
427.847	156.31
428.069	125.31
428.292	89.31
428.514	100.31
428.736	68.31
428.958	92.31
429.181	85.31
429.403	88.31
429.625	80.31
429.847	88.31
430.069	90.31
430.292	99.31
430.514	84.31
430.736	86.31
430.958	73.31
431.18	82.31
431.402	80.31
431.624	87.31
431.846	88.31
432.068	85.31
432.29	74.31
432.512	90.31
432.734	86.31
432.956	82.31
433.178	97.31
433.4	103.31
433.622	87.31
433.844	92.31
434.066	72.31
434.287	76.31
434.509	89.31
434.731	82.31
434.953	89.31
435.175	80.31
435.397	95.31
435.618	99.31
435.84	92.31
436.062	100.31
436.284	115.31
436.505	92.31
436.727	95.31
436.949	81.31
437.17	93.31
437.392	91.31
437.614	87.31
437.835	105.31
438.057	115.31
438.278	97.31
438.5	108.31
438.721	121.31
438.943	98.31
439.165	78.31
439.386	99.31
439.608	89.31
439.829	99.31
440.05	118.31
440.272	126.31
440.493	95.31
440.715	90.31
440.936	80.31
441.158	77.31
441.379	95.31
441.6	83.31
441.822	84.31
442.043	89.31
442.264	101.31
442.486	98.31
442.707	98.31
442.928	108.31
443.149	114.31
443.371	120.31
443.592	112.31
443.813	100.31
444.034	101.31
444.255	87.31
444.476	78.31
444.698	70.31
444.919	82.31
445.14	130.31
445.361	124.31
445.582	129.31
445.803	127.31
446.024	131.31
446.245	128.31
446.466	112.31
446.687	82.31
446.908	81.31
447.129	82.31
447.35	77.31
447.571	95.31
447.792	99.31
448.013	84.31
448.234	92.31
448.455	91.31
448.675	105.31
448.896	111.31
449.117	97.31
449.338	85.31
449.559	107.31
449.779	104.31
450	93.31
450.221	77.31
450.442	63.31
450.662	88.31
450.883	88.31
451.104	107.31
451.324	93.31
451.545	87.31
451.766	89.31
451.986	77.31
452.207	80.31
452.428	100.31
452.648	89.31
452.869	89.31
453.089	96.31
453.31	112.31
453.53	89.31
453.751	88.31
453.971	101.31
454.192	106.31
454.412	98.31
454.633	102.31
454.853	78.31
455.073	89.31
455.294	89.31
455.514	97.31
455.734	89.31
455.955	78.31
456.175	79.31
456.395	80.31
456.616	99.31
456.836	88.31
457.056	71.31
457.276	93.31
457.497	79.31
457.717	95.31
457.937	96.31
458.157	80.31
458.377	71.31
458.598	103.31
458.818	135.31
459.038	144.31
459.258	107.31
459.478	84.31
459.698	86.31
459.918	62.31
460.138	88.31
460.358	92.31
460.578	85.31
460.798	88.31
461.018	77.31
461.238	88.31
461.458	81.31
461.678	86.31
461.898	92.31
462.118	80.31
462.338	82.31
462.558	87.31
462.777	89.31
462.997	82.31
463.217	83.31
463.437	92.31
463.657	80.31
463.876	79.31
464.096	104.31
464.316	93.31
464.536	105.31
464.755	97.31
464.975	112.31
465.195	149.31
465.414	147.31
465.634	96.31
465.854	89.31
466.073	105.31
466.293	80.31
466.512	83.31
466.732	83.31
466.951	86.31
467.171	94.31
467.391	97.31
467.61	113.31
467.829	105.31
468.049	178.31
468.268	206.31
468.488	103.31
468.707	89.31
468.927	103.31
469.146	77.31
469.365	86.31
469.585	93.31
469.804	92.31
470.023	93.31
470.243	77.31
470.462	93.31
470.681	111.31
470.901	92.31
471.12	98.31
471.339	88.31
471.558	79.31
471.777	102.31
471.997	125.31
472.216	288.31
472.435	504.31
472.654	176.31
472.873	98.31
473.092	84.31
473.311	96.31
473.53	79.31
473.749	84.31
473.968	82.31
474.187	97.31
474.406	100.31
474.625	88.31
474.844	90.31
475.063	90.31
475.282	90.31
475.501	79.31
475.72	98.31
475.939	69.31
476.158	89.31
476.377	77.31
476.596	80.31
476.814	91.31
477.033	98.31
477.252	90.31
477.471	87.31
477.69	83.31
477.908	82.31
478.127	92.31
478.346	94.31
478.564	116.31
478.783	92.31
479.002	95.31
479.22	96.31
479.439	89.31
479.658	108.31
479.876	88.31
480.095	97.31
480.313	98.31
480.532	89.31
480.751	133.31
480.969	288.31
481.188	912.31
481.406	532.31
481.624	149.31
481.843	88.31
482.061	80.31
482.28	90.31
482.498	82.31
482.717	85.31
482.935	92.31
483.153	91.31
483.372	85.31
483.59	92.31
483.808	99.31
484.027	88.31
484.245	83.31
484.463	87.31
484.681	89.31
484.9	79.31
485.118	92.31
485.336	98.31
485.554	104.31
485.772	104.31
485.99	90.31
486.209	106.31
486.427	85.31
486.645	113.31
486.863	102.31
487.081	121.31
487.299	105.31
487.517	82.31
487.735	99.31
487.953	89.31
488.171	94.31
488.389	92.31
488.607	91.31
488.825	83.31
489.043	88.31
489.261	86.31
489.479	86.31
489.696	80.31
489.914	77.31
490.132	78.31
490.35	88.31
490.568	88.31
490.786	77.31
491.003	81.31
491.221	88.31
491.439	93.31
491.657	78.31
491.874	88.31
492.092	88.31
492.31	87.31
492.527	87.31
492.745	83.31
492.963	101.31
493.18	82.31
493.398	94.31
493.615	95.31
493.833	101.31
494.05	84.31
494.268	85.31
494.485	90.31
494.703	81.31
494.92	87.31
495.138	94.31
495.355	91.31
495.573	92.31
495.79	78.31
496.008	96.31
496.225	92.31
496.442	78.31
496.66	99.31
496.877	93.31
497.094	83.31
497.312	84.31
497.529	93.31
497.746	110.31
497.963	88.31
498.181	90.31
498.398	85.31
498.615	115.31
498.832	102.31
499.049	88.31
499.267	92.31
499.484	73.31
499.701	82.31
499.918	99.31
500.135	80.31
500.352	93.31
500.569	93.31
500.786	109.31
501.003	92.31
501.22	92.31
501.437	83.31
501.654	96.31
501.871	97.31
502.088	97.31
502.305	97.31
502.522	82.31
502.739	98.31
502.956	88.31
503.172	95.31
503.389	97.31
503.606	96.31
503.823	96.31
504.04	101.31
504.256	89.31
504.473	92.31
504.69	86.31
504.907	93.31
505.123	85.31
505.34	83.31
505.557	81.31
505.773	88.31
505.99	89.31
506.207	82.31
506.423	86.31
506.64	89.31
506.856	81.31
507.073	80.31
507.289	82.31
507.506	71.31
507.722	104.31
507.939	108.31
508.155	84.31
508.372	88.31
508.588	102.31
508.805	81.31
509.021	86.31
509.238	115.31
509.454	104.31
509.67	110.31
509.887	97.31
510.103	117.31
510.319	180.31
510.536	667.31
510.752	2146.31
510.968	598.31
511.184	157.31
511.401	102.31
511.617	95.31
511.833	112.31
512.049	87.31
512.265	89.31
512.481	88.31
512.698	80.31
512.914	79.31
513.13	93.31
513.346	89.31
513.562	95.31
513.778	93.31
513.994	86.31
514.21	97.31
514.426	129.31
514.642	118.31
514.858	113.31
515.074	148.31
515.29	400.31
515.506	1349.31
515.721	490.31
515.937	160.31
516.153	105.31
516.369	90.31
516.585	93.31
