Data from Circ_1984_H10_HRD10591_00022.txt Node
Date: Wed Jan 03 12:22:46 EST 2024
User: Yrep
Spectrometer: HR+D1059
Trigger mode: 1
Integration Time (sec): 1.000000E-1
Scans to average: 1
Electric dark correction enabled: true
Nonlinearity correction enabled: false
Boxcar width: 0
XAxis mode: Wavelengths
Number of Pixels in Spectrum: 2048
>>>>>Begin Spectral Data<<<<<
223.165	-20.56
223.4	-20.56
223.635	-20.56
223.869	-23.56
224.104	-20.56
224.338	-1.56
224.573	-12.56
224.808	-17.56
225.042	-2.56
225.277	-4.56
225.511	-9.56
225.746	5.44
225.98	7.44
226.215	21.44
226.449	15.44
226.683	15.44
226.918	21.44
227.152	26.44
227.387	45.44
227.621	40.44
227.856	33.44
228.09	57.44
228.324	54.44
228.559	54.44
228.793	54.44
229.027	65.44
229.262	62.44
229.496	64.44
229.73	80.44
229.964	85.44
230.199	72.44
230.433	73.44
230.667	73.44
230.901	70.44
231.136	76.44
231.37	81.44
231.604	75.44
231.838	85.44
232.072	79.44
232.306	73.44
232.541	71.44
232.775	93.44
233.009	71.44
233.243	85.44
233.477	90.44
233.711	84.44
233.945	90.44
234.179	73.44
234.413	65.44
234.647	83.44
234.881	81.44
235.115	73.44
235.349	81.44
235.583	81.44
235.817	84.44
236.051	97.44
236.285	74.44
236.519	75.44
236.753	80.44
236.987	90.44
237.221	83.44
237.455	73.44
237.689	72.44
237.922	68.44
238.156	83.44
238.39	76.44
238.624	69.44
238.858	67.44
239.091	78.44
239.325	73.44
239.559	85.44
239.793	73.44
240.027	79.44
240.26	85.44
240.494	73.44
240.728	67.44
240.961	90.44
241.195	83.44
241.429	74.44
241.662	57.44
241.896	70.44
242.13	84.44
242.363	63.44
242.597	85.44
242.83	77.44
243.064	67.44
243.298	80.44
243.531	83.44
243.765	90.44
243.998	73.44
244.232	81.44
244.465	71.44
244.699	66.44
244.932	64.44
245.166	86.44
245.399	71.44
245.633	83.44
245.866	76.44
246.099	84.44
246.333	91.44
246.566	79.44
246.8	68.44
247.033	89.44
247.266	71.44
247.5	81.44
247.733	82.44
247.966	79.44
248.2	68.44
248.433	79.44
248.666	67.44
248.899	70.44
249.133	66.44
249.366	93.44
249.599	65.44
249.832	74.44
250.066	83.44
250.299	82.44
250.532	93.44
250.765	73.44
250.998	59.44
251.231	85.44
251.465	89.44
251.698	68.44
251.931	79.44
252.164	74.44
252.397	81.44
252.63	77.44
252.863	83.44
253.096	83.44
253.329	77.44
253.562	69.44
253.795	87.44
254.028	80.44
254.261	84.44
254.494	68.44
254.727	83.44
254.96	64.44
255.193	65.44
255.426	71.44
255.659	82.44
255.892	88.44
256.124	88.44
256.357	79.44
256.59	73.44
256.823	81.44
257.056	78.44
257.289	83.44
257.521	91.44
257.754	86.44
257.987	87.44
258.22	91.44
258.452	80.44
258.685	97.44
258.918	89.44
259.151	82.44
259.383	86.44
259.616	73.44
259.849	86.44
260.081	79.44
260.314	78.44
260.547	95.44
260.779	76.44
261.012	99.44
261.244	63.44
261.477	92.44
261.71	89.44
261.942	110.44
262.175	113.44
262.407	93.44
262.64	80.44
262.872	84.44
263.105	77.44
263.337	91.44
263.57	72.44
263.802	73.44
264.035	74.44
264.267	81.44
264.499	86.44
264.732	87.44
264.964	79.44
265.197	83.44
265.429	81.44
265.661	77.44
265.894	95.44
266.126	100.44
266.358	97.44
266.591	73.44
266.823	93.44
267.055	91.44
267.287	80.44
267.52	80.44
267.752	73.44
267.984	84.44
268.216	81.44
268.448	83.44
268.681	91.44
268.913	76.44
269.145	93.44
269.377	80.44
269.609	88.44
269.841	83.44
270.073	74.44
270.306	72.44
270.538	81.44
270.77	74.44
271.002	79.44
271.234	70.44
271.466	81.44
271.698	96.44
271.93	91.44
272.162	83.44
272.394	71.44
272.626	91.44
272.858	88.44
273.09	85.44
273.322	81.44
273.553	80.44
273.785	79.44
274.017	78.44
274.249	96.44
274.481	80.44
274.713	94.44
274.945	98.44
275.176	95.44
275.408	84.44
275.64	85.44
275.872	83.44
276.104	79.44
276.335	96.44
276.567	81.44
276.799	100.44
277.031	81.44
277.262	82.44
277.494	73.44
277.726	83.44
277.957	89.44
278.189	86.44
278.421	91.44
278.652	83.44
278.884	84.44
279.115	77.44
279.347	85.44
279.579	79.44
279.81	80.44
280.042	88.44
280.273	111.44
280.505	96.44
280.736	85.44
280.968	72.44
281.199	71.44
281.431	81.44
281.662	84.44
281.894	98.44
282.125	89.44
282.356	107.44
282.588	115.44
282.819	96.44
283.051	89.44
283.282	92.44
283.513	85.44
283.745	73.44
283.976	91.44
284.207	82.44
284.439	75.44
284.67	88.44
284.901	100.44
285.132	80.44
285.364	93.44
285.595	89.44
285.826	87.44
286.057	91.44
286.288	85.44
286.52	99.44
286.751	90.44
286.982	84.44
287.213	86.44
287.444	85.44
287.675	89.44
287.906	82.44
288.138	93.44
288.369	88.44
288.6	92.44
288.831	86.44
289.062	98.44
289.293	84.44
289.524	95.44
289.755	96.44
289.986	88.44
290.217	80.44
290.448	87.44
290.679	81.44
290.91	93.44
291.141	79.44
291.371	75.44
291.602	95.44
291.833	90.44
292.064	96.44
292.295	74.44
292.526	76.44
292.757	95.44
292.987	109.44
293.218	80.44
293.449	98.44
293.68	89.44
293.91	91.44
294.141	88.44
294.372	89.44
294.603	92.44
294.833	85.44
295.064	94.44
295.295	85.44
295.525	90.44
295.756	86.44
295.987	105.44
296.217	119.44
296.448	99.44
296.679	88.44
296.909	89.44
297.14	97.44
297.37	86.44
297.601	85.44
297.831	72.44
298.062	87.44
298.292	88.44
298.523	92.44
298.753	96.44
298.984	82.44
299.214	90.44
299.445	103.44
299.675	84.44
299.905	92.44
300.136	100.44
300.366	75.44
300.597	80.44
300.827	87.44
301.057	91.44
301.288	101.44
301.518	82.44
301.748	82.44
301.979	96.44
302.209	89.44
302.439	90.44
302.669	80.44
302.9	99.44
303.13	104.44
303.36	91.44
303.59	86.44
303.82	83.44
304.051	101.44
304.281	89.44
304.511	90.44
304.741	85.44
304.971	76.44
305.201	99.44
305.431	89.44
305.661	86.44
305.891	95.44
306.121	90.44
306.352	95.44
306.582	103.44
306.812	87.44
307.042	86.44
307.272	91.44
307.502	90.44
307.731	92.44
307.961	87.44
308.191	96.44
308.421	79.44
308.651	100.44
308.881	89.44
309.111	91.44
309.341	98.44
309.571	107.44
309.8	93.44
310.03	98.44
310.26	89.44
310.49	90.44
310.72	106.44
310.949	98.44
311.179	92.44
311.409	79.44
311.639	92.44
311.868	91.44
312.098	100.44
312.328	90.44
312.557	113.44
312.787	98.44
313.017	89.44
313.246	85.44
313.476	86.44
313.706	88.44
313.935	100.44
314.165	91.44
314.394	102.44
314.624	94.44
314.853	108.44
315.083	97.44
315.312	103.44
315.542	96.44
315.771	81.44
316.001	100.44
316.23	98.44
316.46	82.44
316.689	91.44
316.919	87.44
317.148	102.44
317.377	81.44
317.607	103.44
317.836	87.44
318.065	82.44
318.295	91.44
318.524	82.44
318.753	83.44
318.983	93.44
319.212	92.44
319.441	110.44
319.67	108.44
319.9	83.44
320.129	81.44
320.358	84.44
320.587	84.44
320.816	102.44
321.046	101.44
321.275	93.44
321.504	103.44
321.733	90.44
321.962	91.44
322.191	105.44
322.42	103.44
322.649	101.44
322.878	98.44
323.108	100.44
323.337	114.44
323.566	111.44
323.795	128.44
324.024	180.44
324.253	287.44
324.482	610.44
324.71	1271.44
324.939	1617.44
325.168	641.44
325.397	210.44
325.626	121.44
325.855	115.44
326.084	118.44
326.313	118.44
326.542	128.44
326.77	173.44
326.999	330.44
327.228	703.44
327.457	1261.44
327.686	1004.44
327.914	308.44
328.143	173.44
328.372	138.44
328.6	128.44
328.829	112.44
329.058	118.44
329.287	108.44
329.515	111.44
329.744	99.44
329.972	133.44
330.201	137.44
330.43	157.44
330.658	130.44
330.887	133.44
331.115	113.44
331.344	94.44
331.572	99.44
331.801	83.44
332.03	107.44
332.258	86.44
332.486	81.44
332.715	91.44
332.943	95.44
333.172	88.44
333.4	112.44
333.629	109.44
333.857	98.44
334.085	112.44
334.314	135.44
334.542	225.44
334.771	191.44
334.999	106.44
335.227	106.44
335.455	93.44
335.684	92.44
335.912	106.44
336.14	103.44
336.369	114.44
336.597	96.44
336.825	85.44
337.053	91.44
337.281	97.44
337.51	95.44
337.738	91.44
337.966	88.44
338.194	84.44
338.422	91.44
338.65	96.44
338.878	95.44
339.106	81.44
339.334	91.44
339.562	99.44
339.79	84.44
340.018	100.44
340.246	84.44
340.474	101.44
340.702	82.44
340.93	99.44
341.158	98.44
341.386	96.44
341.614	83.44
341.842	92.44
342.07	95.44
342.298	97.44
342.526	80.44
342.754	88.44
342.981	86.44
343.209	82.44
343.437	100.44
343.665	85.44
343.893	99.44
344.12	90.44
344.348	96.44
344.576	96.44
344.804	88.44
345.031	92.44
345.259	107.44
345.487	82.44
345.714	89.44
345.942	94.44
346.17	89.44
346.397	76.44
346.625	101.44
346.853	102.44
347.08	98.44
347.308	92.44
347.535	97.44
347.763	92.44
347.99	76.44
348.218	81.44
348.445	79.44
348.673	90.44
348.9	91.44
349.128	86.44
349.355	95.44
349.583	107.44
349.81	84.44
350.037	89.44
350.265	91.44
350.492	97.44
350.72	91.44
350.947	98.44
351.174	103.44
351.402	106.44
351.629	105.44
351.856	87.44
352.083	111.44
352.311	95.44
352.538	93.44
352.765	83.44
352.992	123.44
353.22	96.44
353.447	107.44
353.674	86.44
353.901	104.44
354.128	91.44
354.355	93.44
354.583	95.44
354.81	90.44
355.037	107.44
355.264	79.44
355.491	95.44
355.718	96.44
355.945	84.44
356.172	88.44
356.399	91.44
356.626	75.44
356.853	94.44
357.08	85.44
357.307	102.44
357.534	91.44
357.761	100.44
357.988	98.44
358.215	101.44
358.441	87.44
358.668	79.44
358.895	92.44
359.122	83.44
359.349	91.44
359.576	77.44
359.802	92.44
360.029	103.44
360.256	102.44
360.483	99.44
360.709	92.44
360.936	99.44
361.163	85.44
361.39	98.44
361.616	95.44
361.843	94.44
362.07	96.44
362.296	77.44
362.523	79.44
362.749	81.44
362.976	90.44
363.203	100.44
363.429	89.44
363.656	91.44
363.882	88.44
364.109	105.44
364.335	92.44
364.562	88.44
364.788	100.44
365.015	85.44
365.241	96.44
365.468	93.44
365.694	89.44
365.92	97.44
366.147	84.44
366.373	84.44
366.599	83.44
366.826	86.44
367.052	90.44
367.278	105.44
367.505	91.44
367.731	85.44
367.957	99.44
368.184	97.44
368.41	93.44
368.636	97.44
368.862	103.44
369.089	107.44
369.315	88.44
369.541	90.44
369.767	92.44
369.993	97.44
370.219	103.44
370.445	86.44
370.672	91.44
370.898	68.44
371.124	76.44
371.35	70.44
371.576	92.44
371.802	98.44
372.028	94.44
372.254	80.44
372.48	66.44
372.706	97.44
372.932	80.44
373.158	73.44
373.384	96.44
373.61	92.44
373.835	89.44
374.061	90.44
374.287	87.44
374.513	87.44
374.739	95.44
374.965	84.44
375.191	91.44
375.416	77.44
375.642	93.44
375.868	87.44
376.094	92.44
376.319	83.44
376.545	72.44
376.771	87.44
376.997	92.44
377.222	100.44
377.448	81.44
377.674	91.44
377.899	93.44
378.125	100.44
378.35	83.44
378.576	97.44
378.802	87.44
379.027	87.44
379.253	104.44
379.478	89.44
379.704	88.44
379.929	97.44
380.155	88.44
380.38	99.44
380.606	90.44
380.831	88.44
381.057	95.44
381.282	97.44
381.507	95.44
381.733	100.44
381.958	100.44
382.184	95.44
382.409	90.44
382.634	104.44
382.86	98.44
383.085	105.44
383.31	106.44
383.535	89.44
383.761	93.44
383.986	115.44
384.211	92.44
384.436	104.44
384.662	113.44
384.887	95.44
385.112	114.44
385.337	99.44
385.562	110.44
385.787	113.44
386.013	115.44
386.238	119.44
386.463	91.44
386.688	109.44
386.913	94.44
387.138	98.44
387.363	106.44
387.588	96.44
387.813	115.44
388.038	99.44
388.263	112.44
388.488	102.44
388.713	99.44
388.938	80.44
389.163	100.44
389.387	99.44
389.612	98.44
389.837	81.44
390.062	102.44
390.287	106.44
390.512	99.44
390.736	92.44
390.961	100.44
391.186	103.44
391.411	97.44
391.636	87.44
391.86	93.44
392.085	92.44
392.31	95.44
392.534	101.44
392.759	105.44
392.984	80.44
393.208	89.44
393.433	118.44
393.658	89.44
393.882	103.44
394.107	88.44
394.331	83.44
394.556	83.44
394.78	95.44
395.005	91.44
395.229	81.44
395.454	93.44
395.678	85.44
395.903	95.44
396.127	87.44
396.352	83.44
396.576	103.44
396.801	87.44
397.025	90.44
397.249	95.44
397.474	82.44
397.698	93.44
397.922	92.44
398.147	71.44
398.371	80.44
398.595	75.44
398.82	77.44
399.044	83.44
399.268	87.44
399.492	92.44
399.717	89.44
399.941	91.44
400.165	72.44
400.389	97.44
400.613	89.44
400.837	82.44
401.062	79.44
401.286	89.44
401.51	98.44
401.734	89.44
401.958	98.44
402.182	120.44
402.406	135.44
402.63	101.44
402.854	95.44
403.078	82.44
403.302	89.44
403.526	100.44
403.75	83.44
403.974	97.44
404.198	77.44
404.422	88.44
404.645	97.44
404.869	89.44
405.093	93.44
405.317	93.44
405.541	90.44
405.765	98.44
405.988	97.44
406.212	140.44
406.436	190.44
406.66	124.44
406.883	103.44
407.107	97.44
407.331	88.44
407.555	95.44
407.778	96.44
408.002	80.44
408.226	91.44
408.449	89.44
408.673	82.44
408.896	88.44
409.12	97.44
409.344	85.44
409.567	93.44
409.791	94.44
410.014	101.44
410.238	103.44
410.461	96.44
410.685	95.44
410.908	95.44
411.132	101.44
411.355	101.44
411.578	96.44
411.802	92.44
412.025	70.44
412.249	84.44
412.472	95.44
412.695	102.44
412.919	95.44
413.142	92.44
413.365	81.44
413.589	80.44
413.812	97.44
414.035	77.44
414.258	90.44
414.482	88.44
414.705	90.44
414.928	97.44
415.151	87.44
415.374	95.44
415.597	85.44
415.821	92.44
416.044	74.44
416.267	84.44
416.49	84.44
416.713	81.44
416.936	86.44
417.159	83.44
417.382	91.44
417.605	88.44
417.828	96.44
418.051	92.44
418.274	86.44
418.497	87.44
418.72	78.44
418.943	92.44
419.166	83.44
419.389	91.44
419.611	81.44
419.834	92.44
420.057	80.44
420.28	93.44
420.503	76.44
420.726	92.44
420.948	88.44
421.171	87.44
421.394	82.44
421.617	95.44
421.839	84.44
422.062	78.44
422.285	84.44
422.507	102.44
422.73	100.44
422.953	90.44
423.175	89.44
423.398	94.44
423.621	81.44
423.843	91.44
424.066	77.44
424.288	85.44
424.511	90.44
424.733	97.44
424.956	107.44
425.178	104.44
425.401	90.44
425.623	83.44
425.846	107.44
426.068	89.44
426.291	84.44
426.513	83.44
426.735	94.44
426.958	77.44
427.18	95.44
427.402	114.44
427.625	137.44
427.847	114.44
428.069	119.44
428.292	88.44
428.514	83.44
428.736	85.44
428.958	84.44
429.181	88.44
429.403	84.44
429.625	82.44
429.847	92.44
430.069	93.44
430.292	84.44
430.514	104.44
430.736	93.44
430.958	81.44
431.18	81.44
431.402	81.44
431.624	81.44
431.846	91.44
432.068	86.44
432.29	99.44
432.512	93.44
432.734	96.44
432.956	92.44
433.178	104.44
433.4	92.44
433.622	87.44
433.844	78.44
434.066	77.44
434.287	91.44
434.509	86.44
434.731	89.44
434.953	103.44
435.175	84.44
435.397	90.44
435.618	96.44
435.84	105.44
436.062	100.44
436.284	92.44
436.505	83.44
436.727	92.44
436.949	98.44
437.17	89.44
437.392	96.44
437.614	72.44
437.835	96.44
438.057	90.44
438.278	102.44
438.5	93.44
438.721	118.44
438.943	89.44
439.165	76.44
439.386	91.44
439.608	95.44
439.829	88.44
440.05	100.44
440.272	122.44
440.493	94.44
440.715	103.44
440.936	91.44
441.158	95.44
441.379	83.44
441.6	90.44
441.822	77.44
442.043	87.44
442.264	93.44
442.486	92.44
442.707	91.44
442.928	88.44
443.149	112.44
443.371	123.44
443.592	96.44
443.813	90.44
444.034	108.44
444.255	81.44
444.476	89.44
444.698	88.44
444.919	77.44
445.14	129.44
445.361	109.44
445.582	99.44
445.803	113.44
446.024	124.44
446.245	105.44
446.466	111.44
446.687	82.44
446.908	91.44
447.129	97.44
447.35	76.44
447.571	95.44
447.792	97.44
448.013	87.44
448.234	86.44
448.455	85.44
448.675	125.44
448.896	106.44
449.117	100.44
449.338	84.44
449.559	112.44
449.779	123.44
450	90.44
450.221	86.44
450.442	81.44
450.662	75.44
450.883	86.44
451.104	89.44
451.324	83.44
451.545	84.44
451.766	83.44
451.986	80.44
452.207	100.44
452.428	92.44
452.648	94.44
452.869	88.44
453.089	102.44
453.31	94.44
453.53	88.44
453.751	83.44
453.971	104.44
454.192	92.44
454.412	82.44
454.633	89.44
454.853	77.44
455.073	72.44
455.294	79.44
455.514	113.44
455.734	101.44
455.955	92.44
456.175	77.44
456.395	67.44
456.616	79.44
456.836	91.44
457.056	77.44
457.276	92.44
457.497	77.44
457.717	71.44
457.937	85.44
458.157	84.44
458.377	95.44
458.598	92.44
458.818	143.44
459.038	138.44
459.258	114.44
459.478	97.44
459.698	84.44
459.918	84.44
460.138	86.44
460.358	83.44
460.578	87.44
460.798	97.44
461.018	86.44
461.238	85.44
461.458	83.44
461.678	75.44
461.898	73.44
462.118	90.44
462.338	80.44
462.558	75.44
462.777	85.44
462.997	87.44
463.217	93.44
463.437	89.44
463.657	88.44
463.876	100.44
464.096	101.44
464.316	101.44
464.536	85.44
464.755	86.44
464.975	89.44
465.195	127.44
465.414	125.44
465.634	98.44
465.854	87.44
466.073	100.44
466.293	79.44
466.512	88.44
466.732	81.44
466.951	83.44
467.171	91.44
467.391	98.44
467.61	93.44
467.829	105.44
468.049	102.44
468.268	128.44
468.488	87.44
468.707	100.44
468.927	79.44
469.146	94.44
469.365	89.44
469.585	100.44
469.804	89.44
470.023	91.44
470.243	87.44
470.462	83.44
470.681	97.44
470.901	84.44
471.12	90.44
471.339	85.44
471.558	98.44
471.777	109.44
471.997	99.44
472.216	152.44
472.435	227.44
472.654	119.44
472.873	92.44
473.092	82.44
473.311	95.44
473.53	81.44
473.749	76.44
473.968	99.44
474.187	107.44
474.406	97.44
474.625	75.44
474.844	85.44
475.063	84.44
475.282	97.44
475.501	85.44
475.72	97.44
475.939	89.44
476.158	82.44
476.377	72.44
476.596	95.44
476.814	98.44
477.033	94.44
477.252	90.44
477.471	85.44
477.69	79.44
477.908	77.44
478.127	91.44
478.346	84.44
478.564	83.44
478.783	95.44
479.002	94.44
479.22	89.44
479.439	93.44
479.658	105.44
479.876	98.44
480.095	89.44
480.313	76.44
480.532	88.44
480.751	91.44
480.969	157.44
481.188	369.44
481.406	241.44
481.624	97.44
481.843	83.44
482.061	85.44
482.28	86.44
482.498	100.44
482.717	88.44
482.935	87.44
483.153	103.44
483.372	89.44
483.59	91.44
483.808	96.44
484.027	103.44
484.245	90.44
484.463	103.44
484.681	91.44
484.9	95.44
485.118	87.44
485.336	83.44
485.554	94.44
485.772	92.44
485.99	98.44
486.209	105.44
486.427	103.44
486.645	108.44
486.863	109.44
487.081	99.44
487.299	104.44
487.517	88.44
487.735	103.44
487.953	98.44
488.171	99.44
488.389	82.44
488.607	101.44
488.825	87.44
489.043	85.44
489.261	91.44
489.479	89.44
489.696	91.44
489.914	76.44
490.132	84.44
490.35	84.44
490.568	87.44
490.786	95.44
491.003	81.44
491.221	90.44
491.439	85.44
491.657	94.44
491.874	81.44
492.092	75.44
492.31	90.44
492.527	90.44
492.745	110.44
492.963	95.44
493.18	97.44
493.398	95.44
493.615	87.44
493.833	96.44
494.05	90.44
494.268	91.44
494.485	89.44
494.703	95.44
494.92	90.44
495.138	90.44
495.355	96.44
495.573	93.44
495.79	84.44
496.008	99.44
496.225	107.44
496.442	98.44
496.66	91.44
496.877	84.44
497.094	80.44
497.312	96.44
497.529	82.44
497.746	85.44
497.963	91.44
498.181	95.44
498.398	91.44
498.615	109.44
498.832	107.44
499.049	90.44
499.267	102.44
499.484	89.44
499.701	89.44
499.918	90.44
500.135	79.44
500.352	71.44
500.569	84.44
500.786	101.44
501.003	102.44
501.22	79.44
501.437	87.44
501.654	98.44
501.871	99.44
502.088	85.44
502.305	93.44
502.522	83.44
502.739	87.44
502.956	80.44
503.172	94.44
503.389	75.44
503.606	109.44
503.823	89.44
504.04	88.44
504.256	90.44
504.473	97.44
504.69	79.44
504.907	100.44
505.123	81.44
505.34	89.44
505.557	84.44
505.773	92.44
505.99	92.44
506.207	97.44
506.423	100.44
506.64	99.44
506.856	77.44
507.073	92.44
507.289	79.44
507.506	109.44
507.722	96.44
507.939	101.44
508.155	107.44
508.372	87.44
508.588	76.44
508.805	86.44
509.021	89.44
509.238	81.44
509.454	88.44
509.67	104.44
509.887	113.44
510.103	123.44
510.319	193.44
510.536	565.44
510.752	1761.44
510.968	508.44
511.184	143.44
511.401	107.44
511.617	91.44
511.833	93.44
512.049	90.44
512.265	102.44
512.481	87.44
512.698	101.44
512.914	77.44
513.13	87.44
513.346	90.44
513.562	96.44
513.778	87.44
513.994	91.44
514.21	101.44
514.426	121.44
514.642	116.44
514.858	109.44
515.074	143.44
515.29	327.44
515.506	1034.44
515.721	413.44
515.937	126.44
516.153	100.44
516.369	94.44
