Data from Circ_1984_H10_HRD10591_00098.txt Node
Date: Wed Jan 03 12:23:01 EST 2024
User: Yrep
Spectrometer: HR+D1059
Trigger mode: 1
Integration Time (sec): 1.000000E-1
Scans to average: 1
Electric dark correction enabled: true
Nonlinearity correction enabled: false
Boxcar width: 0
XAxis mode: Wavelengths
Number of Pixels in Spectrum: 2048
>>>>>Begin Spectral Data<<<<<
223.165	-12.5
223.4	-12.5
223.635	-12.5
223.869	-18.5
224.104	-24.5
224.338	-7.5
224.573	-8.5
224.808	-16.5
225.042	-13.5
225.277	-8.5
225.511	7.5
225.746	-5.5
225.98	15.5
226.215	7.5
226.449	14.5
226.683	19.5
226.918	17.5
227.152	33.5
227.387	38.5
227.621	24.5
227.856	51.5
228.09	35.5
228.324	54.5
228.559	59.5
228.793	69.5
229.027	57.5
229.262	86.5
229.496	85.5
229.73	64.5
229.964	83.5
230.199	90.5
230.433	90.5
230.667	85.5
230.901	84.5
231.136	85.5
231.37	75.5
231.604	76.5
231.838	73.5
232.072	85.5
232.306	91.5
232.541	81.5
232.775	77.5
233.009	80.5
233.243	78.5
233.477	86.5
233.711	82.5
233.945	79.5
234.179	85.5
234.413	81.5
234.647	83.5
234.881	89.5
235.115	87.5
235.349	86.5
235.583	68.5
235.817	94.5
236.051	73.5
236.285	87.5
236.519	92.5
236.753	77.5
236.987	85.5
237.221	84.5
237.455	90.5
237.689	84.5
237.922	71.5
238.156	78.5
238.39	87.5
238.624	79.5
238.858	89.5
239.091	78.5
239.325	78.5
239.559	83.5
239.793	70.5
240.027	81.5
240.26	87.5
240.494	82.5
240.728	72.5
240.961	87.5
241.195	74.5
241.429	68.5
241.662	80.5
241.896	73.5
242.13	66.5
242.363	92.5
242.597	83.5
242.83	94.5
243.064	75.5
243.298	81.5
243.531	82.5
243.765	70.5
243.998	82.5
244.232	83.5
244.465	84.5
244.699	72.5
244.932	86.5
245.166	70.5
245.399	86.5
245.633	85.5
245.866	84.5
246.099	89.5
246.333	92.5
246.566	83.5
246.8	69.5
247.033	72.5
247.266	85.5
247.5	78.5
247.733	89.5
247.966	85.5
248.2	84.5
248.433	93.5
248.666	79.5
248.899	84.5
249.133	97.5
249.366	103.5
249.599	102.5
249.832	88.5
250.066	81.5
250.299	87.5
250.532	97.5
250.765	97.5
250.998	92.5
251.231	79.5
251.465	80.5
251.698	66.5
251.931	81.5
252.164	84.5
252.397	86.5
252.63	67.5
252.863	83.5
253.096	85.5
253.329	78.5
253.562	83.5
253.795	65.5
254.028	86.5
254.261	81.5
254.494	89.5
254.727	90.5
254.96	85.5
255.193	83.5
255.426	84.5
255.659	79.5
255.892	85.5
256.124	80.5
256.357	87.5
256.59	98.5
256.823	82.5
257.056	91.5
257.289	87.5
257.521	93.5
257.754	83.5
257.987	81.5
258.22	85.5
258.452	84.5
258.685	95.5
258.918	82.5
259.151	87.5
259.383	85.5
259.616	76.5
259.849	87.5
260.081	94.5
260.314	93.5
260.547	78.5
260.779	79.5
261.012	86.5
261.244	100.5
261.477	93.5
261.71	91.5
261.942	113.5
262.175	107.5
262.407	83.5
262.64	79.5
262.872	75.5
263.105	88.5
263.337	87.5
263.57	74.5
263.802	90.5
264.035	63.5
264.267	80.5
264.499	100.5
264.732	93.5
264.964	91.5
265.197	76.5
265.429	83.5
265.661	96.5
265.894	98.5
266.126	91.5
266.358	75.5
266.591	82.5
266.823	91.5
267.055	83.5
267.287	85.5
267.52	69.5
267.752	83.5
267.984	87.5
268.216	89.5
268.448	89.5
268.681	85.5
268.913	87.5
269.145	95.5
269.377	96.5
269.609	89.5
269.841	81.5
270.073	86.5
270.306	93.5
270.538	98.5
270.77	92.5
271.002	101.5
271.234	79.5
271.466	79.5
271.698	98.5
271.93	83.5
272.162	77.5
272.394	91.5
272.626	82.5
272.858	89.5
273.09	82.5
273.322	101.5
273.553	93.5
273.785	79.5
274.017	85.5
274.249	95.5
274.481	89.5
274.713	92.5
274.945	81.5
275.176	93.5
275.408	81.5
275.64	90.5
275.872	109.5
276.104	94.5
276.335	90.5
276.567	110.5
276.799	100.5
277.031	109.5
277.262	111.5
277.494	105.5
277.726	100.5
277.957	83.5
278.189	85.5
278.421	68.5
278.652	94.5
278.884	103.5
279.115	91.5
279.347	82.5
279.579	90.5
279.81	86.5
280.042	94.5
280.273	112.5
280.505	108.5
280.736	83.5
280.968	85.5
281.199	87.5
281.431	94.5
281.662	89.5
281.894	90.5
282.125	108.5
282.356	112.5
282.588	128.5
282.819	114.5
283.051	91.5
283.282	94.5
283.513	84.5
283.745	106.5
283.976	87.5
284.207	91.5
284.439	98.5
284.67	89.5
284.901	93.5
285.132	81.5
285.364	88.5
285.595	84.5
285.826	87.5
286.057	96.5
286.288	72.5
286.52	88.5
286.751	98.5
286.982	77.5
287.213	73.5
287.444	93.5
287.675	83.5
287.906	94.5
288.138	89.5
288.369	103.5
288.6	94.5
288.831	70.5
289.062	80.5
289.293	78.5
289.524	81.5
289.755	91.5
289.986	85.5
290.217	77.5
290.448	80.5
290.679	99.5
290.91	98.5
291.141	102.5
291.371	92.5
291.602	91.5
291.833	92.5
292.064	104.5
292.295	91.5
292.526	103.5
292.757	81.5
292.987	98.5
293.218	88.5
293.449	76.5
293.68	84.5
293.91	88.5
294.141	93.5
294.372	104.5
294.603	87.5
294.833	88.5
295.064	95.5
295.295	88.5
295.525	94.5
295.756	100.5
295.987	121.5
296.217	126.5
296.448	126.5
296.679	106.5
296.909	85.5
297.14	87.5
297.37	86.5
297.601	95.5
297.831	105.5
298.062	86.5
298.292	91.5
298.523	92.5
298.753	88.5
298.984	84.5
299.214	98.5
299.445	110.5
299.675	92.5
299.905	88.5
300.136	102.5
300.366	93.5
300.597	97.5
300.827	100.5
301.057	107.5
301.288	126.5
301.518	90.5
301.748	94.5
301.979	101.5
302.209	88.5
302.439	85.5
302.669	87.5
302.9	99.5
303.13	89.5
303.36	94.5
303.59	106.5
303.82	119.5
304.051	102.5
304.281	91.5
304.511	89.5
304.741	90.5
304.971	73.5
305.201	86.5
305.431	96.5
305.661	93.5
305.891	94.5
306.121	82.5
306.352	95.5
306.582	110.5
306.812	100.5
307.042	98.5
307.272	105.5
307.502	119.5
307.731	114.5
307.961	94.5
308.191	93.5
308.421	86.5
308.651	90.5
308.881	93.5
309.111	97.5
309.341	96.5
309.571	93.5
309.8	90.5
310.03	93.5
310.26	102.5
310.49	85.5
310.72	105.5
310.949	91.5
311.179	98.5
311.409	91.5
311.639	87.5
311.868	96.5
312.098	107.5
312.328	94.5
312.557	101.5
312.787	92.5
313.017	93.5
313.246	95.5
313.476	95.5
313.706	95.5
313.935	96.5
314.165	101.5
314.394	88.5
314.624	117.5
314.853	97.5
315.083	103.5
315.312	96.5
315.542	80.5
315.771	90.5
316.001	92.5
316.23	105.5
316.46	87.5
316.689	90.5
316.919	81.5
317.148	89.5
317.377	99.5
317.607	86.5
317.836	89.5
318.065	105.5
318.295	88.5
318.524	104.5
318.753	89.5
318.983	93.5
319.212	99.5
319.441	111.5
319.67	103.5
319.9	94.5
320.129	100.5
320.358	90.5
320.587	91.5
320.816	94.5
321.046	99.5
321.275	108.5
321.504	102.5
321.733	94.5
321.962	89.5
322.191	110.5
322.42	94.5
322.649	107.5
322.878	108.5
323.108	125.5
323.337	111.5
323.566	124.5
323.795	151.5
324.024	186.5
324.253	341.5
324.482	717.5
324.71	1419.5
324.939	1875.5
325.168	714.5
325.397	228.5
325.626	140.5
325.855	134.5
326.084	139.5
326.313	115.5
326.542	139.5
326.77	206.5
326.999	413.5
327.228	777.5
327.457	1460.5
327.686	1147.5
327.914	332.5
328.143	240.5
328.372	229.5
328.6	166.5
328.829	127.5
329.058	130.5
329.287	130.5
329.515	109.5
329.744	132.5
329.972	173.5
330.201	274.5
330.43	353.5
330.658	213.5
330.887	147.5
331.115	110.5
331.344	106.5
331.572	105.5
331.801	103.5
332.03	104.5
332.258	92.5
332.486	102.5
332.715	102.5
332.943	99.5
333.172	115.5
333.4	92.5
333.629	118.5
333.857	139.5
334.085	162.5
334.314	259.5
334.542	428.5
334.771	388.5
334.999	163.5
335.227	109.5
335.455	97.5
335.684	104.5
335.912	106.5
336.14	89.5
336.369	108.5
336.597	101.5
336.825	91.5
337.053	91.5
337.281	85.5
337.51	94.5
337.738	100.5
337.966	81.5
338.194	104.5
338.422	99.5
338.65	108.5
338.878	108.5
339.106	78.5
339.334	97.5
339.562	99.5
339.79	84.5
340.018	107.5
340.246	103.5
340.474	93.5
340.702	98.5
340.93	92.5
341.158	97.5
341.386	93.5
341.614	105.5
341.842	97.5
342.07	91.5
342.298	88.5
342.526	92.5
342.754	91.5
342.981	94.5
343.209	86.5
343.437	112.5
343.665	93.5
343.893	97.5
344.12	96.5
344.348	88.5
344.576	97.5
344.804	89.5
345.031	87.5
345.259	75.5
345.487	97.5
345.714	96.5
345.942	97.5
346.17	94.5
346.397	85.5
346.625	96.5
346.853	93.5
347.08	99.5
347.308	101.5
347.535	103.5
347.763	103.5
347.99	90.5
348.218	89.5
348.445	110.5
348.673	92.5
348.9	95.5
349.128	108.5
349.355	88.5
349.583	92.5
349.81	91.5
350.037	97.5
350.265	100.5
350.492	79.5
350.72	86.5
350.947	108.5
351.174	102.5
351.402	109.5
351.629	94.5
351.856	103.5
352.083	108.5
352.311	88.5
352.538	99.5
352.765	107.5
352.992	120.5
353.22	97.5
353.447	105.5
353.674	100.5
353.901	97.5
354.128	98.5
354.355	92.5
354.583	92.5
354.81	109.5
355.037	87.5
355.264	95.5
355.491	90.5
355.718	85.5
355.945	106.5
356.172	97.5
356.399	85.5
356.626	95.5
356.853	85.5
357.08	100.5
357.307	102.5
357.534	92.5
357.761	82.5
357.988	78.5
358.215	85.5
358.441	94.5
358.668	110.5
358.895	86.5
359.122	101.5
359.349	84.5
359.576	89.5
359.802	100.5
360.029	101.5
360.256	110.5
360.483	90.5
360.709	85.5
360.936	93.5
361.163	91.5
361.39	96.5
361.616	83.5
361.843	85.5
362.07	104.5
362.296	96.5
362.523	85.5
362.749	82.5
362.976	85.5
363.203	96.5
363.429	86.5
363.656	82.5
363.882	101.5
364.109	96.5
364.335	102.5
364.562	86.5
364.788	91.5
365.015	95.5
365.241	88.5
365.468	105.5
365.694	87.5
365.92	90.5
366.147	101.5
366.373	101.5
366.599	92.5
366.826	77.5
367.052	93.5
367.278	87.5
367.505	108.5
367.731	95.5
367.957	85.5
368.184	86.5
368.41	106.5
368.636	113.5
368.862	104.5
369.089	110.5
369.315	86.5
369.541	71.5
369.767	86.5
369.993	87.5
370.219	100.5
370.445	91.5
370.672	99.5
370.898	78.5
371.124	79.5
371.35	90.5
371.576	97.5
371.802	93.5
372.028	92.5
372.254	91.5
372.48	101.5
372.706	85.5
372.932	96.5
373.158	91.5
373.384	89.5
373.61	85.5
373.835	91.5
374.061	97.5
374.287	84.5
374.513	85.5
374.739	91.5
374.965	82.5
375.191	88.5
375.416	93.5
375.642	87.5
375.868	82.5
376.094	91.5
376.319	82.5
376.545	93.5
376.771	89.5
376.997	94.5
377.222	92.5
377.448	91.5
377.674	83.5
377.899	92.5
378.125	93.5
378.35	89.5
378.576	85.5
378.802	101.5
379.027	90.5
379.253	88.5
379.478	81.5
379.704	92.5
379.929	103.5
380.155	95.5
380.38	96.5
380.606	101.5
380.831	86.5
381.057	94.5
381.282	102.5
381.507	87.5
381.733	95.5
381.958	93.5
382.184	106.5
382.409	98.5
382.634	93.5
382.86	95.5
383.085	71.5
383.31	85.5
383.535	99.5
383.761	106.5
383.986	101.5
384.211	102.5
384.436	93.5
384.662	86.5
384.887	101.5
385.112	92.5
385.337	82.5
385.562	91.5
385.787	109.5
386.013	106.5
386.238	110.5
386.463	93.5
386.688	99.5
386.913	99.5
387.138	91.5
387.363	94.5
387.588	91.5
387.813	99.5
388.038	89.5
388.263	108.5
388.488	115.5
388.713	101.5
388.938	93.5
389.163	87.5
389.387	91.5
389.612	95.5
389.837	77.5
390.062	93.5
390.287	103.5
390.512	99.5
390.736	99.5
390.961	100.5
391.186	97.5
391.411	94.5
391.636	89.5
391.86	76.5
392.085	82.5
392.31	101.5
392.534	89.5
392.759	90.5
392.984	101.5
393.208	94.5
393.433	106.5
393.658	87.5
393.882	90.5
394.107	85.5
394.331	105.5
394.556	100.5
394.78	89.5
395.005	77.5
395.229	97.5
395.454	88.5
395.678	79.5
395.903	91.5
396.127	78.5
396.352	93.5
396.576	81.5
396.801	94.5
397.025	93.5
397.249	90.5
397.474	85.5
397.698	86.5
397.922	88.5
398.147	86.5
398.371	83.5
398.595	87.5
398.82	73.5
399.044	92.5
399.268	79.5
399.492	83.5
399.717	104.5
399.941	95.5
400.165	89.5
400.389	87.5
400.613	84.5
400.837	93.5
401.062	89.5
401.286	94.5
401.51	79.5
401.734	89.5
401.958	93.5
402.182	109.5
402.406	157.5
402.63	106.5
402.854	86.5
403.078	87.5
403.302	82.5
403.526	84.5
403.75	96.5
403.974	81.5
404.198	98.5
404.422	84.5
404.645	95.5
404.869	94.5
405.093	92.5
405.317	107.5
405.541	103.5
405.765	87.5
405.988	118.5
406.212	156.5
406.436	181.5
406.66	127.5
406.883	103.5
407.107	97.5
407.331	113.5
407.555	104.5
407.778	106.5
408.002	83.5
408.226	93.5
408.449	106.5
408.673	93.5
408.896	98.5
409.12	93.5
409.344	91.5
409.567	79.5
409.791	85.5
410.014	104.5
410.238	87.5
410.461	85.5
410.685	98.5
410.908	87.5
411.132	87.5
411.355	105.5
411.578	97.5
411.802	87.5
412.025	107.5
412.249	114.5
412.472	95.5
412.695	101.5
412.919	90.5
413.142	107.5
413.365	86.5
413.589	102.5
413.812	95.5
414.035	91.5
414.258	84.5
414.482	92.5
414.705	105.5
414.928	82.5
415.151	102.5
415.374	98.5
415.597	83.5
415.821	101.5
416.044	89.5
416.267	88.5
416.49	79.5
416.713	101.5
416.936	78.5
417.159	83.5
417.382	90.5
417.605	84.5
417.828	99.5
418.051	99.5
418.274	94.5
418.497	87.5
418.72	87.5
418.943	92.5
419.166	92.5
419.389	78.5
419.611	65.5
419.834	77.5
420.057	87.5
420.28	89.5
420.503	81.5
420.726	87.5
420.948	99.5
421.171	94.5
421.394	103.5
421.617	88.5
421.839	99.5
422.062	81.5
422.285	87.5
422.507	89.5
422.73	119.5
422.953	81.5
423.175	99.5
423.398	94.5
423.621	88.5
423.843	96.5
424.066	86.5
424.288	87.5
424.511	88.5
424.733	95.5
424.956	99.5
425.178	99.5
425.401	112.5
425.623	105.5
425.846	102.5
426.068	90.5
426.291	90.5
426.513	85.5
426.735	90.5
426.958	88.5
427.18	109.5
427.402	132.5
427.625	173.5
427.847	130.5
428.069	132.5
428.292	91.5
428.514	97.5
428.736	109.5
428.958	78.5
429.181	94.5
429.403	89.5
429.625	93.5
429.847	93.5
430.069	101.5
430.292	91.5
430.514	97.5
430.736	100.5
430.958	91.5
431.18	91.5
431.402	75.5
431.624	93.5
431.846	97.5
432.068	105.5
432.29	92.5
432.512	74.5
432.734	83.5
432.956	98.5
433.178	89.5
433.4	84.5
433.622	105.5
433.844	101.5
434.066	91.5
434.287	103.5
434.509	92.5
434.731	81.5
434.953	90.5
435.175	95.5
435.397	92.5
435.618	100.5
435.84	104.5
436.062	142.5
436.284	111.5
436.505	101.5
436.727	98.5
436.949	92.5
437.17	95.5
437.392	84.5
437.614	75.5
437.835	108.5
438.057	109.5
438.278	111.5
438.5	98.5
438.721	109.5
438.943	109.5
439.165	98.5
439.386	101.5
439.608	83.5
439.829	106.5
440.05	117.5
440.272	133.5
440.493	106.5
440.715	99.5
440.936	88.5
441.158	92.5
441.379	89.5
441.6	85.5
441.822	106.5
442.043	111.5
442.264	120.5
442.486	98.5
442.707	102.5
442.928	105.5
443.149	136.5
443.371	122.5
443.592	116.5
443.813	110.5
444.034	98.5
444.255	88.5
444.476	79.5
444.698	89.5
444.919	96.5
445.14	142.5
445.361	118.5
445.582	118.5
445.803	124.5
446.024	126.5
446.245	147.5
446.466	105.5
446.687	89.5
446.908	91.5
447.129	98.5
447.35	88.5
447.571	89.5
447.792	85.5
448.013	90.5
448.234	102.5
448.455	106.5
448.675	103.5
448.896	110.5
449.117	93.5
449.338	106.5
449.559	120.5
449.779	136.5
450	98.5
450.221	77.5
450.442	91.5
450.662	104.5
450.883	106.5
451.104	106.5
451.324	100.5
451.545	82.5
451.766	89.5
451.986	72.5
452.207	85.5
452.428	89.5
452.648	102.5
452.869	98.5
453.089	107.5
453.31	116.5
453.53	90.5
453.751	108.5
453.971	111.5
454.192	111.5
454.412	108.5
454.633	98.5
454.853	78.5
455.073	97.5
455.294	100.5
455.514	101.5
455.734	98.5
455.955	93.5
456.175	89.5
456.395	82.5
456.616	106.5
456.836	86.5
457.056	85.5
457.276	97.5
457.497	86.5
457.717	90.5
457.937	76.5
458.157	86.5
458.377	79.5
458.598	116.5
458.818	143.5
459.038	135.5
459.258	118.5
459.478	102.5
459.698	91.5
459.918	86.5
460.138	80.5
460.358	88.5
460.578	97.5
460.798	93.5
461.018	93.5
461.238	86.5
461.458	81.5
461.678	85.5
461.898	85.5
462.118	95.5
462.338	93.5
462.558	93.5
462.777	85.5
462.997	89.5
463.217	92.5
463.437	103.5
463.657	90.5
463.876	83.5
464.096	82.5
464.316	104.5
464.536	98.5
464.755	89.5
464.975	92.5
465.195	148.5
465.414	146.5
465.634	99.5
465.854	91.5
466.073	81.5
466.293	85.5
466.512	92.5
466.732	95.5
466.951	84.5
467.171	90.5
467.391	89.5
467.61	105.5
467.829	115.5
468.049	182.5
468.268	230.5
468.488	116.5
468.707	89.5
468.927	82.5
469.146	95.5
469.365	77.5
469.585	94.5
469.804	83.5
470.023	97.5
470.243	100.5
470.462	103.5
470.681	123.5
470.901	85.5
471.12	85.5
471.339	92.5
471.558	98.5
471.777	106.5
471.997	125.5
472.216	317.5
472.435	564.5
472.654	193.5
472.873	98.5
473.092	96.5
473.311	97.5
473.53	69.5
473.749	89.5
473.968	94.5
474.187	116.5
474.406	85.5
474.625	91.5
474.844	74.5
475.063	92.5
475.282	95.5
475.501	74.5
475.72	86.5
475.939	85.5
476.158	87.5
476.377	98.5
476.596	83.5
476.814	88.5
477.033	81.5
477.252	86.5
477.471	90.5
477.69	93.5
477.908	88.5
478.127	110.5
478.346	96.5
478.564	86.5
478.783	84.5
479.002	87.5
479.22	102.5
479.439	111.5
479.658	108.5
479.876	100.5
480.095	99.5
480.313	93.5
480.532	119.5
480.751	138.5
480.969	316.5
481.188	987.5
481.406	593.5
481.624	146.5
481.843	92.5
482.061	102.5
482.28	92.5
482.498	96.5
482.717	95.5
482.935	86.5
483.153	85.5
483.372	98.5
483.59	109.5
483.808	103.5
484.027	97.5
484.245	95.5
484.463	71.5
484.681	90.5
484.9	84.5
485.118	87.5
485.336	93.5
485.554	99.5
485.772	100.5
485.99	94.5
486.209	118.5
486.427	100.5
486.645	100.5
486.863	111.5
487.081	103.5
487.299	99.5
487.517	99.5
487.735	106.5
487.953	98.5
488.171	86.5
488.389	91.5
488.607	114.5
488.825	77.5
489.043	91.5
489.261	92.5
489.479	108.5
489.696	98.5
489.914	96.5
490.132	90.5
490.35	98.5
490.568	99.5
490.786	90.5
491.003	91.5
491.221	101.5
491.439	102.5
491.657	98.5
491.874	106.5
492.092	95.5
492.31	95.5
492.527	98.5
492.745	101.5
492.963	91.5
493.18	79.5
493.398	94.5
493.615	100.5
493.833	90.5
494.05	85.5
494.268	93.5
494.485	90.5
494.703	92.5
494.92	94.5
495.138	94.5
495.355	88.5
495.573	96.5
495.79	78.5
496.008	94.5
496.225	85.5
496.442	75.5
496.66	110.5
496.877	101.5
497.094	94.5
497.312	100.5
497.529	101.5
497.746	106.5
497.963	92.5
498.181	95.5
498.398	93.5
498.615	100.5
498.832	88.5
499.049	88.5
499.267	92.5
499.484	98.5
499.701	88.5
499.918	91.5
500.135	102.5
500.352	85.5
500.569	85.5
500.786	93.5
501.003	87.5
501.22	93.5
501.437	93.5
501.654	90.5
501.871	108.5
502.088	90.5
502.305	93.5
502.522	98.5
502.739	108.5
502.956	89.5
503.172	103.5
503.389	101.5
503.606	111.5
503.823	102.5
504.04	94.5
504.256	103.5
504.473	92.5
504.69	89.5
504.907	103.5
505.123	97.5
505.34	84.5
505.557	93.5
505.773	85.5
505.99	90.5
506.207	97.5
506.423	99.5
506.64	83.5
506.856	99.5
507.073	97.5
507.289	86.5
507.506	93.5
507.722	114.5
507.939	121.5
508.155	84.5
508.372	85.5
508.588	94.5
508.805	102.5
509.021	87.5
509.238	103.5
509.454	96.5
509.67	100.5
509.887	103.5
510.103	121.5
510.319	194.5
510.536	630.5
510.752	2042.5
510.968	587.5
511.184	145.5
511.401	103.5
511.617	83.5
511.833	93.5
512.049	91.5
512.265	81.5
512.481	85.5
512.698	93.5
512.914	78.5
513.13	103.5
513.346	95.5
513.562	90.5
513.778	96.5
513.994	91.5
514.21	90.5
514.426	123.5
514.642	134.5
514.858	125.5
515.074	151.5
515.29	376.5
515.506	1203.5
515.721	462.5
515.937	127.5
516.153	112.5
516.369	101.5
516.585	110.5
516.801	102.5
517.016	95.5
517.232	98.5
517.448	93.5
517.664	92.5
517.879	87.5
518.095	101.5
518.311	92.5
518.527	108.5
518.742	87.5
518.958	100.5
519.173	84.5
519.389	69.5
519.605	90.5
519.82	94.5
520.036	97.5
520.251	100.5
520.467	125.5
520.682	95.5
520.898	104.5
521.113	113.5
521.329	136.5
521.544	185.5
521.76	481.5
521.975	2032.5
522.19	1227.5
522.406	283.5
522.621	116.5
522.836	101.5
523.052	93.5
523.267	96.5
523.482	84.5
523.698	110.5
523.913	109.5
524.128	99.5
524.343	114.5
524.559	99.5
524.774	90.5
524.989	93.5
525.204	96.5
525.419	89.5
525.634	98.5
525.849	85.5
526.064	92.5
526.28	90.5
526.495	94.5
526.71	97.5
526.925	92.5
527.14	87.5
527.355	76.5
527.57	87.5
527.785	89.5
527.999	103.5
528.214	99.5
528.429	85.5
528.644	56.5
528.859	102.5
529.074	89.5
529.289	113.5
529.503	163.5
529.718	103.5
529.933	103.5
530.148	91.5
530.363	84.5
530.577	87.5
530.792	95.5
531.007	93.5
531.221	90.5
531.436	88.5
531.651	97.5
531.865	93.5
532.08	89.5
532.295	98.5
532.509	94.5
532.724	92.5
532.938	90.5
533.153	93.5
533.367	94.5
533.582	102.5
533.796	91.5
534.011	95.5
534.225	89.5
534.44	85.5
