Data from Circ_1984_H10_HRD10591_00001.txt Node
Date: Wed Jan 03 12:22:42 EST 2024
User: Yrep
Spectrometer: HR+D1059
Trigger mode: 1
Integration Time (sec): 1.000000E-1
Scans to average: 1
Electric dark correction enabled: true
Nonlinearity correction enabled: false
Boxcar width: 0
XAxis mode: Wavelengths
Number of Pixels in Spectrum: 2048
>>>>>Begin Spectral Data<<<<<
223.165	-23.56
223.4	-23.56
223.635	-23.56
223.869	-14.56
224.104	-7.56
224.338	-16.56
224.573	-15.56
224.808	-9.56
225.042	-11.56
225.277	3.44
225.511	-5.56
225.746	-7.56
225.98	-3.56
226.215	9.44
226.449	13.44
226.683	26.44
226.918	27.44
227.152	35.44
227.387	33.44
227.621	41.44
227.856	45.44
228.09	59.44
228.324	45.44
228.559	52.44
228.793	67.44
229.027	69.44
229.262	73.44
229.496	81.44
229.73	79.44
229.964	80.44
230.199	82.44
230.433	88.44
230.667	83.44
230.901	79.44
231.136	85.44
231.37	83.44
231.604	84.44
231.838	72.44
232.072	89.44
232.306	68.44
232.541	83.44
232.775	90.44
233.009	91.44
233.243	64.44
233.477	67.44
233.711	77.44
233.945	85.44
234.179	75.44
234.413	76.44
234.647	83.44
234.881	83.44
235.115	76.44
235.349	90.44
235.583	90.44
235.817	65.44
236.051	78.44
236.285	76.44
236.519	81.44
236.753	84.44
236.987	85.44
237.221	74.44
237.455	67.44
237.689	86.44
237.922	74.44
238.156	95.44
238.39	89.44
238.624	83.44
238.858	77.44
239.091	80.44
239.325	67.44
239.559	85.44
239.793	88.44
240.027	81.44
240.26	68.44
240.494	82.44
240.728	83.44
240.961	72.44
241.195	83.44
241.429	80.44
241.662	100.44
241.896	83.44
242.13	84.44
242.363	97.44
242.597	82.44
242.83	75.44
243.064	92.44
243.298	87.44
243.531	76.44
243.765	81.44
243.998	76.44
244.232	78.44
244.465	75.44
244.699	71.44
244.932	67.44
245.166	73.44
245.399	74.44
245.633	84.44
245.866	92.44
246.099	84.44
246.333	79.44
246.566	87.44
246.8	82.44
247.033	74.44
247.266	76.44
247.5	82.44
247.733	67.44
247.966	85.44
248.2	91.44
248.433	88.44
248.666	90.44
248.899	73.44
249.133	101.44
249.366	91.44
249.599	81.44
249.832	75.44
250.066	87.44
250.299	71.44
250.532	75.44
250.765	83.44
250.998	78.44
251.231	80.44
251.465	85.44
251.698	65.44
251.931	81.44
252.164	75.44
252.397	81.44
252.63	76.44
252.863	92.44
253.096	70.44
253.329	71.44
253.562	94.44
253.795	83.44
254.028	69.44
254.261	76.44
254.494	75.44
254.727	77.44
254.96	81.44
255.193	89.44
255.426	91.44
255.659	63.44
255.892	81.44
256.124	76.44
256.357	81.44
256.59	79.44
256.823	89.44
257.056	89.44
257.289	68.44
257.521	75.44
257.754	79.44
257.987	69.44
258.22	79.44
258.452	86.44
258.685	85.44
258.918	92.44
259.151	86.44
259.383	79.44
259.616	90.44
259.849	72.44
260.081	78.44
260.314	79.44
260.547	81.44
260.779	90.44
261.012	86.44
261.244	80.44
261.477	94.44
261.71	89.44
261.942	89.44
262.175	102.44
262.407	85.44
262.64	91.44
262.872	102.44
263.105	76.44
263.337	87.44
263.57	81.44
263.802	89.44
264.035	81.44
264.267	76.44
264.499	78.44
264.732	101.44
264.964	79.44
265.197	83.44
265.429	80.44
265.661	86.44
265.894	91.44
266.126	82.44
266.358	100.44
266.591	76.44
266.823	75.44
267.055	80.44
267.287	95.44
267.52	75.44
267.752	92.44
267.984	90.44
268.216	87.44
268.448	80.44
268.681	101.44
268.913	91.44
269.145	101.44
269.377	83.44
269.609	84.44
269.841	85.44
270.073	100.44
270.306	83.44
270.538	87.44
270.77	92.44
271.002	85.44
271.234	84.44
271.466	105.44
271.698	80.44
271.93	88.44
272.162	84.44
272.394	106.44
272.626	87.44
272.858	82.44
273.09	105.44
273.322	91.44
273.553	75.44
273.785	89.44
274.017	88.44
274.249	100.44
274.481	90.44
274.713	86.44
274.945	81.44
275.176	76.44
275.408	79.44
275.64	79.44
275.872	90.44
276.104	83.44
276.335	76.44
276.567	89.44
276.799	101.44
277.031	80.44
277.262	83.44
277.494	100.44
277.726	93.44
277.957	87.44
278.189	79.44
278.421	89.44
278.652	101.44
278.884	86.44
279.115	90.44
279.347	92.44
279.579	82.44
279.81	92.44
280.042	87.44
280.273	75.44
280.505	88.44
280.736	70.44
280.968	89.44
281.199	87.44
281.431	96.44
281.662	91.44
281.894	108.44
282.125	95.44
282.356	106.44
282.588	123.44
282.819	113.44
283.051	97.44
283.282	84.44
283.513	108.44
283.745	86.44
283.976	85.44
284.207	80.44
284.439	85.44
284.67	76.44
284.901	81.44
285.132	95.44
285.364	81.44
285.595	96.44
285.826	98.44
286.057	82.44
286.288	89.44
286.52	94.44
286.751	83.44
286.982	86.44
287.213	92.44
287.444	83.44
287.675	92.44
287.906	87.44
288.138	83.44
288.369	80.44
288.6	89.44
288.831	98.44
289.062	90.44
289.293	98.44
289.524	84.44
289.755	99.44
289.986	98.44
290.217	101.44
290.448	87.44
290.679	96.44
290.91	89.44
291.141	103.44
291.371	96.44
291.602	90.44
291.833	95.44
292.064	75.44
292.295	79.44
292.526	88.44
292.757	83.44
292.987	79.44
293.218	88.44
293.449	96.44
293.68	87.44
293.91	87.44
294.141	88.44
294.372	87.44
294.603	85.44
294.833	88.44
295.064	92.44
295.295	92.44
295.525	97.44
295.756	98.44
295.987	107.44
296.217	122.44
296.448	87.44
296.679	92.44
296.909	92.44
297.14	90.44
297.37	94.44
297.601	93.44
297.831	90.44
298.062	88.44
298.292	103.44
298.523	98.44
298.753	90.44
298.984	75.44
299.214	81.44
299.445	89.44
299.675	95.44
299.905	100.44
300.136	89.44
300.366	83.44
300.597	85.44
300.827	100.44
301.057	110.44
301.288	102.44
301.518	102.44
301.748	79.44
301.979	94.44
302.209	83.44
302.439	100.44
302.669	97.44
302.9	85.44
303.13	100.44
303.36	86.44
303.59	91.44
303.82	111.44
304.051	93.44
304.281	102.44
304.511	101.44
304.741	82.44
304.971	88.44
305.201	92.44
305.431	92.44
305.661	83.44
305.891	95.44
306.121	92.44
306.352	92.44
306.582	97.44
306.812	89.44
307.042	85.44
307.272	79.44
307.502	106.44
307.731	92.44
307.961	84.44
308.191	97.44
308.421	97.44
308.651	97.44
308.881	97.44
309.111	91.44
309.341	95.44
309.571	89.44
309.8	98.44
310.03	90.44
310.26	99.44
310.49	88.44
310.72	107.44
310.949	97.44
311.179	92.44
311.409	107.44
311.639	103.44
311.868	89.44
312.098	91.44
312.328	85.44
312.557	96.44
312.787	87.44
313.017	96.44
313.246	108.44
313.476	100.44
313.706	96.44
313.935	93.44
314.165	107.44
314.394	97.44
314.624	84.44
314.853	90.44
315.083	98.44
315.312	85.44
315.542	109.44
315.771	84.44
316.001	91.44
316.23	90.44
316.46	86.44
316.689	91.44
316.919	95.44
317.148	87.44
317.377	96.44
317.607	99.44
317.836	95.44
318.065	92.44
318.295	91.44
318.524	97.44
318.753	83.44
318.983	94.44
319.212	105.44
319.441	98.44
319.67	87.44
319.9	113.44
320.129	100.44
320.358	95.44
320.587	88.44
320.816	92.44
321.046	78.44
321.275	108.44
321.504	90.44
321.733	95.44
321.962	95.44
322.191	105.44
322.42	97.44
322.649	114.44
322.878	102.44
323.108	103.44
323.337	111.44
323.566	131.44
323.795	121.44
324.024	165.44
324.253	291.44
324.482	621.44
324.71	1239.44
324.939	1648.44
325.168	635.44
325.397	202.44
325.626	140.44
325.855	111.44
326.084	117.44
326.313	125.44
326.542	131.44
326.77	194.44
326.999	364.44
327.228	687.44
327.457	1271.44
327.686	1004.44
327.914	299.44
328.143	177.44
328.372	138.44
328.6	129.44
328.829	113.44
329.058	115.44
329.287	110.44
329.515	100.44
329.744	111.44
329.972	112.44
330.201	114.44
330.43	123.44
330.658	118.44
330.887	125.44
331.115	111.44
331.344	93.44
331.572	111.44
331.801	95.44
332.03	92.44
332.258	92.44
332.486	80.44
332.715	107.44
332.943	100.44
333.172	100.44
333.4	92.44
333.629	111.44
333.857	99.44
334.085	110.44
334.314	115.44
334.542	141.44
334.771	127.44
334.999	97.44
335.227	104.44
335.455	81.44
335.684	97.44
335.912	100.44
336.14	90.44
336.369	89.44
336.597	96.44
336.825	88.44
337.053	92.44
337.281	92.44
337.51	85.44
337.738	93.44
337.966	94.44
338.194	88.44
338.422	91.44
338.65	85.44
338.878	96.44
339.106	94.44
339.334	99.44
339.562	99.44
339.79	86.44
340.018	86.44
340.246	93.44
340.474	100.44
340.702	104.44
340.93	90.44
341.158	99.44
341.386	79.44
341.614	102.44
341.842	88.44
342.07	95.44
342.298	96.44
342.526	99.44
342.754	90.44
342.981	94.44
343.209	101.44
343.437	98.44
343.665	96.44
343.893	101.44
344.12	106.44
344.348	97.44
344.576	100.44
344.804	105.44
345.031	96.44
345.259	96.44
345.487	92.44
345.714	97.44
345.942	81.44
346.17	97.44
346.397	91.44
346.625	90.44
346.853	87.44
347.08	91.44
347.308	97.44
347.535	98.44
347.763	96.44
347.99	85.44
348.218	103.44
348.445	108.44
348.673	96.44
348.9	96.44
349.128	100.44
349.355	85.44
349.583	103.44
349.81	83.44
350.037	93.44
350.265	90.44
350.492	84.44
350.72	89.44
350.947	93.44
351.174	95.44
351.402	105.44
351.629	98.44
351.856	111.44
352.083	90.44
352.311	93.44
352.538	103.44
352.765	95.44
352.992	125.44
353.22	114.44
353.447	94.44
353.674	113.44
353.901	92.44
354.128	103.44
354.355	103.44
354.583	95.44
354.81	102.44
355.037	107.44
355.264	107.44
355.491	97.44
355.718	89.44
355.945	95.44
356.172	94.44
356.399	89.44
356.626	89.44
356.853	91.44
357.08	100.44
357.307	93.44
357.534	97.44
357.761	105.44
357.988	104.44
358.215	103.44
358.441	98.44
358.668	93.44
358.895	96.44
359.122	90.44
359.349	95.44
359.576	111.44
359.802	89.44
360.029	106.44
360.256	102.44
360.483	99.44
360.709	97.44
360.936	92.44
361.163	106.44
361.39	98.44
361.616	81.44
361.843	75.44
362.07	92.44
362.296	93.44
362.523	91.44
362.749	87.44
362.976	85.44
363.203	108.44
363.429	83.44
363.656	104.44
363.882	88.44
364.109	95.44
364.335	96.44
364.562	95.44
364.788	84.44
365.015	95.44
365.241	104.44
365.468	99.44
365.694	101.44
365.92	88.44
366.147	97.44
366.373	86.44
366.599	90.44
366.826	76.44
367.052	94.44
367.278	83.44
367.505	89.44
367.731	100.44
367.957	97.44
368.184	101.44
368.41	94.44
368.636	111.44
368.862	108.44
369.089	108.44
369.315	87.44
369.541	89.44
369.767	88.44
369.993	88.44
370.219	89.44
370.445	103.44
370.672	96.44
370.898	90.44
371.124	95.44
371.35	90.44
371.576	74.44
371.802	87.44
372.028	89.44
372.254	100.44
372.48	93.44
372.706	60.44
372.932	91.44
373.158	83.44
373.384	89.44
373.61	95.44
373.835	93.44
374.061	101.44
374.287	96.44
374.513	89.44
374.739	102.44
374.965	89.44
375.191	100.44
375.416	91.44
375.642	98.44
375.868	88.44
376.094	89.44
376.319	77.44
376.545	91.44
376.771	103.44
376.997	100.44
377.222	85.44
377.448	92.44
377.674	90.44
377.899	97.44
378.125	90.44
378.35	95.44
378.576	96.44
378.802	101.44
379.027	90.44
379.253	93.44
379.478	106.44
379.704	101.44
379.929	104.44
380.155	114.44
380.38	99.44
380.606	98.44
380.831	72.44
381.057	108.44
381.282	99.44
381.507	98.44
381.733	96.44
381.958	112.44
382.184	95.44
382.409	99.44
382.634	101.44
382.86	87.44
383.085	113.44
383.31	106.44
383.535	111.44
383.761	98.44
383.986	117.44
384.211	112.44
384.436	109.44
384.662	111.44
384.887	133.44
385.112	119.44
385.337	125.44
385.562	122.44
385.787	109.44
386.013	129.44
386.238	141.44
386.463	118.44
386.688	110.44
386.913	112.44
387.138	126.44
387.363	119.44
387.588	113.44
387.813	109.44
388.038	128.44
388.263	141.44
388.488	109.44
388.713	97.44
388.938	94.44
389.163	93.44
389.387	87.44
389.612	100.44
389.837	81.44
390.062	108.44
390.287	90.44
390.512	99.44
390.736	88.44
390.961	108.44
391.186	100.44
391.411	96.44
391.636	89.44
391.86	88.44
392.085	100.44
392.31	75.44
392.534	96.44
392.759	78.44
392.984	84.44
393.208	99.44
393.433	131.44
393.658	114.44
393.882	91.44
394.107	92.44
394.331	73.44
394.556	83.44
394.78	82.44
395.005	95.44
395.229	99.44
395.454	75.44
395.678	87.44
395.903	97.44
396.127	82.44
396.352	79.44
396.576	87.44
396.801	95.44
397.025	109.44
397.249	105.44
397.474	101.44
397.698	85.44
397.922	75.44
398.147	85.44
398.371	84.44
398.595	83.44
398.82	81.44
399.044	89.44
399.268	79.44
399.492	92.44
399.717	83.44
399.941	91.44
400.165	98.44
400.389	83.44
400.613	91.44
400.837	81.44
401.062	83.44
401.286	82.44
401.51	77.44
401.734	71.44
401.958	102.44
402.182	103.44
402.406	125.44
402.63	101.44
402.854	81.44
403.078	74.44
403.302	75.44
403.526	100.44
403.75	85.44
403.974	85.44
404.198	77.44
404.422	81.44
404.645	76.44
404.869	99.44
405.093	81.44
405.317	83.44
405.541	105.44
405.765	101.44
405.988	111.44
406.212	161.44
406.436	182.44
406.66	117.44
406.883	89.44
407.107	103.44
407.331	99.44
407.555	97.44
407.778	92.44
408.002	94.44
408.226	87.44
408.449	83.44
408.673	106.44
408.896	98.44
409.12	95.44
409.344	93.44
409.567	100.44
409.791	85.44
410.014	91.44
410.238	96.44
410.461	76.44
410.685	84.44
410.908	101.44
411.132	101.44
411.355	98.44
411.578	109.44
411.802	93.44
412.025	95.44
412.249	90.44
412.472	86.44
412.695	93.44
412.919	87.44
413.142	94.44
413.365	89.44
413.589	90.44
413.812	95.44
414.035	92.44
414.258	91.44
414.482	87.44
414.705	86.44
414.928	96.44
415.151	85.44
415.374	91.44
415.597	78.44
415.821	107.44
416.044	90.44
416.267	79.44
416.49	81.44
416.713	96.44
416.936	86.44
417.159	88.44
417.382	101.44
417.605	87.44
417.828	84.44
418.051	103.44
418.274	91.44
418.497	81.44
418.72	87.44
418.943	91.44
419.166	83.44
419.389	86.44
419.611	87.44
419.834	82.44
420.057	107.44
420.28	92.44
420.503	87.44
420.726	87.44
420.948	88.44
421.171	95.44
421.394	79.44
421.617	92.44
421.839	83.44
422.062	84.44
422.285	103.44
422.507	103.44
422.73	106.44
422.953	99.44
423.175	84.44
423.398	99.44
423.621	79.44
423.843	89.44
424.066	81.44
424.288	82.44
424.511	87.44
424.733	92.44
424.956	100.44
425.178	102.44
425.401	101.44
425.623	91.44
425.846	88.44
426.068	85.44
426.291	90.44
426.513	86.44
426.735	105.44
426.958	85.44
427.18	93.44
427.402	112.44
427.625	119.44
427.847	118.44
428.069	95.44
428.292	89.44
428.514	96.44
428.736	94.44
428.958	91.44
429.181	87.44
429.403	97.44
429.625	65.44
429.847	98.44
430.069	99.44
430.292	83.44
430.514	77.44
430.736	88.44
430.958	89.44
431.18	82.44
431.402	100.44
431.624	96.44
431.846	81.44
432.068	90.44
432.29	78.44
432.512	87.44
432.734	83.44
432.956	86.44
433.178	87.44
433.4	98.44
433.622	91.44
433.844	87.44
434.066	81.44
434.287	91.44
434.509	90.44
434.731	99.44
434.953	91.44
435.175	92.44
435.397	72.44
435.618	90.44
435.84	97.44
436.062	119.44
436.284	107.44
436.505	93.44
436.727	98.44
436.949	95.44
437.17	99.44
437.392	98.44
437.614	100.44
437.835	96.44
438.057	103.44
438.278	105.44
438.5	88.44
438.721	111.44
438.943	96.44
439.165	87.44
439.386	81.44
439.608	98.44
439.829	95.44
440.05	113.44
440.272	123.44
440.493	106.44
440.715	101.44
440.936	96.44
441.158	91.44
441.379	80.44
441.6	99.44
441.822	99.44
442.043	82.44
442.264	107.44
442.486	103.44
442.707	92.44
442.928	103.44
443.149	111.44
443.371	114.44
443.592	101.44
443.813	107.44
444.034	96.44
444.255	71.44
444.476	91.44
444.698	72.44
444.919	88.44
445.14	139.44
445.361	94.44
445.582	102.44
445.803	112.44
446.024	112.44
446.245	113.44
446.466	99.44
446.687	84.44
446.908	94.44
447.129	85.44
447.35	84.44
447.571	98.44
447.792	85.44
448.013	99.44
448.234	92.44
448.455	88.44
448.675	114.44
448.896	105.44
449.117	103.44
449.338	96.44
449.559	125.44
449.779	113.44
450	83.44
450.221	79.44
450.442	77.44
450.662	97.44
450.883	102.44
451.104	107.44
451.324	105.44
451.545	89.44
451.766	89.44
451.986	67.44
452.207	89.44
452.428	83.44
452.648	101.44
452.869	109.44
453.089	110.44
453.31	111.44
453.53	89.44
453.751	86.44
453.971	104.44
454.192	101.44
454.412	85.44
454.633	75.44
454.853	79.44
455.073	87.44
455.294	97.44
455.514	91.44
455.734	79.44
455.955	73.44
456.175	80.44
456.395	83.44
456.616	84.44
456.836	83.44
457.056	88.44
457.276	93.44
457.497	93.44
457.717	89.44
457.937	85.44
458.157	95.44
458.377	88.44
458.598	95.44
458.818	140.44
459.038	132.44
459.258	113.44
459.478	94.44
459.698	77.44
459.918	80.44
460.138	82.44
460.358	88.44
460.578	89.44
460.798	84.44
461.018	89.44
461.238	73.44
461.458	91.44
461.678	81.44
461.898	90.44
462.118	81.44
462.338	94.44
462.558	106.44
462.777	98.44
462.997	90.44
463.217	91.44
463.437	79.44
463.657	79.44
463.876	88.44
464.096	87.44
464.316	88.44
464.536	86.44
464.755	80.44
464.975	96.44
465.195	133.44
465.414	116.44
465.634	103.44
465.854	81.44
466.073	87.44
466.293	85.44
466.512	88.44
466.732	70.44
466.951	93.44
467.171	85.44
467.391	79.44
467.61	97.44
467.829	104.44
468.049	104.44
468.268	100.44
468.488	82.44
468.707	81.44
468.927	96.44
469.146	91.44
469.365	82.44
469.585	89.44
469.804	100.44
470.023	84.44
470.243	97.44
470.462	99.44
470.681	95.44
470.901	88.44
471.12	90.44
471.339	95.44
471.558	90.44
471.777	95.44
471.997	97.44
472.216	110.44
472.435	129.44
472.654	89.44
472.873	87.44
473.092	88.44
473.311	92.44
473.53	86.44
473.749	87.44
473.968	100.44
474.187	116.44
474.406	92.44
474.625	87.44
474.844	91.44
475.063	90.44
475.282	82.44
475.501	74.44
475.72	92.44
475.939	92.44
476.158	94.44
476.377	75.44
476.596	79.44
476.814	82.44
477.033	96.44
477.252	84.44
477.471	87.44
477.69	85.44
477.908	78.44
478.127	83.44
478.346	83.44
478.564	86.44
478.783	83.44
479.002	99.44
479.22	77.44
479.439	102.44
479.658	109.44
479.876	95.44
480.095	99.44
480.313	105.44
480.532	83.44
480.751	103.44
480.969	102.44
481.188	183.44
481.406	131.44
481.624	104.44
481.843	86.44
482.061	92.44
482.28	87.44
482.498	81.44
482.717	85.44
482.935	96.44
483.153	91.44
483.372	97.44
483.59	101.44
483.808	92.44
484.027	82.44
484.245	84.44
484.463	92.44
484.681	107.44
484.9	99.44
485.118	99.44
485.336	80.44
485.554	113.44
485.772	108.44
485.99	95.44
486.209	85.44
486.427	96.44
486.645	108.44
486.863	100.44
487.081	104.44
487.299	96.44
487.517	95.44
487.735	93.44
487.953	109.44
488.171	95.44
488.389	83.44
488.607	100.44
488.825	95.44
489.043	91.44
489.261	82.44
489.479	89.44
489.696	95.44
489.914	95.44
490.132	92.44
490.35	88.44
490.568	92.44
490.786	81.44
491.003	85.44
491.221	84.44
491.439	90.44
491.657	92.44
491.874	87.44
492.092	89.44
492.31	98.44
492.527	83.44
492.745	82.44
492.963	86.44
493.18	87.44
493.398	96.44
493.615	104.44
493.833	87.44
494.05	82.44
494.268	77.44
494.485	94.44
494.703	101.44
494.92	84.44
495.138	96.44
495.355	95.44
495.573	90.44
495.79	110.44
496.008	98.44
496.225	95.44
496.442	96.44
496.66	105.44
496.877	87.44
497.094	101.44
497.312	88.44
497.529	79.44
497.746	85.44
497.963	86.44
498.181	81.44
498.398	97.44
498.615	97.44
498.832	96.44
499.049	87.44
499.267	91.44
499.484	96.44
499.701	87.44
499.918	90.44
500.135	84.44
500.352	87.44
500.569	84.44
500.786	83.44
501.003	89.44
501.22	69.44
501.437	97.44
501.654	88.44
501.871	95.44
502.088	87.44
502.305	85.44
502.522	102.44
502.739	100.44
502.956	99.44
503.172	100.44
503.389	96.44
503.606	95.44
503.823	95.44
504.04	87.44
504.256	85.44
504.473	99.44
504.69	97.44
504.907	106.44
505.123	71.44
505.34	81.44
505.557	101.44
505.773	108.44
505.99	79.44
506.207	90.44
506.423	79.44
506.64	88.44
506.856	75.44
507.073	81.44
507.289	97.44
507.506	91.44
507.722	107.44
507.939	104.44
508.155	90.44
508.372	95.44
508.588	90.44
508.805	103.44
509.021	91.44
509.238	79.44
509.454	92.44
509.67	107.44
509.887	91.44
510.103	129.44
510.319	171.44
510.536	595.44
510.752	1803.44
510.968	500.44
511.184	156.44
511.401	100.44
511.617	97.44
511.833	97.44
512.049	93.44
512.265	88.44
512.481	92.44
512.698	94.44
512.914	86.44
513.13	87.44
513.346	86.44
513.562	81.44
513.778	89.44
513.994	91.44
514.21	99.44
514.426	120.44
514.642	121.44
514.858	128.44
515.074	123.44
515.29	317.44
515.506	996.44
