Data from Circ_1984_H10_HRD10591_00065.txt Node
Date: Wed Jan 03 12:22:55 EST 2024
User: Yrep
Spectrometer: HR+D1059
Trigger mode: 1
Integration Time (sec): 1.000000E-1
Scans to average: 1
Electric dark correction enabled: true
Nonlinearity correction enabled: false
Boxcar width: 0
XAxis mode: Wavelengths
Number of Pixels in Spectrum: 2048
>>>>>Begin Spectral Data<<<<<
223.165	-11.19
223.4	-11.19
223.635	-11.19
223.869	-12.19
224.104	-21.19
224.338	-11.19
224.573	-18.19
224.808	-10.19
225.042	-2.19
225.277	-16.19
225.511	-0.19
225.746	5.81
225.98	9.81
226.215	4.81
226.449	14.81
226.683	17.81
226.918	22.81
227.152	26.81
227.387	26.81
227.621	36.81
227.856	49.81
228.09	37.81
228.324	39.81
228.559	55.81
228.793	61.81
229.027	74.81
229.262	71.81
229.496	70.81
229.73	78.81
229.964	75.81
230.199	73.81
230.433	56.81
230.667	85.81
230.901	89.81
231.136	86.81
231.37	77.81
231.604	82.81
231.838	80.81
232.072	99.81
232.306	92.81
232.541	71.81
232.775	71.81
233.009	81.81
233.243	68.81
233.477	92.81
233.711	78.81
233.945	78.81
234.179	81.81
234.413	90.81
234.647	89.81
234.881	71.81
235.115	81.81
235.349	85.81
235.583	69.81
235.817	86.81
236.051	80.81
236.285	84.81
236.519	78.81
236.753	88.81
236.987	96.81
237.221	86.81
237.455	89.81
237.689	83.81
237.922	74.81
238.156	63.81
238.39	67.81
238.624	66.81
238.858	87.81
239.091	89.81
239.325	97.81
239.559	81.81
239.793	70.81
240.027	74.81
240.26	78.81
240.494	82.81
240.728	72.81
240.961	79.81
241.195	71.81
241.429	95.81
241.662	80.81
241.896	73.81
242.13	65.81
242.363	70.81
242.597	87.81
242.83	76.81
243.064	70.81
243.298	80.81
243.531	86.81
243.765	67.81
243.998	88.81
244.232	81.81
244.465	86.81
244.699	85.81
244.932	88.81
245.166	74.81
245.399	83.81
245.633	93.81
245.866	78.81
246.099	81.81
246.333	81.81
246.566	82.81
246.8	86.81
247.033	85.81
247.266	57.81
247.5	85.81
247.733	84.81
247.966	72.81
248.2	66.81
248.433	87.81
248.666	80.81
248.899	85.81
249.133	81.81
249.366	90.81
249.599	92.81
249.832	85.81
250.066	93.81
250.299	69.81
250.532	86.81
250.765	82.81
250.998	78.81
251.231	73.81
251.465	75.81
251.698	78.81
251.931	74.81
252.164	88.81
252.397	69.81
252.63	81.81
252.863	75.81
253.096	86.81
253.329	92.81
253.562	76.81
253.795	73.81
254.028	94.81
254.261	80.81
254.494	75.81
254.727	68.81
254.96	94.81
255.193	85.81
255.426	76.81
255.659	77.81
255.892	85.81
256.124	76.81
256.357	78.81
256.59	83.81
256.823	87.81
257.056	84.81
257.289	78.81
257.521	88.81
257.754	89.81
257.987	75.81
258.22	80.81
258.452	82.81
258.685	87.81
258.918	92.81
259.151	92.81
259.383	82.81
259.616	83.81
259.849	78.81
260.081	86.81
260.314	74.81
260.547	73.81
260.779	84.81
261.012	91.81
261.244	97.81
261.477	94.81
261.71	92.81
261.942	89.81
262.175	100.81
262.407	93.81
262.64	91.81
262.872	88.81
263.105	85.81
263.337	88.81
263.57	80.81
263.802	89.81
264.035	99.81
264.267	90.81
264.499	99.81
264.732	94.81
264.964	101.81
265.197	82.81
265.429	97.81
265.661	75.81
265.894	105.81
266.126	78.81
266.358	86.81
266.591	71.81
266.823	77.81
267.055	72.81
267.287	84.81
267.52	84.81
267.752	83.81
267.984	93.81
268.216	75.81
268.448	84.81
268.681	88.81
268.913	86.81
269.145	92.81
269.377	91.81
269.609	91.81
269.841	69.81
270.073	92.81
270.306	83.81
270.538	89.81
270.77	91.81
271.002	92.81
271.234	78.81
271.466	92.81
271.698	100.81
271.93	77.81
272.162	86.81
272.394	86.81
272.626	81.81
272.858	80.81
273.09	93.81
273.322	90.81
273.553	90.81
273.785	89.81
274.017	100.81
274.249	84.81
274.481	77.81
274.713	97.81
274.945	94.81
275.176	96.81
275.408	85.81
275.64	92.81
275.872	87.81
276.104	78.81
276.335	90.81
276.567	98.81
276.799	104.81
277.031	96.81
277.262	100.81
277.494	106.81
277.726	91.81
277.957	86.81
278.189	86.81
278.421	78.81
278.652	95.81
278.884	78.81
279.115	89.81
279.347	99.81
279.579	86.81
279.81	84.81
280.042	101.81
280.273	99.81
280.505	92.81
280.736	83.81
280.968	85.81
281.199	88.81
281.431	86.81
281.662	96.81
281.894	83.81
282.125	92.81
282.356	97.81
282.588	118.81
282.819	113.81
283.051	89.81
283.282	79.81
283.513	86.81
283.745	91.81
283.976	78.81
284.207	89.81
284.439	97.81
284.67	93.81
284.901	96.81
285.132	88.81
285.364	85.81
285.595	75.81
285.826	94.81
286.057	92.81
286.288	94.81
286.52	76.81
286.751	85.81
286.982	80.81
287.213	99.81
287.444	94.81
287.675	99.81
287.906	92.81
288.138	67.81
288.369	84.81
288.6	80.81
288.831	83.81
289.062	81.81
289.293	83.81
289.524	93.81
289.755	88.81
289.986	80.81
290.217	73.81
290.448	82.81
290.679	103.81
290.91	80.81
291.141	93.81
291.371	83.81
291.602	84.81
291.833	93.81
292.064	91.81
292.295	84.81
292.526	103.81
292.757	86.81
292.987	94.81
293.218	103.81
293.449	96.81
293.68	88.81
293.91	91.81
294.141	84.81
294.372	84.81
294.603	104.81
294.833	94.81
295.064	97.81
295.295	88.81
295.525	91.81
295.756	101.81
295.987	107.81
296.217	126.81
296.448	102.81
296.679	96.81
296.909	99.81
297.14	94.81
297.37	85.81
297.601	89.81
297.831	97.81
298.062	88.81
298.292	99.81
298.523	106.81
298.753	99.81
298.984	101.81
299.214	74.81
299.445	85.81
299.675	93.81
299.905	93.81
300.136	84.81
300.366	76.81
300.597	91.81
300.827	77.81
301.057	99.81
301.288	96.81
301.518	94.81
301.748	88.81
301.979	102.81
302.209	94.81
302.439	88.81
302.669	77.81
302.9	85.81
303.13	84.81
303.36	93.81
303.59	100.81
303.82	98.81
304.051	103.81
304.281	92.81
304.511	81.81
304.741	100.81
304.971	79.81
305.201	95.81
305.431	101.81
305.661	83.81
305.891	74.81
306.121	96.81
306.352	91.81
306.582	110.81
306.812	100.81
307.042	103.81
307.272	101.81
307.502	103.81
307.731	104.81
307.961	98.81
308.191	105.81
308.421	92.81
308.651	88.81
308.881	92.81
309.111	88.81
309.341	93.81
309.571	96.81
309.8	96.81
310.03	84.81
310.26	101.81
310.49	88.81
310.72	96.81
310.949	103.81
311.179	88.81
311.409	104.81
311.639	92.81
311.868	96.81
312.098	95.81
312.328	92.81
312.557	108.81
312.787	100.81
313.017	102.81
313.246	88.81
313.476	91.81
313.706	71.81
313.935	99.81
314.165	99.81
314.394	100.81
314.624	113.81
314.853	89.81
315.083	96.81
315.312	96.81
315.542	101.81
315.771	100.81
316.001	100.81
316.23	99.81
316.46	80.81
316.689	71.81
316.919	100.81
317.148	98.81
317.377	84.81
317.607	98.81
317.836	88.81
318.065	101.81
318.295	92.81
318.524	93.81
318.753	96.81
318.983	94.81
319.212	101.81
319.441	96.81
319.67	112.81
319.9	94.81
320.129	113.81
320.358	98.81
320.587	96.81
320.816	101.81
321.046	93.81
321.275	106.81
321.504	99.81
321.733	97.81
321.962	103.81
322.191	97.81
322.42	100.81
322.649	108.81
322.878	98.81
323.108	125.81
323.337	106.81
323.566	125.81
323.795	134.81
324.024	167.81
324.253	320.81
324.482	663.81
324.71	1373.81
324.939	1824.81
325.168	684.81
325.397	229.81
325.626	137.81
325.855	135.81
326.084	116.81
326.313	125.81
326.542	135.81
326.77	200.81
326.999	375.81
327.228	756.81
327.457	1394.81
327.686	1152.81
327.914	333.81
328.143	205.81
328.372	180.81
328.6	142.81
328.829	120.81
329.058	125.81
329.287	121.81
329.515	120.81
329.744	117.81
329.972	139.81
330.201	232.81
330.43	274.81
330.658	179.81
330.887	140.81
331.115	128.81
331.344	100.81
331.572	115.81
331.801	102.81
332.03	100.81
332.258	99.81
332.486	93.81
332.715	85.81
332.943	88.81
333.172	118.81
333.4	116.81
333.629	129.81
333.857	137.81
334.085	148.81
334.314	212.81
334.542	331.81
334.771	292.81
334.999	137.81
335.227	106.81
335.455	93.81
335.684	102.81
335.912	93.81
336.14	96.81
336.369	101.81
336.597	107.81
336.825	90.81
337.053	90.81
337.281	89.81
337.51	104.81
337.738	98.81
337.966	98.81
338.194	94.81
338.422	88.81
338.65	111.81
338.878	104.81
339.106	100.81
339.334	97.81
339.562	89.81
339.79	87.81
340.018	99.81
340.246	97.81
340.474	78.81
340.702	91.81
340.93	96.81
341.158	90.81
341.386	81.81
341.614	96.81
341.842	91.81
342.07	91.81
342.298	108.81
342.526	93.81
342.754	89.81
342.981	97.81
343.209	88.81
343.437	106.81
343.665	88.81
343.893	95.81
344.12	96.81
344.348	106.81
344.576	93.81
344.804	89.81
345.031	93.81
345.259	100.81
345.487	90.81
345.714	104.81
345.942	102.81
346.17	97.81
346.397	92.81
346.625	83.81
346.853	90.81
347.08	89.81
347.308	88.81
347.535	119.81
347.763	99.81
347.99	90.81
348.218	96.81
348.445	107.81
348.673	92.81
348.9	110.81
349.128	98.81
349.355	103.81
349.583	95.81
349.81	97.81
350.037	100.81
350.265	94.81
350.492	100.81
350.72	89.81
350.947	100.81
351.174	114.81
351.402	92.81
351.629	93.81
351.856	85.81
352.083	82.81
352.311	110.81
352.538	109.81
352.765	98.81
352.992	112.81
353.22	108.81
353.447	112.81
353.674	98.81
353.901	110.81
354.128	89.81
354.355	105.81
354.583	92.81
354.81	84.81
355.037	93.81
355.264	88.81
355.491	90.81
355.718	103.81
355.945	94.81
356.172	83.81
356.399	91.81
356.626	87.81
356.853	88.81
357.08	103.81
357.307	98.81
357.534	93.81
357.761	77.81
357.988	87.81
358.215	115.81
358.441	94.81
358.668	83.81
358.895	74.81
359.122	92.81
359.349	88.81
359.576	78.81
359.802	88.81
360.029	119.81
360.256	102.81
360.483	97.81
360.709	83.81
360.936	89.81
361.163	101.81
361.39	74.81
361.616	96.81
361.843	87.81
362.07	105.81
362.296	88.81
362.523	95.81
362.749	83.81
362.976	84.81
363.203	87.81
363.429	86.81
363.656	93.81
363.882	84.81
364.109	99.81
364.335	84.81
364.562	85.81
364.788	95.81
365.015	95.81
365.241	87.81
365.468	106.81
365.694	115.81
365.92	96.81
366.147	93.81
366.373	84.81
366.599	90.81
366.826	102.81
367.052	97.81
367.278	104.81
367.505	97.81
367.731	88.81
367.957	93.81
368.184	92.81
368.41	94.81
368.636	100.81
368.862	108.81
369.089	110.81
369.315	84.81
369.541	88.81
369.767	93.81
369.993	92.81
370.219	87.81
370.445	95.81
370.672	108.81
370.898	95.81
371.124	96.81
371.35	89.81
371.576	74.81
371.802	100.81
372.028	93.81
372.254	90.81
372.48	86.81
372.706	80.81
372.932	75.81
373.158	94.81
373.384	90.81
373.61	103.81
373.835	92.81
374.061	88.81
374.287	100.81
374.513	91.81
374.739	82.81
374.965	93.81
375.191	101.81
375.416	89.81
375.642	91.81
375.868	83.81
376.094	82.81
376.319	97.81
376.545	92.81
376.771	99.81
376.997	81.81
377.222	93.81
377.448	77.81
377.674	70.81
377.899	83.81
378.125	83.81
378.35	81.81
378.576	100.81
378.802	100.81
379.027	92.81
379.253	85.81
379.478	92.81
379.704	85.81
379.929	82.81
380.155	87.81
380.38	92.81
380.606	86.81
380.831	79.81
381.057	108.81
381.282	96.81
381.507	86.81
381.733	91.81
381.958	96.81
382.184	88.81
382.409	88.81
382.634	96.81
382.86	99.81
383.085	95.81
383.31	88.81
383.535	84.81
383.761	92.81
383.986	97.81
384.211	98.81
384.436	86.81
384.662	102.81
384.887	94.81
385.112	107.81
385.337	119.81
385.562	110.81
385.787	102.81
386.013	103.81
386.238	106.81
386.463	106.81
386.688	105.81
386.913	104.81
387.138	99.81
387.363	105.81
387.588	85.81
387.813	80.81
388.038	102.81
388.263	114.81
388.488	119.81
388.713	112.81
388.938	85.81
389.163	80.81
389.387	86.81
389.612	94.81
389.837	93.81
390.062	104.81
390.287	82.81
390.512	96.81
390.736	88.81
390.961	98.81
391.186	83.81
391.411	96.81
391.636	93.81
391.86	88.81
392.085	98.81
392.31	90.81
392.534	85.81
392.759	100.81
392.984	92.81
393.208	100.81
393.433	86.81
393.658	85.81
393.882	93.81
394.107	101.81
394.331	86.81
394.556	77.81
394.78	88.81
395.005	77.81
395.229	83.81
395.454	85.81
395.678	77.81
395.903	90.81
396.127	81.81
396.352	87.81
396.576	100.81
396.801	87.81
397.025	84.81
397.249	91.81
397.474	86.81
397.698	83.81
397.922	78.81
398.147	92.81
398.371	82.81
398.595	94.81
398.82	92.81
399.044	92.81
399.268	88.81
399.492	96.81
399.717	86.81
399.941	92.81
400.165	97.81
400.389	97.81
400.613	88.81
400.837	98.81
401.062	81.81
401.286	92.81
401.51	100.81
401.734	89.81
401.958	100.81
402.182	111.81
402.406	121.81
402.63	96.81
402.854	96.81
403.078	101.81
403.302	86.81
403.526	85.81
403.75	77.81
403.974	72.81
404.198	81.81
404.422	99.81
404.645	83.81
404.869	86.81
405.093	97.81
405.317	93.81
405.541	110.81
405.765	101.81
405.988	120.81
406.212	156.81
406.436	188.81
406.66	118.81
406.883	96.81
407.107	91.81
407.331	107.81
407.555	101.81
407.778	92.81
408.002	93.81
408.226	94.81
408.449	103.81
408.673	92.81
408.896	108.81
409.12	104.81
409.344	84.81
409.567	93.81
409.791	97.81
410.014	108.81
410.238	91.81
410.461	93.81
410.685	93.81
410.908	93.81
411.132	93.81
411.355	116.81
411.578	98.81
411.802	84.81
412.025	93.81
412.249	100.81
412.472	106.81
412.695	113.81
412.919	90.81
413.142	89.81
413.365	87.81
413.589	101.81
413.812	80.81
414.035	74.81
414.258	104.81
414.482	96.81
414.705	103.81
414.928	93.81
415.151	94.81
415.374	111.81
415.597	108.81
415.821	92.81
416.044	86.81
416.267	96.81
416.49	98.81
416.713	81.81
416.936	93.81
417.159	101.81
417.382	71.81
417.605	77.81
417.828	93.81
418.051	90.81
418.274	84.81
418.497	89.81
418.72	93.81
418.943	82.81
419.166	92.81
419.389	88.81
419.611	94.81
419.834	85.81
420.057	81.81
420.28	93.81
420.503	87.81
420.726	97.81
420.948	83.81
421.171	93.81
421.394	72.81
421.617	75.81
421.839	107.81
422.062	105.81
422.285	97.81
422.507	93.81
422.73	103.81
422.953	91.81
423.175	100.81
423.398	99.81
423.621	102.81
423.843	101.81
424.066	88.81
424.288	86.81
424.511	94.81
424.733	110.81
424.956	95.81
425.178	88.81
425.401	91.81
425.623	106.81
425.846	96.81
426.068	94.81
426.291	90.81
426.513	86.81
426.735	84.81
426.958	80.81
427.18	103.81
427.402	131.81
427.625	164.81
427.847	127.81
428.069	109.81
428.292	82.81
428.514	88.81
428.736	86.81
428.958	81.81
429.181	87.81
429.403	88.81
429.625	85.81
429.847	88.81
430.069	108.81
430.292	85.81
430.514	100.81
430.736	91.81
430.958	93.81
431.18	87.81
431.402	90.81
431.624	98.81
431.846	85.81
432.068	88.81
432.29	104.81
432.512	89.81
432.734	96.81
432.956	90.81
433.178	92.81
433.4	108.81
433.622	75.81
433.844	86.81
434.066	100.81
434.287	102.81
434.509	83.81
434.731	100.81
434.953	92.81
435.175	95.81
435.397	98.81
435.618	100.81
435.84	103.81
436.062	120.81
436.284	116.81
436.505	91.81
436.727	95.81
436.949	92.81
437.17	99.81
437.392	99.81
437.614	95.81
437.835	104.81
438.057	122.81
438.278	108.81
438.5	116.81
438.721	119.81
438.943	91.81
439.165	84.81
439.386	81.81
439.608	93.81
439.829	108.81
440.05	107.81
440.272	130.81
440.493	96.81
440.715	82.81
440.936	98.81
441.158	83.81
441.379	92.81
441.6	94.81
441.822	90.81
442.043	93.81
442.264	103.81
442.486	109.81
442.707	90.81
442.928	110.81
443.149	108.81
443.371	109.81
443.592	100.81
443.813	89.81
444.034	98.81
444.255	92.81
444.476	85.81
444.698	77.81
444.919	85.81
445.14	141.81
445.361	110.81
445.582	101.81
445.803	110.81
446.024	122.81
446.245	126.81
446.466	102.81
446.687	90.81
446.908	80.81
447.129	92.81
447.35	87.81
447.571	94.81
447.792	73.81
448.013	86.81
448.234	92.81
448.455	98.81
448.675	103.81
448.896	116.81
449.117	102.81
449.338	109.81
449.559	117.81
449.779	107.81
450	92.81
450.221	82.81
450.442	98.81
450.662	95.81
450.883	95.81
451.104	91.81
451.324	92.81
451.545	95.81
451.766	100.81
451.986	87.81
452.207	104.81
452.428	90.81
452.648	114.81
452.869	119.81
453.089	107.81
453.31	88.81
453.53	94.81
453.751	82.81
453.971	93.81
454.192	96.81
454.412	100.81
454.633	93.81
454.853	98.81
455.073	84.81
455.294	84.81
455.514	92.81
455.734	104.81
455.955	75.81
456.175	87.81
456.395	101.81
456.616	83.81
456.836	90.81
457.056	96.81
457.276	87.81
457.497	86.81
457.717	91.81
457.937	97.81
458.157	76.81
458.377	84.81
458.598	83.81
458.818	139.81
459.038	149.81
459.258	104.81
459.478	89.81
459.698	97.81
459.918	85.81
460.138	93.81
460.358	89.81
460.578	85.81
460.798	84.81
461.018	86.81
461.238	90.81
461.458	88.81
461.678	87.81
461.898	93.81
462.118	88.81
462.338	90.81
462.558	103.81
462.777	90.81
462.997	78.81
463.217	93.81
463.437	77.81
463.657	104.81
463.876	78.81
464.096	83.81
464.316	86.81
464.536	84.81
464.755	88.81
464.975	82.81
465.195	136.81
465.414	137.81
465.634	113.81
465.854	93.81
466.073	86.81
466.293	94.81
466.512	86.81
466.732	91.81
466.951	86.81
467.171	80.81
467.391	97.81
467.61	104.81
467.829	110.81
468.049	137.81
468.268	181.81
468.488	96.81
468.707	90.81
468.927	105.81
469.146	88.81
469.365	84.81
469.585	94.81
469.804	86.81
470.023	106.81
470.243	106.81
470.462	84.81
470.681	95.81
470.901	81.81
471.12	79.81
471.339	74.81
471.558	105.81
471.777	87.81
471.997	105.81
472.216	234.81
472.435	420.81
472.654	143.81
472.873	80.81
473.092	78.81
473.311	91.81
473.53	82.81
473.749	86.81
473.968	104.81
474.187	100.81
474.406	106.81
474.625	98.81
474.844	97.81
475.063	93.81
475.282	91.81
475.501	83.81
475.72	96.81
475.939	99.81
476.158	88.81
476.377	77.81
476.596	85.81
476.814	88.81
477.033	100.81
477.252	96.81
477.471	91.81
477.69	85.81
477.908	78.81
478.127	90.81
478.346	94.81
478.564	82.81
478.783	103.81
479.002	80.81
479.22	85.81
479.439	101.81
479.658	91.81
479.876	102.81
480.095	94.81
480.313	94.81
480.532	102.81
480.751	119.81
480.969	224.81
481.188	662.81
481.406	421.81
481.624	122.81
481.843	98.81
482.061	98.81
482.28	98.81
482.498	86.81
482.717	77.81
482.935	97.81
483.153	93.81
483.372	96.81
483.59	84.81
483.808	82.81
484.027	108.81
484.245	90.81
484.463	96.81
484.681	98.81
484.9	89.81
485.118	97.81
485.336	88.81
485.554	84.81
485.772	90.81
485.99	110.81
486.209	85.81
486.427	93.81
486.645	101.81
486.863	113.81
487.081	96.81
487.299	90.81
487.517	94.81
487.735	89.81
487.953	92.81
488.171	90.81
488.389	93.81
488.607	99.81
488.825	87.81
489.043	90.81
489.261	106.81
489.479	107.81
489.696	93.81
489.914	77.81
490.132	101.81
490.35	90.81
490.568	86.81
490.786	77.81
491.003	93.81
491.221	92.81
491.439	102.81
491.657	88.81
491.874	94.81
492.092	87.81
492.31	67.81
492.527	92.81
492.745	79.81
492.963	86.81
493.18	102.81
493.398	98.81
493.615	94.81
493.833	94.81
494.05	94.81
494.268	81.81
494.485	84.81
494.703	82.81
494.92	77.81
495.138	94.81
495.355	96.81
495.573	81.81
495.79	94.81
496.008	96.81
496.225	84.81
496.442	92.81
496.66	93.81
496.877	98.81
497.094	100.81
497.312	98.81
497.529	86.81
497.746	94.81
497.963	89.81
498.181	84.81
498.398	84.81
498.615	113.81
498.832	109.81
499.049	104.81
499.267	94.81
499.484	88.81
499.701	95.81
499.918	84.81
500.135	86.81
500.352	82.81
500.569	86.81
500.786	91.81
501.003	98.81
501.22	92.81
501.437	85.81
501.654	99.81
501.871	107.81
502.088	97.81
502.305	92.81
502.522	80.81
502.739	97.81
502.956	88.81
503.172	92.81
503.389	93.81
503.606	92.81
503.823	97.81
504.04	104.81
504.256	98.81
504.473	95.81
504.69	70.81
504.907	104.81
505.123	91.81
505.34	86.81
505.557	88.81
505.773	91.81
505.99	88.81
506.207	95.81
506.423	89.81
506.64	100.81
506.856	94.81
507.073	92.81
507.289	96.81
507.506	82.81
507.722	107.81
507.939	113.81
508.155	93.81
508.372	93.81
508.588	82.81
508.805	88.81
509.021	105.81
509.238	96.81
509.454	93.81
509.67	91.81
509.887	109.81
510.103	124.81
510.319	188.81
510.536	597.81
510.752	1850.81
510.968	524.81
511.184	146.81
511.401	103.81
511.617	100.81
511.833	98.81
512.049	92.81
512.265	87.81
512.481	91.81
512.698	96.81
512.914	89.81
513.13	97.81
513.346	92.81
513.562	89.81
513.778	89.81
513.994	96.81
514.21	98.81
514.426	115.81
514.642	125.81
514.858	110.81
515.074	141.81
515.29	339.81
515.506	1071.81
