Data from Circ_1984_H10_HRD10591_00056.txt Node
Date: Wed Jan 03 12:22:53 EST 2024
User: Yrep
Spectrometer: HR+D1059
Trigger mode: 1
Integration Time (sec): 1.000000E-1
Scans to average: 1
Electric dark correction enabled: true
Nonlinearity correction enabled: false
Boxcar width: 0
XAxis mode: Wavelengths
Number of Pixels in Spectrum: 2048
>>>>>Begin Spectral Data<<<<<
223.165	-27.19
223.4	-27.19
223.635	-27.19
223.869	-26.19
224.104	1.81
224.338	-30.19
224.573	-8.19
224.808	-16.19
225.042	-10.19
225.277	-9.19
225.511	-8.19
225.746	-0.19
225.98	18.81
226.215	17.81
226.449	6.81
226.683	21.81
226.918	31.81
227.152	36.81
227.387	30.81
227.621	40.81
227.856	50.81
228.09	42.81
228.324	36.81
228.559	51.81
228.793	57.81
229.027	63.81
229.262	69.81
229.496	72.81
229.73	79.81
229.964	81.81
230.199	83.81
230.433	61.81
230.667	77.81
230.901	72.81
231.136	72.81
231.37	70.81
231.604	69.81
231.838	78.81
232.072	78.81
232.306	82.81
232.541	96.81
232.775	80.81
233.009	91.81
233.243	79.81
233.477	80.81
233.711	70.81
233.945	83.81
234.179	77.81
234.413	74.81
234.647	69.81
234.881	66.81
235.115	75.81
235.349	88.81
235.583	73.81
235.817	72.81
236.051	73.81
236.285	71.81
236.519	73.81
236.753	72.81
236.987	78.81
237.221	83.81
237.455	81.81
237.689	67.81
237.922	71.81
238.156	78.81
238.39	69.81
238.624	83.81
238.858	92.81
239.091	63.81
239.325	63.81
239.559	79.81
239.793	76.81
240.027	73.81
240.26	71.81
240.494	75.81
240.728	86.81
240.961	92.81
241.195	81.81
241.429	80.81
241.662	75.81
241.896	66.81
242.13	83.81
242.363	73.81
242.597	83.81
242.83	74.81
243.064	72.81
243.298	83.81
243.531	80.81
243.765	78.81
243.998	88.81
244.232	82.81
244.465	86.81
244.699	73.81
244.932	69.81
245.166	80.81
245.399	77.81
245.633	81.81
245.866	76.81
246.099	65.81
246.333	69.81
246.566	73.81
246.8	75.81
247.033	74.81
247.266	94.81
247.5	75.81
247.733	74.81
247.966	87.81
248.2	70.81
248.433	68.81
248.666	75.81
248.899	79.81
249.133	77.81
249.366	82.81
249.599	85.81
249.832	88.81
250.066	84.81
250.299	77.81
250.532	81.81
250.765	75.81
250.998	81.81
251.231	82.81
251.465	81.81
251.698	86.81
251.931	71.81
252.164	87.81
252.397	88.81
252.63	79.81
252.863	75.81
253.096	74.81
253.329	77.81
253.562	83.81
253.795	88.81
254.028	92.81
254.261	93.81
254.494	80.81
254.727	83.81
254.96	68.81
255.193	70.81
255.426	82.81
255.659	72.81
255.892	82.81
256.124	81.81
256.357	75.81
256.59	88.81
256.823	75.81
257.056	85.81
257.289	93.81
257.521	100.81
257.754	63.81
257.987	79.81
258.22	89.81
258.452	86.81
258.685	91.81
258.918	81.81
259.151	69.81
259.383	78.81
259.616	86.81
259.849	91.81
260.081	70.81
260.314	72.81
260.547	86.81
260.779	78.81
261.012	88.81
261.244	84.81
261.477	90.81
261.71	87.81
261.942	91.81
262.175	112.81
262.407	94.81
262.64	81.81
262.872	93.81
263.105	84.81
263.337	89.81
263.57	98.81
263.802	82.81
264.035	83.81
264.267	76.81
264.499	89.81
264.732	62.81
264.964	65.81
265.197	90.81
265.429	96.81
265.661	75.81
265.894	77.81
266.126	78.81
266.358	73.81
266.591	77.81
266.823	74.81
267.055	103.81
267.287	103.81
267.52	82.81
267.752	80.81
267.984	91.81
268.216	95.81
268.448	91.81
268.681	85.81
268.913	90.81
269.145	83.81
269.377	83.81
269.609	80.81
269.841	71.81
270.073	87.81
270.306	81.81
270.538	87.81
270.77	88.81
271.002	78.81
271.234	91.81
271.466	67.81
271.698	77.81
271.93	82.81
272.162	82.81
272.394	77.81
272.626	81.81
272.858	97.81
273.09	79.81
273.322	87.81
273.553	80.81
273.785	85.81
274.017	79.81
274.249	77.81
274.481	79.81
274.713	87.81
274.945	80.81
275.176	84.81
275.408	93.81
275.64	91.81
275.872	89.81
276.104	96.81
276.335	94.81
276.567	86.81
276.799	91.81
277.031	100.81
277.262	85.81
277.494	106.81
277.726	86.81
277.957	89.81
278.189	95.81
278.421	86.81
278.652	68.81
278.884	89.81
279.115	83.81
279.347	75.81
279.579	84.81
279.81	76.81
280.042	116.81
280.273	93.81
280.505	88.81
280.736	82.81
280.968	88.81
281.199	89.81
281.431	75.81
281.662	99.81
281.894	95.81
282.125	95.81
282.356	103.81
282.588	125.81
282.819	107.81
283.051	69.81
283.282	86.81
283.513	64.81
283.745	93.81
283.976	69.81
284.207	77.81
284.439	89.81
284.67	92.81
284.901	84.81
285.132	75.81
285.364	85.81
285.595	86.81
285.826	87.81
286.057	93.81
286.288	90.81
286.52	81.81
286.751	85.81
286.982	79.81
287.213	93.81
287.444	81.81
287.675	99.81
287.906	83.81
288.138	84.81
288.369	90.81
288.6	73.81
288.831	94.81
289.062	80.81
289.293	82.81
289.524	86.81
289.755	86.81
289.986	80.81
290.217	65.81
290.448	94.81
290.679	89.81
290.91	80.81
291.141	76.81
291.371	71.81
291.602	78.81
291.833	88.81
292.064	90.81
292.295	92.81
292.526	79.81
292.757	85.81
292.987	92.81
293.218	79.81
293.449	97.81
293.68	90.81
293.91	80.81
294.141	81.81
294.372	90.81
294.603	77.81
294.833	75.81
295.064	71.81
295.295	83.81
295.525	71.81
295.756	95.81
295.987	102.81
296.217	117.81
296.448	118.81
296.679	83.81
296.909	89.81
297.14	85.81
297.37	94.81
297.601	78.81
297.831	87.81
298.062	75.81
298.292	92.81
298.523	88.81
298.753	88.81
298.984	95.81
299.214	88.81
299.445	89.81
299.675	93.81
299.905	77.81
300.136	86.81
300.366	97.81
300.597	79.81
300.827	90.81
301.057	89.81
301.288	80.81
301.518	83.81
301.748	81.81
301.979	99.81
302.209	90.81
302.439	98.81
302.669	97.81
302.9	82.81
303.13	82.81
303.36	77.81
303.59	83.81
303.82	103.81
304.051	98.81
304.281	93.81
304.511	94.81
304.741	83.81
304.971	87.81
305.201	88.81
305.431	79.81
305.661	98.81
305.891	88.81
306.121	80.81
306.352	94.81
306.582	90.81
306.812	103.81
307.042	97.81
307.272	94.81
307.502	103.81
307.731	94.81
307.961	83.81
308.191	81.81
308.421	106.81
308.651	78.81
308.881	103.81
309.111	110.81
309.341	97.81
309.571	82.81
309.8	86.81
310.03	90.81
310.26	96.81
310.49	111.81
310.72	100.81
310.949	86.81
311.179	85.81
311.409	90.81
311.639	89.81
311.868	87.81
312.098	90.81
312.328	93.81
312.557	109.81
312.787	113.81
313.017	86.81
313.246	96.81
313.476	80.81
313.706	90.81
313.935	93.81
314.165	68.81
314.394	87.81
314.624	77.81
314.853	82.81
315.083	89.81
315.312	93.81
315.542	84.81
315.771	86.81
316.001	87.81
316.23	93.81
316.46	102.81
316.689	96.81
316.919	86.81
317.148	93.81
317.377	83.81
317.607	88.81
317.836	92.81
318.065	88.81
318.295	89.81
318.524	81.81
318.753	87.81
318.983	86.81
319.212	91.81
319.441	97.81
319.67	105.81
319.9	97.81
320.129	85.81
320.358	87.81
320.587	111.81
320.816	81.81
321.046	107.81
321.275	111.81
321.504	88.81
321.733	94.81
321.962	97.81
322.191	89.81
322.42	94.81
322.649	97.81
322.878	114.81
323.108	113.81
323.337	100.81
323.566	109.81
323.795	154.81
324.024	176.81
324.253	328.81
324.482	651.81
324.71	1343.81
324.939	1784.81
325.168	651.81
325.397	203.81
325.626	130.81
325.855	112.81
326.084	116.81
326.313	123.81
326.542	144.81
326.77	201.81
326.999	375.81
327.228	746.81
327.457	1333.81
327.686	1079.81
327.914	301.81
328.143	207.81
328.372	185.81
328.6	145.81
328.829	110.81
329.058	103.81
329.287	125.81
329.515	107.81
329.744	119.81
329.972	117.81
330.201	196.81
330.43	261.81
330.658	149.81
330.887	134.81
331.115	120.81
331.344	100.81
331.572	103.81
331.801	87.81
332.03	88.81
332.258	95.81
332.486	95.81
332.715	71.81
332.943	100.81
333.172	94.81
333.4	94.81
333.629	116.81
333.857	103.81
334.085	137.81
334.314	202.81
334.542	306.81
334.771	276.81
334.999	133.81
335.227	86.81
335.455	99.81
335.684	86.81
335.912	93.81
336.14	91.81
336.369	95.81
336.597	117.81
336.825	94.81
337.053	98.81
337.281	88.81
337.51	99.81
337.738	99.81
337.966	79.81
338.194	83.81
338.422	80.81
338.65	75.81
338.878	79.81
339.106	95.81
339.334	95.81
339.562	79.81
339.79	97.81
340.018	71.81
340.246	87.81
340.474	97.81
340.702	106.81
340.93	85.81
341.158	87.81
341.386	90.81
341.614	81.81
341.842	98.81
342.07	82.81
342.298	89.81
342.526	80.81
342.754	81.81
342.981	85.81
343.209	78.81
343.437	90.81
343.665	93.81
343.893	100.81
344.12	90.81
344.348	79.81
344.576	84.81
344.804	79.81
345.031	94.81
345.259	97.81
345.487	87.81
345.714	94.81
345.942	79.81
346.17	100.81
346.397	97.81
346.625	101.81
346.853	90.81
347.08	90.81
347.308	94.81
347.535	87.81
347.763	77.81
347.99	91.81
348.218	105.81
348.445	91.81
348.673	100.81
348.9	103.81
349.128	81.81
349.355	100.81
349.583	102.81
349.81	88.81
350.037	92.81
350.265	106.81
350.492	83.81
350.72	119.81
350.947	106.81
351.174	116.81
351.402	107.81
351.629	91.81
351.856	98.81
352.083	96.81
352.311	95.81
352.538	104.81
352.765	95.81
352.992	91.81
353.22	101.81
353.447	112.81
353.674	101.81
353.901	75.81
354.128	92.81
354.355	74.81
354.583	80.81
354.81	99.81
355.037	96.81
355.264	88.81
355.491	74.81
355.718	83.81
355.945	82.81
356.172	100.81
356.399	95.81
356.626	94.81
356.853	96.81
357.08	98.81
357.307	97.81
357.534	84.81
357.761	87.81
357.988	100.81
358.215	95.81
358.441	97.81
358.668	98.81
358.895	82.81
359.122	98.81
359.349	90.81
359.576	91.81
359.802	90.81
360.029	96.81
360.256	102.81
360.483	101.81
360.709	96.81
360.936	73.81
361.163	91.81
361.39	79.81
361.616	88.81
361.843	87.81
362.07	95.81
362.296	96.81
362.523	93.81
362.749	81.81
362.976	89.81
363.203	82.81
363.429	86.81
363.656	98.81
363.882	79.81
364.109	84.81
364.335	89.81
364.562	82.81
364.788	82.81
365.015	94.81
365.241	106.81
365.468	106.81
365.694	91.81
365.92	94.81
366.147	89.81
366.373	91.81
366.599	89.81
366.826	80.81
367.052	73.81
367.278	86.81
367.505	87.81
367.731	95.81
367.957	90.81
368.184	81.81
368.41	77.81
368.636	103.81
368.862	102.81
369.089	97.81
369.315	83.81
369.541	81.81
369.767	76.81
369.993	94.81
370.219	84.81
370.445	81.81
370.672	96.81
370.898	86.81
371.124	79.81
371.35	93.81
371.576	86.81
371.802	82.81
372.028	67.81
372.254	74.81
372.48	74.81
372.706	93.81
372.932	87.81
373.158	90.81
373.384	111.81
373.61	99.81
373.835	85.81
374.061	81.81
374.287	99.81
374.513	90.81
374.739	85.81
374.965	71.81
375.191	105.81
375.416	103.81
375.642	85.81
375.868	96.81
376.094	77.81
376.319	98.81
376.545	94.81
376.771	80.81
376.997	86.81
377.222	91.81
377.448	95.81
377.674	77.81
377.899	83.81
378.125	91.81
378.35	87.81
378.576	92.81
378.802	83.81
379.027	91.81
379.253	97.81
379.478	84.81
379.704	92.81
379.929	83.81
380.155	94.81
380.38	90.81
380.606	86.81
380.831	90.81
381.057	90.81
381.282	77.81
381.507	85.81
381.733	98.81
381.958	88.81
382.184	90.81
382.409	100.81
382.634	96.81
382.86	95.81
383.085	106.81
383.31	111.81
383.535	89.81
383.761	96.81
383.986	97.81
384.211	81.81
384.436	101.81
384.662	92.81
384.887	102.81
385.112	98.81
385.337	106.81
385.562	93.81
385.787	85.81
386.013	88.81
386.238	103.81
386.463	98.81
386.688	111.81
386.913	111.81
387.138	102.81
387.363	81.81
387.588	97.81
387.813	88.81
388.038	94.81
388.263	89.81
388.488	106.81
388.713	96.81
388.938	87.81
389.163	95.81
389.387	87.81
389.612	71.81
389.837	83.81
390.062	94.81
390.287	83.81
390.512	80.81
390.736	84.81
390.961	78.81
391.186	82.81
391.411	102.81
391.636	89.81
391.86	86.81
392.085	93.81
392.31	92.81
392.534	85.81
392.759	92.81
392.984	83.81
393.208	84.81
393.433	91.81
393.658	96.81
393.882	81.81
394.107	80.81
394.331	84.81
394.556	88.81
394.78	95.81
395.005	95.81
395.229	88.81
395.454	74.81
395.678	98.81
395.903	83.81
396.127	90.81
396.352	96.81
396.576	72.81
396.801	90.81
397.025	87.81
397.249	84.81
397.474	95.81
397.698	77.81
397.922	85.81
398.147	88.81
398.371	83.81
398.595	91.81
398.82	85.81
399.044	90.81
399.268	96.81
399.492	73.81
399.717	78.81
399.941	101.81
400.165	98.81
400.389	77.81
400.613	90.81
400.837	67.81
401.062	72.81
401.286	84.81
401.51	102.81
401.734	80.81
401.958	105.81
402.182	97.81
402.406	135.81
402.63	94.81
402.854	87.81
403.078	81.81
403.302	99.81
403.526	77.81
403.75	69.81
403.974	77.81
404.198	84.81
404.422	81.81
404.645	83.81
404.869	88.81
405.093	99.81
405.317	100.81
405.541	106.81
405.765	82.81
405.988	110.81
406.212	152.81
406.436	194.81
406.66	130.81
406.883	89.81
407.107	91.81
407.331	90.81
407.555	94.81
407.778	89.81
408.002	80.81
408.226	68.81
408.449	75.81
408.673	87.81
408.896	104.81
409.12	88.81
409.344	87.81
409.567	97.81
409.791	82.81
410.014	94.81
410.238	86.81
410.461	86.81
410.685	80.81
410.908	94.81
411.132	84.81
411.355	84.81
411.578	93.81
411.802	83.81
412.025	87.81
412.249	84.81
412.472	94.81
412.695	92.81
412.919	101.81
413.142	89.81
413.365	87.81
413.589	88.81
413.812	80.81
414.035	78.81
414.258	85.81
414.482	86.81
414.705	89.81
414.928	85.81
415.151	98.81
415.374	81.81
415.597	85.81
415.821	87.81
416.044	100.81
416.267	101.81
416.49	79.81
416.713	91.81
416.936	75.81
417.159	96.81
417.382	71.81
417.605	87.81
417.828	88.81
418.051	86.81
418.274	94.81
418.497	94.81
418.72	87.81
418.943	87.81
419.166	93.81
419.389	64.81
419.611	80.81
419.834	81.81
420.057	82.81
420.28	71.81
420.503	94.81
420.726	86.81
420.948	96.81
421.171	84.81
421.394	89.81
421.617	89.81
421.839	100.81
422.062	86.81
422.285	102.81
422.507	100.81
422.73	84.81
422.953	96.81
423.175	89.81
423.398	86.81
423.621	83.81
423.843	79.81
424.066	81.81
424.288	77.81
424.511	88.81
424.733	87.81
424.956	99.81
425.178	85.81
425.401	79.81
425.623	93.81
425.846	91.81
426.068	89.81
426.291	90.81
426.513	83.81
426.735	80.81
426.958	85.81
427.18	101.81
427.402	120.81
427.625	132.81
427.847	127.81
428.069	130.81
428.292	82.81
428.514	93.81
428.736	93.81
428.958	68.81
429.181	77.81
429.403	79.81
429.625	72.81
429.847	81.81
430.069	79.81
430.292	84.81
430.514	89.81
430.736	74.81
430.958	81.81
431.18	87.81
431.402	85.81
431.624	80.81
431.846	81.81
432.068	98.81
432.29	101.81
432.512	96.81
432.734	85.81
432.956	88.81
433.178	98.81
433.4	73.81
433.622	84.81
433.844	89.81
434.066	104.81
434.287	87.81
434.509	78.81
434.731	83.81
434.953	89.81
435.175	88.81
435.397	80.81
435.618	91.81
435.84	95.81
436.062	112.81
436.284	118.81
436.505	103.81
436.727	98.81
436.949	86.81
437.17	87.81
437.392	86.81
437.614	85.81
437.835	97.81
438.057	104.81
438.278	86.81
438.5	104.81
438.721	108.81
438.943	86.81
439.165	94.81
439.386	95.81
439.608	79.81
439.829	95.81
440.05	108.81
440.272	110.81
440.493	96.81
440.715	82.81
440.936	83.81
441.158	76.81
441.379	86.81
441.6	87.81
441.822	89.81
442.043	92.81
442.264	82.81
442.486	94.81
442.707	91.81
442.928	96.81
443.149	107.81
443.371	114.81
443.592	103.81
443.813	114.81
444.034	108.81
444.255	93.81
444.476	93.81
444.698	71.81
444.919	88.81
445.14	117.81
445.361	108.81
445.582	101.81
445.803	111.81
446.024	108.81
446.245	107.81
446.466	108.81
446.687	84.81
446.908	87.81
447.129	93.81
447.35	88.81
447.571	87.81
447.792	90.81
448.013	100.81
448.234	98.81
448.455	90.81
448.675	101.81
448.896	101.81
449.117	111.81
449.338	104.81
449.559	118.81
449.779	122.81
450	87.81
450.221	99.81
450.442	99.81
450.662	98.81
450.883	105.81
451.104	98.81
451.324	93.81
451.545	87.81
451.766	93.81
451.986	78.81
452.207	82.81
452.428	92.81
452.648	89.81
452.869	96.81
453.089	95.81
453.31	114.81
453.53	81.81
453.751	88.81
453.971	91.81
454.192	109.81
454.412	95.81
454.633	87.81
454.853	80.81
455.073	86.81
455.294	85.81
455.514	93.81
455.734	94.81
455.955	82.81
456.175	82.81
456.395	83.81
456.616	86.81
456.836	99.81
457.056	79.81
457.276	79.81
457.497	81.81
457.717	66.81
457.937	81.81
458.157	81.81
458.377	85.81
458.598	86.81
458.818	128.81
459.038	131.81
459.258	114.81
459.478	91.81
459.698	84.81
459.918	63.81
460.138	73.81
460.358	77.81
460.578	87.81
460.798	81.81
461.018	67.81
461.238	75.81
461.458	81.81
461.678	95.81
461.898	77.81
462.118	82.81
462.338	74.81
462.558	89.81
462.777	81.81
462.997	93.81
463.217	97.81
463.437	84.81
463.657	65.81
463.876	81.81
464.096	72.81
464.316	88.81
464.536	84.81
464.755	93.81
464.975	103.81
465.195	136.81
465.414	124.81
465.634	97.81
465.854	82.81
466.073	87.81
466.293	84.81
466.512	86.81
466.732	79.81
466.951	79.81
467.171	92.81
467.391	95.81
467.61	96.81
467.829	104.81
468.049	133.81
468.268	167.81
468.488	91.81
468.707	79.81
468.927	71.81
469.146	74.81
469.365	94.81
469.585	82.81
469.804	93.81
470.023	90.81
470.243	98.81
470.462	104.81
470.681	106.81
470.901	86.81
471.12	94.81
471.339	87.81
471.558	93.81
471.777	84.81
471.997	104.81
472.216	216.81
472.435	383.81
472.654	145.81
472.873	90.81
473.092	89.81
473.311	86.81
473.53	96.81
473.749	91.81
473.968	85.81
474.187	95.81
474.406	93.81
474.625	79.81
474.844	90.81
475.063	81.81
475.282	66.81
475.501	91.81
475.72	103.81
475.939	101.81
476.158	86.81
476.377	74.81
476.596	88.81
476.814	93.81
477.033	80.81
477.252	81.81
477.471	99.81
477.69	79.81
477.908	102.81
478.127	86.81
478.346	69.81
478.564	85.81
478.783	86.81
479.002	82.81
479.22	94.81
479.439	104.81
479.658	87.81
479.876	103.81
480.095	92.81
480.313	78.81
480.532	99.81
480.751	122.81
480.969	224.81
481.188	647.81
481.406	405.81
481.624	126.81
481.843	89.81
482.061	86.81
482.28	79.81
482.498	91.81
482.717	103.81
482.935	92.81
483.153	78.81
483.372	91.81
483.59	97.81
483.808	97.81
484.027	100.81
484.245	106.81
484.463	88.81
484.681	105.81
484.9	78.81
485.118	91.81
485.336	88.81
485.554	72.81
485.772	91.81
485.99	113.81
486.209	103.81
486.427	83.81
486.645	107.81
486.863	101.81
487.081	94.81
487.299	87.81
487.517	89.81
487.735	87.81
487.953	80.81
488.171	97.81
488.389	89.81
488.607	95.81
488.825	94.81
489.043	95.81
489.261	100.81
489.479	89.81
489.696	87.81
489.914	103.81
490.132	83.81
490.35	88.81
490.568	93.81
490.786	95.81
491.003	82.81
491.221	88.81
491.439	72.81
491.657	69.81
491.874	88.81
492.092	95.81
492.31	102.81
492.527	99.81
492.745	99.81
492.963	93.81
493.18	85.81
493.398	87.81
493.615	94.81
493.833	94.81
494.05	88.81
494.268	81.81
494.485	96.81
494.703	90.81
494.92	87.81
495.138	93.81
495.355	74.81
495.573	87.81
495.79	90.81
496.008	88.81
496.225	99.81
496.442	83.81
496.66	78.81
496.877	75.81
497.094	95.81
497.312	81.81
497.529	95.81
497.746	73.81
497.963	104.81
498.181	95.81
498.398	100.81
498.615	98.81
498.832	81.81
499.049	96.81
499.267	97.81
499.484	71.81
499.701	98.81
499.918	94.81
500.135	91.81
500.352	87.81
500.569	100.81
500.786	73.81
501.003	79.81
501.22	81.81
501.437	97.81
501.654	91.81
501.871	113.81
502.088	83.81
502.305	96.81
502.522	103.81
502.739	91.81
502.956	80.81
503.172	86.81
503.389	102.81
503.606	88.81
503.823	89.81
504.04	81.81
504.256	85.81
504.473	95.81
504.69	74.81
504.907	102.81
505.123	89.81
505.34	87.81
505.557	86.81
505.773	88.81
505.99	85.81
506.207	93.81
506.423	84.81
506.64	89.81
506.856	87.81
507.073	88.81
507.289	81.81
507.506	88.81
507.722	110.81
507.939	96.81
508.155	83.81
508.372	86.81
508.588	95.81
508.805	91.81
509.021	99.81
509.238	110.81
509.454	81.81
509.67	89.81
509.887	97.81
510.103	123.81
510.319	185.81
510.536	589.81
510.752	1857.81
510.968	536.81
511.184	131.81
511.401	95.81
511.617	94.81
511.833	85.81
512.049	86.81
512.265	74.81
512.481	83.81
512.698	86.81
512.914	101.81
513.13	95.81
513.346	72.81
513.562	81.81
513.778	85.81
513.994	75.81
514.21	103.81
514.426	95.81
514.642	113.81
514.858	129.81
515.074	136.81
515.29	359.81
515.506	1074.81
515.721	411.81
515.937	124.81
516.153	102.81
516.369	110.81
516.585	106.81
516.801	84.81
