Data from Circ_1984_H10_HRD10591_00024.txt Node
Date: Wed Jan 03 12:22:46 EST 2024
User: Yrep
Spectrometer: HR+D1059
Trigger mode: 1
Integration Time (sec): 1.000000E-1
Scans to average: 1
Electric dark correction enabled: true
Nonlinearity correction enabled: false
Boxcar width: 0
XAxis mode: Wavelengths
Number of Pixels in Spectrum: 2048
>>>>>Begin Spectral Data<<<<<
223.165	-7.69
223.4	-7.69
223.635	-7.69
223.869	-30.69
224.104	-24.69
224.338	-20.69
224.573	-18.69
224.808	-2.69
225.042	-17.69
225.277	-5.69
225.511	-5.69
225.746	1.31
225.98	16.31
226.215	10.31
226.449	21.31
226.683	19.31
226.918	34.31
227.152	31.31
227.387	31.31
227.621	39.31
227.856	43.31
228.09	45.31
228.324	64.31
228.559	46.31
228.793	56.31
229.027	71.31
229.262	67.31
229.496	67.31
229.73	93.31
229.964	85.31
230.199	87.31
230.433	74.31
230.667	81.31
230.901	79.31
231.136	78.31
231.37	80.31
231.604	79.31
231.838	71.31
232.072	96.31
232.306	77.31
232.541	83.31
232.775	79.31
233.009	85.31
233.243	82.31
233.477	86.31
233.711	91.31
233.945	82.31
234.179	76.31
234.413	87.31
234.647	77.31
234.881	91.31
235.115	83.31
235.349	88.31
235.583	81.31
235.817	76.31
236.051	82.31
236.285	74.31
236.519	88.31
236.753	81.31
236.987	75.31
237.221	76.31
237.455	94.31
237.689	84.31
237.922	73.31
238.156	68.31
238.39	66.31
238.624	72.31
238.858	73.31
239.091	86.31
239.325	94.31
239.559	84.31
239.793	75.31
240.027	76.31
240.26	79.31
240.494	68.31
240.728	67.31
240.961	78.31
241.195	72.31
241.429	74.31
241.662	81.31
241.896	73.31
242.13	71.31
242.363	83.31
242.597	87.31
242.83	75.31
243.064	81.31
243.298	83.31
243.531	70.31
243.765	87.31
243.998	61.31
244.232	89.31
244.465	80.31
244.699	89.31
244.932	79.31
245.166	89.31
245.399	72.31
245.633	75.31
245.866	89.31
246.099	75.31
246.333	64.31
246.566	90.31
246.8	79.31
247.033	75.31
247.266	80.31
247.5	87.31
247.733	88.31
247.966	85.31
248.2	82.31
248.433	83.31
248.666	75.31
248.899	80.31
249.133	82.31
249.366	99.31
249.599	84.31
249.832	80.31
250.066	77.31
250.299	79.31
250.532	64.31
250.765	88.31
250.998	88.31
251.231	86.31
251.465	83.31
251.698	67.31
251.931	67.31
252.164	82.31
252.397	87.31
252.63	63.31
252.863	71.31
253.096	77.31
253.329	71.31
253.562	71.31
253.795	65.31
254.028	81.31
254.261	69.31
254.494	84.31
254.727	79.31
254.96	77.31
255.193	84.31
255.426	66.31
255.659	79.31
255.892	88.31
256.124	84.31
256.357	83.31
256.59	67.31
256.823	81.31
257.056	73.31
257.289	89.31
257.521	66.31
257.754	79.31
257.987	83.31
258.22	86.31
258.452	91.31
258.685	88.31
258.918	84.31
259.151	85.31
259.383	86.31
259.616	76.31
259.849	82.31
260.081	83.31
260.314	77.31
260.547	92.31
260.779	82.31
261.012	92.31
261.244	75.31
261.477	87.31
261.71	97.31
261.942	100.31
262.175	105.31
262.407	91.31
262.64	96.31
262.872	93.31
263.105	92.31
263.337	93.31
263.57	72.31
263.802	74.31
264.035	75.31
264.267	83.31
264.499	78.31
264.732	67.31
264.964	72.31
265.197	79.31
265.429	75.31
265.661	76.31
265.894	97.31
266.126	85.31
266.358	83.31
266.591	83.31
266.823	92.31
267.055	83.31
267.287	78.31
267.52	97.31
267.752	82.31
267.984	76.31
268.216	91.31
268.448	72.31
268.681	78.31
268.913	89.31
269.145	94.31
269.377	88.31
269.609	77.31
269.841	89.31
270.073	84.31
270.306	79.31
270.538	74.31
270.77	73.31
271.002	72.31
271.234	91.31
271.466	89.31
271.698	82.31
271.93	85.31
272.162	89.31
272.394	65.31
272.626	75.31
272.858	85.31
273.09	95.31
273.322	87.31
273.553	87.31
273.785	96.31
274.017	80.31
274.249	84.31
274.481	76.31
274.713	85.31
274.945	94.31
275.176	91.31
275.408	96.31
275.64	89.31
275.872	82.31
276.104	104.31
276.335	84.31
276.567	97.31
276.799	111.31
277.031	108.31
277.262	83.31
277.494	95.31
277.726	88.31
277.957	87.31
278.189	93.31
278.421	91.31
278.652	73.31
278.884	72.31
279.115	84.31
279.347	74.31
279.579	99.31
279.81	90.31
280.042	91.31
280.273	99.31
280.505	96.31
280.736	92.31
280.968	86.31
281.199	95.31
281.431	87.31
281.662	94.31
281.894	109.31
282.125	93.31
282.356	115.31
282.588	123.31
282.819	106.31
283.051	83.31
283.282	82.31
283.513	77.31
283.745	82.31
283.976	95.31
284.207	81.31
284.439	90.31
284.67	86.31
284.901	97.31
285.132	69.31
285.364	85.31
285.595	80.31
285.826	74.31
286.057	101.31
286.288	93.31
286.52	87.31
286.751	86.31
286.982	81.31
287.213	82.31
287.444	85.31
287.675	100.31
287.906	91.31
288.138	96.31
288.369	92.31
288.6	88.31
288.831	90.31
289.062	78.31
289.293	96.31
289.524	91.31
289.755	91.31
289.986	84.31
290.217	85.31
290.448	88.31
290.679	99.31
290.91	91.31
291.141	87.31
291.371	82.31
291.602	79.31
291.833	81.31
292.064	78.31
292.295	86.31
292.526	92.31
292.757	92.31
292.987	89.31
293.218	93.31
293.449	95.31
293.68	96.31
293.91	79.31
294.141	101.31
294.372	92.31
294.603	84.31
294.833	68.31
295.064	86.31
295.295	95.31
295.525	88.31
295.756	92.31
295.987	100.31
296.217	113.31
296.448	120.31
296.679	92.31
296.909	103.31
297.14	79.31
297.37	115.31
297.601	80.31
297.831	101.31
298.062	79.31
298.292	91.31
298.523	83.31
298.753	98.31
298.984	76.31
299.214	80.31
299.445	85.31
299.675	85.31
299.905	88.31
300.136	84.31
300.366	92.31
300.597	88.31
300.827	81.31
301.057	99.31
301.288	93.31
301.518	94.31
301.748	79.31
301.979	95.31
302.209	83.31
302.439	88.31
302.669	75.31
302.9	91.31
303.13	91.31
303.36	88.31
303.59	85.31
303.82	91.31
304.051	99.31
304.281	90.31
304.511	79.31
304.741	97.31
304.971	94.31
305.201	89.31
305.431	74.31
305.661	87.31
305.891	101.31
306.121	93.31
306.352	110.31
306.582	107.31
306.812	94.31
307.042	89.31
307.272	99.31
307.502	107.31
307.731	102.31
307.961	75.31
308.191	89.31
308.421	97.31
308.651	94.31
308.881	101.31
309.111	97.31
309.341	95.31
309.571	91.31
309.8	104.31
310.03	107.31
310.26	95.31
310.49	100.31
310.72	100.31
310.949	117.31
311.179	104.31
311.409	92.31
311.639	82.31
311.868	98.31
312.098	96.31
312.328	95.31
312.557	94.31
312.787	86.31
313.017	91.31
313.246	106.31
313.476	68.31
313.706	89.31
313.935	95.31
314.165	99.31
314.394	99.31
314.624	108.31
314.853	112.31
315.083	97.31
315.312	88.31
315.542	101.31
315.771	101.31
316.001	87.31
316.23	97.31
316.46	93.31
316.689	89.31
316.919	85.31
317.148	80.31
317.377	92.31
317.607	97.31
317.836	81.31
318.065	87.31
318.295	94.31
318.524	85.31
318.753	91.31
318.983	96.31
319.212	102.31
319.441	109.31
319.67	97.31
319.9	99.31
320.129	102.31
320.358	95.31
320.587	97.31
320.816	104.31
321.046	105.31
321.275	91.31
321.504	94.31
321.733	100.31
321.962	96.31
322.191	105.31
322.42	99.31
322.649	98.31
322.878	100.31
323.108	105.31
323.337	115.31
323.566	120.31
323.795	140.31
324.024	174.31
324.253	311.31
324.482	673.31
324.71	1332.31
324.939	1807.31
325.168	676.31
325.397	211.31
325.626	129.31
325.855	103.31
326.084	122.31
326.313	116.31
326.542	145.31
326.77	185.31
326.999	384.31
327.228	769.31
327.457	1404.31
327.686	1137.31
327.914	313.31
328.143	192.31
328.372	163.31
328.6	134.31
328.829	123.31
329.058	128.31
329.287	124.31
329.515	101.31
329.744	84.31
329.972	129.31
330.201	150.31
330.43	193.31
330.658	150.31
330.887	143.31
331.115	88.31
331.344	87.31
331.572	84.31
331.801	95.31
332.03	99.31
332.258	105.31
332.486	93.31
332.715	97.31
332.943	101.31
333.172	106.31
333.4	100.31
333.629	104.31
333.857	109.31
334.085	125.31
334.314	177.31
334.542	243.31
334.771	239.31
334.999	131.31
335.227	109.31
335.455	88.31
335.684	96.31
335.912	105.31
336.14	105.31
336.369	118.31
336.597	99.31
336.825	106.31
337.053	87.31
337.281	84.31
337.51	89.31
337.738	100.31
337.966	68.31
338.194	93.31
338.422	80.31
338.65	89.31
338.878	72.31
339.106	91.31
339.334	87.31
339.562	93.31
339.79	93.31
340.018	95.31
340.246	89.31
340.474	102.31
340.702	100.31
340.93	82.31
341.158	99.31
341.386	100.31
341.614	95.31
341.842	80.31
342.07	90.31
342.298	86.31
342.526	94.31
342.754	96.31
342.981	91.31
343.209	91.31
343.437	86.31
343.665	84.31
343.893	77.31
344.12	87.31
344.348	83.31
344.576	92.31
344.804	87.31
345.031	98.31
345.259	91.31
345.487	86.31
345.714	92.31
345.942	92.31
346.17	93.31
346.397	87.31
346.625	100.31
346.853	93.31
347.08	89.31
347.308	97.31
347.535	79.31
347.763	77.31
347.99	97.31
348.218	100.31
348.445	105.31
348.673	89.31
348.9	93.31
349.128	107.31
349.355	79.31
349.583	87.31
349.81	97.31
350.037	93.31
350.265	106.31
350.492	89.31
350.72	104.31
350.947	104.31
351.174	103.31
351.402	96.31
351.629	89.31
351.856	100.31
352.083	99.31
352.311	108.31
352.538	116.31
352.765	109.31
352.992	104.31
353.22	108.31
353.447	105.31
353.674	95.31
353.901	105.31
354.128	92.31
354.355	89.31
354.583	111.31
354.81	117.31
355.037	87.31
355.264	102.31
355.491	104.31
355.718	90.31
355.945	92.31
356.172	88.31
356.399	90.31
356.626	93.31
356.853	90.31
357.08	82.31
357.307	83.31
357.534	91.31
357.761	98.31
357.988	85.31
358.215	98.31
358.441	89.31
358.668	89.31
358.895	89.31
359.122	86.31
359.349	84.31
359.576	90.31
359.802	90.31
360.029	116.31
360.256	101.31
360.483	99.31
360.709	93.31
360.936	75.31
361.163	88.31
361.39	86.31
361.616	83.31
361.843	98.31
362.07	90.31
362.296	89.31
362.523	86.31
362.749	76.31
362.976	75.31
363.203	82.31
363.429	82.31
363.656	90.31
363.882	97.31
364.109	96.31
364.335	95.31
364.562	104.31
364.788	83.31
365.015	91.31
365.241	104.31
365.468	105.31
365.694	99.31
365.92	92.31
366.147	89.31
366.373	91.31
366.599	92.31
366.826	92.31
367.052	91.31
367.278	84.31
367.505	95.31
367.731	99.31
367.957	86.31
368.184	106.31
368.41	92.31
368.636	109.31
368.862	108.31
369.089	97.31
369.315	109.31
369.541	100.31
369.767	82.31
369.993	99.31
370.219	87.31
370.445	83.31
370.672	85.31
370.898	85.31
371.124	105.31
371.35	86.31
371.576	92.31
371.802	103.31
372.028	97.31
372.254	87.31
372.48	83.31
372.706	79.31
372.932	85.31
373.158	93.31
373.384	85.31
373.61	89.31
373.835	77.31
374.061	107.31
374.287	100.31
374.513	100.31
374.739	84.31
374.965	85.31
375.191	89.31
375.416	98.31
375.642	81.31
375.868	96.31
376.094	100.31
376.319	103.31
376.545	81.31
376.771	92.31
376.997	87.31
377.222	84.31
377.448	98.31
377.674	83.31
377.899	79.31
378.125	98.31
378.35	92.31
378.576	97.31
378.802	100.31
379.027	93.31
379.253	95.31
379.478	87.31
379.704	93.31
379.929	103.31
380.155	101.31
380.38	87.31
380.606	100.31
380.831	87.31
381.057	106.31
381.282	88.31
381.507	96.31
381.733	84.31
381.958	95.31
382.184	99.31
382.409	100.31
382.634	110.31
382.86	101.31
383.085	95.31
383.31	96.31
383.535	109.31
383.761	103.31
383.986	103.31
384.211	104.31
384.436	105.31
384.662	99.31
384.887	99.31
385.112	116.31
385.337	105.31
385.562	109.31
385.787	99.31
386.013	111.31
386.238	109.31
386.463	103.31
386.688	105.31
386.913	125.31
387.138	109.31
387.363	93.31
387.588	108.31
387.813	97.31
388.038	109.31
388.263	131.31
388.488	105.31
388.713	100.31
388.938	100.31
389.163	106.31
389.387	87.31
389.612	88.31
389.837	102.31
390.062	88.31
390.287	88.31
390.512	97.31
390.736	104.31
390.961	90.31
391.186	83.31
391.411	95.31
391.636	93.31
391.86	104.31
392.085	81.31
392.31	85.31
392.534	97.31
392.759	89.31
392.984	90.31
393.208	82.31
393.433	114.31
393.658	96.31
393.882	90.31
394.107	84.31
394.331	76.31
394.556	96.31
394.78	77.31
395.005	84.31
395.229	93.31
395.454	96.31
395.678	88.31
395.903	107.31
396.127	117.31
396.352	83.31
396.576	79.31
396.801	82.31
397.025	96.31
397.249	82.31
397.474	81.31
397.698	83.31
397.922	74.31
398.147	110.31
398.371	73.31
398.595	84.31
398.82	89.31
399.044	93.31
399.268	79.31
399.492	86.31
399.717	81.31
399.941	83.31
400.165	89.31
400.389	92.31
400.613	93.31
400.837	92.31
401.062	66.31
401.286	75.31
401.51	109.31
401.734	103.31
401.958	98.31
402.182	115.31
402.406	138.31
402.63	112.31
402.854	95.31
403.078	85.31
403.302	88.31
403.526	74.31
403.75	73.31
403.974	91.31
404.198	87.31
404.422	89.31
404.645	79.31
404.869	99.31
405.093	105.31
405.317	95.31
405.541	95.31
405.765	76.31
405.988	126.31
406.212	151.31
406.436	189.31
406.66	116.31
406.883	85.31
407.107	96.31
407.331	93.31
407.555	102.31
407.778	84.31
408.002	92.31
408.226	99.31
408.449	94.31
408.673	86.31
408.896	85.31
409.12	89.31
409.344	93.31
409.567	81.31
409.791	93.31
410.014	84.31
410.238	113.31
410.461	76.31
410.685	85.31
410.908	108.31
411.132	98.31
411.355	79.31
411.578	81.31
411.802	83.31
412.025	95.31
412.249	100.31
412.472	96.31
412.695	109.31
412.919	88.31
413.142	97.31
413.365	86.31
413.589	94.31
413.812	91.31
414.035	92.31
414.258	82.31
414.482	80.31
414.705	92.31
414.928	85.31
415.151	98.31
415.374	88.31
415.597	90.31
415.821	92.31
416.044	86.31
416.267	98.31
416.49	91.31
416.713	75.31
416.936	100.31
417.159	83.31
417.382	95.31
417.605	90.31
417.828	95.31
418.051	94.31
418.274	101.31
418.497	83.31
418.72	76.31
418.943	103.31
419.166	95.31
419.389	94.31
419.611	114.31
419.834	87.31
420.057	83.31
420.28	84.31
420.503	99.31
420.726	89.31
420.948	91.31
421.171	93.31
421.394	89.31
421.617	89.31
421.839	97.31
422.062	93.31
422.285	94.31
422.507	109.31
422.73	101.31
422.953	91.31
423.175	107.31
423.398	79.31
423.621	88.31
423.843	86.31
424.066	85.31
424.288	82.31
424.511	92.31
424.733	77.31
424.956	111.31
425.178	103.31
425.401	101.31
425.623	109.31
425.846	84.31
426.068	81.31
426.291	90.31
426.513	100.31
426.735	96.31
426.958	101.31
427.18	112.31
427.402	126.31
427.625	141.31
427.847	140.31
428.069	116.31
428.292	90.31
428.514	93.31
428.736	87.31
428.958	84.31
429.181	89.31
429.403	70.31
429.625	83.31
429.847	88.31
430.069	104.31
430.292	100.31
430.514	84.31
430.736	94.31
430.958	96.31
431.18	78.31
431.402	88.31
431.624	98.31
431.846	92.31
432.068	82.31
432.29	86.31
432.512	97.31
432.734	92.31
432.956	98.31
433.178	102.31
433.4	110.31
433.622	82.31
433.844	84.31
434.066	93.31
434.287	90.31
434.509	100.31
434.731	87.31
434.953	81.31
435.175	88.31
435.397	95.31
435.618	91.31
435.84	91.31
436.062	112.31
436.284	106.31
436.505	96.31
436.727	101.31
436.949	97.31
437.17	94.31
437.392	81.31
437.614	89.31
437.835	99.31
438.057	106.31
438.278	108.31
438.5	111.31
438.721	107.31
438.943	85.31
439.165	75.31
439.386	100.31
439.608	77.31
439.829	91.31
440.05	127.31
440.272	112.31
440.493	103.31
440.715	87.31
440.936	99.31
441.158	105.31
441.379	96.31
441.6	91.31
441.822	102.31
442.043	96.31
442.264	97.31
442.486	87.31
442.707	102.31
442.928	102.31
443.149	105.31
443.371	123.31
443.592	104.31
443.813	109.31
444.034	113.31
444.255	73.31
444.476	75.31
444.698	95.31
444.919	82.31
445.14	135.31
445.361	130.31
445.582	109.31
445.803	119.31
446.024	122.31
446.245	126.31
446.466	118.31
446.687	83.31
446.908	84.31
447.129	89.31
447.35	90.31
447.571	88.31
447.792	88.31
448.013	85.31
448.234	100.31
448.455	100.31
448.675	89.31
448.896	101.31
449.117	109.31
449.338	101.31
449.559	119.31
449.779	108.31
450	108.31
450.221	86.31
450.442	99.31
450.662	94.31
450.883	114.31
451.104	105.31
451.324	83.31
451.545	99.31
451.766	89.31
451.986	96.31
452.207	85.31
452.428	93.31
452.648	107.31
452.869	102.31
453.089	108.31
453.31	114.31
453.53	99.31
453.751	96.31
453.971	87.31
454.192	97.31
454.412	93.31
454.633	89.31
454.853	90.31
455.073	73.31
455.294	107.31
455.514	101.31
455.734	85.31
455.955	89.31
456.175	81.31
456.395	91.31
456.616	97.31
456.836	95.31
457.056	91.31
457.276	91.31
457.497	76.31
457.717	77.31
457.937	84.31
458.157	85.31
458.377	84.31
458.598	113.31
458.818	129.31
459.038	126.31
459.258	98.31
459.478	96.31
459.698	84.31
459.918	91.31
460.138	92.31
460.358	84.31
460.578	88.31
460.798	86.31
461.018	91.31
461.238	91.31
461.458	78.31
461.678	90.31
461.898	91.31
462.118	88.31
462.338	80.31
462.558	98.31
462.777	98.31
462.997	76.31
463.217	80.31
463.437	90.31
463.657	73.31
463.876	73.31
464.096	81.31
464.316	91.31
464.536	98.31
464.755	94.31
464.975	91.31
465.195	149.31
465.414	142.31
465.634	97.31
465.854	78.31
466.073	91.31
466.293	86.31
466.512	110.31
466.732	90.31
466.951	93.31
467.171	77.31
467.391	84.31
467.61	89.31
467.829	107.31
468.049	122.31
468.268	145.31
468.488	99.31
468.707	91.31
468.927	68.31
469.146	86.31
469.365	93.31
469.585	98.31
469.804	79.31
470.023	100.31
470.243	100.31
470.462	105.31
470.681	116.31
470.901	98.31
471.12	90.31
471.339	81.31
471.558	100.31
471.777	85.31
471.997	110.31
472.216	178.31
472.435	278.31
472.654	125.31
472.873	83.31
473.092	87.31
473.311	104.31
473.53	89.31
473.749	79.31
473.968	89.31
474.187	103.31
474.406	99.31
474.625	75.31
474.844	84.31
475.063	71.31
475.282	81.31
475.501	77.31
475.72	72.31
475.939	90.31
476.158	85.31
476.377	89.31
476.596	90.31
476.814	91.31
477.033	81.31
477.252	93.31
477.471	84.31
477.69	105.31
477.908	88.31
478.127	105.31
478.346	100.31
478.564	99.31
478.783	91.31
479.002	88.31
479.22	77.31
479.439	96.31
479.658	95.31
479.876	104.31
480.095	104.31
480.313	93.31
480.532	101.31
480.751	113.31
480.969	172.31
481.188	457.31
481.406	311.31
481.624	108.31
481.843	96.31
482.061	96.31
482.28	85.31
482.498	99.31
482.717	87.31
482.935	89.31
483.153	88.31
483.372	92.31
483.59	85.31
483.808	95.31
484.027	83.31
484.245	80.31
484.463	97.31
484.681	96.31
484.9	76.31
485.118	94.31
485.336	87.31
485.554	103.31
485.772	104.31
485.99	109.31
486.209	121.31
486.427	116.31
486.645	113.31
486.863	100.31
487.081	108.31
487.299	98.31
487.517	93.31
487.735	82.31
487.953	98.31
488.171	95.31
488.389	97.31
488.607	105.31
488.825	94.31
489.043	95.31
489.261	96.31
489.479	91.31
489.696	85.31
489.914	96.31
490.132	89.31
490.35	83.31
490.568	97.31
490.786	67.31
491.003	77.31
491.221	86.31
491.439	104.31
491.657	93.31
491.874	93.31
492.092	96.31
492.31	95.31
492.527	96.31
492.745	89.31
492.963	91.31
493.18	97.31
493.398	104.31
493.615	99.31
493.833	88.31
494.05	95.31
494.268	97.31
494.485	95.31
494.703	93.31
494.92	92.31
495.138	77.31
495.355	79.31
495.573	92.31
495.79	96.31
496.008	88.31
496.225	90.31
496.442	86.31
496.66	105.31
496.877	98.31
497.094	77.31
497.312	85.31
497.529	80.31
497.746	91.31
497.963	90.31
498.181	91.31
498.398	105.31
498.615	102.31
498.832	88.31
499.049	86.31
499.267	92.31
499.484	99.31
499.701	76.31
499.918	91.31
500.135	98.31
500.352	91.31
500.569	92.31
500.786	89.31
501.003	86.31
501.22	93.31
501.437	93.31
501.654	97.31
501.871	112.31
502.088	94.31
502.305	101.31
502.522	82.31
502.739	102.31
502.956	86.31
503.172	87.31
503.389	110.31
503.606	99.31
503.823	93.31
504.04	80.31
504.256	100.31
504.473	83.31
504.69	98.31
504.907	110.31
505.123	92.31
505.34	79.31
505.557	85.31
505.773	90.31
505.99	87.31
506.207	83.31
506.423	88.31
506.64	81.31
506.856	97.31
507.073	97.31
507.289	91.31
507.506	89.31
507.722	94.31
507.939	105.31
508.155	102.31
508.372	86.31
508.588	101.31
508.805	89.31
509.021	102.31
509.238	96.31
509.454	103.31
509.67	97.31
509.887	102.31
510.103	128.31
510.319	175.31
510.536	622.31
510.752	2041.31
510.968	573.31
511.184	152.31
511.401	100.31
511.617	106.31
511.833	93.31
512.049	96.31
512.265	108.31
512.481	93.31
512.698	107.31
512.914	106.31
513.13	82.31
513.346	81.31
513.562	96.31
513.778	103.31
513.994	107.31
514.21	108.31
514.426	103.31
514.642	134.31
514.858	122.31
515.074	163.31
515.29	371.31
515.506	1229.31
