Data from Circ_1984_H10_HRD10591_00061.txt Node
Date: Wed Jan 03 12:22:54 EST 2024
User: Yrep
Spectrometer: HR+D1059
Trigger mode: 1
Integration Time (sec): 1.000000E-1
Scans to average: 1
Electric dark correction enabled: true
Nonlinearity correction enabled: false
Boxcar width: 0
XAxis mode: Wavelengths
Number of Pixels in Spectrum: 2048
>>>>>Begin Spectral Data<<<<<
223.165	-14.12
223.4	-14.12
223.635	-14.12
223.869	-18.12
224.104	-21.12
224.338	-16.12
224.573	-16.12
224.808	-16.12
225.042	-17.12
225.277	-15.12
225.511	-0.12
225.746	10.88
225.98	14.88
226.215	11.88
226.449	8.88
226.683	19.88
226.918	36.88
227.152	30.88
227.387	31.88
227.621	51.88
227.856	46.88
228.09	40.88
228.324	47.88
228.559	58.88
228.793	68.88
229.027	72.88
229.262	73.88
229.496	70.88
229.73	83.88
229.964	85.88
230.199	76.88
230.433	72.88
230.667	83.88
230.901	91.88
231.136	83.88
231.37	85.88
231.604	84.88
231.838	78.88
232.072	90.88
232.306	71.88
232.541	91.88
232.775	94.88
233.009	98.88
233.243	86.88
233.477	80.88
233.711	78.88
233.945	73.88
234.179	76.88
234.413	78.88
234.647	105.88
234.881	76.88
235.115	76.88
235.349	67.88
235.583	82.88
235.817	88.88
236.051	80.88
236.285	86.88
236.519	62.88
236.753	84.88
236.987	86.88
237.221	79.88
237.455	89.88
237.689	94.88
237.922	72.88
238.156	64.88
238.39	70.88
238.624	72.88
238.858	97.88
239.091	70.88
239.325	78.88
239.559	91.88
239.793	82.88
240.027	74.88
240.26	82.88
240.494	82.88
240.728	70.88
240.961	60.88
241.195	72.88
241.429	90.88
241.662	75.88
241.896	90.88
242.13	98.88
242.363	86.88
242.597	79.88
242.83	75.88
243.064	76.88
243.298	74.88
243.531	78.88
243.765	78.88
243.998	73.88
244.232	69.88
244.465	70.88
244.699	76.88
244.932	80.88
245.166	91.88
245.399	70.88
245.633	88.88
245.866	84.88
246.099	83.88
246.333	78.88
246.566	86.88
246.8	93.88
247.033	73.88
247.266	70.88
247.5	80.88
247.733	74.88
247.966	79.88
248.2	86.88
248.433	80.88
248.666	87.88
248.899	71.88
249.133	73.88
249.366	103.88
249.599	92.88
249.832	98.88
250.066	81.88
250.299	76.88
250.532	79.88
250.765	78.88
250.998	88.88
251.231	90.88
251.465	98.88
251.698	88.88
251.931	87.88
252.164	75.88
252.397	96.88
252.63	83.88
252.863	84.88
253.096	88.88
253.329	96.88
253.562	86.88
253.795	84.88
254.028	82.88
254.261	84.88
254.494	98.88
254.727	84.88
254.96	85.88
255.193	80.88
255.426	74.88
255.659	97.88
255.892	89.88
256.124	93.88
256.357	98.88
256.59	83.88
256.823	75.88
257.056	85.88
257.289	84.88
257.521	82.88
257.754	82.88
257.987	84.88
258.22	91.88
258.452	75.88
258.685	77.88
258.918	72.88
259.151	85.88
259.383	88.88
259.616	88.88
259.849	80.88
260.081	93.88
260.314	85.88
260.547	82.88
260.779	93.88
261.012	91.88
261.244	85.88
261.477	87.88
261.71	89.88
261.942	113.88
262.175	108.88
262.407	97.88
262.64	97.88
262.872	90.88
263.105	91.88
263.337	86.88
263.57	89.88
263.802	101.88
264.035	74.88
264.267	92.88
264.499	77.88
264.732	88.88
264.964	100.88
265.197	87.88
265.429	82.88
265.661	95.88
265.894	78.88
266.126	86.88
266.358	83.88
266.591	90.88
266.823	71.88
267.055	92.88
267.287	95.88
267.52	81.88
267.752	86.88
267.984	86.88
268.216	99.88
268.448	76.88
268.681	87.88
268.913	88.88
269.145	70.88
269.377	85.88
269.609	84.88
269.841	79.88
270.073	98.88
270.306	82.88
270.538	86.88
270.77	91.88
271.002	97.88
271.234	92.88
271.466	98.88
271.698	98.88
271.93	78.88
272.162	90.88
272.394	94.88
272.626	98.88
272.858	88.88
273.09	89.88
273.322	92.88
273.553	96.88
273.785	75.88
274.017	79.88
274.249	82.88
274.481	79.88
274.713	91.88
274.945	87.88
275.176	93.88
275.408	103.88
275.64	90.88
275.872	92.88
276.104	94.88
276.335	105.88
276.567	101.88
276.799	93.88
277.031	103.88
277.262	105.88
277.494	108.88
277.726	94.88
277.957	84.88
278.189	90.88
278.421	75.88
278.652	84.88
278.884	77.88
279.115	88.88
279.347	91.88
279.579	70.88
279.81	93.88
280.042	104.88
280.273	118.88
280.505	102.88
280.736	93.88
280.968	94.88
281.199	92.88
281.431	67.88
281.662	76.88
281.894	108.88
282.125	98.88
282.356	120.88
282.588	140.88
282.819	114.88
283.051	95.88
283.282	84.88
283.513	80.88
283.745	92.88
283.976	82.88
284.207	97.88
284.439	88.88
284.67	92.88
284.901	93.88
285.132	87.88
285.364	90.88
285.595	86.88
285.826	90.88
286.057	96.88
286.288	87.88
286.52	88.88
286.751	91.88
286.982	86.88
287.213	77.88
287.444	94.88
287.675	82.88
287.906	91.88
288.138	98.88
288.369	90.88
288.6	114.88
288.831	96.88
289.062	96.88
289.293	98.88
289.524	91.88
289.755	91.88
289.986	97.88
290.217	99.88
290.448	85.88
290.679	95.88
290.91	104.88
291.141	95.88
291.371	89.88
291.602	98.88
291.833	93.88
292.064	78.88
292.295	100.88
292.526	91.88
292.757	84.88
292.987	95.88
293.218	96.88
293.449	97.88
293.68	87.88
293.91	76.88
294.141	98.88
294.372	96.88
294.603	92.88
294.833	87.88
295.064	98.88
295.295	90.88
295.525	93.88
295.756	105.88
295.987	115.88
296.217	141.88
296.448	118.88
296.679	94.88
296.909	100.88
297.14	105.88
297.37	94.88
297.601	101.88
297.831	93.88
298.062	85.88
298.292	83.88
298.523	96.88
298.753	90.88
298.984	85.88
299.214	102.88
299.445	99.88
299.675	91.88
299.905	91.88
300.136	95.88
300.366	88.88
300.597	90.88
300.827	109.88
301.057	99.88
301.288	106.88
301.518	98.88
301.748	90.88
301.979	109.88
302.209	97.88
302.439	94.88
302.669	90.88
302.9	100.88
303.13	97.88
303.36	86.88
303.59	85.88
303.82	115.88
304.051	93.88
304.281	84.88
304.511	95.88
304.741	94.88
304.971	95.88
305.201	83.88
305.431	90.88
305.661	94.88
305.891	99.88
306.121	112.88
306.352	101.88
306.582	96.88
306.812	102.88
307.042	98.88
307.272	109.88
307.502	95.88
307.731	107.88
307.961	115.88
308.191	91.88
308.421	84.88
308.651	104.88
308.881	98.88
309.111	102.88
309.341	104.88
309.571	88.88
309.8	96.88
310.03	94.88
310.26	102.88
310.49	100.88
310.72	99.88
310.949	102.88
311.179	89.88
311.409	103.88
311.639	91.88
311.868	94.88
312.098	97.88
312.328	102.88
312.557	103.88
312.787	104.88
313.017	99.88
313.246	101.88
313.476	99.88
313.706	91.88
313.935	83.88
314.165	91.88
314.394	94.88
314.624	96.88
314.853	104.88
315.083	90.88
315.312	96.88
315.542	80.88
315.771	84.88
316.001	87.88
316.23	96.88
316.46	92.88
316.689	94.88
316.919	97.88
317.148	91.88
317.377	78.88
317.607	87.88
317.836	104.88
318.065	98.88
318.295	85.88
318.524	79.88
318.753	103.88
318.983	95.88
319.212	113.88
319.441	108.88
319.67	106.88
319.9	98.88
320.129	97.88
320.358	101.88
320.587	91.88
320.816	93.88
321.046	93.88
321.275	102.88
321.504	93.88
321.733	95.88
321.962	85.88
322.191	87.88
322.42	107.88
322.649	118.88
322.878	105.88
323.108	105.88
323.337	118.88
323.566	119.88
323.795	154.88
324.024	206.88
324.253	380.88
324.482	779.88
324.71	1568.88
324.939	2036.88
325.168	775.88
325.397	230.88
325.626	150.88
325.855	137.88
326.084	119.88
326.313	103.88
326.542	136.88
326.77	217.88
326.999	424.88
327.228	859.88
327.457	1567.88
327.686	1260.88
327.914	390.88
328.143	202.88
328.372	210.88
328.6	169.88
328.829	111.88
329.058	126.88
329.287	135.88
329.515	111.88
329.744	138.88
329.972	162.88
330.201	244.88
330.43	304.88
330.658	202.88
330.887	162.88
331.115	146.88
331.344	115.88
331.572	116.88
331.801	92.88
332.03	105.88
332.258	95.88
332.486	82.88
332.715	101.88
332.943	107.88
333.172	98.88
333.4	104.88
333.629	120.88
333.857	127.88
334.085	153.88
334.314	215.88
334.542	368.88
334.771	350.88
334.999	149.88
335.227	108.88
335.455	91.88
335.684	104.88
335.912	101.88
336.14	90.88
336.369	102.88
336.597	94.88
336.825	100.88
337.053	101.88
337.281	101.88
337.51	110.88
337.738	98.88
337.966	93.88
338.194	99.88
338.422	101.88
338.65	101.88
338.878	100.88
339.106	84.88
339.334	86.88
339.562	102.88
339.79	85.88
340.018	99.88
340.246	91.88
340.474	111.88
340.702	99.88
340.93	90.88
341.158	102.88
341.386	116.88
341.614	109.88
341.842	99.88
342.07	93.88
342.298	95.88
342.526	119.88
342.754	108.88
342.981	90.88
343.209	95.88
343.437	104.88
343.665	106.88
343.893	91.88
344.12	96.88
344.348	83.88
344.576	90.88
344.804	106.88
345.031	98.88
345.259	91.88
345.487	100.88
345.714	91.88
345.942	104.88
346.17	96.88
346.397	96.88
346.625	97.88
346.853	92.88
347.08	93.88
347.308	81.88
347.535	98.88
347.763	101.88
347.99	107.88
348.218	106.88
348.445	108.88
348.673	86.88
348.9	99.88
349.128	84.88
349.355	88.88
349.583	95.88
349.81	96.88
350.037	103.88
350.265	93.88
350.492	97.88
350.72	93.88
350.947	106.88
351.174	111.88
351.402	98.88
351.629	97.88
351.856	99.88
352.083	101.88
352.311	112.88
352.538	89.88
352.765	98.88
352.992	115.88
353.22	123.88
353.447	114.88
353.674	103.88
353.901	92.88
354.128	86.88
354.355	103.88
354.583	95.88
354.81	95.88
355.037	89.88
355.264	88.88
355.491	104.88
355.718	95.88
355.945	105.88
356.172	102.88
356.399	100.88
356.626	98.88
356.853	86.88
357.08	92.88
357.307	96.88
357.534	88.88
357.761	97.88
357.988	103.88
358.215	93.88
358.441	93.88
358.668	93.88
358.895	89.88
359.122	94.88
359.349	95.88
359.576	96.88
359.802	106.88
360.029	99.88
360.256	117.88
360.483	98.88
360.709	86.88
360.936	93.88
361.163	96.88
361.39	119.88
361.616	99.88
361.843	85.88
362.07	88.88
362.296	85.88
362.523	91.88
362.749	98.88
362.976	91.88
363.203	94.88
363.429	92.88
363.656	93.88
363.882	94.88
364.109	89.88
364.335	89.88
364.562	106.88
364.788	107.88
365.015	109.88
365.241	95.88
365.468	117.88
365.694	107.88
365.92	91.88
366.147	80.88
366.373	91.88
366.599	90.88
366.826	90.88
367.052	104.88
367.278	102.88
367.505	99.88
367.731	88.88
367.957	104.88
368.184	88.88
368.41	109.88
368.636	107.88
368.862	120.88
369.089	109.88
369.315	108.88
369.541	96.88
369.767	92.88
369.993	105.88
370.219	106.88
370.445	71.88
370.672	77.88
370.898	102.88
371.124	82.88
371.35	78.88
371.576	95.88
371.802	85.88
372.028	89.88
372.254	95.88
372.48	95.88
372.706	103.88
372.932	104.88
373.158	109.88
373.384	85.88
373.61	98.88
373.835	107.88
374.061	72.88
374.287	98.88
374.513	89.88
374.739	109.88
374.965	93.88
375.191	88.88
375.416	107.88
375.642	99.88
375.868	88.88
376.094	98.88
376.319	92.88
376.545	90.88
376.771	95.88
376.997	96.88
377.222	82.88
377.448	75.88
377.674	88.88
377.899	86.88
378.125	95.88
378.35	110.88
378.576	78.88
378.802	82.88
379.027	82.88
379.253	89.88
379.478	105.88
379.704	100.88
379.929	90.88
380.155	89.88
380.38	98.88
380.606	89.88
380.831	83.88
381.057	95.88
381.282	95.88
381.507	100.88
381.733	106.88
381.958	99.88
382.184	104.88
382.409	100.88
382.634	109.88
382.86	111.88
383.085	112.88
383.31	104.88
383.535	94.88
383.761	102.88
383.986	100.88
384.211	98.88
384.436	117.88
384.662	101.88
384.887	95.88
385.112	84.88
385.337	100.88
385.562	107.88
385.787	109.88
386.013	107.88
386.238	108.88
386.463	110.88
386.688	118.88
386.913	102.88
387.138	102.88
387.363	120.88
387.588	98.88
387.813	99.88
388.038	98.88
388.263	116.88
388.488	106.88
388.713	107.88
388.938	97.88
389.163	103.88
389.387	106.88
389.612	101.88
389.837	82.88
390.062	100.88
390.287	94.88
390.512	96.88
390.736	84.88
390.961	101.88
391.186	87.88
391.411	103.88
391.636	104.88
391.86	81.88
392.085	105.88
392.31	101.88
392.534	95.88
392.759	94.88
392.984	106.88
393.208	96.88
393.433	99.88
393.658	101.88
393.882	86.88
394.107	100.88
394.331	90.88
394.556	79.88
394.78	87.88
395.005	98.88
395.229	85.88
395.454	94.88
395.678	86.88
395.903	87.88
396.127	93.88
396.352	88.88
396.576	94.88
396.801	96.88
397.025	94.88
397.249	87.88
397.474	108.88
397.698	84.88
397.922	85.88
398.147	80.88
398.371	86.88
398.595	91.88
398.82	99.88
399.044	87.88
399.268	80.88
399.492	92.88
399.717	74.88
399.941	87.88
400.165	102.88
400.389	101.88
400.613	91.88
400.837	80.88
401.062	92.88
401.286	95.88
401.51	85.88
401.734	80.88
401.958	90.88
402.182	116.88
402.406	149.88
402.63	122.88
402.854	92.88
403.078	98.88
403.302	92.88
403.526	101.88
403.75	93.88
403.974	95.88
404.198	72.88
404.422	93.88
404.645	89.88
404.869	92.88
405.093	104.88
405.317	103.88
405.541	125.88
405.765	104.88
405.988	112.88
406.212	169.88
406.436	222.88
406.66	136.88
406.883	111.88
407.107	95.88
407.331	95.88
407.555	95.88
407.778	107.88
408.002	87.88
408.226	106.88
408.449	93.88
408.673	90.88
408.896	89.88
409.12	94.88
409.344	91.88
409.567	95.88
409.791	92.88
410.014	87.88
410.238	103.88
410.461	97.88
410.685	87.88
410.908	94.88
411.132	105.88
411.355	100.88
411.578	87.88
411.802	92.88
412.025	94.88
412.249	108.88
412.472	102.88
412.695	113.88
412.919	96.88
413.142	93.88
413.365	80.88
413.589	103.88
413.812	92.88
414.035	90.88
414.258	89.88
414.482	86.88
414.705	95.88
414.928	86.88
415.151	87.88
415.374	102.88
415.597	89.88
415.821	89.88
416.044	84.88
416.267	93.88
416.49	88.88
416.713	95.88
416.936	91.88
417.159	93.88
417.382	111.88
417.605	94.88
417.828	89.88
418.051	105.88
418.274	85.88
418.497	88.88
418.72	96.88
418.943	99.88
419.166	91.88
419.389	83.88
419.611	83.88
419.834	74.88
420.057	78.88
420.28	56.88
420.503	86.88
420.726	97.88
420.948	99.88
421.171	95.88
421.394	111.88
421.617	77.88
421.839	107.88
422.062	91.88
422.285	94.88
422.507	103.88
422.73	105.88
422.953	91.88
423.175	99.88
423.398	90.88
423.621	83.88
423.843	87.88
424.066	80.88
424.288	87.88
424.511	94.88
424.733	109.88
424.956	114.88
425.178	109.88
425.401	94.88
425.623	92.88
425.846	95.88
426.068	84.88
426.291	92.88
426.513	109.88
426.735	97.88
426.958	109.88
427.18	95.88
427.402	126.88
427.625	149.88
427.847	139.88
428.069	130.88
428.292	89.88
428.514	98.88
428.736	92.88
428.958	95.88
429.181	82.88
429.403	98.88
429.625	101.88
429.847	103.88
430.069	101.88
430.292	76.88
430.514	85.88
430.736	88.88
430.958	86.88
431.18	92.88
431.402	85.88
431.624	67.88
431.846	95.88
432.068	78.88
432.29	88.88
432.512	98.88
432.734	83.88
432.956	81.88
433.178	103.88
433.4	101.88
433.622	94.88
433.844	103.88
434.066	97.88
434.287	116.88
434.509	86.88
434.731	91.88
434.953	82.88
435.175	92.88
435.397	93.88
435.618	101.88
435.84	84.88
436.062	112.88
436.284	116.88
436.505	93.88
436.727	95.88
436.949	87.88
437.17	96.88
437.392	94.88
437.614	98.88
437.835	105.88
438.057	106.88
438.278	110.88
438.5	85.88
438.721	112.88
438.943	107.88
439.165	87.88
439.386	98.88
439.608	108.88
439.829	94.88
440.05	124.88
440.272	123.88
440.493	96.88
440.715	92.88
440.936	93.88
441.158	94.88
441.379	92.88
441.6	89.88
441.822	89.88
442.043	102.88
442.264	95.88
442.486	104.88
442.707	83.88
442.928	97.88
443.149	135.88
443.371	128.88
443.592	114.88
443.813	112.88
444.034	108.88
444.255	95.88
444.476	88.88
444.698	93.88
444.919	92.88
445.14	150.88
445.361	106.88
445.582	119.88
445.803	142.88
446.024	136.88
446.245	133.88
446.466	112.88
446.687	101.88
446.908	90.88
447.129	84.88
447.35	74.88
447.571	76.88
447.792	82.88
448.013	110.88
448.234	106.88
448.455	107.88
448.675	106.88
448.896	125.88
449.117	98.88
449.338	102.88
449.559	126.88
449.779	126.88
450	93.88
450.221	95.88
450.442	94.88
450.662	96.88
450.883	102.88
451.104	117.88
451.324	101.88
451.545	100.88
451.766	94.88
451.986	90.88
452.207	107.88
452.428	100.88
452.648	92.88
452.869	112.88
453.089	105.88
453.31	103.88
453.53	89.88
453.751	93.88
453.971	111.88
454.192	111.88
454.412	89.88
454.633	82.88
454.853	84.88
455.073	93.88
455.294	101.88
455.514	112.88
455.734	98.88
455.955	85.88
456.175	82.88
456.395	90.88
456.616	83.88
456.836	106.88
457.056	96.88
457.276	88.88
457.497	98.88
457.717	69.88
457.937	89.88
458.157	100.88
458.377	93.88
458.598	100.88
458.818	137.88
459.038	162.88
459.258	114.88
459.478	98.88
459.698	87.88
459.918	83.88
460.138	90.88
460.358	88.88
460.578	87.88
460.798	83.88
461.018	91.88
461.238	90.88
461.458	89.88
461.678	93.88
461.898	88.88
462.118	97.88
462.338	89.88
462.558	74.88
462.777	78.88
462.997	96.88
463.217	94.88
463.437	86.88
463.657	99.88
463.876	88.88
464.096	96.88
464.316	91.88
464.536	94.88
464.755	82.88
464.975	103.88
465.195	162.88
465.414	151.88
465.634	105.88
465.854	88.88
466.073	88.88
466.293	93.88
466.512	85.88
466.732	80.88
466.951	88.88
467.171	102.88
467.391	104.88
467.61	109.88
467.829	111.88
468.049	172.88
468.268	201.88
468.488	98.88
468.707	109.88
468.927	88.88
469.146	86.88
469.365	101.88
469.585	91.88
469.804	104.88
470.023	103.88
470.243	92.88
470.462	92.88
470.681	95.88
470.901	94.88
471.12	94.88
471.339	106.88
471.558	99.88
471.777	101.88
471.997	128.88
472.216	259.88
472.435	466.88
472.654	162.88
472.873	104.88
473.092	95.88
473.311	87.88
473.53	88.88
473.749	87.88
473.968	86.88
474.187	95.88
474.406	86.88
474.625	94.88
474.844	99.88
475.063	93.88
475.282	98.88
475.501	95.88
475.72	98.88
475.939	98.88
476.158	91.88
476.377	102.88
476.596	80.88
476.814	92.88
477.033	73.88
477.252	90.88
477.471	87.88
477.69	92.88
477.908	106.88
478.127	101.88
478.346	85.88
478.564	98.88
478.783	95.88
479.002	104.88
479.22	97.88
479.439	112.88
479.658	96.88
479.876	108.88
480.095	115.88
480.313	111.88
480.532	108.88
480.751	125.88
480.969	266.88
481.188	803.88
481.406	481.88
481.624	140.88
481.843	95.88
482.061	94.88
482.28	89.88
482.498	90.88
482.717	78.88
482.935	98.88
483.153	102.88
483.372	94.88
483.59	101.88
483.808	87.88
484.027	81.88
484.245	97.88
484.463	87.88
484.681	106.88
484.9	102.88
485.118	93.88
485.336	100.88
485.554	100.88
485.772	107.88
485.99	102.88
486.209	99.88
486.427	102.88
486.645	124.88
486.863	117.88
487.081	121.88
487.299	105.88
487.517	96.88
487.735	96.88
487.953	93.88
488.171	90.88
488.389	99.88
488.607	98.88
488.825	102.88
489.043	88.88
489.261	86.88
489.479	102.88
489.696	82.88
489.914	95.88
490.132	103.88
490.35	99.88
490.568	92.88
490.786	113.88
491.003	100.88
491.221	101.88
491.439	92.88
491.657	87.88
491.874	90.88
492.092	90.88
492.31	95.88
492.527	102.88
492.745	76.88
492.963	94.88
493.18	98.88
493.398	89.88
493.615	104.88
493.833	99.88
494.05	98.88
494.268	87.88
494.485	92.88
494.703	85.88
494.92	93.88
495.138	103.88
495.355	94.88
495.573	90.88
495.79	102.88
496.008	82.88
496.225	104.88
496.442	105.88
496.66	93.88
496.877	89.88
497.094	98.88
497.312	86.88
497.529	93.88
497.746	85.88
497.963	85.88
498.181	105.88
498.398	93.88
498.615	98.88
498.832	105.88
499.049	100.88
499.267	95.88
499.484	93.88
499.701	78.88
499.918	92.88
500.135	94.88
500.352	102.88
500.569	89.88
500.786	104.88
501.003	91.88
501.22	92.88
501.437	83.88
501.654	90.88
501.871	108.88
502.088	98.88
502.305	100.88
502.522	83.88
502.739	104.88
502.956	96.88
503.172	101.88
503.389	106.88
503.606	102.88
503.823	96.88
504.04	90.88
504.256	107.88
504.473	94.88
504.69	96.88
504.907	96.88
505.123	78.88
505.34	75.88
505.557	82.88
505.773	102.88
505.99	101.88
506.207	103.88
506.423	87.88
506.64	96.88
506.856	84.88
507.073	100.88
507.289	95.88
507.506	100.88
507.722	105.88
507.939	112.88
508.155	101.88
508.372	86.88
508.588	87.88
508.805	88.88
509.021	95.88
509.238	108.88
509.454	102.88
509.67	115.88
509.887	113.88
510.103	108.88
510.319	207.88
510.536	701.88
510.752	2333.88
510.968	635.88
511.184	159.88
511.401	115.88
511.617	107.88
511.833	95.88
512.049	87.88
512.265	84.88
512.481	102.88
512.698	93.88
512.914	94.88
513.13	107.88
513.346	90.88
513.562	101.88
513.778	105.88
513.994	88.88
