Data from Circ_1984_H10_HRD10591_00013.txt Node
Date: Wed Jan 03 12:22:44 EST 2024
User: Yrep
Spectrometer: HR+D1059
Trigger mode: 1
Integration Time (sec): 1.000000E-1
Scans to average: 1
Electric dark correction enabled: true
Nonlinearity correction enabled: false
Boxcar width: 0
XAxis mode: Wavelengths
Number of Pixels in Spectrum: 2048
>>>>>Begin Spectral Data<<<<<
223.165	-9.56
223.4	-9.56
223.635	-9.56
223.869	-10.56
224.104	-17.56
224.338	-19.56
224.573	-15.56
224.808	-24.56
225.042	-10.56
225.277	-0.56
225.511	5.44
225.746	18.44
225.98	-4.56
226.215	7.44
226.449	12.44
226.683	12.44
226.918	24.44
227.152	32.44
227.387	25.44
227.621	47.44
227.856	38.44
228.09	47.44
228.324	51.44
228.559	50.44
228.793	54.44
229.027	48.44
229.262	73.44
229.496	66.44
229.73	81.44
229.964	79.44
230.199	76.44
230.433	76.44
230.667	72.44
230.901	93.44
231.136	81.44
231.37	64.44
231.604	84.44
231.838	86.44
232.072	102.44
232.306	91.44
232.541	86.44
232.775	72.44
233.009	88.44
233.243	67.44
233.477	83.44
233.711	89.44
233.945	90.44
234.179	73.44
234.413	74.44
234.647	83.44
234.881	77.44
235.115	71.44
235.349	67.44
235.583	69.44
235.817	90.44
236.051	78.44
236.285	78.44
236.519	93.44
236.753	78.44
236.987	76.44
237.221	76.44
237.455	87.44
237.689	83.44
237.922	83.44
238.156	82.44
238.39	77.44
238.624	78.44
238.858	78.44
239.091	84.44
239.325	81.44
239.559	87.44
239.793	72.44
240.027	66.44
240.26	73.44
240.494	88.44
240.728	91.44
240.961	81.44
241.195	71.44
241.429	88.44
241.662	86.44
241.896	83.44
242.13	69.44
242.363	77.44
242.597	86.44
242.83	69.44
243.064	84.44
243.298	76.44
243.531	73.44
243.765	71.44
243.998	85.44
244.232	91.44
244.465	88.44
244.699	73.44
244.932	93.44
245.166	91.44
245.399	89.44
245.633	73.44
245.866	79.44
246.099	74.44
246.333	75.44
246.566	66.44
246.8	81.44
247.033	70.44
247.266	75.44
247.5	84.44
247.733	82.44
247.966	73.44
248.2	78.44
248.433	70.44
248.666	94.44
248.899	94.44
249.133	76.44
249.366	87.44
249.599	103.44
249.832	77.44
250.066	82.44
250.299	89.44
250.532	75.44
250.765	76.44
250.998	83.44
251.231	76.44
251.465	71.44
251.698	69.44
251.931	57.44
252.164	77.44
252.397	83.44
252.63	79.44
252.863	84.44
253.096	84.44
253.329	81.44
253.562	87.44
253.795	90.44
254.028	78.44
254.261	78.44
254.494	73.44
254.727	76.44
254.96	82.44
255.193	76.44
255.426	79.44
255.659	88.44
255.892	85.44
256.124	81.44
256.357	75.44
256.59	91.44
256.823	81.44
257.056	90.44
257.289	87.44
257.521	84.44
257.754	79.44
257.987	74.44
258.22	82.44
258.452	69.44
258.685	82.44
258.918	92.44
259.151	76.44
259.383	83.44
259.616	67.44
259.849	82.44
260.081	92.44
260.314	75.44
260.547	83.44
260.779	96.44
261.012	83.44
261.244	73.44
261.477	93.44
261.71	100.44
261.942	89.44
262.175	98.44
262.407	106.44
262.64	75.44
262.872	89.44
263.105	99.44
263.337	83.44
263.57	94.44
263.802	89.44
264.035	78.44
264.267	85.44
264.499	84.44
264.732	101.44
264.964	98.44
265.197	71.44
265.429	89.44
265.661	96.44
265.894	86.44
266.126	89.44
266.358	91.44
266.591	87.44
266.823	84.44
267.055	95.44
267.287	97.44
267.52	100.44
267.752	88.44
267.984	84.44
268.216	75.44
268.448	97.44
268.681	67.44
268.913	86.44
269.145	81.44
269.377	105.44
269.609	78.44
269.841	87.44
270.073	70.44
270.306	68.44
270.538	92.44
270.77	97.44
271.002	96.44
271.234	94.44
271.466	80.44
271.698	90.44
271.93	79.44
272.162	89.44
272.394	87.44
272.626	80.44
272.858	91.44
273.09	93.44
273.322	89.44
273.553	83.44
273.785	83.44
274.017	91.44
274.249	70.44
274.481	71.44
274.713	82.44
274.945	98.44
275.176	93.44
275.408	86.44
275.64	101.44
275.872	78.44
276.104	88.44
276.335	80.44
276.567	98.44
276.799	106.44
277.031	98.44
277.262	101.44
277.494	90.44
277.726	94.44
277.957	93.44
278.189	97.44
278.421	83.44
278.652	70.44
278.884	89.44
279.115	91.44
279.347	80.44
279.579	87.44
279.81	82.44
280.042	102.44
280.273	100.44
280.505	94.44
280.736	90.44
280.968	94.44
281.199	97.44
281.431	83.44
281.662	96.44
281.894	97.44
282.125	88.44
282.356	117.44
282.588	137.44
282.819	104.44
283.051	92.44
283.282	98.44
283.513	77.44
283.745	79.44
283.976	86.44
284.207	91.44
284.439	98.44
284.67	85.44
284.901	97.44
285.132	88.44
285.364	93.44
285.595	96.44
285.826	102.44
286.057	94.44
286.288	88.44
286.52	82.44
286.751	85.44
286.982	87.44
287.213	87.44
287.444	85.44
287.675	90.44
287.906	79.44
288.138	93.44
288.369	98.44
288.6	91.44
288.831	89.44
289.062	99.44
289.293	84.44
289.524	89.44
289.755	90.44
289.986	87.44
290.217	77.44
290.448	80.44
290.679	88.44
290.91	89.44
291.141	88.44
291.371	79.44
291.602	110.44
291.833	91.44
292.064	93.44
292.295	87.44
292.526	89.44
292.757	91.44
292.987	89.44
293.218	99.44
293.449	76.44
293.68	91.44
293.91	95.44
294.141	93.44
294.372	98.44
294.603	85.44
294.833	76.44
295.064	89.44
295.295	95.44
295.525	94.44
295.756	102.44
295.987	120.44
296.217	113.44
296.448	125.44
296.679	91.44
296.909	91.44
297.14	91.44
297.37	90.44
297.601	77.44
297.831	95.44
298.062	98.44
298.292	98.44
298.523	86.44
298.753	81.44
298.984	85.44
299.214	97.44
299.445	82.44
299.675	89.44
299.905	93.44
300.136	84.44
300.366	96.44
300.597	103.44
300.827	94.44
301.057	93.44
301.288	78.44
301.518	97.44
301.748	83.44
301.979	105.44
302.209	77.44
302.439	87.44
302.669	104.44
302.9	85.44
303.13	90.44
303.36	81.44
303.59	102.44
303.82	106.44
304.051	91.44
304.281	91.44
304.511	92.44
304.741	74.44
304.971	94.44
305.201	77.44
305.431	90.44
305.661	77.44
305.891	103.44
306.121	89.44
306.352	107.44
306.582	82.44
306.812	86.44
307.042	98.44
307.272	96.44
307.502	105.44
307.731	84.44
307.961	98.44
308.191	94.44
308.421	89.44
308.651	94.44
308.881	96.44
309.111	87.44
309.341	81.44
309.571	96.44
309.8	100.44
310.03	87.44
310.26	105.44
310.49	101.44
310.72	93.44
310.949	94.44
311.179	97.44
311.409	88.44
311.639	86.44
311.868	93.44
312.098	105.44
312.328	91.44
312.557	101.44
312.787	102.44
313.017	85.44
313.246	89.44
313.476	84.44
313.706	91.44
313.935	87.44
314.165	100.44
314.394	105.44
314.624	101.44
314.853	91.44
315.083	90.44
315.312	93.44
315.542	85.44
315.771	95.44
316.001	100.44
316.23	81.44
316.46	94.44
316.689	94.44
316.919	87.44
317.148	81.44
317.377	97.44
317.607	97.44
317.836	87.44
318.065	100.44
318.295	89.44
318.524	88.44
318.753	88.44
318.983	98.44
319.212	88.44
319.441	93.44
319.67	110.44
319.9	103.44
320.129	98.44
320.358	101.44
320.587	86.44
320.816	94.44
321.046	75.44
321.275	86.44
321.504	83.44
321.733	97.44
321.962	95.44
322.191	116.44
322.42	108.44
322.649	104.44
322.878	106.44
323.108	108.44
323.337	118.44
323.566	129.44
323.795	146.44
324.024	154.44
324.253	269.44
324.482	582.44
324.71	1158.44
324.939	1526.44
325.168	561.44
325.397	194.44
325.626	117.44
325.855	119.44
326.084	121.44
326.313	126.44
326.542	133.44
326.77	179.44
326.999	331.44
327.228	643.44
327.457	1176.44
327.686	947.44
327.914	293.44
328.143	167.44
328.372	145.44
328.6	128.44
328.829	105.44
329.058	103.44
329.287	99.44
329.515	101.44
329.744	98.44
329.972	117.44
330.201	138.44
330.43	173.44
330.658	133.44
330.887	122.44
331.115	102.44
331.344	101.44
331.572	116.44
331.801	105.44
332.03	100.44
332.258	97.44
332.486	85.44
332.715	84.44
332.943	99.44
333.172	87.44
333.4	87.44
333.629	99.44
333.857	114.44
334.085	116.44
334.314	125.44
334.542	154.44
334.771	146.44
334.999	102.44
335.227	101.44
335.455	101.44
335.684	103.44
335.912	78.44
336.14	106.44
336.369	97.44
336.597	107.44
336.825	103.44
337.053	94.44
337.281	106.44
337.51	97.44
337.738	104.44
337.966	84.44
338.194	107.44
338.422	96.44
338.65	96.44
338.878	90.44
339.106	80.44
339.334	89.44
339.562	83.44
339.79	81.44
340.018	85.44
340.246	101.44
340.474	99.44
340.702	88.44
340.93	94.44
341.158	93.44
341.386	98.44
341.614	86.44
341.842	99.44
342.07	95.44
342.298	87.44
342.526	76.44
342.754	83.44
342.981	76.44
343.209	93.44
343.437	97.44
343.665	85.44
343.893	102.44
344.12	91.44
344.348	98.44
344.576	93.44
344.804	101.44
345.031	89.44
345.259	85.44
345.487	92.44
345.714	96.44
345.942	81.44
346.17	88.44
346.397	94.44
346.625	93.44
346.853	92.44
347.08	92.44
347.308	114.44
347.535	83.44
347.763	92.44
347.99	100.44
348.218	94.44
348.445	97.44
348.673	111.44
348.9	88.44
349.128	102.44
349.355	95.44
349.583	99.44
349.81	85.44
350.037	92.44
350.265	104.44
350.492	94.44
350.72	95.44
350.947	83.44
351.174	99.44
351.402	109.44
351.629	121.44
351.856	89.44
352.083	104.44
352.311	97.44
352.538	98.44
352.765	111.44
352.992	110.44
353.22	98.44
353.447	98.44
353.674	109.44
353.901	108.44
354.128	100.44
354.355	91.44
354.583	97.44
354.81	91.44
355.037	95.44
355.264	111.44
355.491	90.44
355.718	93.44
355.945	110.44
356.172	103.44
356.399	102.44
356.626	106.44
356.853	107.44
357.08	97.44
357.307	95.44
357.534	91.44
357.761	96.44
357.988	108.44
358.215	102.44
358.441	99.44
358.668	107.44
358.895	82.44
359.122	101.44
359.349	93.44
359.576	89.44
359.802	101.44
360.029	114.44
360.256	107.44
360.483	94.44
360.709	89.44
360.936	111.44
361.163	97.44
361.39	85.44
361.616	106.44
361.843	92.44
362.07	88.44
362.296	98.44
362.523	96.44
362.749	102.44
362.976	94.44
363.203	91.44
363.429	93.44
363.656	102.44
363.882	96.44
364.109	101.44
364.335	83.44
364.562	85.44
364.788	105.44
365.015	108.44
365.241	89.44
365.468	89.44
365.694	101.44
365.92	93.44
366.147	77.44
366.373	94.44
366.599	101.44
366.826	97.44
367.052	92.44
367.278	99.44
367.505	75.44
367.731	85.44
367.957	101.44
368.184	109.44
368.41	99.44
368.636	115.44
368.862	119.44
369.089	106.44
369.315	87.44
369.541	90.44
369.767	83.44
369.993	95.44
370.219	98.44
370.445	99.44
370.672	107.44
370.898	108.44
371.124	92.44
371.35	89.44
371.576	89.44
371.802	83.44
372.028	91.44
372.254	85.44
372.48	99.44
372.706	91.44
372.932	91.44
373.158	99.44
373.384	89.44
373.61	101.44
373.835	92.44
374.061	98.44
374.287	87.44
374.513	99.44
374.739	94.44
374.965	87.44
375.191	83.44
375.416	89.44
375.642	94.44
375.868	107.44
376.094	81.44
376.319	87.44
376.545	91.44
376.771	81.44
376.997	93.44
377.222	103.44
377.448	92.44
377.674	87.44
377.899	99.44
378.125	99.44
378.35	106.44
378.576	93.44
378.802	102.44
379.027	103.44
379.253	92.44
379.478	105.44
379.704	101.44
379.929	97.44
380.155	91.44
380.38	81.44
380.606	90.44
380.831	97.44
381.057	103.44
381.282	96.44
381.507	113.44
381.733	113.44
381.958	94.44
382.184	98.44
382.409	99.44
382.634	109.44
382.86	105.44
383.085	97.44
383.31	82.44
383.535	94.44
383.761	96.44
383.986	101.44
384.211	108.44
384.436	100.44
384.662	105.44
384.887	110.44
385.112	115.44
385.337	105.44
385.562	84.44
385.787	113.44
386.013	112.44
386.238	124.44
386.463	106.44
386.688	100.44
386.913	106.44
387.138	111.44
387.363	92.44
387.588	116.44
387.813	111.44
388.038	111.44
388.263	118.44
388.488	123.44
388.713	102.44
388.938	95.44
389.163	98.44
389.387	87.44
389.612	106.44
389.837	101.44
390.062	116.44
390.287	77.44
390.512	82.44
390.736	104.44
390.961	91.44
391.186	94.44
391.411	93.44
391.636	93.44
391.86	102.44
392.085	101.44
392.31	93.44
392.534	94.44
392.759	89.44
392.984	93.44
393.208	95.44
393.433	101.44
393.658	112.44
393.882	87.44
394.107	92.44
394.331	87.44
394.556	77.44
394.78	91.44
395.005	89.44
395.229	88.44
395.454	99.44
395.678	104.44
395.903	91.44
396.127	100.44
396.352	93.44
396.576	101.44
396.801	103.44
397.025	110.44
397.249	96.44
397.474	94.44
397.698	80.44
397.922	85.44
398.147	87.44
398.371	86.44
398.595	90.44
398.82	87.44
399.044	84.44
399.268	95.44
399.492	87.44
399.717	84.44
399.941	93.44
400.165	105.44
400.389	101.44
400.613	88.44
400.837	78.44
401.062	91.44
401.286	102.44
401.51	85.44
401.734	96.44
401.958	92.44
402.182	109.44
402.406	124.44
402.63	101.44
402.854	86.44
403.078	93.44
403.302	99.44
403.526	88.44
403.75	91.44
403.974	90.44
404.198	115.44
404.422	97.44
404.645	87.44
404.869	95.44
405.093	85.44
405.317	101.44
405.541	97.44
405.765	111.44
405.988	106.44
406.212	136.44
406.436	171.44
406.66	131.44
406.883	108.44
407.107	83.44
407.331	105.44
407.555	94.44
407.778	104.44
408.002	81.44
408.226	98.44
408.449	97.44
408.673	93.44
408.896	104.44
409.12	85.44
409.344	111.44
409.567	105.44
409.791	94.44
410.014	107.44
410.238	89.44
410.461	87.44
410.685	83.44
410.908	116.44
411.132	106.44
411.355	96.44
411.578	96.44
411.802	102.44
412.025	92.44
412.249	94.44
412.472	91.44
412.695	94.44
412.919	89.44
413.142	89.44
413.365	89.44
413.589	93.44
413.812	89.44
414.035	103.44
414.258	107.44
414.482	96.44
414.705	77.44
414.928	90.44
415.151	93.44
415.374	106.44
415.597	94.44
415.821	95.44
416.044	70.44
416.267	85.44
416.49	95.44
416.713	81.44
416.936	98.44
417.159	73.44
417.382	88.44
417.605	92.44
417.828	98.44
418.051	99.44
418.274	87.44
418.497	101.44
418.72	92.44
418.943	88.44
419.166	94.44
419.389	90.44
419.611	99.44
419.834	98.44
420.057	90.44
420.28	73.44
420.503	99.44
420.726	92.44
420.948	91.44
421.171	89.44
421.394	87.44
421.617	107.44
421.839	110.44
422.062	98.44
422.285	101.44
422.507	93.44
422.73	100.44
422.953	97.44
423.175	111.44
423.398	91.44
423.621	100.44
423.843	94.44
424.066	79.44
424.288	83.44
424.511	92.44
424.733	85.44
424.956	108.44
425.178	90.44
425.401	100.44
425.623	96.44
425.846	105.44
426.068	108.44
426.291	88.44
426.513	89.44
426.735	94.44
426.958	82.44
427.18	99.44
427.402	127.44
427.625	134.44
427.847	103.44
428.069	105.44
428.292	91.44
428.514	87.44
428.736	102.44
428.958	74.44
429.181	89.44
429.403	95.44
429.625	92.44
429.847	100.44
430.069	98.44
430.292	98.44
430.514	99.44
430.736	98.44
430.958	78.44
431.18	86.44
431.402	83.44
431.624	90.44
431.846	92.44
432.068	98.44
432.29	88.44
432.512	92.44
432.734	92.44
432.956	99.44
433.178	106.44
433.4	93.44
433.622	87.44
433.844	98.44
434.066	85.44
434.287	91.44
434.509	102.44
434.731	78.44
434.953	86.44
435.175	68.44
435.397	89.44
435.618	93.44
435.84	118.44
436.062	101.44
436.284	85.44
436.505	98.44
436.727	102.44
436.949	98.44
437.17	102.44
437.392	93.44
437.614	92.44
437.835	120.44
438.057	92.44
438.278	90.44
438.5	102.44
438.721	97.44
438.943	91.44
439.165	91.44
439.386	95.44
439.608	94.44
439.829	102.44
440.05	108.44
440.272	113.44
440.493	88.44
440.715	81.44
440.936	88.44
441.158	97.44
441.379	96.44
441.6	94.44
441.822	98.44
442.043	87.44
442.264	94.44
442.486	102.44
442.707	104.44
442.928	84.44
443.149	111.44
443.371	113.44
443.592	107.44
443.813	111.44
444.034	103.44
444.255	92.44
444.476	98.44
444.698	84.44
444.919	83.44
445.14	129.44
445.361	110.44
445.582	94.44
445.803	123.44
446.024	118.44
446.245	113.44
446.466	91.44
446.687	85.44
446.908	85.44
447.129	94.44
447.35	91.44
447.571	95.44
447.792	85.44
448.013	88.44
448.234	92.44
448.455	94.44
448.675	89.44
448.896	99.44
449.117	117.44
449.338	102.44
449.559	108.44
449.779	116.44
450	105.44
450.221	95.44
450.442	92.44
450.662	100.44
450.883	96.44
451.104	107.44
451.324	85.44
451.545	86.44
451.766	90.44
451.986	86.44
452.207	76.44
452.428	91.44
452.648	97.44
452.869	89.44
453.089	100.44
453.31	110.44
453.53	77.44
453.751	94.44
453.971	95.44
454.192	98.44
454.412	92.44
454.633	83.44
454.853	75.44
455.073	93.44
455.294	101.44
455.514	116.44
455.734	95.44
455.955	95.44
456.175	84.44
456.395	97.44
456.616	89.44
456.836	87.44
457.056	87.44
457.276	94.44
457.497	83.44
457.717	70.44
457.937	92.44
458.157	89.44
458.377	87.44
458.598	99.44
458.818	117.44
459.038	114.44
459.258	103.44
459.478	89.44
459.698	67.44
459.918	90.44
460.138	80.44
460.358	85.44
460.578	100.44
460.798	99.44
461.018	84.44
461.238	87.44
461.458	73.44
461.678	89.44
461.898	86.44
462.118	83.44
462.338	93.44
462.558	94.44
462.777	80.44
462.997	89.44
463.217	77.44
463.437	85.44
463.657	92.44
463.876	78.44
464.096	79.44
464.316	86.44
464.536	83.44
464.755	96.44
464.975	99.44
465.195	133.44
465.414	121.44
465.634	93.44
465.854	82.44
466.073	87.44
466.293	93.44
466.512	92.44
466.732	83.44
466.951	79.44
467.171	82.44
467.391	99.44
467.61	100.44
467.829	97.44
468.049	114.44
468.268	98.44
468.488	93.44
468.707	83.44
468.927	91.44
469.146	89.44
469.365	99.44
469.585	83.44
469.804	96.44
470.023	82.44
470.243	101.44
470.462	95.44
470.681	96.44
470.901	86.44
471.12	93.44
471.339	93.44
471.558	74.44
471.777	86.44
471.997	94.44
472.216	135.44
472.435	186.44
472.654	105.44
472.873	87.44
473.092	93.44
473.311	83.44
473.53	85.44
473.749	83.44
473.968	99.44
474.187	106.44
474.406	102.44
474.625	86.44
474.844	97.44
475.063	83.44
475.282	90.44
475.501	88.44
475.72	93.44
475.939	98.44
476.158	81.44
476.377	101.44
476.596	96.44
476.814	86.44
477.033	90.44
477.252	95.44
477.471	99.44
477.69	102.44
477.908	72.44
478.127	95.44
478.346	82.44
478.564	95.44
478.783	91.44
479.002	99.44
479.22	99.44
479.439	86.44
479.658	100.44
479.876	102.44
480.095	100.44
480.313	86.44
480.532	104.44
480.751	109.44
480.969	126.44
481.188	268.44
481.406	190.44
481.624	108.44
481.843	90.44
482.061	103.44
482.28	83.44
482.498	86.44
482.717	99.44
482.935	98.44
483.153	93.44
483.372	88.44
483.59	102.44
483.808	106.44
484.027	73.44
484.245	88.44
484.463	98.44
484.681	99.44
484.9	101.44
485.118	100.44
485.336	95.44
485.554	106.44
485.772	97.44
485.99	118.44
486.209	119.44
486.427	114.44
486.645	98.44
486.863	101.44
487.081	95.44
487.299	81.44
487.517	100.44
487.735	93.44
487.953	87.44
488.171	101.44
488.389	91.44
488.607	89.44
488.825	82.44
489.043	86.44
489.261	111.44
489.479	97.44
489.696	110.44
489.914	89.44
490.132	96.44
490.35	89.44
490.568	78.44
490.786	75.44
491.003	99.44
491.221	101.44
491.439	90.44
491.657	99.44
491.874	109.44
492.092	81.44
492.31	98.44
492.527	94.44
492.745	83.44
492.963	89.44
493.18	94.44
493.398	85.44
493.615	79.44
493.833	94.44
494.05	96.44
494.268	84.44
494.485	95.44
494.703	85.44
494.92	78.44
495.138	97.44
495.355	105.44
495.573	105.44
495.79	99.44
496.008	96.44
496.225	99.44
496.442	90.44
496.66	90.44
496.877	81.44
497.094	96.44
497.312	85.44
497.529	103.44
497.746	74.44
497.963	89.44
498.181	77.44
498.398	89.44
498.615	90.44
498.832	98.44
499.049	101.44
499.267	101.44
499.484	79.44
499.701	70.44
499.918	95.44
500.135	95.44
500.352	86.44
500.569	87.44
500.786	97.44
501.003	83.44
501.22	85.44
501.437	105.44
501.654	103.44
501.871	98.44
502.088	96.44
502.305	98.44
502.522	96.44
502.739	86.44
502.956	95.44
503.172	81.44
503.389	89.44
503.606	100.44
503.823	97.44
504.04	91.44
504.256	94.44
504.473	89.44
504.69	87.44
504.907	100.44
505.123	88.44
505.34	85.44
505.557	95.44
505.773	89.44
505.99	88.44
506.207	87.44
506.423	97.44
506.64	85.44
506.856	99.44
507.073	101.44
507.289	99.44
507.506	88.44
507.722	101.44
507.939	91.44
508.155	86.44
508.372	106.44
508.588	100.44
508.805	88.44
509.021	107.44
509.238	94.44
509.454	102.44
509.67	79.44
509.887	99.44
510.103	117.44
510.319	168.44
510.536	501.44
510.752	1588.44
510.968	460.44
511.184	140.44
511.401	116.44
511.617	92.44
511.833	92.44
512.049	91.44
512.265	102.44
512.481	88.44
512.698	104.44
512.914	89.44
513.13	95.44
513.346	89.44
513.562	103.44
513.778	97.44
513.994	100.44
514.21	92.44
514.426	112.44
514.642	130.44
514.858	119.44
515.074	133.44
515.29	287.44
