Data from Circ_1984_H10_HRD10591_00062.txt Node
Date: Wed Jan 03 12:22:54 EST 2024
User: Yrep
Spectrometer: HR+D1059
Trigger mode: 1
Integration Time (sec): 1.000000E-1
Scans to average: 1
Electric dark correction enabled: true
Nonlinearity correction enabled: false
Boxcar width: 0
XAxis mode: Wavelengths
Number of Pixels in Spectrum: 2048
>>>>>Begin Spectral Data<<<<<
223.165	-4.56
223.4	-4.56
223.635	-4.56
223.869	-15.56
224.104	-28.56
224.338	1.44
224.573	-22.56
224.808	-26.56
225.042	-2.56
225.277	-11.56
225.511	-3.56
225.746	6.44
225.98	4.44
226.215	2.44
226.449	14.44
226.683	23.44
226.918	25.44
227.152	37.44
227.387	26.44
227.621	33.44
227.856	29.44
228.09	55.44
228.324	47.44
228.559	59.44
228.793	54.44
229.027	54.44
229.262	68.44
229.496	69.44
229.73	66.44
229.964	74.44
230.199	80.44
230.433	73.44
230.667	74.44
230.901	74.44
231.136	74.44
231.37	69.44
231.604	73.44
231.838	94.44
232.072	69.44
232.306	88.44
232.541	84.44
232.775	69.44
233.009	65.44
233.243	74.44
233.477	75.44
233.711	74.44
233.945	78.44
234.179	84.44
234.413	71.44
234.647	86.44
234.881	86.44
235.115	82.44
235.349	79.44
235.583	74.44
235.817	69.44
236.051	88.44
236.285	64.44
236.519	73.44
236.753	77.44
236.987	86.44
237.221	74.44
237.455	72.44
237.689	90.44
237.922	69.44
238.156	74.44
238.39	75.44
238.624	72.44
238.858	84.44
239.091	69.44
239.325	89.44
239.559	83.44
239.793	81.44
240.027	80.44
240.26	81.44
240.494	73.44
240.728	84.44
240.961	70.44
241.195	87.44
241.429	61.44
241.662	77.44
241.896	72.44
242.13	77.44
242.363	79.44
242.597	80.44
242.83	72.44
243.064	81.44
243.298	57.44
243.531	60.44
243.765	73.44
243.998	77.44
244.232	68.44
244.465	81.44
244.699	71.44
244.932	81.44
245.166	65.44
245.399	77.44
245.633	70.44
245.866	83.44
246.099	76.44
246.333	67.44
246.566	70.44
246.8	85.44
247.033	71.44
247.266	77.44
247.5	83.44
247.733	57.44
247.966	70.44
248.2	53.44
248.433	78.44
248.666	65.44
248.899	89.44
249.133	97.44
249.366	101.44
249.599	91.44
249.832	80.44
250.066	69.44
250.299	69.44
250.532	80.44
250.765	77.44
250.998	75.44
251.231	76.44
251.465	77.44
251.698	66.44
251.931	86.44
252.164	57.44
252.397	87.44
252.63	78.44
252.863	80.44
253.096	86.44
253.329	89.44
253.562	65.44
253.795	86.44
254.028	73.44
254.261	96.44
254.494	72.44
254.727	81.44
254.96	85.44
255.193	89.44
255.426	88.44
255.659	90.44
255.892	97.44
256.124	85.44
256.357	81.44
256.59	88.44
256.823	77.44
257.056	79.44
257.289	85.44
257.521	96.44
257.754	83.44
257.987	83.44
258.22	89.44
258.452	75.44
258.685	82.44
258.918	77.44
259.151	83.44
259.383	74.44
259.616	86.44
259.849	81.44
260.081	82.44
260.314	72.44
260.547	79.44
260.779	77.44
261.012	83.44
261.244	87.44
261.477	104.44
261.71	98.44
261.942	102.44
262.175	109.44
262.407	85.44
262.64	92.44
262.872	94.44
263.105	88.44
263.337	86.44
263.57	79.44
263.802	78.44
264.035	84.44
264.267	73.44
264.499	72.44
264.732	84.44
264.964	81.44
265.197	75.44
265.429	99.44
265.661	88.44
265.894	79.44
266.126	75.44
266.358	82.44
266.591	90.44
266.823	86.44
267.055	79.44
267.287	84.44
267.52	75.44
267.752	77.44
267.984	87.44
268.216	78.44
268.448	78.44
268.681	85.44
268.913	83.44
269.145	93.44
269.377	81.44
269.609	86.44
269.841	88.44
270.073	85.44
270.306	95.44
270.538	86.44
270.77	78.44
271.002	73.44
271.234	90.44
271.466	94.44
271.698	82.44
271.93	87.44
272.162	87.44
272.394	96.44
272.626	77.44
272.858	84.44
273.09	73.44
273.322	83.44
273.553	82.44
273.785	82.44
274.017	82.44
274.249	72.44
274.481	92.44
274.713	81.44
274.945	71.44
275.176	94.44
275.408	91.44
275.64	97.44
275.872	83.44
276.104	90.44
276.335	86.44
276.567	92.44
276.799	94.44
277.031	105.44
277.262	100.44
277.494	110.44
277.726	93.44
277.957	91.44
278.189	69.44
278.421	79.44
278.652	72.44
278.884	90.44
279.115	86.44
279.347	86.44
279.579	94.44
279.81	91.44
280.042	93.44
280.273	99.44
280.505	89.44
280.736	89.44
280.968	91.44
281.199	87.44
281.431	89.44
281.662	85.44
281.894	79.44
282.125	90.44
282.356	116.44
282.588	109.44
282.819	111.44
283.051	85.44
283.282	87.44
283.513	78.44
283.745	97.44
283.976	98.44
284.207	102.44
284.439	79.44
284.67	88.44
284.901	88.44
285.132	81.44
285.364	84.44
285.595	88.44
285.826	84.44
286.057	95.44
286.288	85.44
286.52	78.44
286.751	79.44
286.982	84.44
287.213	83.44
287.444	95.44
287.675	97.44
287.906	95.44
288.138	80.44
288.369	81.44
288.6	80.44
288.831	86.44
289.062	78.44
289.293	77.44
289.524	88.44
289.755	89.44
289.986	75.44
290.217	72.44
290.448	81.44
290.679	95.44
290.91	87.44
291.141	82.44
291.371	89.44
291.602	72.44
291.833	82.44
292.064	86.44
292.295	89.44
292.526	87.44
292.757	86.44
292.987	89.44
293.218	78.44
293.449	73.44
293.68	89.44
293.91	93.44
294.141	96.44
294.372	78.44
294.603	82.44
294.833	86.44
295.064	95.44
295.295	97.44
295.525	93.44
295.756	89.44
295.987	74.44
296.217	108.44
296.448	108.44
296.679	89.44
296.909	83.44
297.14	98.44
297.37	99.44
297.601	86.44
297.831	79.44
298.062	102.44
298.292	90.44
298.523	86.44
298.753	97.44
298.984	97.44
299.214	91.44
299.445	81.44
299.675	92.44
299.905	99.44
300.136	74.44
300.366	95.44
300.597	75.44
300.827	76.44
301.057	84.44
301.288	93.44
301.518	90.44
301.748	82.44
301.979	106.44
302.209	94.44
302.439	92.44
302.669	84.44
302.9	92.44
303.13	89.44
303.36	74.44
303.59	117.44
303.82	110.44
304.051	97.44
304.281	85.44
304.511	85.44
304.741	88.44
304.971	98.44
305.201	87.44
305.431	85.44
305.661	94.44
305.891	85.44
306.121	96.44
306.352	91.44
306.582	94.44
306.812	103.44
307.042	91.44
307.272	89.44
307.502	104.44
307.731	104.44
307.961	89.44
308.191	86.44
308.421	98.44
308.651	77.44
308.881	92.44
309.111	85.44
309.341	93.44
309.571	92.44
309.8	97.44
310.03	78.44
310.26	88.44
310.49	71.44
310.72	89.44
310.949	91.44
311.179	104.44
311.409	74.44
311.639	98.44
311.868	80.44
312.098	96.44
312.328	100.44
312.557	98.44
312.787	99.44
313.017	99.44
313.246	102.44
313.476	103.44
313.706	90.44
313.935	79.44
314.165	92.44
314.394	94.44
314.624	89.44
314.853	89.44
315.083	92.44
315.312	93.44
315.542	96.44
315.771	95.44
316.001	88.44
316.23	99.44
316.46	78.44
316.689	89.44
316.919	102.44
317.148	97.44
317.377	87.44
317.607	105.44
317.836	76.44
318.065	99.44
318.295	101.44
318.524	93.44
318.753	74.44
318.983	77.44
319.212	99.44
319.441	85.44
319.67	82.44
319.9	104.44
320.129	90.44
320.358	91.44
320.587	81.44
320.816	111.44
321.046	80.44
321.275	99.44
321.504	87.44
321.733	103.44
321.962	112.44
322.191	101.44
322.42	90.44
322.649	113.44
322.878	83.44
323.108	106.44
323.337	110.44
323.566	121.44
323.795	144.44
324.024	181.44
324.253	311.44
324.482	655.44
324.71	1364.44
324.939	1790.44
325.168	669.44
325.397	228.44
325.626	129.44
325.855	111.44
326.084	108.44
326.313	120.44
326.542	126.44
326.77	206.44
326.999	367.44
327.228	766.44
327.457	1416.44
327.686	1091.44
327.914	323.44
328.143	212.44
328.372	173.44
328.6	133.44
328.829	109.44
329.058	114.44
329.287	123.44
329.515	120.44
329.744	129.44
329.972	145.44
330.201	205.44
330.43	245.44
330.658	162.44
330.887	133.44
331.115	113.44
331.344	83.44
331.572	90.44
331.801	114.44
332.03	103.44
332.258	93.44
332.486	97.44
332.715	88.44
332.943	89.44
333.172	83.44
333.4	107.44
333.629	108.44
333.857	114.44
334.085	142.44
334.314	186.44
334.542	308.44
334.771	287.44
334.999	132.44
335.227	104.44
335.455	99.44
335.684	97.44
335.912	91.44
336.14	110.44
336.369	93.44
336.597	106.44
336.825	98.44
337.053	93.44
337.281	97.44
337.51	92.44
337.738	98.44
337.966	82.44
338.194	102.44
338.422	87.44
338.65	102.44
338.878	105.44
339.106	86.44
339.334	93.44
339.562	78.44
339.79	90.44
340.018	88.44
340.246	79.44
340.474	83.44
340.702	91.44
340.93	97.44
341.158	96.44
341.386	89.44
341.614	80.44
341.842	81.44
342.07	83.44
342.298	85.44
342.526	88.44
342.754	95.44
342.981	88.44
343.209	99.44
343.437	100.44
343.665	89.44
343.893	81.44
344.12	82.44
344.348	87.44
344.576	89.44
344.804	79.44
345.031	83.44
345.259	98.44
345.487	95.44
345.714	90.44
345.942	103.44
346.17	100.44
346.397	87.44
346.625	88.44
346.853	82.44
347.08	83.44
347.308	98.44
347.535	100.44
347.763	98.44
347.99	100.44
348.218	112.44
348.445	100.44
348.673	98.44
348.9	87.44
349.128	91.44
349.355	96.44
349.583	90.44
349.81	89.44
350.037	100.44
350.265	75.44
350.492	95.44
350.72	93.44
350.947	102.44
351.174	97.44
351.402	99.44
351.629	86.44
351.856	99.44
352.083	90.44
352.311	97.44
352.538	109.44
352.765	107.44
352.992	105.44
353.22	115.44
353.447	82.44
353.674	97.44
353.901	91.44
354.128	91.44
354.355	92.44
354.583	104.44
354.81	97.44
355.037	81.44
355.264	86.44
355.491	79.44
355.718	71.44
355.945	86.44
356.172	89.44
356.399	88.44
356.626	97.44
356.853	81.44
357.08	97.44
357.307	86.44
357.534	89.44
357.761	97.44
357.988	97.44
358.215	74.44
358.441	84.44
358.668	81.44
358.895	90.44
359.122	79.44
359.349	85.44
359.576	77.44
359.802	89.44
360.029	91.44
360.256	106.44
360.483	88.44
360.709	80.44
360.936	89.44
361.163	94.44
361.39	81.44
361.616	95.44
361.843	97.44
362.07	96.44
362.296	78.44
362.523	71.44
362.749	74.44
362.976	87.44
363.203	88.44
363.429	82.44
363.656	115.44
363.882	93.44
364.109	88.44
364.335	90.44
364.562	88.44
364.788	107.44
365.015	95.44
365.241	93.44
365.468	110.44
365.694	85.44
365.92	91.44
366.147	83.44
366.373	96.44
366.599	89.44
366.826	89.44
367.052	72.44
367.278	100.44
367.505	88.44
367.731	85.44
367.957	85.44
368.184	97.44
368.41	104.44
368.636	104.44
368.862	107.44
369.089	96.44
369.315	87.44
369.541	94.44
369.767	89.44
369.993	77.44
370.219	85.44
370.445	90.44
370.672	85.44
370.898	77.44
371.124	93.44
371.35	89.44
371.576	97.44
371.802	85.44
372.028	88.44
372.254	81.44
372.48	85.44
372.706	87.44
372.932	79.44
373.158	89.44
373.384	96.44
373.61	84.44
373.835	89.44
374.061	85.44
374.287	89.44
374.513	85.44
374.739	89.44
374.965	98.44
375.191	89.44
375.416	83.44
375.642	96.44
375.868	89.44
376.094	93.44
376.319	86.44
376.545	87.44
376.771	85.44
376.997	87.44
377.222	77.44
377.448	84.44
377.674	89.44
377.899	88.44
378.125	83.44
378.35	99.44
378.576	95.44
378.802	88.44
379.027	84.44
379.253	91.44
379.478	91.44
379.704	92.44
379.929	101.44
380.155	95.44
380.38	104.44
380.606	90.44
380.831	82.44
381.057	82.44
381.282	79.44
381.507	89.44
381.733	91.44
381.958	77.44
382.184	93.44
382.409	95.44
382.634	95.44
382.86	105.44
383.085	99.44
383.31	102.44
383.535	99.44
383.761	99.44
383.986	88.44
384.211	99.44
384.436	98.44
384.662	96.44
384.887	110.44
385.112	86.44
385.337	93.44
385.562	102.44
385.787	94.44
386.013	97.44
386.238	111.44
386.463	104.44
386.688	105.44
386.913	69.44
387.138	92.44
387.363	110.44
387.588	99.44
387.813	98.44
388.038	90.44
388.263	93.44
388.488	100.44
388.713	76.44
388.938	88.44
389.163	83.44
389.387	98.44
389.612	88.44
389.837	86.44
390.062	75.44
390.287	85.44
390.512	91.44
390.736	88.44
390.961	82.44
391.186	87.44
391.411	77.44
391.636	89.44
391.86	86.44
392.085	91.44
392.31	94.44
392.534	96.44
392.759	100.44
392.984	84.44
393.208	102.44
393.433	119.44
393.658	123.44
393.882	105.44
394.107	83.44
394.331	92.44
394.556	86.44
394.78	77.44
395.005	85.44
395.229	85.44
395.454	80.44
395.678	85.44
395.903	81.44
396.127	78.44
396.352	89.44
396.576	79.44
396.801	92.44
397.025	110.44
397.249	77.44
397.474	88.44
397.698	91.44
397.922	86.44
398.147	97.44
398.371	85.44
398.595	80.44
398.82	80.44
399.044	85.44
399.268	77.44
399.492	94.44
399.717	88.44
399.941	90.44
400.165	89.44
400.389	83.44
400.613	82.44
400.837	93.44
401.062	77.44
401.286	94.44
401.51	93.44
401.734	85.44
401.958	106.44
402.182	120.44
402.406	130.44
402.63	96.44
402.854	86.44
403.078	91.44
403.302	88.44
403.526	82.44
403.75	101.44
403.974	87.44
404.198	85.44
404.422	71.44
404.645	79.44
404.869	72.44
405.093	97.44
405.317	100.44
405.541	107.44
405.765	90.44
405.988	114.44
406.212	141.44
406.436	181.44
406.66	115.44
406.883	107.44
407.107	95.44
407.331	90.44
407.555	104.44
407.778	88.44
408.002	77.44
408.226	83.44
408.449	98.44
408.673	87.44
408.896	87.44
409.12	96.44
409.344	87.44
409.567	86.44
409.791	88.44
410.014	94.44
410.238	86.44
410.461	77.44
410.685	98.44
410.908	93.44
411.132	106.44
411.355	97.44
411.578	88.44
411.802	76.44
412.025	82.44
412.249	97.44
412.472	86.44
412.695	95.44
412.919	89.44
413.142	71.44
413.365	80.44
413.589	91.44
413.812	89.44
414.035	86.44
414.258	78.44
414.482	79.44
414.705	90.44
414.928	94.44
415.151	80.44
415.374	99.44
415.597	81.44
415.821	73.44
416.044	83.44
416.267	81.44
416.49	91.44
416.713	95.44
416.936	88.44
417.159	84.44
417.382	82.44
417.605	90.44
417.828	82.44
418.051	83.44
418.274	97.44
418.497	85.44
418.72	91.44
418.943	90.44
419.166	79.44
419.389	89.44
419.611	94.44
419.834	88.44
420.057	76.44
420.28	62.44
420.503	74.44
420.726	77.44
420.948	85.44
421.171	88.44
421.394	87.44
421.617	93.44
421.839	87.44
422.062	79.44
422.285	82.44
422.507	99.44
422.73	90.44
422.953	99.44
423.175	91.44
423.398	89.44
423.621	96.44
423.843	93.44
424.066	94.44
424.288	83.44
424.511	71.44
424.733	85.44
424.956	106.44
425.178	99.44
425.401	106.44
425.623	97.44
425.846	109.44
426.068	90.44
426.291	93.44
426.513	99.44
426.735	82.44
426.958	95.44
427.18	101.44
427.402	126.44
427.625	152.44
427.847	127.44
428.069	126.44
428.292	83.44
428.514	70.44
428.736	78.44
428.958	91.44
429.181	95.44
429.403	91.44
429.625	67.44
429.847	81.44
430.069	98.44
430.292	81.44
430.514	80.44
430.736	81.44
430.958	86.44
431.18	73.44
431.402	82.44
431.624	85.44
431.846	82.44
432.068	97.44
432.29	82.44
432.512	83.44
432.734	93.44
432.956	77.44
433.178	81.44
433.4	112.44
433.622	87.44
433.844	89.44
434.066	87.44
434.287	80.44
434.509	93.44
434.731	83.44
434.953	77.44
435.175	90.44
435.397	83.44
435.618	86.44
435.84	106.44
436.062	103.44
436.284	98.44
436.505	86.44
436.727	87.44
436.949	97.44
437.17	93.44
437.392	76.44
437.614	84.44
437.835	92.44
438.057	105.44
438.278	85.44
438.5	93.44
438.721	94.44
438.943	97.44
439.165	85.44
439.386	95.44
439.608	100.44
439.829	78.44
440.05	106.44
440.272	131.44
440.493	83.44
440.715	85.44
440.936	84.44
441.158	85.44
441.379	79.44
441.6	92.44
441.822	87.44
442.043	96.44
442.264	93.44
442.486	83.44
442.707	96.44
442.928	97.44
443.149	109.44
443.371	112.44
443.592	101.44
443.813	95.44
444.034	94.44
444.255	68.44
444.476	78.44
444.698	90.44
444.919	95.44
445.14	123.44
445.361	112.44
445.582	111.44
445.803	122.44
446.024	121.44
446.245	131.44
446.466	95.44
446.687	90.44
446.908	82.44
447.129	94.44
447.35	87.44
447.571	87.44
447.792	70.44
448.013	95.44
448.234	101.44
448.455	101.44
448.675	98.44
448.896	102.44
449.117	94.44
449.338	82.44
449.559	121.44
449.779	110.44
450	91.44
450.221	101.44
450.442	84.44
450.662	83.44
450.883	99.44
451.104	91.44
451.324	64.44
451.545	77.44
451.766	74.44
451.986	95.44
452.207	97.44
452.428	100.44
452.648	96.44
452.869	113.44
453.089	111.44
453.31	109.44
453.53	88.44
453.751	81.44
453.971	114.44
454.192	95.44
454.412	87.44
454.633	69.44
454.853	74.44
455.073	81.44
455.294	94.44
455.514	105.44
455.734	89.44
455.955	79.44
456.175	89.44
456.395	80.44
456.616	75.44
456.836	97.44
457.056	89.44
457.276	81.44
457.497	73.44
457.717	75.44
457.937	88.44
458.157	83.44
458.377	86.44
458.598	93.44
458.818	122.44
459.038	128.44
459.258	111.44
459.478	92.44
459.698	75.44
459.918	82.44
460.138	88.44
460.358	86.44
460.578	85.44
460.798	84.44
461.018	79.44
461.238	89.44
461.458	83.44
461.678	69.44
461.898	69.44
462.118	70.44
462.338	87.44
462.558	83.44
462.777	79.44
462.997	95.44
463.217	69.44
463.437	101.44
463.657	86.44
463.876	77.44
464.096	91.44
464.316	106.44
464.536	101.44
464.755	93.44
464.975	97.44
465.195	131.44
465.414	125.44
465.634	84.44
465.854	93.44
466.073	86.44
466.293	99.44
466.512	90.44
466.732	72.44
466.951	89.44
467.171	90.44
467.391	90.44
467.61	102.44
467.829	95.44
468.049	143.44
468.268	159.44
468.488	90.44
468.707	94.44
468.927	88.44
469.146	83.44
469.365	73.44
469.585	80.44
469.804	72.44
470.023	100.44
470.243	85.44
470.462	90.44
470.681	100.44
470.901	83.44
471.12	70.44
471.339	87.44
471.558	72.44
471.777	93.44
471.997	111.44
472.216	230.44
472.435	403.44
472.654	151.44
472.873	82.44
473.092	69.44
473.311	79.44
473.53	89.44
473.749	82.44
473.968	90.44
474.187	89.44
474.406	73.44
474.625	90.44
474.844	88.44
475.063	82.44
475.282	82.44
475.501	96.44
475.72	84.44
475.939	89.44
476.158	77.44
476.377	88.44
476.596	83.44
476.814	82.44
477.033	81.44
477.252	96.44
477.471	97.44
477.69	80.44
477.908	82.44
478.127	86.44
478.346	89.44
478.564	83.44
478.783	98.44
479.002	88.44
479.22	93.44
479.439	85.44
479.658	98.44
479.876	88.44
480.095	88.44
480.313	94.44
480.532	87.44
480.751	111.44
480.969	234.44
481.188	647.44
481.406	400.44
481.624	124.44
481.843	89.44
482.061	69.44
482.28	93.44
482.498	79.44
482.717	85.44
482.935	94.44
483.153	90.44
483.372	85.44
483.59	94.44
483.808	97.44
484.027	89.44
484.245	79.44
484.463	89.44
484.681	98.44
484.9	105.44
485.118	87.44
485.336	90.44
485.554	99.44
485.772	101.44
485.99	103.44
486.209	90.44
486.427	103.44
486.645	114.44
486.863	106.44
487.081	88.44
487.299	95.44
487.517	93.44
487.735	98.44
487.953	90.44
488.171	94.44
488.389	75.44
488.607	93.44
488.825	83.44
489.043	86.44
489.261	97.44
489.479	82.44
489.696	75.44
489.914	89.44
490.132	83.44
490.35	90.44
490.568	82.44
490.786	79.44
491.003	79.44
491.221	90.44
491.439	103.44
491.657	86.44
491.874	93.44
492.092	89.44
492.31	86.44
492.527	77.44
492.745	89.44
492.963	85.44
493.18	92.44
493.398	81.44
493.615	73.44
493.833	95.44
494.05	86.44
494.268	74.44
494.485	91.44
494.703	91.44
494.92	79.44
495.138	97.44
495.355	90.44
495.573	94.44
495.79	82.44
496.008	92.44
496.225	98.44
496.442	98.44
496.66	89.44
496.877	80.44
497.094	101.44
497.312	86.44
497.529	87.44
497.746	105.44
497.963	95.44
498.181	90.44
498.398	95.44
498.615	109.44
498.832	100.44
499.049	91.44
499.267	99.44
499.484	89.44
499.701	87.44
499.918	81.44
500.135	71.44
500.352	81.44
500.569	89.44
500.786	83.44
501.003	93.44
501.22	86.44
501.437	80.44
501.654	85.44
501.871	101.44
502.088	94.44
502.305	86.44
502.522	93.44
502.739	93.44
502.956	85.44
503.172	91.44
503.389	90.44
503.606	95.44
503.823	79.44
504.04	91.44
504.256	91.44
504.473	80.44
504.69	100.44
504.907	91.44
505.123	93.44
505.34	94.44
505.557	82.44
505.773	77.44
505.99	77.44
506.207	105.44
506.423	91.44
506.64	77.44
506.856	77.44
507.073	83.44
507.289	87.44
507.506	90.44
507.722	116.44
507.939	97.44
508.155	92.44
508.372	97.44
508.588	90.44
508.805	81.44
509.021	83.44
509.238	106.44
509.454	97.44
509.67	95.44
509.887	101.44
510.103	118.44
510.319	182.44
510.536	621.44
510.752	1901.44
510.968	544.44
511.184	149.44
511.401	99.44
511.617	97.44
511.833	78.44
512.049	91.44
512.265	95.44
512.481	80.44
512.698	103.44
512.914	83.44
513.13	92.44
513.346	84.44
513.562	89.44
513.778	97.44
513.994	105.44
514.21	88.44
514.426	102.44
514.642	119.44
514.858	120.44
515.074	128.44
515.29	334.44
515.506	1129.44
515.721	409.44
515.937	139.44
516.153	87.44
516.369	89.44
516.585	98.44
516.801	94.44
517.016	89.44
