Data from Circ_1984_H10_HRD10591_00066.txt Node
Date: Wed Jan 03 12:22:55 EST 2024
User: Yrep
Spectrometer: HR+D1059
Trigger mode: 1
Integration Time (sec): 1.000000E-1
Scans to average: 1
Electric dark correction enabled: true
Nonlinearity correction enabled: false
Boxcar width: 0
XAxis mode: Wavelengths
Number of Pixels in Spectrum: 2048
>>>>>Begin Spectral Data<<<<<
223.165	-1.88
223.4	-1.88
223.635	-1.88
223.869	-32.88
224.104	-21.88
224.338	-22.88
224.573	-20.88
224.808	-4.88
225.042	-10.88
225.277	-10.88
225.511	0.12
225.746	2.12
225.98	6.12
226.215	3.12
226.449	23.12
226.683	25.12
226.918	25.12
227.152	42.12
227.387	15.12
227.621	25.12
227.856	40.12
228.09	52.12
228.324	57.12
228.559	61.12
228.793	58.12
229.027	63.12
229.262	71.12
229.496	66.12
229.73	69.12
229.964	77.12
230.199	87.12
230.433	68.12
230.667	91.12
230.901	79.12
231.136	89.12
231.37	84.12
231.604	74.12
231.838	77.12
232.072	93.12
232.306	98.12
232.541	78.12
232.775	98.12
233.009	70.12
233.243	77.12
233.477	89.12
233.711	79.12
233.945	70.12
234.179	60.12
234.413	81.12
234.647	91.12
234.881	74.12
235.115	88.12
235.349	100.12
235.583	72.12
235.817	74.12
236.051	78.12
236.285	72.12
236.519	93.12
236.753	73.12
236.987	64.12
237.221	71.12
237.455	77.12
237.689	84.12
237.922	78.12
238.156	68.12
238.39	70.12
238.624	72.12
238.858	65.12
239.091	87.12
239.325	77.12
239.559	88.12
239.793	68.12
240.027	73.12
240.26	78.12
240.494	83.12
240.728	83.12
240.961	81.12
241.195	67.12
241.429	73.12
241.662	80.12
241.896	78.12
242.13	87.12
242.363	68.12
242.597	68.12
242.83	71.12
243.064	87.12
243.298	71.12
243.531	90.12
243.765	79.12
243.998	68.12
244.232	74.12
244.465	61.12
244.699	79.12
244.932	69.12
245.166	77.12
245.399	74.12
245.633	78.12
245.866	81.12
246.099	66.12
246.333	78.12
246.566	72.12
246.8	69.12
247.033	72.12
247.266	73.12
247.5	78.12
247.733	66.12
247.966	84.12
248.2	72.12
248.433	79.12
248.666	80.12
248.899	70.12
249.133	67.12
249.366	85.12
249.599	79.12
249.832	78.12
250.066	81.12
250.299	83.12
250.532	77.12
250.765	70.12
250.998	60.12
251.231	71.12
251.465	79.12
251.698	86.12
251.931	84.12
252.164	85.12
252.397	55.12
252.63	78.12
252.863	80.12
253.096	68.12
253.329	77.12
253.562	94.12
253.795	77.12
254.028	89.12
254.261	71.12
254.494	81.12
254.727	77.12
254.96	67.12
255.193	101.12
255.426	90.12
255.659	69.12
255.892	84.12
256.124	81.12
256.357	88.12
256.59	82.12
256.823	79.12
257.056	82.12
257.289	79.12
257.521	75.12
257.754	86.12
257.987	69.12
258.22	85.12
258.452	87.12
258.685	90.12
258.918	86.12
259.151	84.12
259.383	86.12
259.616	79.12
259.849	83.12
260.081	80.12
260.314	70.12
260.547	73.12
260.779	73.12
261.012	72.12
261.244	88.12
261.477	81.12
261.71	96.12
261.942	115.12
262.175	99.12
262.407	95.12
262.64	82.12
262.872	88.12
263.105	72.12
263.337	78.12
263.57	89.12
263.802	77.12
264.035	77.12
264.267	81.12
264.499	69.12
264.732	83.12
264.964	87.12
265.197	85.12
265.429	80.12
265.661	82.12
265.894	87.12
266.126	85.12
266.358	84.12
266.591	80.12
266.823	75.12
267.055	80.12
267.287	88.12
267.52	78.12
267.752	94.12
267.984	73.12
268.216	89.12
268.448	91.12
268.681	82.12
268.913	74.12
269.145	85.12
269.377	79.12
269.609	80.12
269.841	89.12
270.073	80.12
270.306	90.12
270.538	85.12
270.77	89.12
271.002	84.12
271.234	81.12
271.466	83.12
271.698	83.12
271.93	80.12
272.162	89.12
272.394	82.12
272.626	83.12
272.858	78.12
273.09	90.12
273.322	95.12
273.553	82.12
273.785	83.12
274.017	84.12
274.249	78.12
274.481	92.12
274.713	72.12
274.945	73.12
275.176	79.12
275.408	98.12
275.64	101.12
275.872	96.12
276.104	91.12
276.335	81.12
276.567	89.12
276.799	105.12
277.031	85.12
277.262	91.12
277.494	93.12
277.726	88.12
277.957	90.12
278.189	80.12
278.421	82.12
278.652	82.12
278.884	76.12
279.115	84.12
279.347	78.12
279.579	74.12
279.81	82.12
280.042	93.12
280.273	103.12
280.505	94.12
280.736	75.12
280.968	82.12
281.199	79.12
281.431	90.12
281.662	90.12
281.894	82.12
282.125	89.12
282.356	112.12
282.588	116.12
282.819	110.12
283.051	72.12
283.282	72.12
283.513	94.12
283.745	85.12
283.976	95.12
284.207	82.12
284.439	83.12
284.67	92.12
284.901	96.12
285.132	101.12
285.364	70.12
285.595	81.12
285.826	89.12
286.057	90.12
286.288	78.12
286.52	98.12
286.751	90.12
286.982	90.12
287.213	98.12
287.444	99.12
287.675	87.12
287.906	95.12
288.138	70.12
288.369	101.12
288.6	82.12
288.831	81.12
289.062	85.12
289.293	85.12
289.524	82.12
289.755	95.12
289.986	97.12
290.217	86.12
290.448	62.12
290.679	103.12
290.91	85.12
291.141	87.12
291.371	97.12
291.602	85.12
291.833	93.12
292.064	94.12
292.295	94.12
292.526	106.12
292.757	87.12
292.987	91.12
293.218	93.12
293.449	89.12
293.68	69.12
293.91	80.12
294.141	98.12
294.372	88.12
294.603	92.12
294.833	86.12
295.064	82.12
295.295	81.12
295.525	86.12
295.756	98.12
295.987	93.12
296.217	126.12
296.448	117.12
296.679	84.12
296.909	99.12
297.14	70.12
297.37	78.12
297.601	95.12
297.831	96.12
298.062	78.12
298.292	77.12
298.523	78.12
298.753	73.12
298.984	85.12
299.214	94.12
299.445	86.12
299.675	84.12
299.905	101.12
300.136	81.12
300.366	85.12
300.597	87.12
300.827	98.12
301.057	81.12
301.288	87.12
301.518	94.12
301.748	71.12
301.979	104.12
302.209	93.12
302.439	92.12
302.669	94.12
302.9	85.12
303.13	94.12
303.36	84.12
303.59	103.12
303.82	90.12
304.051	98.12
304.281	89.12
304.511	87.12
304.741	73.12
304.971	80.12
305.201	89.12
305.431	90.12
305.661	84.12
305.891	88.12
306.121	96.12
306.352	89.12
306.582	104.12
306.812	101.12
307.042	88.12
307.272	96.12
307.502	97.12
307.731	95.12
307.961	96.12
308.191	83.12
308.421	95.12
308.651	99.12
308.881	91.12
309.111	97.12
309.341	98.12
309.571	88.12
309.8	93.12
310.03	91.12
310.26	94.12
310.49	101.12
310.72	102.12
310.949	104.12
311.179	78.12
311.409	95.12
311.639	86.12
311.868	98.12
312.098	81.12
312.328	82.12
312.557	99.12
312.787	90.12
313.017	108.12
313.246	93.12
313.476	93.12
313.706	82.12
313.935	105.12
314.165	95.12
314.394	93.12
314.624	90.12
314.853	91.12
315.083	83.12
315.312	91.12
315.542	71.12
315.771	97.12
316.001	85.12
316.23	99.12
316.46	80.12
316.689	88.12
316.919	93.12
317.148	95.12
317.377	82.12
317.607	89.12
317.836	87.12
318.065	93.12
318.295	86.12
318.524	85.12
318.753	94.12
318.983	93.12
319.212	91.12
319.441	96.12
319.67	67.12
319.9	81.12
320.129	67.12
320.358	82.12
320.587	91.12
320.816	90.12
321.046	93.12
321.275	86.12
321.504	86.12
321.733	91.12
321.962	86.12
322.191	90.12
322.42	92.12
322.649	101.12
322.878	111.12
323.108	118.12
323.337	96.12
323.566	122.12
323.795	120.12
324.024	182.12
324.253	305.12
324.482	645.12
324.71	1299.12
324.939	1685.12
325.168	640.12
325.397	208.12
325.626	128.12
325.855	118.12
326.084	121.12
326.313	114.12
326.542	141.12
326.77	207.12
326.999	355.12
327.228	706.12
327.457	1317.12
327.686	1011.12
327.914	315.12
328.143	201.12
328.372	184.12
328.6	141.12
328.829	117.12
329.058	126.12
329.287	106.12
329.515	103.12
329.744	115.12
329.972	139.12
330.201	228.12
330.43	266.12
330.658	179.12
330.887	141.12
331.115	126.12
331.344	102.12
331.572	97.12
331.801	94.12
332.03	94.12
332.258	96.12
332.486	100.12
332.715	100.12
332.943	92.12
333.172	102.12
333.4	86.12
333.629	100.12
333.857	117.12
334.085	153.12
334.314	220.12
334.542	325.12
334.771	309.12
334.999	145.12
335.227	96.12
335.455	99.12
335.684	87.12
335.912	89.12
336.14	98.12
336.369	83.12
336.597	98.12
336.825	91.12
337.053	92.12
337.281	90.12
337.51	95.12
337.738	106.12
337.966	99.12
338.194	96.12
338.422	88.12
338.65	104.12
338.878	101.12
339.106	80.12
339.334	74.12
339.562	88.12
339.79	90.12
340.018	85.12
340.246	93.12
340.474	114.12
340.702	90.12
340.93	95.12
341.158	98.12
341.386	87.12
341.614	86.12
341.842	100.12
342.07	75.12
342.298	94.12
342.526	81.12
342.754	87.12
342.981	96.12
343.209	93.12
343.437	82.12
343.665	85.12
343.893	77.12
344.12	93.12
344.348	92.12
344.576	87.12
344.804	79.12
345.031	98.12
345.259	88.12
345.487	85.12
345.714	86.12
345.942	80.12
346.17	90.12
346.397	91.12
346.625	89.12
346.853	100.12
347.08	100.12
347.308	77.12
347.535	93.12
347.763	90.12
347.99	96.12
348.218	90.12
348.445	100.12
348.673	96.12
348.9	93.12
349.128	90.12
349.355	72.12
349.583	86.12
349.81	82.12
350.037	98.12
350.265	94.12
350.492	89.12
350.72	96.12
350.947	98.12
351.174	109.12
351.402	94.12
351.629	93.12
351.856	96.12
352.083	95.12
352.311	88.12
352.538	93.12
352.765	97.12
352.992	101.12
353.22	107.12
353.447	100.12
353.674	97.12
353.901	91.12
354.128	83.12
354.355	91.12
354.583	89.12
354.81	94.12
355.037	83.12
355.264	93.12
355.491	89.12
355.718	98.12
355.945	92.12
356.172	89.12
356.399	95.12
356.626	92.12
356.853	86.12
357.08	108.12
357.307	89.12
357.534	101.12
357.761	85.12
357.988	97.12
358.215	92.12
358.441	84.12
358.668	100.12
358.895	74.12
359.122	90.12
359.349	96.12
359.576	97.12
359.802	88.12
360.029	104.12
360.256	98.12
360.483	116.12
360.709	102.12
360.936	96.12
361.163	103.12
361.39	98.12
361.616	86.12
361.843	78.12
362.07	93.12
362.296	77.12
362.523	73.12
362.749	92.12
362.976	93.12
363.203	100.12
363.429	78.12
363.656	86.12
363.882	90.12
364.109	68.12
364.335	78.12
364.562	84.12
364.788	96.12
365.015	90.12
365.241	90.12
365.468	103.12
365.694	85.12
365.92	89.12
366.147	95.12
366.373	94.12
366.599	90.12
366.826	101.12
367.052	85.12
367.278	80.12
367.505	81.12
367.731	79.12
367.957	70.12
368.184	85.12
368.41	92.12
368.636	102.12
368.862	110.12
369.089	107.12
369.315	92.12
369.541	90.12
369.767	89.12
369.993	91.12
370.219	93.12
370.445	86.12
370.672	79.12
370.898	91.12
371.124	90.12
371.35	94.12
371.576	87.12
371.802	81.12
372.028	70.12
372.254	95.12
372.48	91.12
372.706	86.12
372.932	86.12
373.158	97.12
373.384	81.12
373.61	85.12
373.835	86.12
374.061	85.12
374.287	88.12
374.513	72.12
374.739	85.12
374.965	79.12
375.191	83.12
375.416	109.12
375.642	90.12
375.868	88.12
376.094	87.12
376.319	75.12
376.545	94.12
376.771	73.12
376.997	74.12
377.222	93.12
377.448	85.12
377.674	78.12
377.899	93.12
378.125	88.12
378.35	86.12
378.576	82.12
378.802	80.12
379.027	87.12
379.253	95.12
379.478	93.12
379.704	80.12
379.929	104.12
380.155	81.12
380.38	93.12
380.606	110.12
380.831	80.12
381.057	82.12
381.282	101.12
381.507	79.12
381.733	93.12
381.958	91.12
382.184	95.12
382.409	100.12
382.634	82.12
382.86	100.12
383.085	88.12
383.31	86.12
383.535	84.12
383.761	87.12
383.986	80.12
384.211	82.12
384.436	99.12
384.662	95.12
384.887	100.12
385.112	94.12
385.337	101.12
385.562	88.12
385.787	80.12
386.013	101.12
386.238	100.12
386.463	102.12
386.688	110.12
386.913	95.12
387.138	88.12
387.363	94.12
387.588	93.12
387.813	98.12
388.038	98.12
388.263	107.12
388.488	91.12
388.713	89.12
388.938	80.12
389.163	93.12
389.387	94.12
389.612	93.12
389.837	88.12
390.062	82.12
390.287	56.12
390.512	88.12
390.736	88.12
390.961	96.12
391.186	92.12
391.411	88.12
391.636	79.12
391.86	98.12
392.085	86.12
392.31	82.12
392.534	73.12
392.759	90.12
392.984	83.12
393.208	99.12
393.433	107.12
393.658	109.12
393.882	62.12
394.107	93.12
394.331	72.12
394.556	73.12
394.78	95.12
395.005	85.12
395.229	70.12
395.454	78.12
395.678	82.12
395.903	103.12
396.127	101.12
396.352	77.12
396.576	90.12
396.801	82.12
397.025	87.12
397.249	81.12
397.474	72.12
397.698	77.12
397.922	78.12
398.147	82.12
398.371	97.12
398.595	77.12
398.82	85.12
399.044	88.12
399.268	77.12
399.492	96.12
399.717	87.12
399.941	81.12
400.165	96.12
400.389	88.12
400.613	100.12
400.837	86.12
401.062	82.12
401.286	71.12
401.51	71.12
401.734	94.12
401.958	98.12
402.182	118.12
402.406	139.12
402.63	117.12
402.854	98.12
403.078	73.12
403.302	89.12
403.526	79.12
403.75	91.12
403.974	100.12
404.198	87.12
404.422	87.12
404.645	84.12
404.869	83.12
405.093	100.12
405.317	95.12
405.541	85.12
405.765	80.12
405.988	107.12
406.212	145.12
406.436	194.12
406.66	123.12
406.883	90.12
407.107	87.12
407.331	94.12
407.555	93.12
407.778	81.12
408.002	96.12
408.226	83.12
408.449	92.12
408.673	95.12
408.896	80.12
409.12	87.12
409.344	79.12
409.567	77.12
409.791	99.12
410.014	96.12
410.238	101.12
410.461	97.12
410.685	107.12
410.908	79.12
411.132	93.12
411.355	92.12
411.578	75.12
411.802	75.12
412.025	85.12
412.249	88.12
412.472	97.12
412.695	108.12
412.919	86.12
413.142	86.12
413.365	83.12
413.589	79.12
413.812	88.12
414.035	95.12
414.258	88.12
414.482	92.12
414.705	85.12
414.928	94.12
415.151	87.12
415.374	86.12
415.597	82.12
415.821	86.12
416.044	91.12
416.267	99.12
416.49	104.12
416.713	90.12
416.936	102.12
417.159	83.12
417.382	70.12
417.605	98.12
417.828	92.12
418.051	86.12
418.274	87.12
418.497	75.12
418.72	90.12
418.943	77.12
419.166	79.12
419.389	74.12
419.611	87.12
419.834	76.12
420.057	78.12
420.28	89.12
420.503	96.12
420.726	104.12
420.948	72.12
421.171	103.12
421.394	93.12
421.617	93.12
421.839	99.12
422.062	71.12
422.285	91.12
422.507	88.12
422.73	89.12
422.953	95.12
423.175	77.12
423.398	101.12
423.621	81.12
423.843	70.12
424.066	83.12
424.288	94.12
424.511	85.12
424.733	94.12
424.956	88.12
425.178	93.12
425.401	88.12
425.623	85.12
425.846	84.12
426.068	95.12
426.291	90.12
426.513	89.12
426.735	86.12
426.958	83.12
427.18	94.12
427.402	118.12
427.625	151.12
427.847	129.12
428.069	124.12
428.292	92.12
428.514	83.12
428.736	78.12
428.958	86.12
429.181	71.12
429.403	94.12
429.625	79.12
429.847	79.12
430.069	96.12
430.292	112.12
430.514	90.12
430.736	82.12
430.958	89.12
431.18	76.12
431.402	82.12
431.624	83.12
431.846	93.12
432.068	81.12
432.29	74.12
432.512	94.12
432.734	90.12
432.956	87.12
433.178	97.12
433.4	75.12
433.622	89.12
433.844	93.12
434.066	93.12
434.287	87.12
434.509	82.12
434.731	93.12
434.953	89.12
435.175	83.12
435.397	94.12
435.618	91.12
435.84	93.12
436.062	99.12
436.284	113.12
436.505	91.12
436.727	77.12
436.949	93.12
437.17	89.12
437.392	83.12
437.614	93.12
437.835	105.12
438.057	109.12
438.278	102.12
438.5	88.12
438.721	105.12
438.943	98.12
439.165	82.12
439.386	87.12
439.608	92.12
439.829	86.12
440.05	113.12
440.272	134.12
440.493	90.12
440.715	93.12
440.936	72.12
441.158	85.12
441.379	81.12
441.6	77.12
441.822	103.12
442.043	87.12
442.264	99.12
442.486	95.12
442.707	88.12
442.928	103.12
443.149	106.12
443.371	115.12
443.592	87.12
443.813	104.12
444.034	94.12
444.255	86.12
444.476	99.12
444.698	73.12
444.919	74.12
445.14	115.12
445.361	121.12
445.582	105.12
445.803	108.12
446.024	122.12
446.245	115.12
446.466	99.12
446.687	83.12
446.908	86.12
447.129	75.12
447.35	91.12
447.571	85.12
447.792	92.12
448.013	89.12
448.234	113.12
448.455	98.12
448.675	97.12
448.896	117.12
449.117	83.12
449.338	85.12
449.559	112.12
449.779	127.12
450	89.12
450.221	84.12
450.442	88.12
450.662	64.12
450.883	89.12
451.104	91.12
451.324	92.12
451.545	81.12
451.766	101.12
451.986	72.12
452.207	86.12
452.428	90.12
452.648	99.12
452.869	109.12
453.089	103.12
453.31	104.12
453.53	97.12
453.751	93.12
453.971	82.12
454.192	116.12
454.412	96.12
454.633	89.12
454.853	81.12
455.073	94.12
455.294	80.12
455.514	88.12
455.734	87.12
455.955	77.12
456.175	85.12
456.395	86.12
456.616	77.12
456.836	63.12
457.056	83.12
457.276	81.12
457.497	82.12
457.717	83.12
457.937	84.12
458.157	85.12
458.377	83.12
458.598	102.12
458.818	126.12
459.038	121.12
459.258	106.12
459.478	82.12
459.698	89.12
459.918	89.12
460.138	80.12
460.358	83.12
460.578	78.12
460.798	81.12
461.018	91.12
461.238	97.12
461.458	91.12
461.678	93.12
461.898	65.12
462.118	77.12
462.338	95.12
462.558	81.12
462.777	69.12
462.997	74.12
463.217	88.12
463.437	88.12
463.657	91.12
463.876	72.12
464.096	79.12
464.316	71.12
464.536	77.12
464.755	89.12
464.975	93.12
465.195	143.12
465.414	132.12
465.634	96.12
465.854	86.12
466.073	70.12
466.293	88.12
466.512	83.12
466.732	90.12
466.951	81.12
467.171	95.12
467.391	80.12
467.61	94.12
467.829	104.12
468.049	139.12
468.268	188.12
468.488	101.12
468.707	74.12
468.927	94.12
469.146	63.12
469.365	64.12
469.585	92.12
469.804	93.12
470.023	106.12
470.243	100.12
470.462	104.12
470.681	114.12
470.901	85.12
471.12	89.12
471.339	91.12
471.558	86.12
471.777	93.12
471.997	108.12
472.216	230.12
472.435	424.12
472.654	145.12
472.873	97.12
473.092	85.12
473.311	83.12
473.53	82.12
473.749	97.12
473.968	91.12
474.187	88.12
474.406	91.12
474.625	79.12
474.844	95.12
475.063	94.12
475.282	77.12
475.501	77.12
475.72	81.12
475.939	68.12
476.158	79.12
476.377	97.12
476.596	88.12
476.814	88.12
477.033	94.12
477.252	89.12
477.471	84.12
477.69	89.12
477.908	82.12
478.127	87.12
478.346	94.12
478.564	74.12
478.783	88.12
479.002	90.12
479.22	101.12
479.439	95.12
479.658	102.12
479.876	99.12
480.095	97.12
480.313	93.12
480.532	104.12
480.751	126.12
480.969	244.12
481.188	733.12
481.406	418.12
481.624	117.12
481.843	74.12
482.061	85.12
482.28	107.12
482.498	90.12
482.717	84.12
482.935	78.12
483.153	77.12
483.372	82.12
483.59	95.12
483.808	82.12
484.027	96.12
484.245	96.12
484.463	97.12
484.681	92.12
484.9	95.12
485.118	85.12
485.336	97.12
485.554	90.12
485.772	97.12
485.99	96.12
486.209	112.12
486.427	101.12
486.645	111.12
486.863	113.12
487.081	95.12
487.299	91.12
487.517	83.12
487.735	78.12
487.953	97.12
488.171	103.12
488.389	105.12
488.607	84.12
488.825	85.12
489.043	77.12
489.261	91.12
489.479	84.12
489.696	78.12
489.914	79.12
490.132	89.12
490.35	93.12
490.568	91.12
490.786	93.12
491.003	70.12
491.221	71.12
491.439	68.12
491.657	87.12
491.874	97.12
492.092	84.12
492.31	81.12
492.527	93.12
492.745	90.12
492.963	84.12
493.18	77.12
493.398	93.12
493.615	93.12
493.833	83.12
494.05	91.12
494.268	85.12
494.485	80.12
494.703	83.12
494.92	82.12
495.138	96.12
495.355	95.12
495.573	90.12
495.79	87.12
496.008	98.12
496.225	79.12
496.442	82.12
496.66	79.12
496.877	81.12
497.094	85.12
497.312	81.12
497.529	87.12
497.746	94.12
497.963	96.12
498.181	97.12
498.398	89.12
498.615	95.12
498.832	98.12
499.049	82.12
499.267	68.12
499.484	89.12
499.701	85.12
499.918	81.12
500.135	96.12
500.352	87.12
500.569	107.12
500.786	102.12
501.003	94.12
501.22	90.12
501.437	105.12
501.654	88.12
501.871	99.12
502.088	91.12
502.305	96.12
502.522	90.12
502.739	89.12
502.956	74.12
503.172	103.12
503.389	91.12
503.606	94.12
503.823	98.12
504.04	87.12
504.256	95.12
504.473	89.12
504.69	82.12
504.907	75.12
505.123	89.12
505.34	91.12
505.557	95.12
505.773	85.12
505.99	92.12
506.207	85.12
506.423	85.12
506.64	88.12
506.856	101.12
507.073	82.12
507.289	89.12
507.506	89.12
507.722	99.12
507.939	97.12
508.155	70.12
508.372	93.12
508.588	79.12
508.805	84.12
509.021	95.12
509.238	95.12
509.454	95.12
509.67	85.12
509.887	93.12
510.103	102.12
510.319	183.12
510.536	611.12
510.752	1907.12
510.968	533.12
511.184	140.12
511.401	97.12
511.617	89.12
511.833	101.12
512.049	100.12
512.265	90.12
512.481	98.12
512.698	85.12
512.914	82.12
513.13	88.12
513.346	93.12
513.562	96.12
513.778	90.12
513.994	91.12
514.21	94.12
514.426	128.12
514.642	115.12
514.858	119.12
515.074	146.12
515.29	358.12
515.506	1111.12
515.721	413.12
515.937	138.12
516.153	113.12
516.369	97.12
516.585	89.12
516.801	90.12
517.016	85.12
