Data from Circ_1984_H10_HRD10591_00010.txt Node
Date: Wed Jan 03 12:22:44 EST 2024
User: Yrep
Spectrometer: HR+D1059
Trigger mode: 1
Integration Time (sec): 1.000000E-1
Scans to average: 1
Electric dark correction enabled: true
Nonlinearity correction enabled: false
Boxcar width: 0
XAxis mode: Wavelengths
Number of Pixels in Spectrum: 2048
>>>>>Begin Spectral Data<<<<<
223.165	-15.75
223.4	-15.75
223.635	-15.75
223.869	-20.75
224.104	-12.75
224.338	-34.75
224.573	-11.75
224.808	-17.75
225.042	-11.75
225.277	-1.75
225.511	-8.75
225.746	9.25
225.98	16.25
226.215	5.25
226.449	20.25
226.683	18.25
226.918	40.25
227.152	26.25
227.387	40.25
227.621	23.25
227.856	43.25
228.09	32.25
228.324	57.25
228.559	57.25
228.793	43.25
229.027	59.25
229.262	63.25
229.496	74.25
229.73	80.25
229.964	76.25
230.199	81.25
230.433	78.25
230.667	84.25
230.901	82.25
231.136	92.25
231.37	79.25
231.604	82.25
231.838	82.25
232.072	96.25
232.306	74.25
232.541	86.25
232.775	73.25
233.009	70.25
233.243	77.25
233.477	89.25
233.711	77.25
233.945	61.25
234.179	84.25
234.413	88.25
234.647	83.25
234.881	69.25
235.115	95.25
235.349	74.25
235.583	73.25
235.817	79.25
236.051	74.25
236.285	94.25
236.519	70.25
236.753	70.25
236.987	66.25
237.221	71.25
237.455	76.25
237.689	69.25
237.922	76.25
238.156	62.25
238.39	76.25
238.624	68.25
238.858	71.25
239.091	73.25
239.325	82.25
239.559	81.25
239.793	75.25
240.027	65.25
240.26	78.25
240.494	68.25
240.728	71.25
240.961	60.25
241.195	77.25
241.429	68.25
241.662	82.25
241.896	67.25
242.13	69.25
242.363	69.25
242.597	77.25
242.83	76.25
243.064	78.25
243.298	84.25
243.531	71.25
243.765	64.25
243.998	65.25
244.232	64.25
244.465	71.25
244.699	70.25
244.932	72.25
245.166	79.25
245.399	78.25
245.633	68.25
245.866	78.25
246.099	78.25
246.333	85.25
246.566	69.25
246.8	71.25
247.033	62.25
247.266	71.25
247.5	80.25
247.733	67.25
247.966	78.25
248.2	88.25
248.433	86.25
248.666	91.25
248.899	86.25
249.133	84.25
249.366	96.25
249.599	72.25
249.832	74.25
250.066	88.25
250.299	76.25
250.532	79.25
250.765	71.25
250.998	78.25
251.231	77.25
251.465	75.25
251.698	78.25
251.931	69.25
252.164	80.25
252.397	77.25
252.63	86.25
252.863	84.25
253.096	64.25
253.329	68.25
253.562	74.25
253.795	78.25
254.028	68.25
254.261	73.25
254.494	73.25
254.727	82.25
254.96	78.25
255.193	81.25
255.426	80.25
255.659	85.25
255.892	86.25
256.124	71.25
256.357	72.25
256.59	94.25
256.823	76.25
257.056	78.25
257.289	68.25
257.521	82.25
257.754	82.25
257.987	68.25
258.22	78.25
258.452	65.25
258.685	68.25
258.918	70.25
259.151	90.25
259.383	80.25
259.616	89.25
259.849	82.25
260.081	88.25
260.314	73.25
260.547	91.25
260.779	68.25
261.012	80.25
261.244	73.25
261.477	82.25
261.71	99.25
261.942	95.25
262.175	102.25
262.407	89.25
262.64	72.25
262.872	74.25
263.105	85.25
263.337	73.25
263.57	82.25
263.802	87.25
264.035	73.25
264.267	83.25
264.499	93.25
264.732	78.25
264.964	81.25
265.197	86.25
265.429	77.25
265.661	84.25
265.894	76.25
266.126	71.25
266.358	86.25
266.591	75.25
266.823	81.25
267.055	78.25
267.287	90.25
267.52	80.25
267.752	77.25
267.984	77.25
268.216	79.25
268.448	89.25
268.681	95.25
268.913	88.25
269.145	90.25
269.377	78.25
269.609	68.25
269.841	77.25
270.073	72.25
270.306	68.25
270.538	77.25
270.77	73.25
271.002	82.25
271.234	88.25
271.466	77.25
271.698	90.25
271.93	82.25
272.162	76.25
272.394	95.25
272.626	83.25
272.858	73.25
273.09	89.25
273.322	95.25
273.553	85.25
273.785	87.25
274.017	78.25
274.249	97.25
274.481	65.25
274.713	86.25
274.945	84.25
275.176	84.25
275.408	72.25
275.64	77.25
275.872	89.25
276.104	79.25
276.335	81.25
276.567	96.25
276.799	108.25
277.031	80.25
277.262	68.25
277.494	95.25
277.726	86.25
277.957	101.25
278.189	99.25
278.421	74.25
278.652	88.25
278.884	92.25
279.115	72.25
279.347	94.25
279.579	92.25
279.81	93.25
280.042	79.25
280.273	82.25
280.505	80.25
280.736	81.25
280.968	78.25
281.199	71.25
281.431	92.25
281.662	76.25
281.894	81.25
282.125	85.25
282.356	104.25
282.588	134.25
282.819	104.25
283.051	78.25
283.282	82.25
283.513	80.25
283.745	84.25
283.976	89.25
284.207	86.25
284.439	98.25
284.67	73.25
284.901	77.25
285.132	83.25
285.364	75.25
285.595	79.25
285.826	72.25
286.057	74.25
286.288	87.25
286.52	89.25
286.751	84.25
286.982	89.25
287.213	76.25
287.444	92.25
287.675	84.25
287.906	86.25
288.138	92.25
288.369	106.25
288.6	84.25
288.831	78.25
289.062	76.25
289.293	86.25
289.524	93.25
289.755	82.25
289.986	81.25
290.217	81.25
290.448	81.25
290.679	72.25
290.91	85.25
291.141	70.25
291.371	76.25
291.602	90.25
291.833	77.25
292.064	86.25
292.295	85.25
292.526	79.25
292.757	86.25
292.987	82.25
293.218	82.25
293.449	90.25
293.68	89.25
293.91	92.25
294.141	82.25
294.372	82.25
294.603	85.25
294.833	89.25
295.064	85.25
295.295	79.25
295.525	84.25
295.756	84.25
295.987	109.25
296.217	117.25
296.448	107.25
296.679	89.25
296.909	92.25
297.14	82.25
297.37	92.25
297.601	89.25
297.831	86.25
298.062	90.25
298.292	88.25
298.523	96.25
298.753	92.25
298.984	87.25
299.214	87.25
299.445	76.25
299.675	92.25
299.905	100.25
300.136	83.25
300.366	87.25
300.597	73.25
300.827	87.25
301.057	98.25
301.288	87.25
301.518	96.25
301.748	91.25
301.979	96.25
302.209	88.25
302.439	97.25
302.669	90.25
302.9	84.25
303.13	85.25
303.36	99.25
303.59	98.25
303.82	103.25
304.051	96.25
304.281	86.25
304.511	94.25
304.741	96.25
304.971	84.25
305.201	83.25
305.431	96.25
305.661	75.25
305.891	93.25
306.121	94.25
306.352	100.25
306.582	97.25
306.812	95.25
307.042	77.25
307.272	83.25
307.502	84.25
307.731	100.25
307.961	106.25
308.191	96.25
308.421	86.25
308.651	93.25
308.881	89.25
309.111	85.25
309.341	98.25
309.571	98.25
309.8	86.25
310.03	92.25
310.26	102.25
310.49	87.25
310.72	90.25
310.949	97.25
311.179	100.25
311.409	99.25
311.639	111.25
311.868	101.25
312.098	85.25
312.328	94.25
312.557	94.25
312.787	92.25
313.017	97.25
313.246	112.25
313.476	77.25
313.706	97.25
313.935	103.25
314.165	84.25
314.394	94.25
314.624	84.25
314.853	94.25
315.083	87.25
315.312	100.25
315.542	81.25
315.771	102.25
316.001	96.25
316.23	86.25
316.46	97.25
316.689	86.25
316.919	87.25
317.148	93.25
317.377	100.25
317.607	83.25
317.836	90.25
318.065	76.25
318.295	102.25
318.524	97.25
318.753	78.25
318.983	97.25
319.212	93.25
319.441	101.25
319.67	105.25
319.9	96.25
320.129	99.25
320.358	82.25
320.587	104.25
320.816	88.25
321.046	101.25
321.275	91.25
321.504	84.25
321.733	98.25
321.962	86.25
322.191	93.25
322.42	89.25
322.649	96.25
322.878	104.25
323.108	98.25
323.337	118.25
323.566	120.25
323.795	134.25
324.024	156.25
324.253	314.25
324.482	666.25
324.71	1337.25
324.939	1776.25
325.168	664.25
325.397	207.25
325.626	136.25
325.855	118.25
326.084	127.25
326.313	106.25
326.542	131.25
326.77	184.25
326.999	370.25
327.228	754.25
327.457	1382.25
327.686	1079.25
327.914	302.25
328.143	175.25
328.372	140.25
328.6	129.25
328.829	123.25
329.058	121.25
329.287	112.25
329.515	99.25
329.744	106.25
329.972	110.25
330.201	130.25
330.43	146.25
330.658	137.25
330.887	119.25
331.115	112.25
331.344	101.25
331.572	98.25
331.801	95.25
332.03	104.25
332.258	97.25
332.486	84.25
332.715	72.25
332.943	82.25
333.172	86.25
333.4	78.25
333.629	100.25
333.857	119.25
334.085	109.25
334.314	127.25
334.542	173.25
334.771	150.25
334.999	110.25
335.227	92.25
335.455	94.25
335.684	101.25
335.912	101.25
336.14	100.25
336.369	94.25
336.597	106.25
336.825	86.25
337.053	80.25
337.281	88.25
337.51	92.25
337.738	82.25
337.966	92.25
338.194	105.25
338.422	78.25
338.65	104.25
338.878	92.25
339.106	92.25
339.334	90.25
339.562	81.25
339.79	98.25
340.018	83.25
340.246	96.25
340.474	92.25
340.702	85.25
340.93	87.25
341.158	93.25
341.386	89.25
341.614	97.25
341.842	96.25
342.07	75.25
342.298	87.25
342.526	92.25
342.754	94.25
342.981	85.25
343.209	84.25
343.437	103.25
343.665	92.25
343.893	79.25
344.12	92.25
344.348	79.25
344.576	66.25
344.804	81.25
345.031	94.25
345.259	100.25
345.487	88.25
345.714	101.25
345.942	94.25
346.17	95.25
346.397	88.25
346.625	93.25
346.853	96.25
347.08	86.25
347.308	91.25
347.535	90.25
347.763	101.25
347.99	103.25
348.218	92.25
348.445	94.25
348.673	85.25
348.9	86.25
349.128	83.25
349.355	93.25
349.583	97.25
349.81	91.25
350.037	88.25
350.265	91.25
350.492	84.25
350.72	99.25
350.947	105.25
351.174	100.25
351.402	97.25
351.629	86.25
351.856	104.25
352.083	108.25
352.311	89.25
352.538	94.25
352.765	104.25
352.992	116.25
353.22	104.25
353.447	94.25
353.674	105.25
353.901	88.25
354.128	93.25
354.355	104.25
354.583	95.25
354.81	106.25
355.037	105.25
355.264	95.25
355.491	88.25
355.718	101.25
355.945	94.25
356.172	97.25
356.399	99.25
356.626	95.25
356.853	88.25
357.08	97.25
357.307	94.25
357.534	88.25
357.761	100.25
357.988	95.25
358.215	98.25
358.441	92.25
358.668	96.25
358.895	88.25
359.122	77.25
359.349	104.25
359.576	97.25
359.802	84.25
360.029	99.25
360.256	104.25
360.483	86.25
360.709	86.25
360.936	83.25
361.163	100.25
361.39	94.25
361.616	87.25
361.843	92.25
362.07	87.25
362.296	96.25
362.523	87.25
362.749	78.25
362.976	85.25
363.203	95.25
363.429	80.25
363.656	96.25
363.882	92.25
364.109	76.25
364.335	90.25
364.562	87.25
364.788	89.25
365.015	83.25
365.241	81.25
365.468	90.25
365.694	92.25
365.92	95.25
366.147	71.25
366.373	86.25
366.599	69.25
366.826	88.25
367.052	90.25
367.278	81.25
367.505	96.25
367.731	93.25
367.957	97.25
368.184	88.25
368.41	98.25
368.636	97.25
368.862	110.25
369.089	100.25
369.315	80.25
369.541	80.25
369.767	90.25
369.993	99.25
370.219	87.25
370.445	93.25
370.672	76.25
370.898	73.25
371.124	87.25
371.35	79.25
371.576	86.25
371.802	79.25
372.028	90.25
372.254	82.25
372.48	83.25
372.706	89.25
372.932	86.25
373.158	85.25
373.384	86.25
373.61	79.25
373.835	97.25
374.061	81.25
374.287	87.25
374.513	84.25
374.739	86.25
374.965	84.25
375.191	79.25
375.416	102.25
375.642	106.25
375.868	89.25
376.094	96.25
376.319	98.25
376.545	82.25
376.771	81.25
376.997	78.25
377.222	88.25
377.448	82.25
377.674	92.25
377.899	84.25
378.125	73.25
378.35	86.25
378.576	93.25
378.802	79.25
379.027	90.25
379.253	97.25
379.478	103.25
379.704	85.25
379.929	99.25
380.155	94.25
380.38	78.25
380.606	93.25
380.831	87.25
381.057	86.25
381.282	95.25
381.507	105.25
381.733	102.25
381.958	92.25
382.184	94.25
382.409	92.25
382.634	97.25
382.86	103.25
383.085	102.25
383.31	94.25
383.535	96.25
383.761	111.25
383.986	108.25
384.211	104.25
384.436	101.25
384.662	105.25
384.887	115.25
385.112	117.25
385.337	118.25
385.562	105.25
385.787	97.25
386.013	117.25
386.238	126.25
386.463	105.25
386.688	112.25
386.913	116.25
387.138	102.25
387.363	124.25
387.588	100.25
387.813	103.25
388.038	92.25
388.263	114.25
388.488	123.25
388.713	104.25
388.938	81.25
389.163	96.25
389.387	83.25
389.612	93.25
389.837	90.25
390.062	88.25
390.287	81.25
390.512	77.25
390.736	71.25
390.961	84.25
391.186	88.25
391.411	89.25
391.636	96.25
391.86	85.25
392.085	78.25
392.31	85.25
392.534	74.25
392.759	86.25
392.984	89.25
393.208	106.25
393.433	104.25
393.658	90.25
393.882	81.25
394.107	92.25
394.331	86.25
394.556	81.25
394.78	88.25
395.005	80.25
395.229	77.25
395.454	87.25
395.678	96.25
395.903	73.25
396.127	95.25
396.352	104.25
396.576	88.25
396.801	94.25
397.025	94.25
397.249	92.25
397.474	104.25
397.698	92.25
397.922	71.25
398.147	79.25
398.371	84.25
398.595	95.25
398.82	81.25
399.044	64.25
399.268	90.25
399.492	80.25
399.717	95.25
399.941	81.25
400.165	94.25
400.389	93.25
400.613	79.25
400.837	75.25
401.062	91.25
401.286	96.25
401.51	86.25
401.734	88.25
401.958	96.25
402.182	116.25
402.406	138.25
402.63	98.25
402.854	93.25
403.078	81.25
403.302	73.25
403.526	66.25
403.75	95.25
403.974	69.25
404.198	80.25
404.422	94.25
404.645	78.25
404.869	82.25
405.093	99.25
405.317	92.25
405.541	97.25
405.765	98.25
405.988	106.25
406.212	159.25
406.436	193.25
406.66	128.25
406.883	90.25
407.107	88.25
407.331	103.25
407.555	101.25
407.778	100.25
408.002	82.25
408.226	79.25
408.449	83.25
408.673	80.25
408.896	89.25
409.12	94.25
409.344	87.25
409.567	85.25
409.791	89.25
410.014	86.25
410.238	71.25
410.461	100.25
410.685	90.25
410.908	104.25
411.132	106.25
411.355	107.25
411.578	92.25
411.802	87.25
412.025	82.25
412.249	89.25
412.472	76.25
412.695	106.25
412.919	71.25
413.142	77.25
413.365	97.25
413.589	92.25
413.812	83.25
414.035	88.25
414.258	85.25
414.482	90.25
414.705	96.25
414.928	102.25
415.151	83.25
415.374	92.25
415.597	96.25
415.821	85.25
416.044	103.25
416.267	88.25
416.49	90.25
416.713	96.25
416.936	86.25
417.159	83.25
417.382	91.25
417.605	93.25
417.828	96.25
418.051	100.25
418.274	88.25
418.497	89.25
418.72	104.25
418.943	87.25
419.166	76.25
419.389	93.25
419.611	75.25
419.834	88.25
420.057	80.25
420.28	80.25
420.503	92.25
420.726	86.25
420.948	92.25
421.171	89.25
421.394	87.25
421.617	89.25
421.839	96.25
422.062	82.25
422.285	80.25
422.507	93.25
422.73	97.25
422.953	99.25
423.175	95.25
423.398	78.25
423.621	80.25
423.843	82.25
424.066	65.25
424.288	64.25
424.511	77.25
424.733	77.25
424.956	92.25
425.178	84.25
425.401	105.25
425.623	104.25
425.846	69.25
426.068	97.25
426.291	88.25
426.513	90.25
426.735	78.25
426.958	76.25
427.18	86.25
427.402	101.25
427.625	138.25
427.847	109.25
428.069	100.25
428.292	72.25
428.514	93.25
428.736	91.25
428.958	103.25
429.181	87.25
429.403	80.25
429.625	92.25
429.847	82.25
430.069	91.25
430.292	84.25
430.514	78.25
430.736	85.25
430.958	89.25
431.18	78.25
431.402	76.25
431.624	83.25
431.846	81.25
432.068	83.25
432.29	76.25
432.512	66.25
432.734	89.25
432.956	100.25
433.178	109.25
433.4	90.25
433.622	102.25
433.844	86.25
434.066	104.25
434.287	80.25
434.509	95.25
434.731	80.25
434.953	88.25
435.175	79.25
435.397	86.25
435.618	89.25
435.84	87.25
436.062	100.25
436.284	111.25
436.505	96.25
436.727	101.25
436.949	81.25
437.17	71.25
437.392	72.25
437.614	87.25
437.835	89.25
438.057	96.25
438.278	100.25
438.5	103.25
438.721	120.25
438.943	95.25
439.165	82.25
439.386	101.25
439.608	91.25
439.829	105.25
440.05	104.25
440.272	121.25
440.493	89.25
440.715	77.25
440.936	80.25
441.158	84.25
441.379	85.25
441.6	86.25
441.822	92.25
442.043	87.25
442.264	100.25
442.486	80.25
442.707	84.25
442.928	98.25
443.149	110.25
443.371	115.25
443.592	109.25
443.813	88.25
444.034	104.25
444.255	79.25
444.476	89.25
444.698	82.25
444.919	96.25
445.14	132.25
445.361	117.25
445.582	112.25
445.803	125.25
446.024	107.25
446.245	122.25
446.466	111.25
446.687	89.25
446.908	84.25
447.129	68.25
447.35	86.25
447.571	81.25
447.792	84.25
448.013	90.25
448.234	88.25
448.455	99.25
448.675	82.25
448.896	107.25
449.117	98.25
449.338	86.25
449.559	114.25
449.779	114.25
450	80.25
450.221	79.25
450.442	95.25
450.662	71.25
450.883	98.25
451.104	118.25
451.324	78.25
451.545	81.25
451.766	74.25
451.986	84.25
452.207	90.25
452.428	78.25
452.648	100.25
452.869	92.25
453.089	97.25
453.31	102.25
453.53	95.25
453.751	74.25
453.971	92.25
454.192	97.25
454.412	100.25
454.633	78.25
454.853	89.25
455.073	84.25
455.294	89.25
455.514	80.25
455.734	83.25
455.955	77.25
456.175	88.25
456.395	84.25
456.616	71.25
456.836	92.25
457.056	78.25
457.276	86.25
457.497	96.25
457.717	92.25
457.937	101.25
458.157	84.25
458.377	92.25
458.598	116.25
458.818	137.25
459.038	139.25
459.258	107.25
459.478	104.25
459.698	96.25
459.918	77.25
460.138	91.25
460.358	88.25
460.578	87.25
460.798	76.25
461.018	90.25
461.238	77.25
461.458	78.25
461.678	96.25
461.898	96.25
462.118	82.25
462.338	94.25
462.558	71.25
462.777	82.25
462.997	86.25
463.217	93.25
463.437	78.25
463.657	81.25
463.876	70.25
464.096	84.25
464.316	72.25
464.536	93.25
464.755	102.25
464.975	95.25
465.195	142.25
465.414	129.25
465.634	92.25
465.854	87.25
466.073	89.25
466.293	83.25
466.512	76.25
466.732	76.25
466.951	81.25
467.171	81.25
467.391	109.25
467.61	92.25
467.829	99.25
468.049	99.25
468.268	117.25
468.488	100.25
468.707	90.25
468.927	90.25
469.146	81.25
469.365	93.25
469.585	92.25
469.804	90.25
470.023	93.25
470.243	104.25
470.462	102.25
470.681	85.25
470.901	79.25
471.12	80.25
471.339	87.25
471.558	88.25
471.777	79.25
471.997	105.25
472.216	126.25
472.435	200.25
472.654	113.25
472.873	83.25
473.092	75.25
473.311	89.25
473.53	68.25
473.749	85.25
473.968	100.25
474.187	102.25
474.406	91.25
474.625	90.25
474.844	85.25
475.063	81.25
475.282	88.25
475.501	85.25
475.72	90.25
475.939	79.25
476.158	85.25
476.377	87.25
476.596	93.25
476.814	84.25
477.033	84.25
477.252	92.25
477.471	80.25
477.69	93.25
477.908	80.25
478.127	78.25
478.346	84.25
478.564	91.25
478.783	82.25
479.002	91.25
479.22	84.25
479.439	97.25
479.658	112.25
479.876	76.25
480.095	81.25
480.313	91.25
480.532	106.25
480.751	97.25
480.969	110.25
481.188	277.25
481.406	202.25
481.624	93.25
481.843	83.25
482.061	90.25
482.28	74.25
482.498	78.25
482.717	88.25
482.935	96.25
483.153	96.25
483.372	63.25
483.59	82.25
483.808	72.25
484.027	88.25
484.245	92.25
484.463	91.25
484.681	86.25
484.9	93.25
485.118	97.25
485.336	77.25
485.554	91.25
485.772	98.25
485.99	104.25
486.209	111.25
486.427	101.25
486.645	114.25
486.863	123.25
487.081	101.25
487.299	93.25
487.517	104.25
487.735	86.25
487.953	90.25
488.171	86.25
488.389	94.25
488.607	96.25
488.825	86.25
489.043	87.25
489.261	85.25
489.479	96.25
489.696	102.25
489.914	97.25
490.132	88.25
490.35	83.25
490.568	102.25
490.786	93.25
491.003	79.25
491.221	79.25
491.439	91.25
491.657	94.25
491.874	78.25
492.092	93.25
492.31	94.25
492.527	93.25
492.745	95.25
492.963	77.25
493.18	86.25
493.398	91.25
493.615	91.25
493.833	81.25
494.05	98.25
494.268	88.25
494.485	78.25
494.703	90.25
494.92	83.25
495.138	81.25
495.355	92.25
495.573	101.25
495.79	84.25
496.008	97.25
496.225	90.25
496.442	98.25
496.66	87.25
496.877	80.25
497.094	87.25
497.312	82.25
497.529	93.25
497.746	94.25
497.963	85.25
498.181	88.25
498.398	82.25
498.615	100.25
498.832	108.25
499.049	93.25
499.267	78.25
499.484	92.25
499.701	90.25
499.918	101.25
500.135	86.25
500.352	74.25
500.569	86.25
500.786	82.25
501.003	78.25
501.22	86.25
501.437	89.25
501.654	84.25
501.871	92.25
502.088	107.25
502.305	93.25
502.522	78.25
502.739	98.25
502.956	93.25
503.172	84.25
503.389	98.25
503.606	91.25
503.823	104.25
504.04	87.25
504.256	94.25
504.473	78.25
504.69	81.25
504.907	76.25
505.123	76.25
505.34	70.25
505.557	104.25
505.773	94.25
505.99	108.25
506.207	88.25
506.423	71.25
506.64	95.25
506.856	100.25
507.073	90.25
507.289	84.25
507.506	89.25
507.722	102.25
507.939	118.25
508.155	88.25
508.372	90.25
508.588	101.25
508.805	74.25
509.021	90.25
509.238	104.25
509.454	110.25
509.67	92.25
509.887	98.25
510.103	127.25
510.319	190.25
510.536	625.25
510.752	1978.25
510.968	580.25
511.184	162.25
511.401	106.25
511.617	99.25
511.833	85.25
512.049	98.25
512.265	100.25
512.481	90.25
512.698	86.25
512.914	102.25
513.13	93.25
513.346	83.25
513.562	86.25
513.778	87.25
513.994	90.25
514.21	98.25
514.426	121.25
514.642	124.25
514.858	107.25
515.074	130.25
515.29	354.25
515.506	1158.25
515.721	436.25
515.937	133.25
516.153	98.25
516.369	90.25
