Data from Circ_1984_H10_HRD10591_00011.txt Node
Date: Wed Jan 03 12:22:44 EST 2024
User: Yrep
Spectrometer: HR+D1059
Trigger mode: 1
Integration Time (sec): 1.000000E-1
Scans to average: 1
Electric dark correction enabled: true
Nonlinearity correction enabled: false
Boxcar width: 0
XAxis mode: Wavelengths
Number of Pixels in Spectrum: 2048
>>>>>Begin Spectral Data<<<<<
223.165	-19.81
223.4	-19.81
223.635	-19.81
223.869	-10.81
224.104	-23.81
224.338	-6.81
224.573	-24.81
224.808	-7.81
225.042	-7.81
225.277	-15.81
225.511	-10.81
225.746	9.19
225.98	7.19
226.215	12.19
226.449	25.19
226.683	16.19
226.918	27.19
227.152	31.19
227.387	29.19
227.621	34.19
227.856	36.19
228.09	28.19
228.324	42.19
228.559	49.19
228.793	51.19
229.027	71.19
229.262	62.19
229.496	75.19
229.73	82.19
229.964	82.19
230.199	59.19
230.433	70.19
230.667	74.19
230.901	62.19
231.136	80.19
231.37	84.19
231.604	80.19
231.838	75.19
232.072	75.19
232.306	74.19
232.541	84.19
232.775	88.19
233.009	86.19
233.243	75.19
233.477	78.19
233.711	75.19
233.945	78.19
234.179	77.19
234.413	65.19
234.647	74.19
234.881	68.19
235.115	76.19
235.349	67.19
235.583	86.19
235.817	79.19
236.051	67.19
236.285	79.19
236.519	81.19
236.753	74.19
236.987	84.19
237.221	85.19
237.455	96.19
237.689	92.19
237.922	50.19
238.156	72.19
238.39	75.19
238.624	77.19
238.858	74.19
239.091	69.19
239.325	73.19
239.559	72.19
239.793	73.19
240.027	78.19
240.26	72.19
240.494	65.19
240.728	89.19
240.961	83.19
241.195	73.19
241.429	71.19
241.662	73.19
241.896	78.19
242.13	69.19
242.363	81.19
242.597	83.19
242.83	84.19
243.064	85.19
243.298	85.19
243.531	72.19
243.765	72.19
243.998	89.19
244.232	91.19
244.465	70.19
244.699	64.19
244.932	80.19
245.166	59.19
245.399	78.19
245.633	82.19
245.866	84.19
246.099	83.19
246.333	77.19
246.566	80.19
246.8	65.19
247.033	85.19
247.266	74.19
247.5	83.19
247.733	83.19
247.966	87.19
248.2	77.19
248.433	74.19
248.666	77.19
248.899	75.19
249.133	73.19
249.366	94.19
249.599	96.19
249.832	80.19
250.066	69.19
250.299	74.19
250.532	85.19
250.765	69.19
250.998	71.19
251.231	78.19
251.465	79.19
251.698	70.19
251.931	76.19
252.164	73.19
252.397	79.19
252.63	81.19
252.863	94.19
253.096	75.19
253.329	65.19
253.562	65.19
253.795	83.19
254.028	87.19
254.261	87.19
254.494	75.19
254.727	86.19
254.96	81.19
255.193	94.19
255.426	89.19
255.659	79.19
255.892	73.19
256.124	84.19
256.357	77.19
256.59	86.19
256.823	94.19
257.056	98.19
257.289	86.19
257.521	77.19
257.754	93.19
257.987	86.19
258.22	79.19
258.452	90.19
258.685	77.19
258.918	82.19
259.151	70.19
259.383	82.19
259.616	75.19
259.849	75.19
260.081	82.19
260.314	79.19
260.547	81.19
260.779	85.19
261.012	72.19
261.244	74.19
261.477	86.19
261.71	96.19
261.942	102.19
262.175	103.19
262.407	83.19
262.64	84.19
262.872	90.19
263.105	79.19
263.337	85.19
263.57	98.19
263.802	99.19
264.035	88.19
264.267	78.19
264.499	86.19
264.732	70.19
264.964	65.19
265.197	70.19
265.429	81.19
265.661	73.19
265.894	81.19
266.126	81.19
266.358	83.19
266.591	77.19
266.823	91.19
267.055	74.19
267.287	79.19
267.52	81.19
267.752	71.19
267.984	88.19
268.216	71.19
268.448	74.19
268.681	93.19
268.913	81.19
269.145	68.19
269.377	91.19
269.609	85.19
269.841	90.19
270.073	90.19
270.306	73.19
270.538	81.19
270.77	82.19
271.002	74.19
271.234	80.19
271.466	87.19
271.698	79.19
271.93	70.19
272.162	89.19
272.394	86.19
272.626	87.19
272.858	86.19
273.09	75.19
273.322	72.19
273.553	90.19
273.785	92.19
274.017	87.19
274.249	86.19
274.481	87.19
274.713	79.19
274.945	82.19
275.176	83.19
275.408	83.19
275.64	90.19
275.872	89.19
276.104	85.19
276.335	84.19
276.567	95.19
276.799	100.19
277.031	104.19
277.262	82.19
277.494	72.19
277.726	87.19
277.957	74.19
278.189	84.19
278.421	78.19
278.652	80.19
278.884	105.19
279.115	82.19
279.347	84.19
279.579	78.19
279.81	94.19
280.042	95.19
280.273	94.19
280.505	101.19
280.736	100.19
280.968	82.19
281.199	85.19
281.431	85.19
281.662	87.19
281.894	94.19
282.125	81.19
282.356	94.19
282.588	99.19
282.819	96.19
283.051	79.19
283.282	70.19
283.513	77.19
283.745	93.19
283.976	79.19
284.207	85.19
284.439	94.19
284.67	73.19
284.901	81.19
285.132	75.19
285.364	72.19
285.595	93.19
285.826	85.19
286.057	76.19
286.288	91.19
286.52	78.19
286.751	75.19
286.982	91.19
287.213	72.19
287.444	81.19
287.675	83.19
287.906	86.19
288.138	96.19
288.369	97.19
288.6	82.19
288.831	79.19
289.062	90.19
289.293	80.19
289.524	86.19
289.755	82.19
289.986	86.19
290.217	88.19
290.448	77.19
290.679	91.19
290.91	84.19
291.141	85.19
291.371	91.19
291.602	80.19
291.833	87.19
292.064	91.19
292.295	78.19
292.526	77.19
292.757	87.19
292.987	85.19
293.218	74.19
293.449	83.19
293.68	72.19
293.91	71.19
294.141	84.19
294.372	78.19
294.603	88.19
294.833	94.19
295.064	85.19
295.295	89.19
295.525	99.19
295.756	76.19
295.987	96.19
296.217	117.19
296.448	107.19
296.679	89.19
296.909	83.19
297.14	88.19
297.37	94.19
297.601	79.19
297.831	105.19
298.062	89.19
298.292	94.19
298.523	90.19
298.753	77.19
298.984	89.19
299.214	71.19
299.445	93.19
299.675	77.19
299.905	96.19
300.136	99.19
300.366	101.19
300.597	98.19
300.827	92.19
301.057	88.19
301.288	97.19
301.518	79.19
301.748	84.19
301.979	96.19
302.209	102.19
302.439	68.19
302.669	84.19
302.9	93.19
303.13	98.19
303.36	95.19
303.59	97.19
303.82	99.19
304.051	87.19
304.281	79.19
304.511	88.19
304.741	89.19
304.971	85.19
305.201	93.19
305.431	81.19
305.661	88.19
305.891	70.19
306.121	85.19
306.352	106.19
306.582	88.19
306.812	89.19
307.042	94.19
307.272	95.19
307.502	74.19
307.731	99.19
307.961	80.19
308.191	85.19
308.421	95.19
308.651	79.19
308.881	99.19
309.111	95.19
309.341	88.19
309.571	93.19
309.8	81.19
310.03	102.19
310.26	81.19
310.49	81.19
310.72	101.19
310.949	81.19
311.179	109.19
311.409	88.19
311.639	99.19
311.868	92.19
312.098	101.19
312.328	84.19
312.557	94.19
312.787	73.19
313.017	92.19
313.246	99.19
313.476	86.19
313.706	79.19
313.935	88.19
314.165	85.19
314.394	97.19
314.624	89.19
314.853	91.19
315.083	93.19
315.312	99.19
315.542	88.19
315.771	103.19
316.001	94.19
316.23	88.19
316.46	81.19
316.689	73.19
316.919	98.19
317.148	86.19
317.377	82.19
317.607	85.19
317.836	89.19
318.065	90.19
318.295	79.19
318.524	102.19
318.753	97.19
318.983	84.19
319.212	89.19
319.441	98.19
319.67	92.19
319.9	90.19
320.129	87.19
320.358	83.19
320.587	79.19
320.816	95.19
321.046	88.19
321.275	90.19
321.504	80.19
321.733	106.19
321.962	106.19
322.191	94.19
322.42	94.19
322.649	91.19
322.878	101.19
323.108	91.19
323.337	104.19
323.566	109.19
323.795	129.19
324.024	161.19
324.253	282.19
324.482	573.19
324.71	1179.19
324.939	1576.19
325.168	591.19
325.397	194.19
325.626	130.19
325.855	105.19
326.084	107.19
326.313	114.19
326.542	136.19
326.77	180.19
326.999	344.19
327.228	696.19
327.457	1209.19
327.686	944.19
327.914	304.19
328.143	164.19
328.372	127.19
328.6	107.19
328.829	101.19
329.058	105.19
329.287	107.19
329.515	92.19
329.744	103.19
329.972	95.19
330.201	127.19
330.43	157.19
330.658	119.19
330.887	135.19
331.115	98.19
331.344	94.19
331.572	95.19
331.801	93.19
332.03	104.19
332.258	98.19
332.486	82.19
332.715	89.19
332.943	88.19
333.172	82.19
333.4	94.19
333.629	94.19
333.857	104.19
334.085	106.19
334.314	121.19
334.542	174.19
334.771	153.19
334.999	114.19
335.227	87.19
335.455	92.19
335.684	104.19
335.912	89.19
336.14	94.19
336.369	88.19
336.597	91.19
336.825	89.19
337.053	88.19
337.281	86.19
337.51	90.19
337.738	85.19
337.966	83.19
338.194	89.19
338.422	89.19
338.65	88.19
338.878	95.19
339.106	89.19
339.334	94.19
339.562	72.19
339.79	82.19
340.018	83.19
340.246	105.19
340.474	97.19
340.702	104.19
340.93	91.19
341.158	88.19
341.386	82.19
341.614	81.19
341.842	88.19
342.07	82.19
342.298	79.19
342.526	90.19
342.754	83.19
342.981	87.19
343.209	83.19
343.437	81.19
343.665	85.19
343.893	79.19
344.12	100.19
344.348	91.19
344.576	98.19
344.804	95.19
345.031	101.19
345.259	91.19
345.487	92.19
345.714	81.19
345.942	93.19
346.17	73.19
346.397	96.19
346.625	87.19
346.853	90.19
347.08	92.19
347.308	89.19
347.535	84.19
347.763	94.19
347.99	102.19
348.218	101.19
348.445	98.19
348.673	96.19
348.9	89.19
349.128	89.19
349.355	100.19
349.583	106.19
349.81	84.19
350.037	95.19
350.265	92.19
350.492	103.19
350.72	88.19
350.947	101.19
351.174	111.19
351.402	114.19
351.629	89.19
351.856	77.19
352.083	98.19
352.311	100.19
352.538	94.19
352.765	100.19
352.992	92.19
353.22	112.19
353.447	94.19
353.674	87.19
353.901	85.19
354.128	88.19
354.355	81.19
354.583	99.19
354.81	109.19
355.037	90.19
355.264	96.19
355.491	89.19
355.718	80.19
355.945	79.19
356.172	91.19
356.399	91.19
356.626	86.19
356.853	89.19
357.08	85.19
357.307	99.19
357.534	86.19
357.761	95.19
357.988	99.19
358.215	97.19
358.441	91.19
358.668	91.19
358.895	88.19
359.122	97.19
359.349	90.19
359.576	97.19
359.802	90.19
360.029	100.19
360.256	90.19
360.483	107.19
360.709	89.19
360.936	90.19
361.163	106.19
361.39	88.19
361.616	96.19
361.843	88.19
362.07	98.19
362.296	88.19
362.523	88.19
362.749	80.19
362.976	77.19
363.203	93.19
363.429	84.19
363.656	94.19
363.882	87.19
364.109	91.19
364.335	98.19
364.562	101.19
364.788	98.19
365.015	97.19
365.241	92.19
365.468	91.19
365.694	101.19
365.92	93.19
366.147	95.19
366.373	80.19
366.599	76.19
366.826	103.19
367.052	97.19
367.278	83.19
367.505	92.19
367.731	77.19
367.957	87.19
368.184	82.19
368.41	94.19
368.636	105.19
368.862	104.19
369.089	96.19
369.315	87.19
369.541	91.19
369.767	79.19
369.993	80.19
370.219	94.19
370.445	106.19
370.672	84.19
370.898	92.19
371.124	89.19
371.35	78.19
371.576	103.19
371.802	71.19
372.028	78.19
372.254	77.19
372.48	90.19
372.706	84.19
372.932	75.19
373.158	92.19
373.384	86.19
373.61	95.19
373.835	89.19
374.061	74.19
374.287	91.19
374.513	83.19
374.739	86.19
374.965	87.19
375.191	90.19
375.416	90.19
375.642	86.19
375.868	90.19
376.094	73.19
376.319	89.19
376.545	96.19
376.771	75.19
376.997	89.19
377.222	89.19
377.448	86.19
377.674	86.19
377.899	98.19
378.125	89.19
378.35	95.19
378.576	82.19
378.802	85.19
379.027	94.19
379.253	79.19
379.478	96.19
379.704	90.19
379.929	98.19
380.155	88.19
380.38	88.19
380.606	102.19
380.831	94.19
381.057	113.19
381.282	88.19
381.507	89.19
381.733	78.19
381.958	93.19
382.184	100.19
382.409	81.19
382.634	107.19
382.86	102.19
383.085	109.19
383.31	85.19
383.535	91.19
383.761	99.19
383.986	90.19
384.211	93.19
384.436	101.19
384.662	106.19
384.887	101.19
385.112	115.19
385.337	121.19
385.562	94.19
385.787	122.19
386.013	118.19
386.238	103.19
386.463	93.19
386.688	107.19
386.913	95.19
387.138	125.19
387.363	97.19
387.588	86.19
387.813	104.19
388.038	100.19
388.263	116.19
388.488	111.19
388.713	102.19
388.938	94.19
389.163	93.19
389.387	101.19
389.612	97.19
389.837	91.19
390.062	90.19
390.287	93.19
390.512	87.19
390.736	86.19
390.961	78.19
391.186	95.19
391.411	84.19
391.636	90.19
391.86	86.19
392.085	86.19
392.31	83.19
392.534	83.19
392.759	97.19
392.984	107.19
393.208	90.19
393.433	112.19
393.658	98.19
393.882	80.19
394.107	87.19
394.331	81.19
394.556	78.19
394.78	86.19
395.005	88.19
395.229	83.19
395.454	96.19
395.678	83.19
395.903	82.19
396.127	94.19
396.352	95.19
396.576	91.19
396.801	100.19
397.025	99.19
397.249	86.19
397.474	89.19
397.698	78.19
397.922	79.19
398.147	84.19
398.371	81.19
398.595	85.19
398.82	77.19
399.044	78.19
399.268	86.19
399.492	78.19
399.717	89.19
399.941	78.19
400.165	97.19
400.389	79.19
400.613	81.19
400.837	87.19
401.062	82.19
401.286	80.19
401.51	78.19
401.734	87.19
401.958	107.19
402.182	117.19
402.406	139.19
402.63	103.19
402.854	80.19
403.078	73.19
403.302	85.19
403.526	75.19
403.75	89.19
403.974	78.19
404.198	82.19
404.422	93.19
404.645	87.19
404.869	72.19
405.093	86.19
405.317	95.19
405.541	94.19
405.765	94.19
405.988	106.19
406.212	155.19
406.436	181.19
406.66	130.19
406.883	81.19
407.107	87.19
407.331	88.19
407.555	87.19
407.778	97.19
408.002	81.19
408.226	91.19
408.449	73.19
408.673	74.19
408.896	90.19
409.12	105.19
409.344	82.19
409.567	87.19
409.791	99.19
410.014	74.19
410.238	79.19
410.461	86.19
410.685	93.19
410.908	81.19
411.132	101.19
411.355	93.19
411.578	92.19
411.802	79.19
412.025	58.19
412.249	89.19
412.472	84.19
412.695	105.19
412.919	80.19
413.142	96.19
413.365	73.19
413.589	90.19
413.812	79.19
414.035	90.19
414.258	76.19
414.482	97.19
414.705	81.19
414.928	77.19
415.151	77.19
415.374	87.19
415.597	93.19
415.821	104.19
416.044	101.19
416.267	96.19
416.49	93.19
416.713	88.19
416.936	82.19
417.159	86.19
417.382	92.19
417.605	79.19
417.828	106.19
418.051	104.19
418.274	73.19
418.497	90.19
418.72	79.19
418.943	88.19
419.166	81.19
419.389	82.19
419.611	88.19
419.834	90.19
420.057	95.19
420.28	75.19
420.503	87.19
420.726	81.19
420.948	88.19
421.171	83.19
421.394	85.19
421.617	84.19
421.839	89.19
422.062	85.19
422.285	95.19
422.507	96.19
422.73	113.19
422.953	97.19
423.175	93.19
423.398	77.19
423.621	90.19
423.843	82.19
424.066	78.19
424.288	89.19
424.511	96.19
424.733	89.19
424.956	90.19
425.178	88.19
425.401	94.19
425.623	98.19
425.846	87.19
426.068	95.19
426.291	91.19
426.513	86.19
426.735	83.19
426.958	105.19
427.18	84.19
427.402	107.19
427.625	143.19
427.847	113.19
428.069	111.19
428.292	85.19
428.514	88.19
428.736	98.19
428.958	70.19
429.181	79.19
429.403	86.19
429.625	83.19
429.847	97.19
430.069	96.19
430.292	93.19
430.514	67.19
430.736	76.19
430.958	82.19
431.18	95.19
431.402	97.19
431.624	79.19
431.846	83.19
432.068	91.19
432.29	90.19
432.512	83.19
432.734	75.19
432.956	59.19
433.178	82.19
433.4	103.19
433.622	86.19
433.844	96.19
434.066	83.19
434.287	82.19
434.509	89.19
434.731	88.19
434.953	86.19
435.175	93.19
435.397	107.19
435.618	97.19
435.84	90.19
436.062	103.19
436.284	107.19
436.505	102.19
436.727	89.19
436.949	79.19
437.17	81.19
437.392	95.19
437.614	93.19
437.835	78.19
438.057	112.19
438.278	110.19
438.5	75.19
438.721	101.19
438.943	97.19
439.165	86.19
439.386	84.19
439.608	85.19
439.829	90.19
440.05	109.19
440.272	115.19
440.493	95.19
440.715	98.19
440.936	82.19
441.158	104.19
441.379	79.19
441.6	75.19
441.822	89.19
442.043	89.19
442.264	84.19
442.486	95.19
442.707	85.19
442.928	106.19
443.149	113.19
443.371	104.19
443.592	104.19
443.813	97.19
444.034	91.19
444.255	84.19
444.476	81.19
444.698	74.19
444.919	92.19
445.14	120.19
445.361	122.19
445.582	102.19
445.803	100.19
446.024	114.19
446.245	117.19
446.466	101.19
446.687	101.19
446.908	82.19
447.129	91.19
447.35	81.19
447.571	92.19
447.792	90.19
448.013	87.19
448.234	85.19
448.455	98.19
448.675	99.19
448.896	103.19
449.117	103.19
449.338	103.19
449.559	119.19
449.779	121.19
450	87.19
450.221	88.19
450.442	96.19
450.662	83.19
450.883	90.19
451.104	91.19
451.324	87.19
451.545	82.19
451.766	101.19
451.986	85.19
452.207	89.19
452.428	88.19
452.648	93.19
452.869	96.19
453.089	102.19
453.31	103.19
453.53	88.19
453.751	100.19
453.971	96.19
454.192	88.19
454.412	67.19
454.633	83.19
454.853	89.19
455.073	73.19
455.294	90.19
455.514	97.19
455.734	82.19
455.955	83.19
456.175	72.19
456.395	73.19
456.616	84.19
456.836	89.19
457.056	93.19
457.276	74.19
457.497	77.19
457.717	78.19
457.937	84.19
458.157	96.19
458.377	85.19
458.598	88.19
458.818	111.19
459.038	108.19
459.258	101.19
459.478	89.19
459.698	80.19
459.918	85.19
460.138	80.19
460.358	87.19
460.578	94.19
460.798	95.19
461.018	92.19
461.238	70.19
461.458	85.19
461.678	94.19
461.898	87.19
462.118	98.19
462.338	88.19
462.558	86.19
462.777	83.19
462.997	83.19
463.217	83.19
463.437	83.19
463.657	80.19
463.876	78.19
464.096	87.19
464.316	70.19
464.536	87.19
464.755	95.19
464.975	87.19
465.195	111.19
465.414	133.19
465.634	102.19
465.854	97.19
466.073	84.19
466.293	86.19
466.512	80.19
466.732	82.19
466.951	96.19
467.171	80.19
467.391	111.19
467.61	93.19
467.829	74.19
468.049	100.19
468.268	118.19
468.488	93.19
468.707	90.19
468.927	99.19
469.146	93.19
469.365	83.19
469.585	99.19
469.804	76.19
470.023	99.19
470.243	109.19
470.462	97.19
470.681	110.19
470.901	95.19
471.12	95.19
471.339	93.19
471.558	82.19
471.777	99.19
471.997	96.19
472.216	116.19
472.435	175.19
472.654	110.19
472.873	83.19
473.092	96.19
473.311	93.19
473.53	80.19
473.749	93.19
473.968	90.19
474.187	93.19
474.406	82.19
474.625	81.19
474.844	77.19
475.063	87.19
475.282	95.19
475.501	83.19
475.72	73.19
475.939	74.19
476.158	73.19
476.377	73.19
476.596	87.19
476.814	89.19
477.033	89.19
477.252	92.19
477.471	83.19
477.69	77.19
477.908	85.19
478.127	98.19
478.346	89.19
478.564	91.19
478.783	91.19
479.002	82.19
479.22	82.19
479.439	88.19
479.658	90.19
479.876	92.19
480.095	85.19
480.313	106.19
480.532	90.19
480.751	98.19
480.969	130.19
481.188	249.19
481.406	189.19
481.624	92.19
481.843	88.19
482.061	84.19
482.28	89.19
482.498	85.19
482.717	90.19
482.935	90.19
483.153	86.19
483.372	95.19
483.59	75.19
483.808	85.19
484.027	85.19
484.245	94.19
484.463	84.19
484.681	98.19
484.9	100.19
485.118	89.19
485.336	85.19
485.554	86.19
485.772	101.19
485.99	95.19
486.209	95.19
486.427	92.19
486.645	95.19
486.863	101.19
487.081	101.19
487.299	83.19
487.517	90.19
487.735	73.19
487.953	99.19
488.171	86.19
488.389	89.19
488.607	105.19
488.825	84.19
489.043	75.19
489.261	95.19
489.479	82.19
489.696	87.19
489.914	98.19
490.132	100.19
490.35	85.19
490.568	84.19
490.786	83.19
491.003	70.19
491.221	93.19
491.439	103.19
491.657	88.19
491.874	82.19
492.092	91.19
492.31	99.19
492.527	88.19
492.745	104.19
492.963	77.19
493.18	85.19
493.398	96.19
493.615	100.19
493.833	102.19
494.05	78.19
494.268	97.19
494.485	80.19
494.703	98.19
494.92	92.19
495.138	88.19
495.355	107.19
495.573	86.19
495.79	95.19
496.008	90.19
496.225	95.19
496.442	90.19
496.66	90.19
496.877	90.19
497.094	87.19
497.312	79.19
497.529	101.19
497.746	83.19
497.963	79.19
498.181	93.19
498.398	84.19
498.615	93.19
498.832	105.19
499.049	88.19
499.267	88.19
499.484	90.19
499.701	82.19
499.918	74.19
500.135	100.19
500.352	99.19
500.569	74.19
500.786	75.19
501.003	97.19
501.22	85.19
501.437	71.19
501.654	74.19
501.871	110.19
502.088	94.19
502.305	86.19
502.522	79.19
502.739	88.19
502.956	89.19
503.172	93.19
503.389	85.19
503.606	80.19
503.823	90.19
504.04	93.19
504.256	82.19
504.473	80.19
504.69	94.19
504.907	90.19
505.123	92.19
505.34	89.19
505.557	101.19
505.773	79.19
505.99	87.19
506.207	90.19
506.423	97.19
506.64	84.19
506.856	93.19
507.073	85.19
507.289	72.19
507.506	77.19
507.722	96.19
507.939	93.19
508.155	102.19
508.372	82.19
508.588	92.19
508.805	94.19
509.021	88.19
509.238	95.19
509.454	95.19
509.67	88.19
509.887	97.19
510.103	122.19
510.319	175.19
510.536	569.19
510.752	1721.19
510.968	499.19
511.184	122.19
511.401	95.19
511.617	87.19
511.833	84.19
512.049	79.19
512.265	82.19
512.481	88.19
512.698	88.19
512.914	102.19
513.13	89.19
513.346	85.19
513.562	87.19
513.778	80.19
513.994	101.19
514.21	107.19
514.426	97.19
514.642	108.19
514.858	109.19
515.074	125.19
515.29	313.19
515.506	975.19
515.721	358.19
515.937	119.19
516.153	110.19
516.369	89.19
516.585	87.19
516.801	88.19
517.016	101.19
