Data from Circ_1984_H10_HRD10591_00076.txt Node
Date: Wed Jan 03 12:22:57 EST 2024
User: Yrep
Spectrometer: HR+D1059
Trigger mode: 1
Integration Time (sec): 1.000000E-1
Scans to average: 1
Electric dark correction enabled: true
Nonlinearity correction enabled: false
Boxcar width: 0
XAxis mode: Wavelengths
Number of Pixels in Spectrum: 2048
>>>>>Begin Spectral Data<<<<<
223.165	-20.5
223.4	-20.5
223.635	-20.5
223.869	-17.5
224.104	-21.5
224.338	-13.5
224.573	-26.5
224.808	-14.5
225.042	-12.5
225.277	-1.5
225.511	-7.5
225.746	9.5
225.98	8.5
226.215	6.5
226.449	15.5
226.683	28.5
226.918	27.5
227.152	39.5
227.387	35.5
227.621	37.5
227.856	35.5
228.09	41.5
228.324	49.5
228.559	40.5
228.793	58.5
229.027	53.5
229.262	69.5
229.496	67.5
229.73	74.5
229.964	69.5
230.199	64.5
230.433	59.5
230.667	62.5
230.901	76.5
231.136	66.5
231.37	78.5
231.604	62.5
231.838	90.5
232.072	84.5
232.306	66.5
232.541	77.5
232.775	80.5
233.009	66.5
233.243	74.5
233.477	86.5
233.711	76.5
233.945	76.5
234.179	66.5
234.413	63.5
234.647	79.5
234.881	77.5
235.115	83.5
235.349	74.5
235.583	82.5
235.817	73.5
236.051	96.5
236.285	75.5
236.519	76.5
236.753	64.5
236.987	80.5
237.221	68.5
237.455	68.5
237.689	79.5
237.922	57.5
238.156	70.5
238.39	75.5
238.624	64.5
238.858	72.5
239.091	65.5
239.325	63.5
239.559	63.5
239.793	70.5
240.027	77.5
240.26	84.5
240.494	89.5
240.728	64.5
240.961	71.5
241.195	58.5
241.429	68.5
241.662	79.5
241.896	67.5
242.13	55.5
242.363	61.5
242.597	74.5
242.83	84.5
243.064	75.5
243.298	80.5
243.531	68.5
243.765	76.5
243.998	79.5
244.232	70.5
244.465	63.5
244.699	82.5
244.932	79.5
245.166	77.5
245.399	76.5
245.633	77.5
245.866	79.5
246.099	70.5
246.333	59.5
246.566	69.5
246.8	68.5
247.033	89.5
247.266	77.5
247.5	89.5
247.733	86.5
247.966	79.5
248.2	84.5
248.433	71.5
248.666	80.5
248.899	78.5
249.133	72.5
249.366	90.5
249.599	81.5
249.832	60.5
250.066	71.5
250.299	86.5
250.532	82.5
250.765	76.5
250.998	72.5
251.231	87.5
251.465	62.5
251.698	70.5
251.931	79.5
252.164	77.5
252.397	64.5
252.63	70.5
252.863	82.5
253.096	78.5
253.329	60.5
253.562	75.5
253.795	79.5
254.028	71.5
254.261	85.5
254.494	76.5
254.727	74.5
254.96	90.5
255.193	67.5
255.426	83.5
255.659	76.5
255.892	95.5
256.124	70.5
256.357	82.5
256.59	67.5
256.823	72.5
257.056	85.5
257.289	74.5
257.521	74.5
257.754	58.5
257.987	96.5
258.22	83.5
258.452	75.5
258.685	76.5
258.918	74.5
259.151	76.5
259.383	76.5
259.616	70.5
259.849	74.5
260.081	94.5
260.314	78.5
260.547	79.5
260.779	87.5
261.012	99.5
261.244	87.5
261.477	97.5
261.71	90.5
261.942	101.5
262.175	98.5
262.407	67.5
262.64	79.5
262.872	85.5
263.105	76.5
263.337	83.5
263.57	79.5
263.802	87.5
264.035	59.5
264.267	74.5
264.499	76.5
264.732	80.5
264.964	75.5
265.197	75.5
265.429	90.5
265.661	85.5
265.894	88.5
266.126	76.5
266.358	60.5
266.591	79.5
266.823	83.5
267.055	60.5
267.287	81.5
267.52	79.5
267.752	96.5
267.984	66.5
268.216	76.5
268.448	85.5
268.681	72.5
268.913	83.5
269.145	78.5
269.377	79.5
269.609	67.5
269.841	78.5
270.073	80.5
270.306	76.5
270.538	86.5
270.77	84.5
271.002	77.5
271.234	70.5
271.466	90.5
271.698	65.5
271.93	76.5
272.162	93.5
272.394	88.5
272.626	71.5
272.858	81.5
273.09	66.5
273.322	94.5
273.553	84.5
273.785	78.5
274.017	80.5
274.249	81.5
274.481	74.5
274.713	78.5
274.945	80.5
275.176	76.5
275.408	79.5
275.64	83.5
275.872	82.5
276.104	87.5
276.335	75.5
276.567	83.5
276.799	99.5
277.031	95.5
277.262	109.5
277.494	99.5
277.726	86.5
277.957	78.5
278.189	79.5
278.421	93.5
278.652	76.5
278.884	90.5
279.115	88.5
279.347	91.5
279.579	86.5
279.81	84.5
280.042	101.5
280.273	103.5
280.505	96.5
280.736	83.5
280.968	98.5
281.199	84.5
281.431	87.5
281.662	88.5
281.894	90.5
282.125	86.5
282.356	113.5
282.588	128.5
282.819	88.5
283.051	82.5
283.282	91.5
283.513	89.5
283.745	74.5
283.976	86.5
284.207	85.5
284.439	79.5
284.67	78.5
284.901	85.5
285.132	78.5
285.364	94.5
285.595	91.5
285.826	75.5
286.057	87.5
286.288	83.5
286.52	80.5
286.751	68.5
286.982	84.5
287.213	95.5
287.444	88.5
287.675	79.5
287.906	89.5
288.138	89.5
288.369	94.5
288.6	86.5
288.831	81.5
289.062	78.5
289.293	91.5
289.524	78.5
289.755	78.5
289.986	80.5
290.217	80.5
290.448	74.5
290.679	82.5
290.91	81.5
291.141	82.5
291.371	79.5
291.602	94.5
291.833	85.5
292.064	86.5
292.295	84.5
292.526	82.5
292.757	77.5
292.987	84.5
293.218	76.5
293.449	80.5
293.68	62.5
293.91	85.5
294.141	84.5
294.372	71.5
294.603	88.5
294.833	97.5
295.064	97.5
295.295	76.5
295.525	82.5
295.756	90.5
295.987	104.5
296.217	119.5
296.448	103.5
296.679	81.5
296.909	83.5
297.14	81.5
297.37	90.5
297.601	91.5
297.831	78.5
298.062	88.5
298.292	93.5
298.523	81.5
298.753	84.5
298.984	85.5
299.214	87.5
299.445	87.5
299.675	92.5
299.905	102.5
300.136	89.5
300.366	85.5
300.597	68.5
300.827	95.5
301.057	82.5
301.288	87.5
301.518	90.5
301.748	88.5
301.979	98.5
302.209	81.5
302.439	90.5
302.669	79.5
302.9	87.5
303.13	91.5
303.36	95.5
303.59	91.5
303.82	93.5
304.051	110.5
304.281	79.5
304.511	79.5
304.741	71.5
304.971	78.5
305.201	90.5
305.431	95.5
305.661	84.5
305.891	81.5
306.121	77.5
306.352	87.5
306.582	94.5
306.812	80.5
307.042	101.5
307.272	103.5
307.502	100.5
307.731	96.5
307.961	87.5
308.191	76.5
308.421	92.5
308.651	91.5
308.881	70.5
309.111	81.5
309.341	88.5
309.571	98.5
309.8	87.5
310.03	81.5
310.26	100.5
310.49	98.5
310.72	87.5
310.949	82.5
311.179	88.5
311.409	88.5
311.639	83.5
311.868	90.5
312.098	97.5
312.328	87.5
312.557	84.5
312.787	94.5
313.017	95.5
313.246	76.5
313.476	84.5
313.706	89.5
313.935	78.5
314.165	96.5
314.394	88.5
314.624	86.5
314.853	87.5
315.083	68.5
315.312	83.5
315.542	94.5
315.771	91.5
316.001	94.5
316.23	81.5
316.46	84.5
316.689	94.5
316.919	86.5
317.148	83.5
317.377	90.5
317.607	90.5
317.836	83.5
318.065	90.5
318.295	81.5
318.524	90.5
318.753	84.5
318.983	76.5
319.212	94.5
319.441	91.5
319.67	99.5
319.9	80.5
320.129	83.5
320.358	83.5
320.587	77.5
320.816	82.5
321.046	90.5
321.275	96.5
321.504	90.5
321.733	93.5
321.962	96.5
322.191	96.5
322.42	98.5
322.649	109.5
322.878	96.5
323.108	103.5
323.337	118.5
323.566	123.5
323.795	141.5
324.024	168.5
324.253	332.5
324.482	712.5
324.71	1398.5
324.939	1904.5
325.168	711.5
325.397	211.5
325.626	153.5
325.855	121.5
326.084	108.5
326.313	110.5
326.542	152.5
326.77	201.5
326.999	352.5
327.228	785.5
327.457	1457.5
327.686	1158.5
327.914	343.5
328.143	206.5
328.372	201.5
328.6	126.5
328.829	102.5
329.058	119.5
329.287	115.5
329.515	122.5
329.744	112.5
329.972	160.5
330.201	242.5
330.43	324.5
330.658	183.5
330.887	115.5
331.115	101.5
331.344	102.5
331.572	86.5
331.801	96.5
332.03	92.5
332.258	86.5
332.486	85.5
332.715	95.5
332.943	98.5
333.172	104.5
333.4	111.5
333.629	100.5
333.857	124.5
334.085	157.5
334.314	242.5
334.542	396.5
334.771	375.5
334.999	141.5
335.227	103.5
335.455	97.5
335.684	87.5
335.912	82.5
336.14	104.5
336.369	104.5
336.597	93.5
336.825	109.5
337.053	87.5
337.281	89.5
337.51	78.5
337.738	83.5
337.966	89.5
338.194	87.5
338.422	94.5
338.65	76.5
338.878	79.5
339.106	82.5
339.334	99.5
339.562	95.5
339.79	91.5
340.018	78.5
340.246	87.5
340.474	88.5
340.702	77.5
340.93	90.5
341.158	92.5
341.386	71.5
341.614	81.5
341.842	96.5
342.07	85.5
342.298	74.5
342.526	77.5
342.754	76.5
342.981	78.5
343.209	87.5
343.437	109.5
343.665	85.5
343.893	89.5
344.12	89.5
344.348	75.5
344.576	80.5
344.804	80.5
345.031	78.5
345.259	83.5
345.487	98.5
345.714	82.5
345.942	100.5
346.17	90.5
346.397	85.5
346.625	82.5
346.853	81.5
347.08	83.5
347.308	78.5
347.535	98.5
347.763	93.5
347.99	87.5
348.218	100.5
348.445	95.5
348.673	98.5
348.9	88.5
349.128	78.5
349.355	83.5
349.583	83.5
349.81	86.5
350.037	80.5
350.265	91.5
350.492	92.5
350.72	96.5
350.947	98.5
351.174	77.5
351.402	93.5
351.629	89.5
351.856	108.5
352.083	94.5
352.311	96.5
352.538	92.5
352.765	102.5
352.992	90.5
353.22	107.5
353.447	85.5
353.674	96.5
353.901	90.5
354.128	80.5
354.355	88.5
354.583	93.5
354.81	84.5
355.037	107.5
355.264	91.5
355.491	91.5
355.718	99.5
355.945	98.5
356.172	72.5
356.399	81.5
356.626	82.5
356.853	96.5
357.08	84.5
357.307	88.5
357.534	86.5
357.761	81.5
357.988	102.5
358.215	80.5
358.441	90.5
358.668	63.5
358.895	81.5
359.122	71.5
359.349	70.5
359.576	81.5
359.802	82.5
360.029	104.5
360.256	102.5
360.483	84.5
360.709	74.5
360.936	91.5
361.163	102.5
361.39	91.5
361.616	74.5
361.843	88.5
362.07	83.5
362.296	103.5
362.523	96.5
362.749	83.5
362.976	87.5
363.203	76.5
363.429	96.5
363.656	83.5
363.882	92.5
364.109	87.5
364.335	90.5
364.562	76.5
364.788	71.5
365.015	85.5
365.241	85.5
365.468	92.5
365.694	92.5
365.92	101.5
366.147	90.5
366.373	76.5
366.599	74.5
366.826	90.5
367.052	96.5
367.278	90.5
367.505	82.5
367.731	87.5
367.957	72.5
368.184	91.5
368.41	90.5
368.636	92.5
368.862	94.5
369.089	106.5
369.315	86.5
369.541	86.5
369.767	79.5
369.993	76.5
370.219	94.5
370.445	79.5
370.672	78.5
370.898	79.5
371.124	79.5
371.35	78.5
371.576	83.5
371.802	94.5
372.028	87.5
372.254	87.5
372.48	78.5
372.706	75.5
372.932	82.5
373.158	86.5
373.384	83.5
373.61	103.5
373.835	84.5
374.061	66.5
374.287	70.5
374.513	80.5
374.739	79.5
374.965	82.5
375.191	82.5
375.416	88.5
375.642	75.5
375.868	78.5
376.094	80.5
376.319	92.5
376.545	90.5
376.771	91.5
376.997	88.5
377.222	90.5
377.448	83.5
377.674	91.5
377.899	75.5
378.125	90.5
378.35	89.5
378.576	71.5
378.802	88.5
379.027	86.5
379.253	90.5
379.478	80.5
379.704	87.5
379.929	83.5
380.155	86.5
380.38	83.5
380.606	91.5
380.831	98.5
381.057	95.5
381.282	105.5
381.507	82.5
381.733	98.5
381.958	83.5
382.184	92.5
382.409	92.5
382.634	83.5
382.86	78.5
383.085	96.5
383.31	103.5
383.535	97.5
383.761	98.5
383.986	86.5
384.211	69.5
384.436	86.5
384.662	90.5
384.887	78.5
385.112	87.5
385.337	91.5
385.562	108.5
385.787	103.5
386.013	97.5
386.238	100.5
386.463	93.5
386.688	99.5
386.913	81.5
387.138	83.5
387.363	94.5
387.588	90.5
387.813	106.5
388.038	84.5
388.263	93.5
388.488	102.5
388.713	89.5
388.938	76.5
389.163	85.5
389.387	92.5
389.612	92.5
389.837	82.5
390.062	90.5
390.287	72.5
390.512	68.5
390.736	83.5
390.961	80.5
391.186	103.5
391.411	90.5
391.636	82.5
391.86	71.5
392.085	100.5
392.31	84.5
392.534	63.5
392.759	83.5
392.984	87.5
393.208	93.5
393.433	104.5
393.658	87.5
393.882	80.5
394.107	71.5
394.331	71.5
394.556	89.5
394.78	81.5
395.005	74.5
395.229	76.5
395.454	86.5
395.678	63.5
395.903	76.5
396.127	104.5
396.352	98.5
396.576	86.5
396.801	103.5
397.025	87.5
397.249	74.5
397.474	70.5
397.698	87.5
397.922	90.5
398.147	68.5
398.371	70.5
398.595	69.5
398.82	78.5
399.044	81.5
399.268	74.5
399.492	85.5
399.717	78.5
399.941	87.5
400.165	82.5
400.389	95.5
400.613	83.5
400.837	68.5
401.062	85.5
401.286	81.5
401.51	71.5
401.734	83.5
401.958	92.5
402.182	116.5
402.406	132.5
402.63	138.5
402.854	95.5
403.078	89.5
403.302	84.5
403.526	76.5
403.75	87.5
403.974	94.5
404.198	84.5
404.422	103.5
404.645	78.5
404.869	95.5
405.093	110.5
405.317	102.5
405.541	88.5
405.765	93.5
405.988	112.5
406.212	138.5
406.436	184.5
406.66	117.5
406.883	81.5
407.107	90.5
407.331	81.5
407.555	89.5
407.778	77.5
408.002	72.5
408.226	86.5
408.449	79.5
408.673	81.5
408.896	83.5
409.12	89.5
409.344	78.5
409.567	88.5
409.791	83.5
410.014	98.5
410.238	92.5
410.461	92.5
410.685	65.5
410.908	88.5
411.132	103.5
411.355	87.5
411.578	84.5
411.802	88.5
412.025	86.5
412.249	72.5
412.472	78.5
412.695	94.5
412.919	98.5
413.142	91.5
413.365	81.5
413.589	84.5
413.812	83.5
414.035	87.5
414.258	77.5
414.482	70.5
414.705	74.5
414.928	70.5
415.151	86.5
415.374	83.5
415.597	91.5
415.821	84.5
416.044	77.5
416.267	84.5
416.49	84.5
416.713	80.5
416.936	83.5
417.159	91.5
417.382	78.5
417.605	79.5
417.828	80.5
418.051	84.5
418.274	74.5
418.497	69.5
418.72	70.5
418.943	97.5
419.166	78.5
419.389	59.5
419.611	80.5
419.834	84.5
420.057	80.5
420.28	83.5
420.503	79.5
420.726	75.5
420.948	84.5
421.171	84.5
421.394	85.5
421.617	79.5
421.839	89.5
422.062	66.5
422.285	86.5
422.507	94.5
422.73	98.5
422.953	91.5
423.175	93.5
423.398	93.5
423.621	93.5
423.843	79.5
424.066	71.5
424.288	76.5
424.511	86.5
424.733	86.5
424.956	107.5
425.178	99.5
425.401	100.5
425.623	107.5
425.846	78.5
426.068	71.5
426.291	90.5
426.513	80.5
426.735	79.5
426.958	94.5
427.18	115.5
427.402	138.5
427.625	162.5
427.847	126.5
428.069	128.5
428.292	99.5
428.514	102.5
428.736	74.5
428.958	69.5
429.181	80.5
429.403	86.5
429.625	96.5
429.847	83.5
430.069	86.5
430.292	68.5
430.514	68.5
430.736	86.5
430.958	78.5
431.18	82.5
431.402	84.5
431.624	85.5
431.846	70.5
432.068	84.5
432.29	73.5
432.512	74.5
432.734	74.5
432.956	94.5
433.178	97.5
433.4	83.5
433.622	79.5
433.844	91.5
434.066	98.5
434.287	84.5
434.509	75.5
434.731	75.5
434.953	84.5
435.175	81.5
435.397	88.5
435.618	101.5
435.84	90.5
436.062	100.5
436.284	92.5
436.505	93.5
436.727	90.5
436.949	78.5
437.17	88.5
437.392	89.5
437.614	74.5
437.835	99.5
438.057	104.5
438.278	99.5
438.5	81.5
438.721	104.5
438.943	102.5
439.165	70.5
439.386	89.5
439.608	88.5
439.829	100.5
440.05	110.5
440.272	130.5
440.493	92.5
440.715	78.5
440.936	85.5
441.158	77.5
441.379	88.5
441.6	102.5
441.822	88.5
442.043	97.5
442.264	91.5
442.486	97.5
442.707	88.5
442.928	87.5
443.149	104.5
443.371	110.5
443.592	88.5
443.813	114.5
444.034	106.5
444.255	86.5
444.476	77.5
444.698	81.5
444.919	87.5
445.14	140.5
445.361	119.5
445.582	107.5
445.803	108.5
446.024	125.5
446.245	124.5
446.466	94.5
446.687	93.5
446.908	77.5
447.129	76.5
447.35	80.5
447.571	93.5
447.792	80.5
448.013	98.5
448.234	90.5
448.455	96.5
448.675	96.5
448.896	103.5
449.117	86.5
449.338	88.5
449.559	110.5
449.779	111.5
450	92.5
450.221	98.5
450.442	90.5
450.662	89.5
450.883	77.5
451.104	99.5
451.324	82.5
451.545	77.5
451.766	77.5
451.986	87.5
452.207	68.5
452.428	65.5
452.648	89.5
452.869	103.5
453.089	97.5
453.31	106.5
453.53	95.5
453.751	74.5
453.971	95.5
454.192	101.5
454.412	90.5
454.633	87.5
454.853	71.5
455.073	86.5
455.294	86.5
455.514	103.5
455.734	86.5
455.955	90.5
456.175	89.5
456.395	74.5
456.616	76.5
456.836	89.5
457.056	81.5
457.276	74.5
457.497	63.5
457.717	78.5
457.937	89.5
458.157	81.5
458.377	87.5
458.598	95.5
458.818	121.5
459.038	132.5
459.258	115.5
459.478	76.5
459.698	85.5
459.918	89.5
460.138	89.5
460.358	72.5
460.578	64.5
460.798	85.5
461.018	82.5
461.238	81.5
461.458	82.5
461.678	98.5
461.898	86.5
462.118	66.5
462.338	76.5
462.558	85.5
462.777	77.5
462.997	90.5
463.217	78.5
463.437	81.5
463.657	75.5
463.876	89.5
464.096	90.5
464.316	85.5
464.536	92.5
464.755	90.5
464.975	76.5
465.195	143.5
465.414	142.5
465.634	82.5
465.854	75.5
466.073	79.5
466.293	102.5
466.512	85.5
466.732	84.5
466.951	68.5
467.171	94.5
467.391	94.5
467.61	101.5
467.829	110.5
468.049	166.5
468.268	212.5
468.488	101.5
468.707	75.5
468.927	93.5
469.146	84.5
469.365	71.5
469.585	83.5
469.804	86.5
470.023	105.5
470.243	88.5
470.462	96.5
470.681	107.5
470.901	77.5
471.12	85.5
471.339	80.5
471.558	72.5
471.777	92.5
471.997	119.5
472.216	255.5
472.435	516.5
472.654	169.5
472.873	90.5
473.092	84.5
473.311	98.5
473.53	70.5
473.749	64.5
473.968	93.5
474.187	90.5
474.406	83.5
474.625	86.5
474.844	78.5
475.063	49.5
475.282	101.5
475.501	82.5
475.72	87.5
475.939	82.5
476.158	77.5
476.377	82.5
476.596	88.5
476.814	91.5
477.033	96.5
477.252	80.5
477.471	90.5
477.69	82.5
477.908	60.5
478.127	77.5
478.346	95.5
478.564	94.5
478.783	91.5
479.002	76.5
479.22	79.5
479.439	86.5
479.658	93.5
479.876	93.5
480.095	84.5
480.313	101.5
480.532	83.5
480.751	119.5
480.969	270.5
481.188	869.5
481.406	515.5
481.624	127.5
481.843	87.5
482.061	93.5
482.28	82.5
482.498	93.5
482.717	85.5
482.935	79.5
483.153	80.5
483.372	83.5
483.59	96.5
483.808	87.5
484.027	94.5
484.245	81.5
484.463	91.5
484.681	87.5
484.9	86.5
485.118	83.5
485.336	86.5
485.554	85.5
485.772	97.5
485.99	100.5
486.209	100.5
486.427	88.5
486.645	110.5
486.863	90.5
487.081	89.5
487.299	102.5
487.517	96.5
487.735	76.5
487.953	87.5
488.171	98.5
488.389	88.5
488.607	101.5
488.825	75.5
489.043	94.5
489.261	80.5
489.479	81.5
489.696	84.5
489.914	71.5
490.132	70.5
490.35	85.5
490.568	86.5
490.786	90.5
491.003	90.5
491.221	87.5
491.439	88.5
491.657	89.5
491.874	80.5
492.092	90.5
492.31	77.5
492.527	77.5
492.745	88.5
492.963	83.5
493.18	96.5
493.398	101.5
493.615	78.5
493.833	79.5
494.05	83.5
494.268	90.5
494.485	75.5
494.703	99.5
494.92	94.5
495.138	83.5
495.355	87.5
495.573	94.5
495.79	84.5
496.008	76.5
496.225	81.5
496.442	84.5
496.66	93.5
496.877	99.5
497.094	85.5
497.312	92.5
497.529	92.5
497.746	87.5
497.963	92.5
498.181	86.5
498.398	90.5
498.615	103.5
498.832	95.5
499.049	90.5
499.267	87.5
499.484	78.5
499.701	82.5
499.918	84.5
500.135	87.5
500.352	96.5
500.569	87.5
500.786	79.5
501.003	101.5
501.22	72.5
501.437	88.5
501.654	81.5
501.871	82.5
502.088	82.5
502.305	90.5
502.522	90.5
502.739	87.5
502.956	83.5
503.172	91.5
503.389	78.5
503.606	85.5
503.823	81.5
504.04	93.5
504.256	81.5
504.473	93.5
504.69	87.5
504.907	78.5
505.123	80.5
505.34	83.5
505.557	78.5
505.773	92.5
505.99	82.5
506.207	86.5
506.423	92.5
506.64	77.5
506.856	82.5
507.073	79.5
507.289	96.5
507.506	86.5
507.722	97.5
507.939	102.5
508.155	76.5
508.372	86.5
508.588	83.5
508.805	88.5
509.021	108.5
509.238	103.5
509.454	98.5
509.67	93.5
509.887	91.5
510.103	114.5
510.319	168.5
510.536	613.5
510.752	1932.5
510.968	552.5
511.184	140.5
511.401	98.5
511.617	84.5
511.833	93.5
512.049	93.5
512.265	86.5
512.481	87.5
512.698	91.5
512.914	84.5
513.13	86.5
513.346	78.5
513.562	69.5
513.778	95.5
513.994	98.5
514.21	93.5
514.426	96.5
514.642	124.5
514.858	112.5
515.074	144.5
515.29	362.5
515.506	1174.5
515.721	442.5
515.937	131.5
516.153	110.5
516.369	101.5
516.585	97.5
516.801	75.5
517.016	91.5
517.232	68.5
517.448	91.5
517.664	89.5
517.879	90.5
518.095	75.5
518.311	102.5
518.527	85.5
518.742	84.5
518.958	83.5
519.173	90.5
519.389	87.5
519.605	88.5
519.82	86.5
520.036	91.5
520.251	119.5
520.467	109.5
520.682	95.5
520.898	100.5
521.113	93.5
521.329	127.5
521.544	177.5
521.76	443.5
521.975	1950.5
522.19	1149.5
522.406	260.5
522.621	103.5
522.836	84.5
523.052	84.5
523.267	82.5
523.482	96.5
523.698	95.5
523.913	107.5
524.128	99.5
524.343	81.5
524.559	79.5
524.774	82.5
524.989	78.5
525.204	101.5
525.419	89.5
525.634	87.5
525.849	86.5
526.064	96.5
526.28	82.5
526.495	69.5
526.71	79.5
526.925	92.5
527.14	92.5
527.355	81.5
527.57	76.5
527.785	68.5
527.999	88.5
528.214	79.5
528.429	78.5
528.644	82.5
528.859	85.5
529.074	91.5
529.289	97.5
529.503	150.5
529.718	93.5
529.933	95.5
530.148	80.5
530.363	93.5
530.577	90.5
530.792	71.5
531.007	84.5
531.221	76.5
531.436	70.5
531.651	80.5
531.865	79.5
532.08	84.5
532.295	77.5
532.509	83.5
532.724	98.5
532.938	84.5
533.153	92.5
533.367	89.5
533.582	96.5
533.796	87.5
534.011	70.5
534.225	78.5
534.44	78.5
534.654	100.5
534.868	82.5
535.083	84.5
535.297	93.5
535.511	80.5
535.726	99.5
535.94	93.5
536.154	95.5
536.369	80.5
536.583	92.5
536.797	90.5
537.011	96.5
537.225	95.5
537.44	79.5
