Data from Circ_1984_H10_HRD10591_00080.txt Node
Date: Wed Jan 03 12:22:58 EST 2024
User: Yrep
Spectrometer: HR+D1059
Trigger mode: 1
Integration Time (sec): 1.000000E-1
Scans to average: 1
Electric dark correction enabled: true
Nonlinearity correction enabled: false
Boxcar width: 0
XAxis mode: Wavelengths
Number of Pixels in Spectrum: 2048
>>>>>Begin Spectral Data<<<<<
223.165	-5.06
223.4	-5.06
223.635	-5.06
223.869	-24.06
224.104	-24.06
224.338	-17.06
224.573	-22.06
224.808	-1.06
225.042	-5.06
225.277	0.94
225.511	-4.06
225.746	11.94
225.98	8.94
226.215	5.94
226.449	-3.06
226.683	14.94
226.918	21.94
227.152	40.94
227.387	25.94
227.621	23.94
227.856	45.94
228.09	41.94
228.324	51.94
228.559	56.94
228.793	58.94
229.027	64.94
229.262	71.94
229.496	68.94
229.73	88.94
229.964	80.94
230.199	75.94
230.433	77.94
230.667	84.94
230.901	73.94
231.136	72.94
231.37	88.94
231.604	86.94
231.838	85.94
232.072	81.94
232.306	93.94
232.541	77.94
232.775	87.94
233.009	88.94
233.243	84.94
233.477	83.94
233.711	90.94
233.945	93.94
234.179	80.94
234.413	77.94
234.647	82.94
234.881	70.94
235.115	79.94
235.349	90.94
235.583	84.94
235.817	77.94
236.051	68.94
236.285	87.94
236.519	75.94
236.753	69.94
236.987	83.94
237.221	88.94
237.455	86.94
237.689	86.94
237.922	80.94
238.156	62.94
238.39	80.94
238.624	79.94
238.858	86.94
239.091	96.94
239.325	68.94
239.559	76.94
239.793	87.94
240.027	76.94
240.26	82.94
240.494	72.94
240.728	57.94
240.961	70.94
241.195	80.94
241.429	73.94
241.662	83.94
241.896	86.94
242.13	77.94
242.363	66.94
242.597	82.94
242.83	83.94
243.064	78.94
243.298	86.94
243.531	56.94
243.765	72.94
243.998	82.94
244.232	76.94
244.465	75.94
244.699	79.94
244.932	97.94
245.166	68.94
245.399	76.94
245.633	88.94
245.866	92.94
246.099	71.94
246.333	78.94
246.566	80.94
246.8	87.94
247.033	86.94
247.266	74.94
247.5	83.94
247.733	72.94
247.966	83.94
248.2	80.94
248.433	90.94
248.666	75.94
248.899	80.94
249.133	86.94
249.366	86.94
249.599	95.94
249.832	89.94
250.066	92.94
250.299	74.94
250.532	83.94
250.765	74.94
250.998	76.94
251.231	94.94
251.465	85.94
251.698	80.94
251.931	80.94
252.164	73.94
252.397	84.94
252.63	72.94
252.863	72.94
253.096	71.94
253.329	87.94
253.562	70.94
253.795	91.94
254.028	75.94
254.261	82.94
254.494	81.94
254.727	84.94
254.96	79.94
255.193	87.94
255.426	89.94
255.659	73.94
255.892	87.94
256.124	76.94
256.357	77.94
256.59	82.94
256.823	86.94
257.056	81.94
257.289	94.94
257.521	83.94
257.754	81.94
257.987	82.94
258.22	96.94
258.452	84.94
258.685	90.94
258.918	77.94
259.151	82.94
259.383	82.94
259.616	84.94
259.849	86.94
260.081	77.94
260.314	77.94
260.547	86.94
260.779	94.94
261.012	80.94
261.244	96.94
261.477	96.94
261.71	96.94
261.942	103.94
262.175	109.94
262.407	88.94
262.64	87.94
262.872	91.94
263.105	82.94
263.337	84.94
263.57	73.94
263.802	83.94
264.035	80.94
264.267	82.94
264.499	85.94
264.732	84.94
264.964	97.94
265.197	79.94
265.429	94.94
265.661	66.94
265.894	91.94
266.126	72.94
266.358	82.94
266.591	92.94
266.823	85.94
267.055	80.94
267.287	73.94
267.52	91.94
267.752	77.94
267.984	81.94
268.216	80.94
268.448	97.94
268.681	98.94
268.913	78.94
269.145	83.94
269.377	80.94
269.609	79.94
269.841	89.94
270.073	74.94
270.306	76.94
270.538	80.94
270.77	92.94
271.002	82.94
271.234	80.94
271.466	91.94
271.698	87.94
271.93	81.94
272.162	81.94
272.394	89.94
272.626	82.94
272.858	89.94
273.09	82.94
273.322	86.94
273.553	75.94
273.785	91.94
274.017	85.94
274.249	79.94
274.481	90.94
274.713	85.94
274.945	97.94
275.176	87.94
275.408	95.94
275.64	88.94
275.872	98.94
276.104	81.94
276.335	92.94
276.567	107.94
276.799	101.94
277.031	108.94
277.262	99.94
277.494	102.94
277.726	76.94
277.957	94.94
278.189	85.94
278.421	74.94
278.652	78.94
278.884	90.94
279.115	102.94
279.347	93.94
279.579	92.94
279.81	75.94
280.042	91.94
280.273	94.94
280.505	85.94
280.736	89.94
280.968	93.94
281.199	82.94
281.431	102.94
281.662	84.94
281.894	93.94
282.125	97.94
282.356	104.94
282.588	123.94
282.819	104.94
283.051	90.94
283.282	73.94
283.513	99.94
283.745	90.94
283.976	77.94
284.207	85.94
284.439	84.94
284.67	101.94
284.901	93.94
285.132	76.94
285.364	74.94
285.595	84.94
285.826	82.94
286.057	85.94
286.288	80.94
286.52	92.94
286.751	84.94
286.982	81.94
287.213	90.94
287.444	101.94
287.675	98.94
287.906	94.94
288.138	94.94
288.369	89.94
288.6	77.94
288.831	84.94
289.062	88.94
289.293	89.94
289.524	83.94
289.755	84.94
289.986	90.94
290.217	83.94
290.448	77.94
290.679	90.94
290.91	86.94
291.141	92.94
291.371	94.94
291.602	90.94
291.833	90.94
292.064	95.94
292.295	85.94
292.526	81.94
292.757	82.94
292.987	83.94
293.218	102.94
293.449	84.94
293.68	84.94
293.91	87.94
294.141	94.94
294.372	78.94
294.603	102.94
294.833	93.94
295.064	92.94
295.295	92.94
295.525	88.94
295.756	113.94
295.987	104.94
296.217	120.94
296.448	116.94
296.679	97.94
296.909	94.94
297.14	89.94
297.37	88.94
297.601	85.94
297.831	82.94
298.062	76.94
298.292	97.94
298.523	86.94
298.753	93.94
298.984	95.94
299.214	83.94
299.445	103.94
299.675	97.94
299.905	101.94
300.136	89.94
300.366	96.94
300.597	87.94
300.827	96.94
301.057	112.94
301.288	96.94
301.518	98.94
301.748	98.94
301.979	99.94
302.209	98.94
302.439	91.94
302.669	92.94
302.9	92.94
303.13	103.94
303.36	88.94
303.59	89.94
303.82	109.94
304.051	77.94
304.281	75.94
304.511	88.94
304.741	94.94
304.971	88.94
305.201	77.94
305.431	100.94
305.661	84.94
305.891	91.94
306.121	90.94
306.352	112.94
306.582	92.94
306.812	80.94
307.042	98.94
307.272	112.94
307.502	104.94
307.731	107.94
307.961	94.94
308.191	86.94
308.421	85.94
308.651	101.94
308.881	89.94
309.111	98.94
309.341	92.94
309.571	104.94
309.8	96.94
310.03	105.94
310.26	92.94
310.49	76.94
310.72	91.94
310.949	110.94
311.179	99.94
311.409	93.94
311.639	96.94
311.868	99.94
312.098	97.94
312.328	97.94
312.557	87.94
312.787	90.94
313.017	102.94
313.246	105.94
313.476	101.94
313.706	113.94
313.935	88.94
314.165	92.94
314.394	94.94
314.624	94.94
314.853	98.94
315.083	98.94
315.312	103.94
315.542	93.94
315.771	90.94
316.001	86.94
316.23	93.94
316.46	81.94
316.689	93.94
316.919	94.94
317.148	99.94
317.377	98.94
317.607	84.94
317.836	90.94
318.065	93.94
318.295	91.94
318.524	84.94
318.753	90.94
318.983	93.94
319.212	97.94
319.441	85.94
319.67	103.94
319.9	86.94
320.129	84.94
320.358	84.94
320.587	97.94
320.816	98.94
321.046	100.94
321.275	104.94
321.504	97.94
321.733	103.94
321.962	88.94
322.191	97.94
322.42	113.94
322.649	110.94
322.878	104.94
323.108	103.94
323.337	103.94
323.566	124.94
323.795	129.94
324.024	203.94
324.253	315.94
324.482	673.94
324.71	1305.94
324.939	1757.94
325.168	668.94
325.397	207.94
325.626	148.94
325.855	111.94
326.084	104.94
326.313	122.94
326.542	149.94
326.77	193.94
326.999	369.94
327.228	759.94
327.457	1356.94
327.686	1117.94
327.914	324.94
328.143	208.94
328.372	214.94
328.6	133.94
328.829	102.94
329.058	129.94
329.287	115.94
329.515	113.94
329.744	127.94
329.972	147.94
330.201	248.94
330.43	297.94
330.658	186.94
330.887	145.94
331.115	125.94
331.344	103.94
331.572	111.94
331.801	100.94
332.03	108.94
332.258	94.94
332.486	99.94
332.715	78.94
332.943	96.94
333.172	106.94
333.4	104.94
333.629	108.94
333.857	126.94
334.085	157.94
334.314	226.94
334.542	369.94
334.771	331.94
334.999	144.94
335.227	112.94
335.455	90.94
335.684	111.94
335.912	90.94
336.14	93.94
336.369	94.94
336.597	94.94
336.825	96.94
337.053	86.94
337.281	88.94
337.51	92.94
337.738	93.94
337.966	104.94
338.194	95.94
338.422	80.94
338.65	93.94
338.878	82.94
339.106	107.94
339.334	96.94
339.562	91.94
339.79	89.94
340.018	99.94
340.246	91.94
340.474	81.94
340.702	100.94
340.93	67.94
341.158	90.94
341.386	94.94
341.614	97.94
341.842	91.94
342.07	101.94
342.298	96.94
342.526	86.94
342.754	92.94
342.981	89.94
343.209	90.94
343.437	95.94
343.665	92.94
343.893	88.94
344.12	106.94
344.348	89.94
344.576	93.94
344.804	101.94
345.031	98.94
345.259	101.94
345.487	88.94
345.714	104.94
345.942	99.94
346.17	80.94
346.397	88.94
346.625	88.94
346.853	86.94
347.08	87.94
347.308	101.94
347.535	103.94
347.763	102.94
347.99	91.94
348.218	96.94
348.445	85.94
348.673	100.94
348.9	113.94
349.128	95.94
349.355	86.94
349.583	84.94
349.81	94.94
350.037	87.94
350.265	101.94
350.492	88.94
350.72	87.94
350.947	113.94
351.174	96.94
351.402	92.94
351.629	107.94
351.856	85.94
352.083	89.94
352.311	105.94
352.538	108.94
352.765	107.94
352.992	110.94
353.22	102.94
353.447	103.94
353.674	99.94
353.901	85.94
354.128	93.94
354.355	104.94
354.583	89.94
354.81	92.94
355.037	94.94
355.264	105.94
355.491	87.94
355.718	92.94
355.945	98.94
356.172	80.94
356.399	110.94
356.626	101.94
356.853	84.94
357.08	93.94
357.307	94.94
357.534	92.94
357.761	90.94
357.988	96.94
358.215	93.94
358.441	92.94
358.668	97.94
358.895	87.94
359.122	99.94
359.349	92.94
359.576	100.94
359.802	126.94
360.029	112.94
360.256	108.94
360.483	95.94
360.709	92.94
360.936	91.94
361.163	100.94
361.39	99.94
361.616	96.94
361.843	99.94
362.07	84.94
362.296	109.94
362.523	84.94
362.749	85.94
362.976	67.94
363.203	88.94
363.429	83.94
363.656	89.94
363.882	82.94
364.109	70.94
364.335	77.94
364.562	96.94
364.788	104.94
365.015	101.94
365.241	97.94
365.468	105.94
365.694	99.94
365.92	74.94
366.147	86.94
366.373	88.94
366.599	96.94
366.826	85.94
367.052	71.94
367.278	84.94
367.505	92.94
367.731	89.94
367.957	90.94
368.184	103.94
368.41	83.94
368.636	98.94
368.862	131.94
369.089	96.94
369.315	93.94
369.541	98.94
369.767	85.94
369.993	91.94
370.219	113.94
370.445	103.94
370.672	89.94
370.898	91.94
371.124	84.94
371.35	87.94
371.576	103.94
371.802	84.94
372.028	79.94
372.254	86.94
372.48	90.94
372.706	83.94
372.932	82.94
373.158	90.94
373.384	97.94
373.61	104.94
373.835	89.94
374.061	90.94
374.287	89.94
374.513	86.94
374.739	92.94
374.965	94.94
375.191	93.94
375.416	88.94
375.642	89.94
375.868	78.94
376.094	80.94
376.319	102.94
376.545	97.94
376.771	97.94
376.997	92.94
377.222	83.94
377.448	102.94
377.674	107.94
377.899	90.94
378.125	76.94
378.35	84.94
378.576	81.94
378.802	89.94
379.027	92.94
379.253	83.94
379.478	100.94
379.704	101.94
379.929	97.94
380.155	84.94
380.38	102.94
380.606	82.94
380.831	93.94
381.057	88.94
381.282	94.94
381.507	90.94
381.733	92.94
381.958	81.94
382.184	87.94
382.409	96.94
382.634	84.94
382.86	88.94
383.085	95.94
383.31	111.94
383.535	90.94
383.761	92.94
383.986	86.94
384.211	100.94
384.436	104.94
384.662	82.94
384.887	92.94
385.112	101.94
385.337	98.94
385.562	96.94
385.787	110.94
386.013	107.94
386.238	96.94
386.463	93.94
386.688	114.94
386.913	108.94
387.138	99.94
387.363	83.94
387.588	93.94
387.813	102.94
388.038	104.94
388.263	100.94
388.488	105.94
388.713	87.94
388.938	99.94
389.163	108.94
389.387	101.94
389.612	93.94
389.837	101.94
390.062	94.94
390.287	92.94
390.512	84.94
390.736	86.94
390.961	90.94
391.186	93.94
391.411	100.94
391.636	99.94
391.86	85.94
392.085	92.94
392.31	93.94
392.534	90.94
392.759	99.94
392.984	91.94
393.208	96.94
393.433	104.94
393.658	102.94
393.882	84.94
394.107	89.94
394.331	86.94
394.556	94.94
394.78	92.94
395.005	74.94
395.229	86.94
395.454	85.94
395.678	96.94
395.903	73.94
396.127	80.94
396.352	86.94
396.576	84.94
396.801	97.94
397.025	98.94
397.249	98.94
397.474	94.94
397.698	89.94
397.922	102.94
398.147	92.94
398.371	90.94
398.595	78.94
398.82	87.94
399.044	80.94
399.268	73.94
399.492	89.94
399.717	75.94
399.941	68.94
400.165	97.94
400.389	97.94
400.613	80.94
400.837	85.94
401.062	80.94
401.286	76.94
401.51	82.94
401.734	81.94
401.958	87.94
402.182	121.94
402.406	145.94
402.63	114.94
402.854	98.94
403.078	83.94
403.302	78.94
403.526	82.94
403.75	89.94
403.974	95.94
404.198	88.94
404.422	90.94
404.645	90.94
404.869	108.94
405.093	89.94
405.317	91.94
405.541	100.94
405.765	97.94
405.988	106.94
406.212	168.94
406.436	204.94
406.66	115.94
406.883	102.94
407.107	90.94
407.331	84.94
407.555	100.94
407.778	93.94
408.002	78.94
408.226	84.94
408.449	98.94
408.673	85.94
408.896	87.94
409.12	90.94
409.344	90.94
409.567	94.94
409.791	105.94
410.014	96.94
410.238	96.94
410.461	97.94
410.685	74.94
410.908	104.94
411.132	100.94
411.355	94.94
411.578	93.94
411.802	86.94
412.025	100.94
412.249	85.94
412.472	101.94
412.695	98.94
412.919	82.94
413.142	94.94
413.365	88.94
413.589	86.94
413.812	86.94
414.035	87.94
414.258	91.94
414.482	88.94
414.705	77.94
414.928	95.94
415.151	85.94
415.374	100.94
415.597	101.94
415.821	86.94
416.044	78.94
416.267	84.94
416.49	84.94
416.713	90.94
416.936	77.94
417.159	94.94
417.382	98.94
417.605	73.94
417.828	77.94
418.051	91.94
418.274	86.94
418.497	93.94
418.72	73.94
418.943	85.94
419.166	83.94
419.389	95.94
419.611	94.94
419.834	103.94
420.057	84.94
420.28	84.94
420.503	78.94
420.726	87.94
420.948	101.94
421.171	98.94
421.394	91.94
421.617	82.94
421.839	73.94
422.062	74.94
422.285	83.94
422.507	96.94
422.73	103.94
422.953	82.94
423.175	101.94
423.398	98.94
423.621	85.94
423.843	87.94
424.066	91.94
424.288	80.94
424.511	91.94
424.733	90.94
424.956	97.94
425.178	100.94
425.401	105.94
425.623	98.94
425.846	76.94
426.068	95.94
426.291	75.94
426.513	82.94
426.735	86.94
426.958	89.94
427.18	107.94
427.402	122.94
427.625	144.94
427.847	126.94
428.069	125.94
428.292	89.94
428.514	77.94
428.736	72.94
428.958	88.94
429.181	76.94
429.403	83.94
429.625	77.94
429.847	85.94
430.069	93.94
430.292	79.94
430.514	93.94
430.736	92.94
430.958	84.94
431.18	85.94
431.402	70.94
431.624	80.94
431.846	93.94
432.068	94.94
432.29	73.94
432.512	91.94
432.734	78.94
432.956	89.94
433.178	102.94
433.4	91.94
433.622	89.94
433.844	78.94
434.066	89.94
434.287	90.94
434.509	95.94
434.731	93.94
434.953	76.94
435.175	79.94
435.397	104.94
435.618	101.94
435.84	96.94
436.062	122.94
436.284	100.94
436.505	77.94
436.727	96.94
436.949	96.94
437.17	86.94
437.392	82.94
437.614	93.94
437.835	115.94
438.057	105.94
438.278	103.94
438.5	93.94
438.721	108.94
438.943	90.94
439.165	86.94
439.386	96.94
439.608	88.94
439.829	91.94
440.05	120.94
440.272	125.94
440.493	98.94
440.715	82.94
440.936	91.94
441.158	82.94
441.379	102.94
441.6	102.94
441.822	111.94
442.043	96.94
442.264	101.94
442.486	95.94
442.707	101.94
442.928	104.94
443.149	115.94
443.371	124.94
443.592	116.94
443.813	110.94
444.034	101.94
444.255	101.94
444.476	76.94
444.698	77.94
444.919	87.94
445.14	138.94
445.361	129.94
445.582	104.94
445.803	125.94
446.024	117.94
446.245	124.94
446.466	97.94
446.687	98.94
446.908	85.94
447.129	96.94
447.35	96.94
447.571	102.94
447.792	97.94
448.013	95.94
448.234	106.94
448.455	104.94
448.675	118.94
448.896	121.94
449.117	108.94
449.338	119.94
449.559	116.94
449.779	120.94
450	95.94
450.221	89.94
450.442	91.94
450.662	97.94
450.883	109.94
451.104	101.94
451.324	88.94
451.545	101.94
451.766	96.94
451.986	82.94
452.207	82.94
452.428	84.94
452.648	108.94
452.869	82.94
453.089	105.94
453.31	101.94
453.53	98.94
453.751	80.94
453.971	102.94
454.192	107.94
454.412	100.94
454.633	91.94
454.853	92.94
455.073	86.94
455.294	90.94
455.514	101.94
455.734	76.94
455.955	78.94
456.175	89.94
456.395	70.94
456.616	96.94
456.836	89.94
457.056	90.94
457.276	74.94
457.497	86.94
457.717	92.94
457.937	82.94
458.157	99.94
458.377	85.94
458.598	109.94
458.818	121.94
459.038	138.94
459.258	98.94
459.478	87.94
459.698	88.94
459.918	93.94
460.138	93.94
460.358	96.94
460.578	74.94
460.798	99.94
461.018	98.94
461.238	85.94
461.458	87.94
461.678	86.94
461.898	84.94
462.118	90.94
462.338	89.94
462.558	88.94
462.777	96.94
462.997	88.94
463.217	90.94
463.437	82.94
463.657	94.94
463.876	91.94
464.096	96.94
464.316	90.94
464.536	88.94
464.755	89.94
464.975	103.94
465.195	135.94
465.414	137.94
465.634	89.94
465.854	87.94
466.073	85.94
466.293	92.94
466.512	92.94
466.732	96.94
466.951	78.94
467.171	99.94
467.391	85.94
467.61	107.94
467.829	112.94
468.049	153.94
468.268	203.94
468.488	102.94
468.707	90.94
468.927	75.94
469.146	90.94
469.365	90.94
469.585	98.94
469.804	89.94
470.023	99.94
470.243	98.94
470.462	92.94
470.681	108.94
470.901	81.94
471.12	86.94
471.339	94.94
471.558	90.94
471.777	105.94
471.997	120.94
472.216	258.94
472.435	469.94
472.654	161.94
472.873	108.94
473.092	82.94
473.311	96.94
473.53	83.94
473.749	82.94
473.968	87.94
474.187	93.94
474.406	89.94
474.625	93.94
474.844	94.94
475.063	78.94
475.282	82.94
475.501	98.94
475.72	83.94
475.939	99.94
476.158	87.94
476.377	91.94
476.596	89.94
476.814	85.94
477.033	84.94
477.252	88.94
477.471	89.94
477.69	90.94
477.908	93.94
478.127	104.94
478.346	86.94
478.564	97.94
478.783	101.94
479.002	80.94
479.22	94.94
479.439	91.94
479.658	84.94
479.876	91.94
480.095	106.94
480.313	86.94
480.532	107.94
480.751	136.94
480.969	264.94
481.188	804.94
481.406	484.94
481.624	129.94
481.843	106.94
482.061	88.94
482.28	89.94
482.498	95.94
482.717	96.94
482.935	89.94
483.153	86.94
483.372	85.94
483.59	92.94
483.808	84.94
484.027	96.94
484.245	92.94
484.463	83.94
484.681	97.94
484.9	114.94
485.118	82.94
485.336	104.94
485.554	101.94
485.772	102.94
485.99	106.94
486.209	108.94
486.427	96.94
486.645	105.94
486.863	116.94
487.081	103.94
487.299	86.94
487.517	99.94
487.735	91.94
487.953	94.94
488.171	104.94
488.389	110.94
488.607	100.94
488.825	89.94
489.043	80.94
489.261	107.94
489.479	91.94
489.696	102.94
489.914	97.94
490.132	84.94
490.35	94.94
490.568	84.94
490.786	92.94
491.003	92.94
491.221	97.94
491.439	96.94
491.657	104.94
491.874	81.94
492.092	80.94
492.31	89.94
492.527	95.94
492.745	85.94
492.963	104.94
493.18	94.94
493.398	102.94
493.615	81.94
493.833	107.94
494.05	92.94
494.268	99.94
494.485	94.94
494.703	91.94
494.92	98.94
495.138	90.94
495.355	91.94
495.573	85.94
495.79	88.94
496.008	90.94
496.225	89.94
496.442	97.94
496.66	88.94
496.877	100.94
497.094	93.94
497.312	83.94
497.529	79.94
497.746	92.94
497.963	98.94
498.181	86.94
498.398	92.94
498.615	118.94
498.832	86.94
499.049	89.94
499.267	88.94
499.484	106.94
499.701	98.94
499.918	80.94
500.135	82.94
500.352	85.94
500.569	100.94
500.786	105.94
501.003	93.94
501.22	96.94
501.437	96.94
501.654	92.94
501.871	110.94
502.088	97.94
502.305	104.94
502.522	98.94
502.739	90.94
502.956	96.94
503.172	100.94
503.389	83.94
503.606	108.94
503.823	94.94
504.04	96.94
504.256	100.94
504.473	94.94
504.69	82.94
504.907	90.94
505.123	92.94
505.34	94.94
505.557	83.94
505.773	92.94
505.99	101.94
506.207	85.94
506.423	92.94
506.64	90.94
506.856	86.94
507.073	87.94
507.289	102.94
507.506	96.94
507.722	118.94
507.939	106.94
508.155	95.94
508.372	75.94
508.588	97.94
508.805	103.94
509.021	102.94
509.238	91.94
509.454	88.94
509.67	105.94
509.887	101.94
510.103	119.94
510.319	160.94
510.536	601.94
510.752	1846.94
510.968	537.94
511.184	140.94
511.401	102.94
511.617	85.94
511.833	93.94
512.049	105.94
512.265	97.94
512.481	103.94
512.698	86.94
512.914	99.94
513.13	92.94
513.346	99.94
513.562	100.94
513.778	87.94
513.994	96.94
514.21	89.94
514.426	108.94
514.642	124.94
514.858	121.94
515.074	129.94
515.29	340.94
515.506	1076.94
