Data from Circ_1984_H10_HRD10591_00077.txt Node
Date: Wed Jan 03 12:22:57 EST 2024
User: Yrep
Spectrometer: HR+D1059
Trigger mode: 1
Integration Time (sec): 1.000000E-1
Scans to average: 1
Electric dark correction enabled: true
Nonlinearity correction enabled: false
Boxcar width: 0
XAxis mode: Wavelengths
Number of Pixels in Spectrum: 2048
>>>>>Begin Spectral Data<<<<<
223.165	-1.88
223.4	-1.88
223.635	-1.88
223.869	-25.88
224.104	-26.88
224.338	-11.88
224.573	-13.88
224.808	-17.88
225.042	-5.88
225.277	-10.88
225.511	-7.88
225.746	-0.88
225.98	12.12
226.215	11.12
226.449	10.12
226.683	29.12
226.918	30.12
227.152	31.12
227.387	35.12
227.621	29.12
227.856	51.12
228.09	56.12
228.324	55.12
228.559	48.12
228.793	72.12
229.027	61.12
229.262	57.12
229.496	71.12
229.73	76.12
229.964	91.12
230.199	93.12
230.433	70.12
230.667	82.12
230.901	78.12
231.136	57.12
231.37	74.12
231.604	59.12
231.838	75.12
232.072	89.12
232.306	79.12
232.541	86.12
232.775	83.12
233.009	82.12
233.243	73.12
233.477	71.12
233.711	89.12
233.945	90.12
234.179	89.12
234.413	86.12
234.647	72.12
234.881	78.12
235.115	86.12
235.349	79.12
235.583	74.12
235.817	86.12
236.051	83.12
236.285	72.12
236.519	86.12
236.753	74.12
236.987	78.12
237.221	82.12
237.455	94.12
237.689	82.12
237.922	63.12
238.156	90.12
238.39	61.12
238.624	69.12
238.858	65.12
239.091	82.12
239.325	69.12
239.559	81.12
239.793	65.12
240.027	66.12
240.26	69.12
240.494	71.12
240.728	81.12
240.961	78.12
241.195	81.12
241.429	82.12
241.662	75.12
241.896	81.12
242.13	68.12
242.363	72.12
242.597	80.12
242.83	65.12
243.064	92.12
243.298	71.12
243.531	72.12
243.765	65.12
243.998	72.12
244.232	83.12
244.465	67.12
244.699	86.12
244.932	71.12
245.166	78.12
245.399	67.12
245.633	75.12
245.866	78.12
246.099	78.12
246.333	79.12
246.566	85.12
246.8	66.12
247.033	73.12
247.266	79.12
247.5	70.12
247.733	70.12
247.966	82.12
248.2	86.12
248.433	83.12
248.666	64.12
248.899	84.12
249.133	69.12
249.366	97.12
249.599	88.12
249.832	87.12
250.066	80.12
250.299	69.12
250.532	78.12
250.765	83.12
250.998	78.12
251.231	71.12
251.465	72.12
251.698	82.12
251.931	78.12
252.164	65.12
252.397	70.12
252.63	75.12
252.863	80.12
253.096	80.12
253.329	80.12
253.562	94.12
253.795	93.12
254.028	78.12
254.261	84.12
254.494	79.12
254.727	90.12
254.96	89.12
255.193	82.12
255.426	82.12
255.659	90.12
255.892	81.12
256.124	81.12
256.357	90.12
256.59	94.12
256.823	91.12
257.056	99.12
257.289	86.12
257.521	76.12
257.754	69.12
257.987	91.12
258.22	82.12
258.452	92.12
258.685	97.12
258.918	78.12
259.151	87.12
259.383	88.12
259.616	74.12
259.849	86.12
260.081	96.12
260.314	82.12
260.547	97.12
260.779	79.12
261.012	87.12
261.244	98.12
261.477	87.12
261.71	92.12
261.942	104.12
262.175	108.12
262.407	70.12
262.64	71.12
262.872	84.12
263.105	94.12
263.337	106.12
263.57	84.12
263.802	94.12
264.035	80.12
264.267	80.12
264.499	76.12
264.732	90.12
264.964	82.12
265.197	85.12
265.429	74.12
265.661	78.12
265.894	80.12
266.126	93.12
266.358	91.12
266.591	86.12
266.823	90.12
267.055	100.12
267.287	91.12
267.52	88.12
267.752	91.12
267.984	86.12
268.216	82.12
268.448	80.12
268.681	90.12
268.913	88.12
269.145	76.12
269.377	89.12
269.609	78.12
269.841	80.12
270.073	91.12
270.306	87.12
270.538	85.12
270.77	82.12
271.002	79.12
271.234	80.12
271.466	81.12
271.698	68.12
271.93	70.12
272.162	92.12
272.394	80.12
272.626	75.12
272.858	85.12
273.09	87.12
273.322	82.12
273.553	91.12
273.785	92.12
274.017	98.12
274.249	92.12
274.481	89.12
274.713	81.12
274.945	92.12
275.176	83.12
275.408	96.12
275.64	83.12
275.872	101.12
276.104	89.12
276.335	95.12
276.567	105.12
276.799	104.12
277.031	92.12
277.262	96.12
277.494	95.12
277.726	78.12
277.957	100.12
278.189	80.12
278.421	81.12
278.652	83.12
278.884	79.12
279.115	75.12
279.347	82.12
279.579	93.12
279.81	96.12
280.042	95.12
280.273	102.12
280.505	112.12
280.736	83.12
280.968	86.12
281.199	96.12
281.431	94.12
281.662	100.12
281.894	90.12
282.125	96.12
282.356	114.12
282.588	132.12
282.819	108.12
283.051	91.12
283.282	79.12
283.513	84.12
283.745	89.12
283.976	80.12
284.207	91.12
284.439	82.12
284.67	79.12
284.901	83.12
285.132	84.12
285.364	86.12
285.595	67.12
285.826	88.12
286.057	88.12
286.288	78.12
286.52	96.12
286.751	83.12
286.982	84.12
287.213	91.12
287.444	92.12
287.675	74.12
287.906	82.12
288.138	88.12
288.369	94.12
288.6	98.12
288.831	89.12
289.062	91.12
289.293	83.12
289.524	81.12
289.755	76.12
289.986	85.12
290.217	75.12
290.448	73.12
290.679	87.12
290.91	88.12
291.141	66.12
291.371	90.12
291.602	69.12
291.833	91.12
292.064	102.12
292.295	92.12
292.526	80.12
292.757	76.12
292.987	92.12
293.218	94.12
293.449	75.12
293.68	84.12
293.91	83.12
294.141	96.12
294.372	90.12
294.603	80.12
294.833	81.12
295.064	95.12
295.295	87.12
295.525	89.12
295.756	93.12
295.987	97.12
296.217	125.12
296.448	124.12
296.679	91.12
296.909	78.12
297.14	88.12
297.37	89.12
297.601	95.12
297.831	90.12
298.062	82.12
298.292	87.12
298.523	86.12
298.753	87.12
298.984	76.12
299.214	82.12
299.445	88.12
299.675	81.12
299.905	95.12
300.136	86.12
300.366	97.12
300.597	90.12
300.827	100.12
301.057	104.12
301.288	97.12
301.518	106.12
301.748	94.12
301.979	107.12
302.209	97.12
302.439	80.12
302.669	86.12
302.9	90.12
303.13	68.12
303.36	100.12
303.59	94.12
303.82	104.12
304.051	99.12
304.281	95.12
304.511	91.12
304.741	91.12
304.971	94.12
305.201	88.12
305.431	95.12
305.661	89.12
305.891	71.12
306.121	88.12
306.352	100.12
306.582	110.12
306.812	80.12
307.042	102.12
307.272	91.12
307.502	91.12
307.731	96.12
307.961	99.12
308.191	88.12
308.421	95.12
308.651	88.12
308.881	89.12
309.111	78.12
309.341	80.12
309.571	89.12
309.8	80.12
310.03	116.12
310.26	93.12
310.49	90.12
310.72	85.12
310.949	90.12
311.179	92.12
311.409	83.12
311.639	80.12
311.868	95.12
312.098	84.12
312.328	96.12
312.557	97.12
312.787	78.12
313.017	83.12
313.246	98.12
313.476	94.12
313.706	86.12
313.935	93.12
314.165	88.12
314.394	105.12
314.624	94.12
314.853	91.12
315.083	92.12
315.312	85.12
315.542	82.12
315.771	87.12
316.001	89.12
316.23	95.12
316.46	102.12
316.689	91.12
316.919	76.12
317.148	84.12
317.377	95.12
317.607	90.12
317.836	93.12
318.065	94.12
318.295	79.12
318.524	91.12
318.753	92.12
318.983	98.12
319.212	83.12
319.441	100.12
319.67	95.12
319.9	84.12
320.129	92.12
320.358	83.12
320.587	86.12
320.816	100.12
321.046	98.12
321.275	92.12
321.504	101.12
321.733	81.12
321.962	87.12
322.191	112.12
322.42	115.12
322.649	110.12
322.878	113.12
323.108	92.12
323.337	109.12
323.566	131.12
323.795	135.12
324.024	155.12
324.253	332.12
324.482	695.12
324.71	1382.12
324.939	1854.12
325.168	691.12
325.397	214.12
325.626	129.12
325.855	122.12
326.084	123.12
326.313	132.12
326.542	140.12
326.77	209.12
326.999	398.12
327.228	787.12
327.457	1457.12
327.686	1134.12
327.914	348.12
328.143	206.12
328.372	201.12
328.6	154.12
328.829	115.12
329.058	121.12
329.287	129.12
329.515	111.12
329.744	108.12
329.972	160.12
330.201	246.12
330.43	302.12
330.658	161.12
330.887	132.12
331.115	104.12
331.344	97.12
331.572	82.12
331.801	84.12
332.03	91.12
332.258	101.12
332.486	91.12
332.715	101.12
332.943	99.12
333.172	96.12
333.4	102.12
333.629	109.12
333.857	135.12
334.085	147.12
334.314	230.12
334.542	379.12
334.771	369.12
334.999	135.12
335.227	116.12
335.455	97.12
335.684	84.12
335.912	107.12
336.14	91.12
336.369	86.12
336.597	105.12
336.825	90.12
337.053	90.12
337.281	80.12
337.51	86.12
337.738	103.12
337.966	82.12
338.194	98.12
338.422	90.12
338.65	97.12
338.878	97.12
339.106	87.12
339.334	81.12
339.562	85.12
339.79	81.12
340.018	95.12
340.246	92.12
340.474	97.12
340.702	84.12
340.93	89.12
341.158	94.12
341.386	87.12
341.614	105.12
341.842	98.12
342.07	93.12
342.298	88.12
342.526	98.12
342.754	91.12
342.981	91.12
343.209	84.12
343.437	101.12
343.665	86.12
343.893	85.12
344.12	82.12
344.348	105.12
344.576	96.12
344.804	94.12
345.031	105.12
345.259	92.12
345.487	85.12
345.714	83.12
345.942	88.12
346.17	84.12
346.397	90.12
346.625	98.12
346.853	83.12
347.08	91.12
347.308	103.12
347.535	64.12
347.763	94.12
347.99	81.12
348.218	101.12
348.445	106.12
348.673	90.12
348.9	87.12
349.128	86.12
349.355	83.12
349.583	89.12
349.81	97.12
350.037	76.12
350.265	92.12
350.492	96.12
350.72	88.12
350.947	101.12
351.174	92.12
351.402	94.12
351.629	92.12
351.856	96.12
352.083	92.12
352.311	100.12
352.538	98.12
352.765	115.12
352.992	115.12
353.22	98.12
353.447	101.12
353.674	90.12
353.901	86.12
354.128	101.12
354.355	105.12
354.583	83.12
354.81	111.12
355.037	104.12
355.264	97.12
355.491	84.12
355.718	88.12
355.945	86.12
356.172	91.12
356.399	95.12
356.626	103.12
356.853	91.12
357.08	92.12
357.307	99.12
357.534	105.12
357.761	90.12
357.988	104.12
358.215	98.12
358.441	87.12
358.668	92.12
358.895	99.12
359.122	91.12
359.349	86.12
359.576	91.12
359.802	97.12
360.029	114.12
360.256	99.12
360.483	88.12
360.709	85.12
360.936	83.12
361.163	98.12
361.39	84.12
361.616	76.12
361.843	92.12
362.07	106.12
362.296	90.12
362.523	81.12
362.749	105.12
362.976	82.12
363.203	78.12
363.429	85.12
363.656	93.12
363.882	88.12
364.109	80.12
364.335	102.12
364.562	86.12
364.788	88.12
365.015	102.12
365.241	88.12
365.468	112.12
365.694	92.12
365.92	101.12
366.147	84.12
366.373	84.12
366.599	91.12
366.826	74.12
367.052	91.12
367.278	73.12
367.505	88.12
367.731	83.12
367.957	94.12
368.184	93.12
368.41	88.12
368.636	103.12
368.862	116.12
369.089	98.12
369.315	84.12
369.541	85.12
369.767	89.12
369.993	95.12
370.219	83.12
370.445	72.12
370.672	71.12
370.898	87.12
371.124	84.12
371.35	83.12
371.576	96.12
371.802	92.12
372.028	87.12
372.254	81.12
372.48	91.12
372.706	86.12
372.932	76.12
373.158	86.12
373.384	88.12
373.61	76.12
373.835	92.12
374.061	89.12
374.287	101.12
374.513	86.12
374.739	79.12
374.965	83.12
375.191	90.12
375.416	89.12
375.642	69.12
375.868	89.12
376.094	89.12
376.319	100.12
376.545	83.12
376.771	82.12
376.997	84.12
377.222	92.12
377.448	103.12
377.674	84.12
377.899	83.12
378.125	96.12
378.35	79.12
378.576	77.12
378.802	88.12
379.027	86.12
379.253	91.12
379.478	64.12
379.704	83.12
379.929	83.12
380.155	83.12
380.38	85.12
380.606	93.12
380.831	90.12
381.057	89.12
381.282	85.12
381.507	91.12
381.733	90.12
381.958	90.12
382.184	80.12
382.409	94.12
382.634	89.12
382.86	91.12
383.085	102.12
383.31	101.12
383.535	99.12
383.761	100.12
383.986	96.12
384.211	99.12
384.436	98.12
384.662	89.12
384.887	98.12
385.112	99.12
385.337	98.12
385.562	111.12
385.787	98.12
386.013	100.12
386.238	117.12
386.463	110.12
386.688	127.12
386.913	93.12
387.138	88.12
387.363	95.12
387.588	86.12
387.813	100.12
388.038	103.12
388.263	109.12
388.488	114.12
388.713	87.12
388.938	97.12
389.163	99.12
389.387	90.12
389.612	89.12
389.837	93.12
390.062	87.12
390.287	86.12
390.512	76.12
390.736	98.12
390.961	89.12
391.186	97.12
391.411	87.12
391.636	80.12
391.86	74.12
392.085	96.12
392.31	89.12
392.534	86.12
392.759	86.12
392.984	77.12
393.208	79.12
393.433	87.12
393.658	93.12
393.882	88.12
394.107	90.12
394.331	84.12
394.556	94.12
394.78	82.12
395.005	95.12
395.229	88.12
395.454	70.12
395.678	89.12
395.903	90.12
396.127	93.12
396.352	86.12
396.576	82.12
396.801	86.12
397.025	75.12
397.249	83.12
397.474	93.12
397.698	82.12
397.922	96.12
398.147	80.12
398.371	83.12
398.595	94.12
398.82	89.12
399.044	89.12
399.268	74.12
399.492	97.12
399.717	84.12
399.941	91.12
400.165	82.12
400.389	84.12
400.613	88.12
400.837	93.12
401.062	88.12
401.286	84.12
401.51	92.12
401.734	87.12
401.958	102.12
402.182	112.12
402.406	136.12
402.63	112.12
402.854	91.12
403.078	78.12
403.302	78.12
403.526	82.12
403.75	94.12
403.974	94.12
404.198	91.12
404.422	90.12
404.645	92.12
404.869	80.12
405.093	84.12
405.317	85.12
405.541	95.12
405.765	96.12
405.988	114.12
406.212	139.12
406.436	207.12
406.66	128.12
406.883	102.12
407.107	83.12
407.331	102.12
407.555	92.12
407.778	73.12
408.002	96.12
408.226	91.12
408.449	86.12
408.673	98.12
408.896	97.12
409.12	82.12
409.344	81.12
409.567	75.12
409.791	87.12
410.014	84.12
410.238	100.12
410.461	96.12
410.685	92.12
410.908	98.12
411.132	102.12
411.355	92.12
411.578	82.12
411.802	89.12
412.025	88.12
412.249	115.12
412.472	95.12
412.695	102.12
412.919	95.12
413.142	91.12
413.365	93.12
413.589	86.12
413.812	86.12
414.035	88.12
414.258	95.12
414.482	84.12
414.705	89.12
414.928	94.12
415.151	88.12
415.374	96.12
415.597	84.12
415.821	89.12
416.044	94.12
416.267	87.12
416.49	82.12
416.713	90.12
416.936	86.12
417.159	86.12
417.382	92.12
417.605	82.12
417.828	95.12
418.051	86.12
418.274	95.12
418.497	87.12
418.72	82.12
418.943	71.12
419.166	101.12
419.389	92.12
419.611	92.12
419.834	85.12
420.057	88.12
420.28	82.12
420.503	90.12
420.726	81.12
420.948	84.12
421.171	102.12
421.394	86.12
421.617	88.12
421.839	95.12
422.062	88.12
422.285	99.12
422.507	84.12
422.73	87.12
422.953	98.12
423.175	95.12
423.398	86.12
423.621	99.12
423.843	82.12
424.066	83.12
424.288	82.12
424.511	84.12
424.733	97.12
424.956	107.12
425.178	95.12
425.401	95.12
425.623	91.12
425.846	87.12
426.068	76.12
426.291	96.12
426.513	91.12
426.735	88.12
426.958	86.12
427.18	92.12
427.402	123.12
427.625	154.12
427.847	125.12
428.069	126.12
428.292	94.12
428.514	86.12
428.736	81.12
428.958	101.12
429.181	91.12
429.403	87.12
429.625	86.12
429.847	88.12
430.069	89.12
430.292	90.12
430.514	89.12
430.736	94.12
430.958	85.12
431.18	78.12
431.402	92.12
431.624	93.12
431.846	94.12
432.068	94.12
432.29	83.12
432.512	84.12
432.734	66.12
432.956	78.12
433.178	93.12
433.4	94.12
433.622	97.12
433.844	99.12
434.066	84.12
434.287	79.12
434.509	81.12
434.731	81.12
434.953	92.12
435.175	81.12
435.397	81.12
435.618	88.12
435.84	100.12
436.062	112.12
436.284	113.12
436.505	100.12
436.727	95.12
436.949	86.12
437.17	95.12
437.392	84.12
437.614	95.12
437.835	104.12
438.057	102.12
438.278	100.12
438.5	98.12
438.721	108.12
438.943	110.12
439.165	84.12
439.386	80.12
439.608	79.12
439.829	94.12
440.05	123.12
440.272	143.12
440.493	85.12
440.715	66.12
440.936	75.12
441.158	82.12
441.379	90.12
441.6	98.12
441.822	90.12
442.043	91.12
442.264	101.12
442.486	88.12
442.707	86.12
442.928	110.12
443.149	115.12
443.371	128.12
443.592	108.12
443.813	111.12
444.034	90.12
444.255	89.12
444.476	74.12
444.698	92.12
444.919	89.12
445.14	113.12
445.361	129.12
445.582	111.12
445.803	123.12
446.024	130.12
446.245	126.12
446.466	105.12
446.687	82.12
446.908	95.12
447.129	86.12
447.35	98.12
447.571	103.12
447.792	92.12
448.013	92.12
448.234	86.12
448.455	93.12
448.675	90.12
448.896	100.12
449.117	108.12
449.338	103.12
449.559	107.12
449.779	116.12
450	88.12
450.221	103.12
450.442	88.12
450.662	104.12
450.883	91.12
451.104	87.12
451.324	88.12
451.545	81.12
451.766	88.12
451.986	94.12
452.207	90.12
452.428	83.12
452.648	93.12
452.869	110.12
453.089	111.12
453.31	116.12
453.53	79.12
453.751	94.12
453.971	98.12
454.192	81.12
454.412	93.12
454.633	102.12
454.853	81.12
455.073	82.12
455.294	81.12
455.514	98.12
455.734	93.12
455.955	78.12
456.175	75.12
456.395	84.12
456.616	81.12
456.836	87.12
457.056	72.12
457.276	82.12
457.497	91.12
457.717	70.12
457.937	83.12
458.157	73.12
458.377	96.12
458.598	99.12
458.818	120.12
459.038	144.12
459.258	106.12
459.478	68.12
459.698	82.12
459.918	82.12
460.138	77.12
460.358	88.12
460.578	102.12
460.798	86.12
461.018	88.12
461.238	86.12
461.458	83.12
461.678	71.12
461.898	84.12
462.118	78.12
462.338	82.12
462.558	98.12
462.777	96.12
462.997	95.12
463.217	88.12
463.437	86.12
463.657	91.12
463.876	75.12
464.096	75.12
464.316	73.12
464.536	83.12
464.755	106.12
464.975	95.12
465.195	148.12
465.414	121.12
465.634	94.12
465.854	94.12
466.073	90.12
466.293	96.12
466.512	87.12
466.732	94.12
466.951	94.12
467.171	91.12
467.391	107.12
467.61	92.12
467.829	110.12
468.049	162.12
468.268	210.12
468.488	96.12
468.707	85.12
468.927	90.12
469.146	84.12
469.365	94.12
469.585	74.12
469.804	84.12
470.023	101.12
470.243	107.12
470.462	102.12
470.681	104.12
470.901	94.12
471.12	89.12
471.339	105.12
471.558	73.12
471.777	103.12
471.997	129.12
472.216	277.12
472.435	488.12
472.654	178.12
472.873	103.12
473.092	93.12
473.311	91.12
473.53	80.12
473.749	90.12
473.968	95.12
474.187	98.12
474.406	106.12
474.625	84.12
474.844	91.12
475.063	85.12
475.282	91.12
475.501	79.12
475.72	86.12
475.939	80.12
476.158	81.12
476.377	88.12
476.596	87.12
476.814	84.12
477.033	86.12
477.252	96.12
477.471	99.12
477.69	96.12
477.908	84.12
478.127	85.12
478.346	82.12
478.564	87.12
478.783	98.12
479.002	88.12
479.22	88.12
479.439	96.12
479.658	102.12
479.876	100.12
480.095	95.12
480.313	99.12
480.532	92.12
480.751	133.12
480.969	265.12
481.188	830.12
481.406	497.12
481.624	136.12
481.843	86.12
482.061	98.12
482.28	82.12
482.498	98.12
482.717	72.12
482.935	88.12
483.153	98.12
483.372	92.12
483.59	88.12
483.808	94.12
484.027	96.12
484.245	85.12
484.463	101.12
484.681	91.12
484.9	100.12
485.118	89.12
485.336	73.12
485.554	90.12
485.772	88.12
485.99	97.12
486.209	96.12
486.427	113.12
486.645	116.12
486.863	101.12
487.081	112.12
487.299	85.12
487.517	104.12
487.735	78.12
487.953	87.12
488.171	82.12
488.389	94.12
488.607	98.12
488.825	85.12
489.043	72.12
489.261	92.12
489.479	84.12
489.696	102.12
489.914	73.12
490.132	95.12
490.35	90.12
490.568	91.12
490.786	81.12
491.003	81.12
491.221	81.12
491.439	79.12
491.657	95.12
491.874	83.12
492.092	83.12
492.31	71.12
492.527	97.12
492.745	84.12
492.963	90.12
493.18	90.12
493.398	85.12
493.615	98.12
493.833	90.12
494.05	95.12
494.268	94.12
494.485	91.12
494.703	88.12
494.92	88.12
495.138	95.12
495.355	90.12
495.573	83.12
495.79	86.12
496.008	90.12
496.225	83.12
496.442	94.12
496.66	84.12
496.877	91.12
497.094	88.12
497.312	82.12
497.529	90.12
497.746	88.12
497.963	86.12
498.181	73.12
498.398	104.12
498.615	103.12
498.832	94.12
499.049	90.12
499.267	78.12
499.484	74.12
499.701	88.12
499.918	94.12
500.135	89.12
500.352	84.12
500.569	90.12
500.786	81.12
501.003	92.12
501.22	78.12
501.437	83.12
501.654	91.12
501.871	104.12
502.088	74.12
502.305	86.12
502.522	94.12
502.739	103.12
502.956	80.12
503.172	80.12
503.389	95.12
503.606	95.12
503.823	68.12
504.04	91.12
504.256	84.12
504.473	102.12
504.69	85.12
504.907	97.12
505.123	84.12
505.34	90.12
505.557	87.12
505.773	98.12
505.99	99.12
506.207	94.12
506.423	88.12
506.64	82.12
506.856	91.12
507.073	95.12
507.289	84.12
507.506	98.12
507.722	103.12
507.939	102.12
508.155	95.12
508.372	83.12
508.588	86.12
508.805	96.12
509.021	102.12
509.238	96.12
509.454	99.12
509.67	99.12
509.887	84.12
510.103	114.12
510.319	208.12
510.536	623.12
510.752	2032.12
510.968	571.12
511.184	158.12
511.401	102.12
511.617	93.12
511.833	76.12
512.049	102.12
512.265	82.12
512.481	84.12
512.698	90.12
512.914	91.12
513.13	85.12
513.346	98.12
513.562	88.12
513.778	97.12
513.994	78.12
514.21	101.12
514.426	116.12
514.642	120.12
514.858	115.12
515.074	140.12
515.29	368.12
515.506	1147.12
515.721	438.12
515.937	118.12
516.153	112.12
516.369	108.12
516.585	88.12
