Data from Circ_1984_H10_HRD10591_00064.txt Node
Date: Wed Jan 03 12:22:54 EST 2024
User: Yrep
Spectrometer: HR+D1059
Trigger mode: 1
Integration Time (sec): 1.000000E-1
Scans to average: 1
Electric dark correction enabled: true
Nonlinearity correction enabled: false
Boxcar width: 0
XAxis mode: Wavelengths
Number of Pixels in Spectrum: 2048
>>>>>Begin Spectral Data<<<<<
223.165	-18.88
223.4	-18.88
223.635	-18.88
223.869	-21.88
224.104	-20.88
224.338	-14.88
224.573	-14.88
224.808	-6.88
225.042	-5.88
225.277	-3.88
225.511	8.12
225.746	1.12
225.98	-13.88
226.215	23.12
226.449	5.12
226.683	37.12
226.918	14.12
227.152	33.12
227.387	41.12
227.621	46.12
227.856	41.12
228.09	53.12
228.324	50.12
228.559	51.12
228.793	55.12
229.027	70.12
229.262	61.12
229.496	70.12
229.73	90.12
229.964	85.12
230.199	76.12
230.433	70.12
230.667	82.12
230.901	80.12
231.136	74.12
231.37	85.12
231.604	83.12
231.838	87.12
232.072	74.12
232.306	92.12
232.541	83.12
232.775	91.12
233.009	86.12
233.243	85.12
233.477	85.12
233.711	88.12
233.945	80.12
234.179	87.12
234.413	87.12
234.647	80.12
234.881	87.12
235.115	78.12
235.349	84.12
235.583	87.12
235.817	81.12
236.051	83.12
236.285	76.12
236.519	67.12
236.753	85.12
236.987	73.12
237.221	92.12
237.455	83.12
237.689	87.12
237.922	83.12
238.156	76.12
238.39	73.12
238.624	77.12
238.858	75.12
239.091	85.12
239.325	81.12
239.559	95.12
239.793	81.12
240.027	71.12
240.26	84.12
240.494	79.12
240.728	65.12
240.961	83.12
241.195	88.12
241.429	80.12
241.662	76.12
241.896	79.12
242.13	83.12
242.363	83.12
242.597	81.12
242.83	77.12
243.064	73.12
243.298	85.12
243.531	83.12
243.765	89.12
243.998	70.12
244.232	85.12
244.465	68.12
244.699	79.12
244.932	90.12
245.166	76.12
245.399	73.12
245.633	73.12
245.866	72.12
246.099	85.12
246.333	88.12
246.566	89.12
246.8	70.12
247.033	87.12
247.266	67.12
247.5	77.12
247.733	82.12
247.966	84.12
248.2	81.12
248.433	83.12
248.666	83.12
248.899	77.12
249.133	92.12
249.366	88.12
249.599	92.12
249.832	84.12
250.066	95.12
250.299	73.12
250.532	85.12
250.765	76.12
250.998	71.12
251.231	73.12
251.465	64.12
251.698	75.12
251.931	82.12
252.164	66.12
252.397	87.12
252.63	79.12
252.863	87.12
253.096	69.12
253.329	93.12
253.562	90.12
253.795	102.12
254.028	85.12
254.261	72.12
254.494	72.12
254.727	74.12
254.96	68.12
255.193	93.12
255.426	82.12
255.659	73.12
255.892	97.12
256.124	91.12
256.357	83.12
256.59	71.12
256.823	79.12
257.056	77.12
257.289	83.12
257.521	71.12
257.754	87.12
257.987	79.12
258.22	95.12
258.452	88.12
258.685	86.12
258.918	94.12
259.151	90.12
259.383	80.12
259.616	83.12
259.849	83.12
260.081	88.12
260.314	93.12
260.547	79.12
260.779	85.12
261.012	86.12
261.244	93.12
261.477	79.12
261.71	92.12
261.942	98.12
262.175	119.12
262.407	99.12
262.64	85.12
262.872	70.12
263.105	82.12
263.337	98.12
263.57	102.12
263.802	92.12
264.035	89.12
264.267	95.12
264.499	95.12
264.732	73.12
264.964	67.12
265.197	67.12
265.429	73.12
265.661	77.12
265.894	77.12
266.126	93.12
266.358	85.12
266.591	84.12
266.823	101.12
267.055	85.12
267.287	89.12
267.52	94.12
267.752	93.12
267.984	89.12
268.216	90.12
268.448	88.12
268.681	82.12
268.913	83.12
269.145	77.12
269.377	76.12
269.609	88.12
269.841	74.12
270.073	87.12
270.306	89.12
270.538	97.12
270.77	76.12
271.002	88.12
271.234	86.12
271.466	88.12
271.698	81.12
271.93	79.12
272.162	79.12
272.394	99.12
272.626	89.12
272.858	81.12
273.09	84.12
273.322	91.12
273.553	79.12
273.785	92.12
274.017	86.12
274.249	76.12
274.481	74.12
274.713	87.12
274.945	90.12
275.176	86.12
275.408	89.12
275.64	83.12
275.872	79.12
276.104	91.12
276.335	94.12
276.567	90.12
276.799	99.12
277.031	91.12
277.262	104.12
277.494	87.12
277.726	85.12
277.957	103.12
278.189	91.12
278.421	80.12
278.652	90.12
278.884	91.12
279.115	83.12
279.347	91.12
279.579	74.12
279.81	81.12
280.042	98.12
280.273	98.12
280.505	88.12
280.736	75.12
280.968	83.12
281.199	85.12
281.431	86.12
281.662	80.12
281.894	80.12
282.125	97.12
282.356	110.12
282.588	109.12
282.819	112.12
283.051	97.12
283.282	90.12
283.513	92.12
283.745	86.12
283.976	88.12
284.207	86.12
284.439	89.12
284.67	76.12
284.901	84.12
285.132	95.12
285.364	91.12
285.595	71.12
285.826	83.12
286.057	86.12
286.288	77.12
286.52	83.12
286.751	82.12
286.982	82.12
287.213	88.12
287.444	85.12
287.675	83.12
287.906	73.12
288.138	92.12
288.369	93.12
288.6	96.12
288.831	89.12
289.062	84.12
289.293	83.12
289.524	71.12
289.755	83.12
289.986	79.12
290.217	76.12
290.448	82.12
290.679	86.12
290.91	95.12
291.141	83.12
291.371	98.12
291.602	83.12
291.833	84.12
292.064	98.12
292.295	89.12
292.526	83.12
292.757	87.12
292.987	73.12
293.218	89.12
293.449	90.12
293.68	77.12
293.91	74.12
294.141	97.12
294.372	92.12
294.603	89.12
294.833	87.12
295.064	84.12
295.295	87.12
295.525	94.12
295.756	98.12
295.987	102.12
296.217	127.12
296.448	109.12
296.679	84.12
296.909	90.12
297.14	79.12
297.37	96.12
297.601	97.12
297.831	80.12
298.062	90.12
298.292	97.12
298.523	81.12
298.753	95.12
298.984	105.12
299.214	94.12
299.445	88.12
299.675	93.12
299.905	84.12
300.136	93.12
300.366	88.12
300.597	101.12
300.827	99.12
301.057	90.12
301.288	97.12
301.518	77.12
301.748	88.12
301.979	98.12
302.209	75.12
302.439	89.12
302.669	73.12
302.9	84.12
303.13	97.12
303.36	76.12
303.59	93.12
303.82	95.12
304.051	89.12
304.281	85.12
304.511	101.12
304.741	75.12
304.971	85.12
305.201	89.12
305.431	87.12
305.661	89.12
305.891	84.12
306.121	98.12
306.352	111.12
306.582	103.12
306.812	92.12
307.042	105.12
307.272	102.12
307.502	115.12
307.731	103.12
307.961	96.12
308.191	95.12
308.421	98.12
308.651	87.12
308.881	99.12
309.111	83.12
309.341	96.12
309.571	103.12
309.8	101.12
310.03	103.12
310.26	98.12
310.49	93.12
310.72	102.12
310.949	96.12
311.179	104.12
311.409	84.12
311.639	84.12
311.868	84.12
312.098	96.12
312.328	82.12
312.557	86.12
312.787	107.12
313.017	108.12
313.246	91.12
313.476	91.12
313.706	87.12
313.935	85.12
314.165	100.12
314.394	88.12
314.624	101.12
314.853	91.12
315.083	91.12
315.312	81.12
315.542	97.12
315.771	81.12
316.001	86.12
316.23	100.12
316.46	91.12
316.689	95.12
316.919	106.12
317.148	81.12
317.377	95.12
317.607	75.12
317.836	87.12
318.065	81.12
318.295	87.12
318.524	102.12
318.753	98.12
318.983	94.12
319.212	82.12
319.441	100.12
319.67	109.12
319.9	92.12
320.129	90.12
320.358	89.12
320.587	95.12
320.816	94.12
321.046	89.12
321.275	96.12
321.504	85.12
321.733	104.12
321.962	102.12
322.191	88.12
322.42	96.12
322.649	99.12
322.878	101.12
323.108	113.12
323.337	114.12
323.566	120.12
323.795	140.12
324.024	208.12
324.253	357.12
324.482	687.12
324.71	1441.12
324.939	1915.12
325.168	700.12
325.397	230.12
325.626	152.12
325.855	122.12
326.084	110.12
326.313	118.12
326.542	138.12
326.77	195.12
326.999	384.12
327.228	796.12
327.457	1471.12
327.686	1179.12
327.914	364.12
328.143	195.12
328.372	193.12
328.6	145.12
328.829	126.12
329.058	127.12
329.287	119.12
329.515	109.12
329.744	130.12
329.972	153.12
330.201	197.12
330.43	267.12
330.658	163.12
330.887	142.12
331.115	113.12
331.344	105.12
331.572	95.12
331.801	107.12
332.03	99.12
332.258	88.12
332.486	99.12
332.715	92.12
332.943	111.12
333.172	101.12
333.4	99.12
333.629	100.12
333.857	121.12
334.085	144.12
334.314	213.12
334.542	324.12
334.771	312.12
334.999	131.12
335.227	101.12
335.455	89.12
335.684	87.12
335.912	103.12
336.14	98.12
336.369	90.12
336.597	91.12
336.825	111.12
337.053	90.12
337.281	87.12
337.51	93.12
337.738	94.12
337.966	88.12
338.194	75.12
338.422	93.12
338.65	97.12
338.878	77.12
339.106	75.12
339.334	102.12
339.562	89.12
339.79	85.12
340.018	89.12
340.246	100.12
340.474	92.12
340.702	98.12
340.93	88.12
341.158	98.12
341.386	107.12
341.614	93.12
341.842	96.12
342.07	91.12
342.298	91.12
342.526	88.12
342.754	89.12
342.981	91.12
343.209	100.12
343.437	91.12
343.665	94.12
343.893	84.12
344.12	90.12
344.348	77.12
344.576	84.12
344.804	81.12
345.031	101.12
345.259	72.12
345.487	92.12
345.714	95.12
345.942	75.12
346.17	85.12
346.397	87.12
346.625	92.12
346.853	81.12
347.08	95.12
347.308	104.12
347.535	97.12
347.763	95.12
347.99	91.12
348.218	94.12
348.445	106.12
348.673	106.12
348.9	87.12
349.128	94.12
349.355	81.12
349.583	98.12
349.81	95.12
350.037	95.12
350.265	83.12
350.492	96.12
350.72	89.12
350.947	103.12
351.174	106.12
351.402	101.12
351.629	92.12
351.856	81.12
352.083	96.12
352.311	107.12
352.538	88.12
352.765	117.12
352.992	98.12
353.22	105.12
353.447	99.12
353.674	104.12
353.901	102.12
354.128	88.12
354.355	90.12
354.583	106.12
354.81	89.12
355.037	99.12
355.264	96.12
355.491	89.12
355.718	90.12
355.945	99.12
356.172	76.12
356.399	105.12
356.626	79.12
356.853	96.12
357.08	85.12
357.307	101.12
357.534	87.12
357.761	103.12
357.988	106.12
358.215	98.12
358.441	83.12
358.668	83.12
358.895	89.12
359.122	82.12
359.349	72.12
359.576	95.12
359.802	83.12
360.029	87.12
360.256	95.12
360.483	92.12
360.709	80.12
360.936	106.12
361.163	95.12
361.39	90.12
361.616	100.12
361.843	89.12
362.07	99.12
362.296	90.12
362.523	84.12
362.749	87.12
362.976	89.12
363.203	94.12
363.429	89.12
363.656	89.12
363.882	75.12
364.109	77.12
364.335	105.12
364.562	81.12
364.788	102.12
365.015	87.12
365.241	104.12
365.468	99.12
365.694	111.12
365.92	95.12
366.147	88.12
366.373	83.12
366.599	88.12
366.826	77.12
367.052	85.12
367.278	88.12
367.505	80.12
367.731	97.12
367.957	92.12
368.184	99.12
368.41	88.12
368.636	93.12
368.862	104.12
369.089	107.12
369.315	93.12
369.541	97.12
369.767	90.12
369.993	81.12
370.219	74.12
370.445	83.12
370.672	81.12
370.898	102.12
371.124	97.12
371.35	83.12
371.576	92.12
371.802	108.12
372.028	92.12
372.254	92.12
372.48	96.12
372.706	96.12
372.932	83.12
373.158	94.12
373.384	96.12
373.61	85.12
373.835	83.12
374.061	89.12
374.287	93.12
374.513	84.12
374.739	91.12
374.965	98.12
375.191	74.12
375.416	90.12
375.642	96.12
375.868	84.12
376.094	91.12
376.319	107.12
376.545	86.12
376.771	76.12
376.997	90.12
377.222	98.12
377.448	103.12
377.674	81.12
377.899	88.12
378.125	79.12
378.35	83.12
378.576	82.12
378.802	99.12
379.027	95.12
379.253	88.12
379.478	90.12
379.704	76.12
379.929	91.12
380.155	97.12
380.38	94.12
380.606	84.12
380.831	91.12
381.057	87.12
381.282	105.12
381.507	102.12
381.733	100.12
381.958	94.12
382.184	111.12
382.409	104.12
382.634	100.12
382.86	94.12
383.085	85.12
383.31	99.12
383.535	101.12
383.761	93.12
383.986	98.12
384.211	98.12
384.436	94.12
384.662	103.12
384.887	99.12
385.112	102.12
385.337	105.12
385.562	96.12
385.787	99.12
386.013	112.12
386.238	101.12
386.463	103.12
386.688	100.12
386.913	100.12
387.138	105.12
387.363	110.12
387.588	101.12
387.813	90.12
388.038	104.12
388.263	109.12
388.488	98.12
388.713	100.12
388.938	108.12
389.163	92.12
389.387	92.12
389.612	88.12
389.837	93.12
390.062	87.12
390.287	92.12
390.512	84.12
390.736	108.12
390.961	92.12
391.186	71.12
391.411	87.12
391.636	105.12
391.86	90.12
392.085	86.12
392.31	80.12
392.534	77.12
392.759	98.12
392.984	103.12
393.208	82.12
393.433	95.12
393.658	81.12
393.882	82.12
394.107	79.12
394.331	87.12
394.556	81.12
394.78	89.12
395.005	101.12
395.229	75.12
395.454	97.12
395.678	79.12
395.903	83.12
396.127	83.12
396.352	94.12
396.576	92.12
396.801	98.12
397.025	84.12
397.249	84.12
397.474	88.12
397.698	85.12
397.922	81.12
398.147	90.12
398.371	83.12
398.595	80.12
398.82	84.12
399.044	87.12
399.268	89.12
399.492	74.12
399.717	87.12
399.941	70.12
400.165	74.12
400.389	87.12
400.613	85.12
400.837	83.12
401.062	83.12
401.286	91.12
401.51	104.12
401.734	93.12
401.958	100.12
402.182	109.12
402.406	143.12
402.63	108.12
402.854	89.12
403.078	80.12
403.302	85.12
403.526	86.12
403.75	76.12
403.974	73.12
404.198	91.12
404.422	79.12
404.645	87.12
404.869	83.12
405.093	84.12
405.317	107.12
405.541	87.12
405.765	81.12
405.988	114.12
406.212	146.12
406.436	196.12
406.66	139.12
406.883	92.12
407.107	81.12
407.331	83.12
407.555	100.12
407.778	80.12
408.002	82.12
408.226	93.12
408.449	88.12
408.673	87.12
408.896	94.12
409.12	75.12
409.344	83.12
409.567	90.12
409.791	91.12
410.014	100.12
410.238	84.12
410.461	99.12
410.685	90.12
410.908	103.12
411.132	97.12
411.355	91.12
411.578	81.12
411.802	76.12
412.025	100.12
412.249	83.12
412.472	100.12
412.695	93.12
412.919	96.12
413.142	91.12
413.365	76.12
413.589	106.12
413.812	79.12
414.035	93.12
414.258	83.12
414.482	86.12
414.705	95.12
414.928	73.12
415.151	86.12
415.374	82.12
415.597	98.12
415.821	79.12
416.044	91.12
416.267	83.12
416.49	81.12
416.713	82.12
416.936	92.12
417.159	73.12
417.382	92.12
417.605	89.12
417.828	80.12
418.051	85.12
418.274	84.12
418.497	87.12
418.72	96.12
418.943	91.12
419.166	92.12
419.389	97.12
419.611	79.12
419.834	91.12
420.057	84.12
420.28	95.12
420.503	91.12
420.726	88.12
420.948	89.12
421.171	91.12
421.394	84.12
421.617	76.12
421.839	76.12
422.062	85.12
422.285	87.12
422.507	91.12
422.73	90.12
422.953	77.12
423.175	90.12
423.398	82.12
423.621	94.12
423.843	91.12
424.066	83.12
424.288	85.12
424.511	107.12
424.733	94.12
424.956	92.12
425.178	99.12
425.401	86.12
425.623	97.12
425.846	84.12
426.068	90.12
426.291	80.12
426.513	92.12
426.735	88.12
426.958	93.12
427.18	83.12
427.402	114.12
427.625	163.12
427.847	133.12
428.069	145.12
428.292	88.12
428.514	96.12
428.736	85.12
428.958	98.12
429.181	82.12
429.403	92.12
429.625	72.12
429.847	85.12
430.069	96.12
430.292	103.12
430.514	87.12
430.736	78.12
430.958	81.12
431.18	77.12
431.402	85.12
431.624	85.12
431.846	90.12
432.068	99.12
432.29	72.12
432.512	85.12
432.734	75.12
432.956	90.12
433.178	97.12
433.4	96.12
433.622	101.12
433.844	91.12
434.066	84.12
434.287	81.12
434.509	80.12
434.731	84.12
434.953	83.12
435.175	63.12
435.397	99.12
435.618	94.12
435.84	103.12
436.062	111.12
436.284	119.12
436.505	92.12
436.727	93.12
436.949	80.12
437.17	97.12
437.392	79.12
437.614	91.12
437.835	100.12
438.057	122.12
438.278	89.12
438.5	98.12
438.721	118.12
438.943	90.12
439.165	81.12
439.386	96.12
439.608	87.12
439.829	103.12
440.05	108.12
440.272	127.12
440.493	89.12
440.715	68.12
440.936	81.12
441.158	84.12
441.379	98.12
441.6	88.12
441.822	97.12
442.043	91.12
442.264	99.12
442.486	109.12
442.707	86.12
442.928	111.12
443.149	111.12
443.371	99.12
443.592	95.12
443.813	106.12
444.034	108.12
444.255	94.12
444.476	82.12
444.698	88.12
444.919	84.12
445.14	121.12
445.361	128.12
445.582	111.12
445.803	123.12
446.024	110.12
446.245	120.12
446.466	100.12
446.687	83.12
446.908	82.12
447.129	93.12
447.35	86.12
447.571	81.12
447.792	82.12
448.013	90.12
448.234	104.12
448.455	97.12
448.675	99.12
448.896	103.12
449.117	96.12
449.338	109.12
449.559	126.12
449.779	121.12
450	91.12
450.221	86.12
450.442	90.12
450.662	90.12
450.883	98.12
451.104	94.12
451.324	95.12
451.545	98.12
451.766	83.12
451.986	85.12
452.207	84.12
452.428	86.12
452.648	97.12
452.869	105.12
453.089	109.12
453.31	135.12
453.53	89.12
453.751	76.12
453.971	99.12
454.192	109.12
454.412	80.12
454.633	92.12
454.853	103.12
455.073	91.12
455.294	86.12
455.514	96.12
455.734	88.12
455.955	76.12
456.175	82.12
456.395	76.12
456.616	75.12
456.836	74.12
457.056	85.12
457.276	79.12
457.497	82.12
457.717	74.12
457.937	75.12
458.157	102.12
458.377	93.12
458.598	103.12
458.818	125.12
459.038	139.12
459.258	108.12
459.478	88.12
459.698	87.12
459.918	88.12
460.138	90.12
460.358	90.12
460.578	86.12
460.798	81.12
461.018	80.12
461.238	94.12
461.458	84.12
461.678	83.12
461.898	95.12
462.118	92.12
462.338	79.12
462.558	90.12
462.777	86.12
462.997	82.12
463.217	82.12
463.437	91.12
463.657	86.12
463.876	72.12
464.096	81.12
464.316	86.12
464.536	86.12
464.755	93.12
464.975	95.12
465.195	135.12
465.414	150.12
465.634	88.12
465.854	83.12
466.073	93.12
466.293	85.12
466.512	84.12
466.732	74.12
466.951	103.12
467.171	80.12
467.391	96.12
467.61	113.12
467.829	117.12
468.049	143.12
468.268	174.12
468.488	107.12
468.707	78.12
468.927	82.12
469.146	85.12
469.365	86.12
469.585	91.12
469.804	82.12
470.023	91.12
470.243	84.12
470.462	99.12
470.681	95.12
470.901	95.12
471.12	75.12
471.339	85.12
471.558	90.12
471.777	109.12
471.997	121.12
472.216	254.12
472.435	405.12
472.654	153.12
472.873	97.12
473.092	86.12
473.311	74.12
473.53	77.12
473.749	101.12
473.968	95.12
474.187	105.12
474.406	93.12
474.625	73.12
474.844	89.12
475.063	93.12
475.282	76.12
475.501	76.12
475.72	91.12
475.939	99.12
476.158	74.12
476.377	88.12
476.596	94.12
476.814	87.12
477.033	83.12
477.252	93.12
477.471	68.12
477.69	97.12
477.908	88.12
478.127	79.12
478.346	81.12
478.564	96.12
478.783	91.12
479.002	101.12
479.22	105.12
479.439	100.12
479.658	100.12
479.876	86.12
480.095	95.12
480.313	97.12
480.532	96.12
480.751	118.12
480.969	253.12
481.188	723.12
481.406	452.12
481.624	121.12
481.843	73.12
482.061	85.12
482.28	85.12
482.498	88.12
482.717	95.12
482.935	92.12
483.153	103.12
483.372	87.12
483.59	72.12
483.808	97.12
484.027	83.12
484.245	86.12
484.463	87.12
484.681	95.12
484.9	80.12
485.118	89.12
485.336	95.12
485.554	75.12
485.772	91.12
485.99	100.12
486.209	105.12
486.427	114.12
486.645	111.12
486.863	105.12
487.081	97.12
487.299	96.12
487.517	81.12
487.735	98.12
487.953	99.12
488.171	89.12
488.389	92.12
488.607	88.12
488.825	88.12
489.043	79.12
489.261	82.12
489.479	90.12
489.696	94.12
489.914	84.12
490.132	84.12
490.35	84.12
490.568	84.12
490.786	91.12
491.003	75.12
491.221	79.12
491.439	91.12
491.657	75.12
491.874	96.12
492.092	74.12
492.31	81.12
492.527	94.12
492.745	86.12
492.963	94.12
493.18	92.12
493.398	71.12
493.615	85.12
493.833	86.12
494.05	91.12
494.268	81.12
494.485	88.12
494.703	82.12
494.92	84.12
495.138	92.12
495.355	91.12
495.573	79.12
495.79	91.12
496.008	89.12
496.225	103.12
496.442	97.12
496.66	97.12
496.877	88.12
497.094	99.12
497.312	97.12
497.529	85.12
497.746	86.12
497.963	90.12
498.181	82.12
498.398	88.12
498.615	101.12
498.832	99.12
499.049	69.12
499.267	103.12
499.484	84.12
499.701	77.12
499.918	105.12
500.135	99.12
500.352	94.12
500.569	104.12
500.786	86.12
501.003	91.12
501.22	86.12
501.437	84.12
501.654	99.12
501.871	108.12
502.088	92.12
502.305	94.12
502.522	87.12
502.739	87.12
502.956	76.12
503.172	93.12
503.389	96.12
503.606	89.12
503.823	91.12
504.04	101.12
504.256	106.12
504.473	89.12
504.69	84.12
504.907	101.12
505.123	86.12
505.34	103.12
505.557	83.12
505.773	96.12
505.99	86.12
506.207	89.12
506.423	92.12
506.64	85.12
506.856	70.12
507.073	80.12
507.289	84.12
507.506	107.12
507.722	90.12
507.939	101.12
508.155	90.12
508.372	85.12
508.588	81.12
508.805	82.12
509.021	99.12
509.238	84.12
509.454	93.12
509.67	89.12
509.887	93.12
510.103	108.12
510.319	173.12
510.536	600.12
510.752	1926.12
510.968	547.12
511.184	136.12
511.401	108.12
511.617	89.12
511.833	90.12
512.049	90.12
512.265	80.12
512.481	91.12
512.698	102.12
512.914	95.12
513.13	72.12
513.346	79.12
513.562	91.12
513.778	100.12
513.994	96.12
514.21	108.12
514.426	114.12
514.642	109.12
514.858	112.12
515.074	143.12
515.29	353.12
515.506	1125.12
515.721	418.12
515.937	121.12
516.153	89.12
516.369	91.12
