Data from Circ_1984_H10_HRD10591_00042.txt Node
Date: Wed Jan 03 12:22:50 EST 2024
User: Yrep
Spectrometer: HR+D1059
Trigger mode: 1
Integration Time (sec): 1.000000E-1
Scans to average: 1
Electric dark correction enabled: true
Nonlinearity correction enabled: false
Boxcar width: 0
XAxis mode: Wavelengths
Number of Pixels in Spectrum: 2048
>>>>>Begin Spectral Data<<<<<
223.165	-13.5
223.4	-13.5
223.635	-13.5
223.869	-30.5
224.104	-37.5
224.338	-33.5
224.573	-19.5
224.808	-3.5
225.042	-7.5
225.277	-6.5
225.511	20.5
225.746	3.5
225.98	8.5
226.215	4.5
226.449	18.5
226.683	31.5
226.918	33.5
227.152	31.5
227.387	46.5
227.621	43.5
227.856	32.5
228.09	56.5
228.324	32.5
228.559	51.5
228.793	53.5
229.027	59.5
229.262	63.5
229.496	64.5
229.73	81.5
229.964	84.5
230.199	75.5
230.433	71.5
230.667	66.5
230.901	76.5
231.136	85.5
231.37	68.5
231.604	84.5
231.838	85.5
232.072	87.5
232.306	88.5
232.541	91.5
232.775	69.5
233.009	77.5
233.243	88.5
233.477	80.5
233.711	72.5
233.945	73.5
234.179	69.5
234.413	70.5
234.647	75.5
234.881	81.5
235.115	81.5
235.349	76.5
235.583	83.5
235.817	64.5
236.051	71.5
236.285	80.5
236.519	59.5
236.753	66.5
236.987	63.5
237.221	83.5
237.455	88.5
237.689	73.5
237.922	77.5
238.156	79.5
238.39	71.5
238.624	75.5
238.858	74.5
239.091	76.5
239.325	77.5
239.559	83.5
239.793	65.5
240.027	87.5
240.26	82.5
240.494	66.5
240.728	88.5
240.961	86.5
241.195	80.5
241.429	82.5
241.662	83.5
241.896	68.5
242.13	68.5
242.363	79.5
242.597	75.5
242.83	69.5
243.064	75.5
243.298	91.5
243.531	77.5
243.765	64.5
243.998	67.5
244.232	65.5
244.465	83.5
244.699	83.5
244.932	79.5
245.166	74.5
245.399	81.5
245.633	82.5
245.866	70.5
246.099	77.5
246.333	66.5
246.566	78.5
246.8	100.5
247.033	68.5
247.266	56.5
247.5	79.5
247.733	84.5
247.966	85.5
248.2	72.5
248.433	64.5
248.666	76.5
248.899	81.5
249.133	95.5
249.366	101.5
249.599	92.5
249.832	82.5
250.066	92.5
250.299	87.5
250.532	86.5
250.765	70.5
250.998	79.5
251.231	75.5
251.465	78.5
251.698	79.5
251.931	85.5
252.164	73.5
252.397	76.5
252.63	69.5
252.863	72.5
253.096	62.5
253.329	82.5
253.562	80.5
253.795	80.5
254.028	62.5
254.261	73.5
254.494	94.5
254.727	80.5
254.96	79.5
255.193	78.5
255.426	76.5
255.659	63.5
255.892	93.5
256.124	68.5
256.357	83.5
256.59	89.5
256.823	84.5
257.056	78.5
257.289	83.5
257.521	83.5
257.754	78.5
257.987	85.5
258.22	75.5
258.452	77.5
258.685	87.5
258.918	77.5
259.151	69.5
259.383	99.5
259.616	77.5
259.849	74.5
260.081	84.5
260.314	77.5
260.547	70.5
260.779	82.5
261.012	91.5
261.244	82.5
261.477	92.5
261.71	90.5
261.942	110.5
262.175	95.5
262.407	78.5
262.64	65.5
262.872	81.5
263.105	75.5
263.337	84.5
263.57	85.5
263.802	77.5
264.035	78.5
264.267	81.5
264.499	84.5
264.732	79.5
264.964	73.5
265.197	79.5
265.429	69.5
265.661	94.5
265.894	81.5
266.126	72.5
266.358	87.5
266.591	62.5
266.823	76.5
267.055	74.5
267.287	87.5
267.52	86.5
267.752	71.5
267.984	77.5
268.216	77.5
268.448	68.5
268.681	96.5
268.913	71.5
269.145	79.5
269.377	85.5
269.609	76.5
269.841	85.5
270.073	88.5
270.306	89.5
270.538	91.5
270.77	86.5
271.002	73.5
271.234	68.5
271.466	80.5
271.698	91.5
271.93	71.5
272.162	90.5
272.394	88.5
272.626	76.5
272.858	100.5
273.09	86.5
273.322	68.5
273.553	84.5
273.785	68.5
274.017	79.5
274.249	79.5
274.481	84.5
274.713	87.5
274.945	58.5
275.176	81.5
275.408	83.5
275.64	82.5
275.872	90.5
276.104	87.5
276.335	96.5
276.567	84.5
276.799	95.5
277.031	100.5
277.262	93.5
277.494	85.5
277.726	69.5
277.957	79.5
278.189	91.5
278.421	87.5
278.652	79.5
278.884	84.5
279.115	88.5
279.347	65.5
279.579	87.5
279.81	87.5
280.042	78.5
280.273	86.5
280.505	89.5
280.736	76.5
280.968	79.5
281.199	71.5
281.431	74.5
281.662	77.5
281.894	83.5
282.125	77.5
282.356	89.5
282.588	134.5
282.819	87.5
283.051	90.5
283.282	72.5
283.513	82.5
283.745	96.5
283.976	84.5
284.207	76.5
284.439	94.5
284.67	87.5
284.901	79.5
285.132	72.5
285.364	83.5
285.595	83.5
285.826	92.5
286.057	73.5
286.288	68.5
286.52	79.5
286.751	86.5
286.982	101.5
287.213	79.5
287.444	92.5
287.675	95.5
287.906	94.5
288.138	80.5
288.369	88.5
288.6	81.5
288.831	92.5
289.062	72.5
289.293	62.5
289.524	79.5
289.755	90.5
289.986	79.5
290.217	96.5
290.448	74.5
290.679	83.5
290.91	85.5
291.141	87.5
291.371	80.5
291.602	97.5
291.833	91.5
292.064	91.5
292.295	87.5
292.526	92.5
292.757	94.5
292.987	92.5
293.218	95.5
293.449	95.5
293.68	69.5
293.91	83.5
294.141	82.5
294.372	80.5
294.603	85.5
294.833	73.5
295.064	79.5
295.295	97.5
295.525	78.5
295.756	83.5
295.987	111.5
296.217	128.5
296.448	119.5
296.679	98.5
296.909	84.5
297.14	77.5
297.37	92.5
297.601	77.5
297.831	89.5
298.062	93.5
298.292	77.5
298.523	87.5
298.753	79.5
298.984	83.5
299.214	81.5
299.445	82.5
299.675	83.5
299.905	83.5
300.136	87.5
300.366	70.5
300.597	80.5
300.827	89.5
301.057	87.5
301.288	83.5
301.518	86.5
301.748	85.5
301.979	101.5
302.209	100.5
302.439	94.5
302.669	95.5
302.9	80.5
303.13	97.5
303.36	96.5
303.59	92.5
303.82	95.5
304.051	79.5
304.281	83.5
304.511	95.5
304.741	88.5
304.971	94.5
305.201	95.5
305.431	84.5
305.661	89.5
305.891	83.5
306.121	80.5
306.352	103.5
306.582	100.5
306.812	103.5
307.042	78.5
307.272	98.5
307.502	97.5
307.731	99.5
307.961	98.5
308.191	103.5
308.421	78.5
308.651	98.5
308.881	83.5
309.111	89.5
309.341	87.5
309.571	79.5
309.8	108.5
310.03	81.5
310.26	87.5
310.49	95.5
310.72	97.5
310.949	103.5
311.179	98.5
311.409	96.5
311.639	87.5
311.868	103.5
312.098	94.5
312.328	97.5
312.557	88.5
312.787	97.5
313.017	104.5
313.246	101.5
313.476	90.5
313.706	75.5
313.935	95.5
314.165	101.5
314.394	94.5
314.624	88.5
314.853	91.5
315.083	91.5
315.312	90.5
315.542	90.5
315.771	95.5
316.001	84.5
316.23	85.5
316.46	80.5
316.689	81.5
316.919	85.5
317.148	95.5
317.377	97.5
317.607	89.5
317.836	91.5
318.065	96.5
318.295	93.5
318.524	95.5
318.753	86.5
318.983	88.5
319.212	102.5
319.441	100.5
319.67	93.5
319.9	85.5
320.129	84.5
320.358	98.5
320.587	97.5
320.816	101.5
321.046	86.5
321.275	92.5
321.504	85.5
321.733	89.5
321.962	104.5
322.191	93.5
322.42	100.5
322.649	111.5
322.878	104.5
323.108	115.5
323.337	113.5
323.566	115.5
323.795	120.5
324.024	174.5
324.253	296.5
324.482	645.5
324.71	1267.5
324.939	1723.5
325.168	648.5
325.397	216.5
325.626	127.5
325.855	113.5
326.084	104.5
326.313	105.5
326.542	136.5
326.77	188.5
326.999	367.5
327.228	728.5
327.457	1288.5
327.686	1043.5
327.914	332.5
328.143	198.5
328.372	168.5
328.6	134.5
328.829	122.5
329.058	115.5
329.287	109.5
329.515	110.5
329.744	95.5
329.972	127.5
330.201	164.5
330.43	208.5
330.658	136.5
330.887	127.5
331.115	110.5
331.344	91.5
331.572	94.5
331.801	87.5
332.03	82.5
332.258	95.5
332.486	92.5
332.715	89.5
332.943	93.5
333.172	92.5
333.4	102.5
333.629	100.5
333.857	88.5
334.085	119.5
334.314	180.5
334.542	255.5
334.771	241.5
334.999	135.5
335.227	105.5
335.455	102.5
335.684	103.5
335.912	102.5
336.14	100.5
336.369	95.5
336.597	97.5
336.825	98.5
337.053	80.5
337.281	87.5
337.51	79.5
337.738	88.5
337.966	86.5
338.194	82.5
338.422	90.5
338.65	79.5
338.878	93.5
339.106	89.5
339.334	87.5
339.562	84.5
339.79	89.5
340.018	97.5
340.246	92.5
340.474	97.5
340.702	80.5
340.93	98.5
341.158	79.5
341.386	94.5
341.614	94.5
341.842	103.5
342.07	85.5
342.298	94.5
342.526	91.5
342.754	91.5
342.981	82.5
343.209	92.5
343.437	87.5
343.665	66.5
343.893	77.5
344.12	91.5
344.348	80.5
344.576	86.5
344.804	85.5
345.031	84.5
345.259	95.5
345.487	90.5
345.714	93.5
345.942	91.5
346.17	101.5
346.397	89.5
346.625	89.5
346.853	72.5
347.08	89.5
347.308	90.5
347.535	97.5
347.763	95.5
347.99	93.5
348.218	101.5
348.445	88.5
348.673	97.5
348.9	82.5
349.128	88.5
349.355	95.5
349.583	96.5
349.81	79.5
350.037	82.5
350.265	97.5
350.492	90.5
350.72	111.5
350.947	97.5
351.174	112.5
351.402	89.5
351.629	101.5
351.856	83.5
352.083	114.5
352.311	93.5
352.538	96.5
352.765	100.5
352.992	107.5
353.22	110.5
353.447	97.5
353.674	97.5
353.901	99.5
354.128	83.5
354.355	88.5
354.583	99.5
354.81	80.5
355.037	81.5
355.264	93.5
355.491	93.5
355.718	85.5
355.945	79.5
356.172	82.5
356.399	90.5
356.626	86.5
356.853	90.5
357.08	94.5
357.307	92.5
357.534	93.5
357.761	83.5
357.988	97.5
358.215	89.5
358.441	97.5
358.668	70.5
358.895	79.5
359.122	90.5
359.349	93.5
359.576	79.5
359.802	95.5
360.029	92.5
360.256	90.5
360.483	83.5
360.709	81.5
360.936	94.5
361.163	103.5
361.39	86.5
361.616	89.5
361.843	95.5
362.07	85.5
362.296	85.5
362.523	80.5
362.749	92.5
362.976	77.5
363.203	77.5
363.429	91.5
363.656	72.5
363.882	86.5
364.109	85.5
364.335	93.5
364.562	88.5
364.788	93.5
365.015	83.5
365.241	86.5
365.468	94.5
365.694	94.5
365.92	97.5
366.147	83.5
366.373	89.5
366.599	81.5
366.826	84.5
367.052	68.5
367.278	84.5
367.505	95.5
367.731	81.5
367.957	81.5
368.184	86.5
368.41	87.5
368.636	107.5
368.862	116.5
369.089	79.5
369.315	79.5
369.541	79.5
369.767	85.5
369.993	71.5
370.219	79.5
370.445	70.5
370.672	88.5
370.898	82.5
371.124	86.5
371.35	77.5
371.576	101.5
371.802	73.5
372.028	80.5
372.254	86.5
372.48	83.5
372.706	93.5
372.932	85.5
373.158	80.5
373.384	92.5
373.61	77.5
373.835	78.5
374.061	79.5
374.287	93.5
374.513	87.5
374.739	85.5
374.965	79.5
375.191	97.5
375.416	92.5
375.642	83.5
375.868	91.5
376.094	91.5
376.319	97.5
376.545	76.5
376.771	78.5
376.997	70.5
377.222	88.5
377.448	77.5
377.674	96.5
377.899	83.5
378.125	84.5
378.35	87.5
378.576	86.5
378.802	94.5
379.027	76.5
379.253	71.5
379.478	82.5
379.704	95.5
379.929	73.5
380.155	85.5
380.38	91.5
380.606	81.5
380.831	86.5
381.057	93.5
381.282	87.5
381.507	91.5
381.733	99.5
381.958	86.5
382.184	107.5
382.409	95.5
382.634	98.5
382.86	75.5
383.085	87.5
383.31	93.5
383.535	83.5
383.761	86.5
383.986	86.5
384.211	79.5
384.436	89.5
384.662	82.5
384.887	85.5
385.112	99.5
385.337	87.5
385.562	95.5
385.787	103.5
386.013	94.5
386.238	114.5
386.463	95.5
386.688	112.5
386.913	99.5
387.138	96.5
387.363	95.5
387.588	95.5
387.813	99.5
388.038	87.5
388.263	107.5
388.488	109.5
388.713	84.5
388.938	91.5
389.163	93.5
389.387	82.5
389.612	88.5
389.837	84.5
390.062	70.5
390.287	84.5
390.512	76.5
390.736	87.5
390.961	84.5
391.186	79.5
391.411	79.5
391.636	83.5
391.86	80.5
392.085	66.5
392.31	81.5
392.534	70.5
392.759	82.5
392.984	75.5
393.208	98.5
393.433	87.5
393.658	96.5
393.882	75.5
394.107	83.5
394.331	80.5
394.556	84.5
394.78	99.5
395.005	77.5
395.229	81.5
395.454	84.5
395.678	51.5
395.903	81.5
396.127	77.5
396.352	75.5
396.576	79.5
396.801	88.5
397.025	92.5
397.249	91.5
397.474	68.5
397.698	71.5
397.922	92.5
398.147	88.5
398.371	79.5
398.595	67.5
398.82	90.5
399.044	78.5
399.268	95.5
399.492	93.5
399.717	84.5
399.941	87.5
400.165	100.5
400.389	93.5
400.613	93.5
400.837	92.5
401.062	82.5
401.286	90.5
401.51	98.5
401.734	79.5
401.958	97.5
402.182	118.5
402.406	134.5
402.63	114.5
402.854	85.5
403.078	88.5
403.302	77.5
403.526	70.5
403.75	87.5
403.974	88.5
404.198	78.5
404.422	83.5
404.645	86.5
404.869	88.5
405.093	96.5
405.317	89.5
405.541	88.5
405.765	76.5
405.988	119.5
406.212	152.5
406.436	197.5
406.66	114.5
406.883	89.5
407.107	95.5
407.331	97.5
407.555	96.5
407.778	84.5
408.002	73.5
408.226	68.5
408.449	97.5
408.673	87.5
408.896	105.5
409.12	85.5
409.344	90.5
409.567	81.5
409.791	91.5
410.014	86.5
410.238	89.5
410.461	80.5
410.685	91.5
410.908	92.5
411.132	85.5
411.355	84.5
411.578	87.5
411.802	83.5
412.025	68.5
412.249	81.5
412.472	80.5
412.695	88.5
412.919	89.5
413.142	67.5
413.365	85.5
413.589	93.5
413.812	79.5
414.035	93.5
414.258	89.5
414.482	74.5
414.705	72.5
414.928	83.5
415.151	90.5
415.374	80.5
415.597	84.5
415.821	97.5
416.044	84.5
416.267	99.5
416.49	87.5
416.713	79.5
416.936	77.5
417.159	84.5
417.382	72.5
417.605	80.5
417.828	67.5
418.051	93.5
418.274	101.5
418.497	66.5
418.72	74.5
418.943	85.5
419.166	78.5
419.389	97.5
419.611	77.5
419.834	84.5
420.057	81.5
420.28	88.5
420.503	83.5
420.726	82.5
420.948	80.5
421.171	85.5
421.394	75.5
421.617	91.5
421.839	78.5
422.062	80.5
422.285	86.5
422.507	103.5
422.73	87.5
422.953	89.5
423.175	81.5
423.398	93.5
423.621	88.5
423.843	76.5
424.066	80.5
424.288	94.5
424.511	99.5
424.733	87.5
424.956	99.5
425.178	93.5
425.401	98.5
425.623	81.5
425.846	97.5
426.068	79.5
426.291	87.5
426.513	60.5
426.735	87.5
426.958	83.5
427.18	96.5
427.402	127.5
427.625	137.5
427.847	111.5
428.069	104.5
428.292	95.5
428.514	81.5
428.736	71.5
428.958	85.5
429.181	81.5
429.403	80.5
429.625	91.5
429.847	79.5
430.069	90.5
430.292	91.5
430.514	89.5
430.736	91.5
430.958	88.5
431.18	94.5
431.402	82.5
431.624	65.5
431.846	79.5
432.068	87.5
432.29	99.5
432.512	93.5
432.734	81.5
432.956	88.5
433.178	89.5
433.4	97.5
433.622	97.5
433.844	91.5
434.066	93.5
434.287	90.5
434.509	101.5
434.731	82.5
434.953	61.5
435.175	85.5
435.397	68.5
435.618	81.5
435.84	98.5
436.062	95.5
436.284	98.5
436.505	100.5
436.727	98.5
436.949	92.5
437.17	87.5
437.392	93.5
437.614	79.5
437.835	101.5
438.057	121.5
438.278	103.5
438.5	99.5
438.721	103.5
438.943	88.5
439.165	94.5
439.386	72.5
439.608	99.5
439.829	98.5
440.05	129.5
440.272	125.5
440.493	96.5
440.715	98.5
440.936	79.5
441.158	86.5
441.379	91.5
441.6	70.5
441.822	98.5
442.043	79.5
442.264	87.5
442.486	91.5
442.707	97.5
442.928	85.5
443.149	111.5
443.371	117.5
443.592	107.5
443.813	110.5
444.034	87.5
444.255	87.5
444.476	85.5
444.698	67.5
444.919	92.5
445.14	140.5
445.361	115.5
445.582	102.5
445.803	106.5
446.024	124.5
446.245	122.5
446.466	102.5
446.687	80.5
446.908	79.5
447.129	81.5
447.35	79.5
447.571	75.5
447.792	100.5
448.013	111.5
448.234	86.5
448.455	91.5
448.675	112.5
448.896	113.5
449.117	103.5
449.338	102.5
449.559	116.5
449.779	102.5
450	91.5
450.221	99.5
450.442	94.5
450.662	91.5
450.883	90.5
451.104	94.5
451.324	86.5
451.545	79.5
451.766	73.5
451.986	95.5
452.207	80.5
452.428	76.5
452.648	83.5
452.869	86.5
453.089	108.5
453.31	91.5
453.53	89.5
453.751	80.5
453.971	91.5
454.192	87.5
454.412	91.5
454.633	79.5
454.853	92.5
455.073	100.5
455.294	87.5
455.514	96.5
455.734	79.5
455.955	89.5
456.175	92.5
456.395	69.5
456.616	71.5
456.836	77.5
457.056	91.5
457.276	74.5
457.497	89.5
457.717	75.5
457.937	83.5
458.157	84.5
458.377	92.5
458.598	96.5
458.818	134.5
459.038	123.5
459.258	101.5
459.478	87.5
459.698	91.5
459.918	83.5
460.138	67.5
460.358	80.5
460.578	84.5
460.798	88.5
461.018	84.5
461.238	77.5
461.458	77.5
461.678	80.5
461.898	81.5
462.118	79.5
462.338	79.5
462.558	83.5
462.777	83.5
462.997	83.5
463.217	84.5
463.437	99.5
463.657	95.5
463.876	68.5
464.096	82.5
464.316	77.5
464.536	84.5
464.755	96.5
464.975	107.5
465.195	141.5
465.414	131.5
465.634	82.5
465.854	79.5
466.073	96.5
466.293	77.5
466.512	88.5
466.732	85.5
466.951	89.5
467.171	91.5
467.391	89.5
467.61	91.5
467.829	100.5
468.049	128.5
468.268	151.5
468.488	113.5
468.707	100.5
468.927	79.5
469.146	94.5
469.365	85.5
469.585	67.5
469.804	90.5
470.023	89.5
470.243	94.5
470.462	88.5
470.681	111.5
470.901	82.5
471.12	79.5
471.339	81.5
471.558	83.5
471.777	94.5
471.997	105.5
472.216	176.5
472.435	310.5
472.654	107.5
472.873	89.5
473.092	81.5
473.311	98.5
473.53	83.5
473.749	73.5
473.968	88.5
474.187	94.5
474.406	85.5
474.625	78.5
474.844	75.5
475.063	81.5
475.282	69.5
475.501	79.5
475.72	86.5
475.939	88.5
476.158	88.5
476.377	78.5
476.596	95.5
476.814	86.5
477.033	81.5
477.252	95.5
477.471	84.5
477.69	79.5
477.908	93.5
478.127	88.5
478.346	95.5
478.564	87.5
478.783	102.5
479.002	83.5
479.22	81.5
479.439	95.5
479.658	96.5
479.876	97.5
480.095	93.5
480.313	94.5
480.532	83.5
480.751	97.5
480.969	189.5
481.188	504.5
481.406	318.5
481.624	119.5
481.843	85.5
482.061	93.5
482.28	89.5
482.498	88.5
482.717	81.5
482.935	84.5
483.153	86.5
483.372	77.5
483.59	91.5
483.808	81.5
484.027	88.5
484.245	80.5
484.463	86.5
484.681	91.5
484.9	81.5
485.118	93.5
485.336	97.5
485.554	85.5
485.772	103.5
485.99	97.5
486.209	97.5
486.427	103.5
486.645	105.5
486.863	115.5
487.081	100.5
487.299	99.5
487.517	99.5
487.735	85.5
487.953	100.5
488.171	88.5
488.389	83.5
488.607	76.5
488.825	83.5
489.043	70.5
489.261	86.5
489.479	83.5
489.696	83.5
489.914	85.5
490.132	92.5
490.35	88.5
490.568	84.5
490.786	83.5
491.003	78.5
491.221	85.5
491.439	69.5
491.657	79.5
491.874	82.5
492.092	95.5
492.31	96.5
492.527	100.5
492.745	86.5
492.963	84.5
493.18	84.5
493.398	80.5
493.615	93.5
493.833	87.5
494.05	92.5
494.268	97.5
494.485	89.5
494.703	84.5
494.92	90.5
495.138	73.5
495.355	93.5
495.573	76.5
495.79	76.5
496.008	77.5
496.225	89.5
496.442	102.5
496.66	101.5
496.877	95.5
497.094	102.5
497.312	93.5
497.529	93.5
497.746	95.5
497.963	84.5
498.181	96.5
498.398	75.5
498.615	99.5
498.832	105.5
499.049	86.5
499.267	93.5
499.484	93.5
499.701	90.5
499.918	92.5
500.135	88.5
500.352	100.5
500.569	75.5
500.786	92.5
501.003	96.5
501.22	88.5
501.437	93.5
501.654	87.5
501.871	101.5
502.088	88.5
502.305	87.5
502.522	79.5
502.739	69.5
502.956	69.5
503.172	81.5
503.389	83.5
503.606	87.5
503.823	92.5
504.04	94.5
504.256	85.5
504.473	91.5
504.69	88.5
504.907	91.5
505.123	81.5
505.34	90.5
505.557	72.5
505.773	88.5
505.99	91.5
506.207	83.5
506.423	83.5
506.64	93.5
506.856	76.5
507.073	85.5
507.289	90.5
507.506	93.5
507.722	100.5
507.939	109.5
508.155	97.5
508.372	79.5
508.588	80.5
508.805	81.5
509.021	97.5
509.238	104.5
509.454	101.5
509.67	85.5
509.887	96.5
510.103	127.5
510.319	183.5
510.536	637.5
510.752	2007.5
510.968	560.5
511.184	139.5
511.401	99.5
511.617	105.5
511.833	78.5
512.049	85.5
512.265	88.5
512.481	78.5
512.698	86.5
512.914	97.5
513.13	99.5
513.346	89.5
513.562	95.5
513.778	84.5
513.994	87.5
514.21	110.5
514.426	102.5
514.642	113.5
514.858	115.5
515.074	133.5
515.29	380.5
515.506	1212.5
515.721	432.5
515.937	140.5
516.153	102.5
516.369	92.5
516.585	88.5
516.801	85.5
517.016	86.5
517.232	82.5
517.448	93.5
517.664	89.5
517.879	92.5
518.095	96.5
518.311	103.5
518.527	79.5
518.742	96.5
518.958	94.5
519.173	101.5
519.389	80.5
519.605	81.5
519.82	100.5
520.036	93.5
520.251	110.5
520.467	116.5
520.682	96.5
520.898	100.5
521.113	108.5
521.329	107.5
521.544	181.5
521.76	447.5
521.975	1953.5
522.19	1172.5
522.406	251.5
522.621	102.5
522.836	103.5
523.052	88.5
523.267	94.5
523.482	86.5
523.698	79.5
523.913	119.5
524.128	92.5
524.343	92.5
524.559	107.5
524.774	92.5
524.989	93.5
525.204	96.5
525.419	99.5
525.634	83.5
525.849	91.5
526.064	84.5
526.28	90.5
526.495	81.5
526.71	89.5
526.925	87.5
527.14	81.5
527.355	84.5
527.57	85.5
527.785	78.5
527.999	63.5
528.214	107.5
528.429	88.5
528.644	92.5
528.859	81.5
529.074	80.5
529.289	105.5
529.503	155.5
529.718	101.5
529.933	93.5
530.148	91.5
530.363	85.5
530.577	90.5
530.792	95.5
531.007	94.5
531.221	101.5
531.436	100.5
531.651	86.5
531.865	82.5
532.08	83.5
532.295	85.5
532.509	86.5
532.724	77.5
532.938	96.5
533.153	89.5
533.367	92.5
533.582	97.5
533.796	91.5
534.011	71.5
534.225	87.5
534.44	92.5
534.654	79.5
534.868	88.5
535.083	91.5
535.297	89.5
535.511	86.5
535.726	95.5
535.94	87.5
536.154	87.5
536.369	96.5
536.583	86.5
536.797	75.5
537.011	71.5
537.225	89.5
