Data from Circ_1984_H10_HRD10591_00033.txt Node
Date: Wed Jan 03 12:22:48 EST 2024
User: Yrep
Spectrometer: HR+D1059
Trigger mode: 1
Integration Time (sec): 1.000000E-1
Scans to average: 1
Electric dark correction enabled: true
Nonlinearity correction enabled: false
Boxcar width: 0
XAxis mode: Wavelengths
Number of Pixels in Spectrum: 2048
>>>>>Begin Spectral Data<<<<<
223.165	-9.19
223.4	-9.19
223.635	-9.19
223.869	-8.19
224.104	-9.19
224.338	-17.19
224.573	-15.19
224.808	-17.19
225.042	-15.19
225.277	-9.19
225.511	-16.19
225.746	15.81
225.98	9.81
226.215	15.81
226.449	9.81
226.683	16.81
226.918	16.81
227.152	31.81
227.387	28.81
227.621	28.81
227.856	42.81
228.09	38.81
228.324	50.81
228.559	53.81
228.793	44.81
229.027	68.81
229.262	57.81
229.496	53.81
229.73	87.81
229.964	83.81
230.199	69.81
230.433	76.81
230.667	73.81
230.901	66.81
231.136	73.81
231.37	76.81
231.604	85.81
231.838	88.81
232.072	73.81
232.306	79.81
232.541	98.81
232.775	96.81
233.009	81.81
233.243	95.81
233.477	78.81
233.711	75.81
233.945	71.81
234.179	70.81
234.413	74.81
234.647	79.81
234.881	77.81
235.115	82.81
235.349	79.81
235.583	77.81
235.817	77.81
236.051	80.81
236.285	70.81
236.519	84.81
236.753	76.81
236.987	70.81
237.221	85.81
237.455	81.81
237.689	70.81
237.922	60.81
238.156	53.81
238.39	82.81
238.624	65.81
238.858	78.81
239.091	80.81
239.325	67.81
239.559	66.81
239.793	63.81
240.027	56.81
240.26	74.81
240.494	72.81
240.728	66.81
240.961	71.81
241.195	74.81
241.429	86.81
241.662	73.81
241.896	90.81
242.13	68.81
242.363	52.81
242.597	62.81
242.83	76.81
243.064	71.81
243.298	86.81
243.531	73.81
243.765	70.81
243.998	65.81
244.232	81.81
244.465	82.81
244.699	76.81
244.932	74.81
245.166	76.81
245.399	64.81
245.633	67.81
245.866	81.81
246.099	70.81
246.333	80.81
246.566	79.81
246.8	82.81
247.033	66.81
247.266	78.81
247.5	82.81
247.733	85.81
247.966	64.81
248.2	68.81
248.433	89.81
248.666	77.81
248.899	70.81
249.133	94.81
249.366	98.81
249.599	98.81
249.832	88.81
250.066	82.81
250.299	74.81
250.532	73.81
250.765	76.81
250.998	57.81
251.231	68.81
251.465	72.81
251.698	71.81
251.931	91.81
252.164	72.81
252.397	68.81
252.63	73.81
252.863	73.81
253.096	78.81
253.329	76.81
253.562	84.81
253.795	81.81
254.028	90.81
254.261	89.81
254.494	71.81
254.727	81.81
254.96	71.81
255.193	80.81
255.426	82.81
255.659	65.81
255.892	80.81
256.124	79.81
256.357	73.81
256.59	70.81
256.823	80.81
257.056	92.81
257.289	70.81
257.521	78.81
257.754	80.81
257.987	79.81
258.22	88.81
258.452	84.81
258.685	72.81
258.918	94.81
259.151	91.81
259.383	84.81
259.616	87.81
259.849	80.81
260.081	85.81
260.314	79.81
260.547	85.81
260.779	86.81
261.012	67.81
261.244	63.81
261.477	79.81
261.71	92.81
261.942	96.81
262.175	103.81
262.407	72.81
262.64	76.81
262.872	78.81
263.105	76.81
263.337	81.81
263.57	74.81
263.802	71.81
264.035	85.81
264.267	76.81
264.499	72.81
264.732	76.81
264.964	73.81
265.197	75.81
265.429	66.81
265.661	75.81
265.894	92.81
266.126	87.81
266.358	81.81
266.591	87.81
266.823	80.81
267.055	86.81
267.287	94.81
267.52	76.81
267.752	84.81
267.984	81.81
268.216	80.81
268.448	82.81
268.681	77.81
268.913	92.81
269.145	80.81
269.377	81.81
269.609	87.81
269.841	91.81
270.073	80.81
270.306	79.81
270.538	56.81
270.77	69.81
271.002	83.81
271.234	86.81
271.466	81.81
271.698	80.81
271.93	81.81
272.162	71.81
272.394	100.81
272.626	78.81
272.858	83.81
273.09	85.81
273.322	89.81
273.553	88.81
273.785	84.81
274.017	77.81
274.249	93.81
274.481	91.81
274.713	73.81
274.945	74.81
275.176	85.81
275.408	85.81
275.64	90.81
275.872	95.81
276.104	78.81
276.335	88.81
276.567	90.81
276.799	92.81
277.031	108.81
277.262	98.81
277.494	80.81
277.726	72.81
277.957	87.81
278.189	81.81
278.421	80.81
278.652	88.81
278.884	68.81
279.115	84.81
279.347	79.81
279.579	88.81
279.81	94.81
280.042	93.81
280.273	97.81
280.505	77.81
280.736	75.81
280.968	78.81
281.199	72.81
281.431	95.81
281.662	76.81
281.894	93.81
282.125	109.81
282.356	106.81
282.588	128.81
282.819	81.81
283.051	83.81
283.282	59.81
283.513	82.81
283.745	92.81
283.976	89.81
284.207	95.81
284.439	87.81
284.67	100.81
284.901	96.81
285.132	82.81
285.364	76.81
285.595	81.81
285.826	71.81
286.057	84.81
286.288	82.81
286.52	80.81
286.751	100.81
286.982	89.81
287.213	82.81
287.444	60.81
287.675	84.81
287.906	82.81
288.138	96.81
288.369	96.81
288.6	104.81
288.831	82.81
289.062	88.81
289.293	88.81
289.524	66.81
289.755	85.81
289.986	82.81
290.217	92.81
290.448	81.81
290.679	80.81
290.91	87.81
291.141	80.81
291.371	78.81
291.602	95.81
291.833	73.81
292.064	92.81
292.295	78.81
292.526	93.81
292.757	84.81
292.987	79.81
293.218	70.81
293.449	76.81
293.68	87.81
293.91	97.81
294.141	86.81
294.372	98.81
294.603	86.81
294.833	80.81
295.064	81.81
295.295	90.81
295.525	70.81
295.756	89.81
295.987	93.81
296.217	112.81
296.448	115.81
296.679	80.81
296.909	77.81
297.14	82.81
297.37	78.81
297.601	76.81
297.831	89.81
298.062	88.81
298.292	76.81
298.523	97.81
298.753	78.81
298.984	85.81
299.214	84.81
299.445	96.81
299.675	88.81
299.905	87.81
300.136	87.81
300.366	77.81
300.597	91.81
300.827	81.81
301.057	85.81
301.288	88.81
301.518	87.81
301.748	87.81
301.979	82.81
302.209	92.81
302.439	89.81
302.669	99.81
302.9	83.81
303.13	69.81
303.36	102.81
303.59	105.81
303.82	106.81
304.051	86.81
304.281	78.81
304.511	81.81
304.741	81.81
304.971	85.81
305.201	83.81
305.431	81.81
305.661	80.81
305.891	92.81
306.121	99.81
306.352	100.81
306.582	90.81
306.812	80.81
307.042	77.81
307.272	107.81
307.502	85.81
307.731	87.81
307.961	92.81
308.191	91.81
308.421	92.81
308.651	103.81
308.881	91.81
309.111	94.81
309.341	97.81
309.571	71.81
309.8	80.81
310.03	100.81
310.26	102.81
310.49	92.81
310.72	95.81
310.949	96.81
311.179	96.81
311.409	87.81
311.639	81.81
311.868	89.81
312.098	88.81
312.328	85.81
312.557	90.81
312.787	87.81
313.017	103.81
313.246	85.81
313.476	90.81
313.706	90.81
313.935	88.81
314.165	80.81
314.394	91.81
314.624	93.81
314.853	95.81
315.083	95.81
315.312	93.81
315.542	84.81
315.771	89.81
316.001	97.81
316.23	89.81
316.46	90.81
316.689	96.81
316.919	80.81
317.148	85.81
317.377	90.81
317.607	84.81
317.836	83.81
318.065	80.81
318.295	92.81
318.524	85.81
318.753	82.81
318.983	87.81
319.212	97.81
319.441	114.81
319.67	93.81
319.9	76.81
320.129	84.81
320.358	102.81
320.587	91.81
320.816	90.81
321.046	101.81
321.275	99.81
321.504	98.81
321.733	104.81
321.962	83.81
322.191	93.81
322.42	97.81
322.649	110.81
322.878	86.81
323.108	117.81
323.337	120.81
323.566	131.81
323.795	127.81
324.024	169.81
324.253	308.81
324.482	622.81
324.71	1292.81
324.939	1681.81
325.168	625.81
325.397	200.81
325.626	128.81
325.855	113.81
326.084	121.81
326.313	105.81
326.542	132.81
326.77	176.81
326.999	345.81
327.228	706.81
327.457	1296.81
327.686	1062.81
327.914	302.81
328.143	189.81
328.372	168.81
328.6	119.81
328.829	118.81
329.058	106.81
329.287	121.81
329.515	97.81
329.744	116.81
329.972	107.81
330.201	148.81
330.43	185.81
330.658	153.81
330.887	120.81
331.115	124.81
331.344	101.81
331.572	83.81
331.801	77.81
332.03	92.81
332.258	94.81
332.486	89.81
332.715	105.81
332.943	90.81
333.172	99.81
333.4	98.81
333.629	94.81
333.857	112.81
334.085	127.81
334.314	154.81
334.542	230.81
334.771	220.81
334.999	116.81
335.227	102.81
335.455	80.81
335.684	82.81
335.912	102.81
336.14	90.81
336.369	99.81
336.597	97.81
336.825	100.81
337.053	82.81
337.281	101.81
337.51	79.81
337.738	90.81
337.966	92.81
338.194	81.81
338.422	89.81
338.65	108.81
338.878	99.81
339.106	88.81
339.334	82.81
339.562	88.81
339.79	90.81
340.018	93.81
340.246	85.81
340.474	84.81
340.702	80.81
340.93	88.81
341.158	97.81
341.386	84.81
341.614	87.81
341.842	85.81
342.07	83.81
342.298	86.81
342.526	79.81
342.754	87.81
342.981	84.81
343.209	84.81
343.437	90.81
343.665	90.81
343.893	87.81
344.12	90.81
344.348	93.81
344.576	87.81
344.804	98.81
345.031	80.81
345.259	92.81
345.487	83.81
345.714	90.81
345.942	95.81
346.17	73.81
346.397	91.81
346.625	81.81
346.853	76.81
347.08	101.81
347.308	73.81
347.535	92.81
347.763	78.81
347.99	95.81
348.218	105.81
348.445	112.81
348.673	94.81
348.9	85.81
349.128	85.81
349.355	79.81
349.583	105.81
349.81	92.81
350.037	76.81
350.265	90.81
350.492	81.81
350.72	88.81
350.947	96.81
351.174	93.81
351.402	90.81
351.629	94.81
351.856	89.81
352.083	92.81
352.311	82.81
352.538	100.81
352.765	92.81
352.992	96.81
353.22	100.81
353.447	95.81
353.674	106.81
353.901	90.81
354.128	86.81
354.355	85.81
354.583	87.81
354.81	90.81
355.037	91.81
355.264	98.81
355.491	95.81
355.718	87.81
355.945	85.81
356.172	90.81
356.399	111.81
356.626	83.81
356.853	105.81
357.08	90.81
357.307	95.81
357.534	80.81
357.761	94.81
357.988	109.81
358.215	94.81
358.441	106.81
358.668	82.81
358.895	93.81
359.122	81.81
359.349	77.81
359.576	77.81
359.802	85.81
360.029	101.81
360.256	99.81
360.483	92.81
360.709	99.81
360.936	81.81
361.163	79.81
361.39	92.81
361.616	89.81
361.843	96.81
362.07	78.81
362.296	99.81
362.523	95.81
362.749	94.81
362.976	87.81
363.203	82.81
363.429	92.81
363.656	90.81
363.882	78.81
364.109	100.81
364.335	82.81
364.562	97.81
364.788	87.81
365.015	93.81
365.241	92.81
365.468	99.81
365.694	97.81
365.92	81.81
366.147	80.81
366.373	81.81
366.599	88.81
366.826	92.81
367.052	83.81
367.278	78.81
367.505	86.81
367.731	81.81
367.957	82.81
368.184	88.81
368.41	97.81
368.636	104.81
368.862	115.81
369.089	99.81
369.315	102.81
369.541	83.81
369.767	72.81
369.993	72.81
370.219	103.81
370.445	80.81
370.672	85.81
370.898	81.81
371.124	92.81
371.35	80.81
371.576	78.81
371.802	84.81
372.028	61.81
372.254	77.81
372.48	78.81
372.706	83.81
372.932	88.81
373.158	86.81
373.384	76.81
373.61	102.81
373.835	89.81
374.061	90.81
374.287	87.81
374.513	103.81
374.739	83.81
374.965	83.81
375.191	94.81
375.416	83.81
375.642	78.81
375.868	78.81
376.094	83.81
376.319	85.81
376.545	80.81
376.771	90.81
376.997	88.81
377.222	98.81
377.448	89.81
377.674	89.81
377.899	81.81
378.125	93.81
378.35	96.81
378.576	87.81
378.802	92.81
379.027	82.81
379.253	91.81
379.478	93.81
379.704	95.81
379.929	81.81
380.155	85.81
380.38	97.81
380.606	98.81
380.831	91.81
381.057	94.81
381.282	96.81
381.507	89.81
381.733	98.81
381.958	80.81
382.184	100.81
382.409	92.81
382.634	101.81
382.86	98.81
383.085	97.81
383.31	94.81
383.535	106.81
383.761	104.81
383.986	101.81
384.211	93.81
384.436	106.81
384.662	98.81
384.887	104.81
385.112	101.81
385.337	99.81
385.562	101.81
385.787	89.81
386.013	105.81
386.238	108.81
386.463	103.81
386.688	109.81
386.913	101.81
387.138	102.81
387.363	112.81
387.588	108.81
387.813	103.81
388.038	109.81
388.263	106.81
388.488	97.81
388.713	108.81
388.938	101.81
389.163	110.81
389.387	86.81
389.612	82.81
389.837	79.81
390.062	87.81
390.287	92.81
390.512	100.81
390.736	89.81
390.961	92.81
391.186	102.81
391.411	95.81
391.636	80.81
391.86	78.81
392.085	97.81
392.31	102.81
392.534	96.81
392.759	82.81
392.984	91.81
393.208	103.81
393.433	93.81
393.658	102.81
393.882	69.81
394.107	90.81
394.331	68.81
394.556	87.81
394.78	90.81
395.005	87.81
395.229	89.81
395.454	71.81
395.678	82.81
395.903	97.81
396.127	84.81
396.352	82.81
396.576	90.81
396.801	86.81
397.025	95.81
397.249	73.81
397.474	80.81
397.698	80.81
397.922	90.81
398.147	83.81
398.371	82.81
398.595	84.81
398.82	89.81
399.044	91.81
399.268	85.81
399.492	74.81
399.717	92.81
399.941	77.81
400.165	86.81
400.389	94.81
400.613	86.81
400.837	85.81
401.062	81.81
401.286	88.81
401.51	81.81
401.734	90.81
401.958	96.81
402.182	112.81
402.406	133.81
402.63	105.81
402.854	84.81
403.078	83.81
403.302	69.81
403.526	100.81
403.75	77.81
403.974	82.81
404.198	83.81
404.422	85.81
404.645	72.81
404.869	92.81
405.093	92.81
405.317	100.81
405.541	84.81
405.765	85.81
405.988	103.81
406.212	142.81
406.436	194.81
406.66	133.81
406.883	84.81
407.107	100.81
407.331	90.81
407.555	94.81
407.778	94.81
408.002	82.81
408.226	88.81
408.449	75.81
408.673	91.81
408.896	85.81
409.12	97.81
409.344	92.81
409.567	87.81
409.791	99.81
410.014	96.81
410.238	78.81
410.461	101.81
410.685	93.81
410.908	93.81
411.132	101.81
411.355	90.81
411.578	89.81
411.802	88.81
412.025	76.81
412.249	91.81
412.472	102.81
412.695	105.81
412.919	88.81
413.142	91.81
413.365	95.81
413.589	78.81
413.812	78.81
414.035	82.81
414.258	84.81
414.482	95.81
414.705	85.81
414.928	81.81
415.151	97.81
415.374	80.81
415.597	81.81
415.821	87.81
416.044	88.81
416.267	93.81
416.49	84.81
416.713	91.81
416.936	81.81
417.159	88.81
417.382	79.81
417.605	97.81
417.828	96.81
418.051	80.81
418.274	85.81
418.497	87.81
418.72	93.81
418.943	83.81
419.166	88.81
419.389	102.81
419.611	72.81
419.834	80.81
420.057	73.81
420.28	89.81
420.503	82.81
420.726	74.81
420.948	94.81
421.171	102.81
421.394	94.81
421.617	76.81
421.839	82.81
422.062	82.81
422.285	79.81
422.507	92.81
422.73	88.81
422.953	97.81
423.175	81.81
423.398	85.81
423.621	70.81
423.843	93.81
424.066	76.81
424.288	85.81
424.511	90.81
424.733	89.81
424.956	92.81
425.178	121.81
425.401	100.81
425.623	80.81
425.846	78.81
426.068	92.81
426.291	89.81
426.513	100.81
426.735	94.81
426.958	95.81
427.18	90.81
427.402	141.81
427.625	145.81
427.847	113.81
428.069	108.81
428.292	97.81
428.514	79.81
428.736	82.81
428.958	96.81
429.181	83.81
429.403	82.81
429.625	87.81
429.847	80.81
430.069	86.81
430.292	82.81
430.514	80.81
430.736	95.81
430.958	95.81
431.18	72.81
431.402	82.81
431.624	92.81
431.846	93.81
432.068	81.81
432.29	76.81
432.512	95.81
432.734	86.81
432.956	76.81
433.178	97.81
433.4	101.81
433.622	87.81
433.844	88.81
434.066	90.81
434.287	85.81
434.509	83.81
434.731	92.81
434.953	88.81
435.175	88.81
435.397	91.81
435.618	99.81
435.84	104.81
436.062	108.81
436.284	112.81
436.505	92.81
436.727	78.81
436.949	87.81
437.17	88.81
437.392	87.81
437.614	80.81
437.835	103.81
438.057	108.81
438.278	95.81
438.5	87.81
438.721	100.81
438.943	90.81
439.165	87.81
439.386	76.81
439.608	90.81
439.829	89.81
440.05	104.81
440.272	125.81
440.493	100.81
440.715	72.81
440.936	81.81
441.158	86.81
441.379	81.81
441.6	79.81
441.822	94.81
442.043	101.81
442.264	96.81
442.486	89.81
442.707	97.81
442.928	90.81
443.149	107.81
443.371	116.81
443.592	84.81
443.813	109.81
444.034	103.81
444.255	88.81
444.476	79.81
444.698	84.81
444.919	90.81
445.14	121.81
445.361	117.81
445.582	117.81
445.803	112.81
446.024	106.81
446.245	112.81
446.466	97.81
446.687	92.81
446.908	82.81
447.129	89.81
447.35	81.81
447.571	88.81
447.792	98.81
448.013	89.81
448.234	97.81
448.455	81.81
448.675	99.81
448.896	102.81
449.117	92.81
449.338	93.81
449.559	110.81
449.779	122.81
450	94.81
450.221	95.81
450.442	96.81
450.662	105.81
450.883	91.81
451.104	100.81
451.324	86.81
451.545	92.81
451.766	86.81
451.986	80.81
452.207	82.81
452.428	88.81
452.648	92.81
452.869	90.81
453.089	100.81
453.31	102.81
453.53	87.81
453.751	84.81
453.971	94.81
454.192	100.81
454.412	81.81
454.633	75.81
454.853	89.81
455.073	88.81
455.294	84.81
455.514	89.81
455.734	87.81
455.955	79.81
456.175	90.81
456.395	89.81
456.616	90.81
456.836	89.81
457.056	97.81
457.276	88.81
457.497	96.81
457.717	80.81
457.937	86.81
458.157	88.81
458.377	90.81
458.598	100.81
458.818	122.81
459.038	135.81
459.258	94.81
459.478	88.81
459.698	86.81
459.918	88.81
460.138	99.81
460.358	89.81
460.578	89.81
460.798	67.81
461.018	84.81
461.238	78.81
461.458	94.81
461.678	87.81
461.898	76.81
462.118	72.81
462.338	79.81
462.558	73.81
462.777	84.81
462.997	78.81
463.217	84.81
463.437	83.81
463.657	80.81
463.876	94.81
464.096	80.81
464.316	90.81
464.536	82.81
464.755	87.81
464.975	96.81
465.195	159.81
465.414	137.81
465.634	92.81
465.854	82.81
466.073	98.81
466.293	88.81
466.512	86.81
466.732	72.81
466.951	94.81
467.171	83.81
467.391	96.81
467.61	101.81
467.829	80.81
468.049	120.81
468.268	156.81
468.488	100.81
468.707	84.81
468.927	91.81
469.146	67.81
469.365	81.81
469.585	84.81
469.804	101.81
470.023	93.81
470.243	73.81
470.462	80.81
470.681	98.81
470.901	98.81
471.12	69.81
471.339	77.81
471.558	97.81
471.777	94.81
471.997	104.81
472.216	157.81
472.435	256.81
472.654	121.81
472.873	97.81
473.092	88.81
473.311	71.81
473.53	96.81
473.749	69.81
473.968	82.81
474.187	88.81
474.406	88.81
474.625	96.81
474.844	73.81
475.063	85.81
475.282	92.81
475.501	87.81
475.72	84.81
475.939	87.81
476.158	81.81
476.377	85.81
476.596	95.81
476.814	88.81
477.033	98.81
477.252	79.81
477.471	78.81
477.69	88.81
477.908	92.81
478.127	93.81
478.346	100.81
478.564	70.81
478.783	93.81
479.002	80.81
479.22	74.81
479.439	95.81
479.658	98.81
479.876	79.81
480.095	92.81
480.313	86.81
480.532	107.81
480.751	106.81
480.969	170.81
481.188	440.81
481.406	284.81
481.624	101.81
481.843	90.81
482.061	77.81
482.28	82.81
482.498	89.81
482.717	85.81
482.935	88.81
483.153	86.81
483.372	82.81
483.59	72.81
483.808	72.81
484.027	81.81
484.245	93.81
484.463	82.81
484.681	97.81
484.9	90.81
485.118	86.81
485.336	95.81
485.554	82.81
485.772	94.81
485.99	97.81
486.209	103.81
486.427	104.81
486.645	105.81
486.863	99.81
487.081	104.81
487.299	100.81
487.517	98.81
487.735	100.81
487.953	83.81
488.171	92.81
488.389	102.81
488.607	99.81
488.825	88.81
489.043	82.81
489.261	106.81
489.479	96.81
489.696	98.81
489.914	83.81
490.132	82.81
490.35	83.81
490.568	96.81
490.786	83.81
491.003	87.81
491.221	86.81
491.439	97.81
491.657	84.81
491.874	67.81
492.092	80.81
492.31	95.81
492.527	88.81
492.745	101.81
492.963	80.81
493.18	82.81
493.398	91.81
493.615	89.81
493.833	97.81
494.05	87.81
494.268	90.81
494.485	73.81
494.703	78.81
494.92	82.81
495.138	77.81
495.355	87.81
495.573	92.81
495.79	79.81
496.008	96.81
496.225	91.81
496.442	96.81
496.66	79.81
496.877	83.81
497.094	86.81
497.312	85.81
497.529	81.81
497.746	87.81
497.963	88.81
498.181	83.81
498.398	91.81
498.615	98.81
498.832	99.81
499.049	85.81
499.267	91.81
499.484	83.81
499.701	99.81
499.918	93.81
500.135	86.81
500.352	76.81
500.569	79.81
500.786	84.81
501.003	70.81
501.22	85.81
501.437	83.81
501.654	95.81
501.871	93.81
502.088	78.81
502.305	90.81
502.522	86.81
502.739	85.81
502.956	87.81
503.172	86.81
503.389	90.81
503.606	100.81
503.823	86.81
504.04	80.81
504.256	82.81
504.473	90.81
504.69	86.81
504.907	85.81
505.123	85.81
505.34	93.81
505.557	87.81
505.773	94.81
505.99	106.81
506.207	85.81
506.423	97.81
506.64	89.81
506.856	89.81
507.073	78.81
507.289	86.81
507.506	89.81
507.722	96.81
507.939	103.81
508.155	82.81
508.372	93.81
508.588	86.81
508.805	76.81
509.021	100.81
509.238	97.81
509.454	87.81
509.67	101.81
509.887	109.81
510.103	113.81
510.319	176.81
510.536	578.81
510.752	1891.81
510.968	521.81
511.184	134.81
511.401	92.81
511.617	95.81
511.833	101.81
512.049	106.81
512.265	101.81
512.481	88.81
512.698	74.81
512.914	80.81
513.13	84.81
513.346	90.81
513.562	86.81
513.778	81.81
513.994	81.81
514.21	99.81
514.426	104.81
514.642	125.81
514.858	101.81
515.074	128.81
515.29	353.81
515.506	1102.81
515.721	415.81
515.937	144.81
516.153	89.81
516.369	89.81
516.585	77.81
516.801	81.81
517.016	90.81
