Data from Circ_1984_H10_HRD10591_00037.txt Node
Date: Wed Jan 03 12:22:49 EST 2024
User: Yrep
Spectrometer: HR+D1059
Trigger mode: 1
Integration Time (sec): 1.000000E-1
Scans to average: 1
Electric dark correction enabled: true
Nonlinearity correction enabled: false
Boxcar width: 0
XAxis mode: Wavelengths
Number of Pixels in Spectrum: 2048
>>>>>Begin Spectral Data<<<<<
223.165	-17.5
223.4	-17.5
223.635	-17.5
223.869	-14.5
224.104	-15.5
224.338	-13.5
224.573	-28.5
224.808	-15.5
225.042	-11.5
225.277	-5.5
225.511	-0.5
225.746	1.5
225.98	11.5
226.215	26.5
226.449	21.5
226.683	19.5
226.918	22.5
227.152	19.5
227.387	45.5
227.621	34.5
227.856	39.5
228.09	51.5
228.324	49.5
228.559	55.5
228.793	63.5
229.027	61.5
229.262	69.5
229.496	68.5
229.73	79.5
229.964	85.5
230.199	89.5
230.433	84.5
230.667	90.5
230.901	84.5
231.136	83.5
231.37	85.5
231.604	83.5
231.838	76.5
232.072	77.5
232.306	89.5
232.541	94.5
232.775	91.5
233.009	72.5
233.243	85.5
233.477	74.5
233.711	86.5
233.945	98.5
234.179	60.5
234.413	71.5
234.647	69.5
234.881	77.5
235.115	74.5
235.349	88.5
235.583	83.5
235.817	83.5
236.051	83.5
236.285	68.5
236.519	76.5
236.753	82.5
236.987	69.5
237.221	75.5
237.455	74.5
237.689	54.5
237.922	76.5
238.156	86.5
238.39	69.5
238.624	75.5
238.858	87.5
239.091	82.5
239.325	73.5
239.559	73.5
239.793	77.5
240.027	84.5
240.26	70.5
240.494	73.5
240.728	82.5
240.961	75.5
241.195	72.5
241.429	75.5
241.662	74.5
241.896	69.5
242.13	72.5
242.363	66.5
242.597	71.5
242.83	75.5
243.064	64.5
243.298	58.5
243.531	69.5
243.765	64.5
243.998	84.5
244.232	86.5
244.465	104.5
244.699	101.5
244.932	93.5
245.166	84.5
245.399	87.5
245.633	84.5
245.866	73.5
246.099	69.5
246.333	81.5
246.566	75.5
246.8	80.5
247.033	74.5
247.266	87.5
247.5	69.5
247.733	75.5
247.966	70.5
248.2	75.5
248.433	74.5
248.666	74.5
248.899	80.5
249.133	88.5
249.366	98.5
249.599	106.5
249.832	77.5
250.066	86.5
250.299	68.5
250.532	90.5
250.765	87.5
250.998	76.5
251.231	65.5
251.465	80.5
251.698	73.5
251.931	83.5
252.164	65.5
252.397	81.5
252.63	85.5
252.863	89.5
253.096	81.5
253.329	86.5
253.562	91.5
253.795	91.5
254.028	87.5
254.261	80.5
254.494	83.5
254.727	85.5
254.96	86.5
255.193	83.5
255.426	68.5
255.659	87.5
255.892	83.5
256.124	92.5
256.357	73.5
256.59	82.5
256.823	87.5
257.056	85.5
257.289	84.5
257.521	79.5
257.754	78.5
257.987	78.5
258.22	98.5
258.452	106.5
258.685	83.5
258.918	76.5
259.151	88.5
259.383	89.5
259.616	89.5
259.849	94.5
260.081	86.5
260.314	71.5
260.547	79.5
260.779	87.5
261.012	86.5
261.244	77.5
261.477	93.5
261.71	84.5
261.942	108.5
262.175	112.5
262.407	81.5
262.64	104.5
262.872	97.5
263.105	76.5
263.337	87.5
263.57	81.5
263.802	87.5
264.035	71.5
264.267	76.5
264.499	73.5
264.732	91.5
264.964	87.5
265.197	82.5
265.429	81.5
265.661	73.5
265.894	71.5
266.126	79.5
266.358	80.5
266.591	79.5
266.823	88.5
267.055	76.5
267.287	76.5
267.52	72.5
267.752	82.5
267.984	80.5
268.216	91.5
268.448	87.5
268.681	74.5
268.913	88.5
269.145	90.5
269.377	79.5
269.609	81.5
269.841	91.5
270.073	72.5
270.306	75.5
270.538	80.5
270.77	81.5
271.002	77.5
271.234	68.5
271.466	77.5
271.698	92.5
271.93	83.5
272.162	93.5
272.394	75.5
272.626	96.5
272.858	80.5
273.09	93.5
273.322	96.5
273.553	91.5
273.785	105.5
274.017	86.5
274.249	89.5
274.481	88.5
274.713	95.5
274.945	87.5
275.176	83.5
275.408	91.5
275.64	86.5
275.872	92.5
276.104	80.5
276.335	76.5
276.567	91.5
276.799	109.5
277.031	101.5
277.262	77.5
277.494	97.5
277.726	86.5
277.957	86.5
278.189	79.5
278.421	76.5
278.652	75.5
278.884	90.5
279.115	85.5
279.347	99.5
279.579	84.5
279.81	83.5
280.042	85.5
280.273	86.5
280.505	90.5
280.736	83.5
280.968	76.5
281.199	99.5
281.431	93.5
281.662	95.5
281.894	104.5
282.125	105.5
282.356	106.5
282.588	129.5
282.819	102.5
283.051	88.5
283.282	87.5
283.513	81.5
283.745	87.5
283.976	83.5
284.207	70.5
284.439	89.5
284.67	76.5
284.901	101.5
285.132	89.5
285.364	92.5
285.595	81.5
285.826	91.5
286.057	95.5
286.288	86.5
286.52	81.5
286.751	74.5
286.982	92.5
287.213	95.5
287.444	97.5
287.675	100.5
287.906	94.5
288.138	91.5
288.369	87.5
288.6	90.5
288.831	92.5
289.062	82.5
289.293	92.5
289.524	69.5
289.755	71.5
289.986	71.5
290.217	77.5
290.448	92.5
290.679	77.5
290.91	87.5
291.141	84.5
291.371	86.5
291.602	86.5
291.833	92.5
292.064	81.5
292.295	81.5
292.526	79.5
292.757	77.5
292.987	84.5
293.218	84.5
293.449	89.5
293.68	84.5
293.91	91.5
294.141	102.5
294.372	95.5
294.603	85.5
294.833	84.5
295.064	83.5
295.295	91.5
295.525	87.5
295.756	100.5
295.987	122.5
296.217	133.5
296.448	116.5
296.679	90.5
296.909	89.5
297.14	73.5
297.37	82.5
297.601	92.5
297.831	90.5
298.062	95.5
298.292	87.5
298.523	96.5
298.753	99.5
298.984	87.5
299.214	77.5
299.445	91.5
299.675	88.5
299.905	98.5
300.136	102.5
300.366	84.5
300.597	76.5
300.827	91.5
301.057	81.5
301.288	106.5
301.518	111.5
301.748	83.5
301.979	113.5
302.209	87.5
302.439	91.5
302.669	103.5
302.9	76.5
303.13	91.5
303.36	90.5
303.59	92.5
303.82	100.5
304.051	98.5
304.281	83.5
304.511	108.5
304.741	80.5
304.971	89.5
305.201	96.5
305.431	101.5
305.661	87.5
305.891	100.5
306.121	86.5
306.352	91.5
306.582	104.5
306.812	93.5
307.042	88.5
307.272	79.5
307.502	100.5
307.731	102.5
307.961	87.5
308.191	94.5
308.421	99.5
308.651	85.5
308.881	89.5
309.111	94.5
309.341	97.5
309.571	101.5
309.8	95.5
310.03	101.5
310.26	93.5
310.49	87.5
310.72	81.5
310.949	97.5
311.179	98.5
311.409	98.5
311.639	86.5
311.868	81.5
312.098	95.5
312.328	92.5
312.557	101.5
312.787	105.5
313.017	104.5
313.246	89.5
313.476	86.5
313.706	104.5
313.935	101.5
314.165	111.5
314.394	97.5
314.624	100.5
314.853	99.5
315.083	102.5
315.312	88.5
315.542	89.5
315.771	97.5
316.001	90.5
316.23	87.5
316.46	94.5
316.689	74.5
316.919	99.5
317.148	91.5
317.377	111.5
317.607	100.5
317.836	107.5
318.065	77.5
318.295	86.5
318.524	91.5
318.753	89.5
318.983	83.5
319.212	98.5
319.441	112.5
319.67	96.5
319.9	87.5
320.129	88.5
320.358	80.5
320.587	96.5
320.816	98.5
321.046	96.5
321.275	107.5
321.504	99.5
321.733	99.5
321.962	93.5
322.191	84.5
322.42	106.5
322.649	106.5
322.878	95.5
323.108	105.5
323.337	125.5
323.566	127.5
323.795	156.5
324.024	197.5
324.253	349.5
324.482	745.5
324.71	1512.5
324.939	1992.5
325.168	739.5
325.397	222.5
325.626	136.5
325.855	127.5
326.084	116.5
326.313	122.5
326.542	130.5
326.77	228.5
326.999	386.5
327.228	854.5
327.457	1546.5
327.686	1191.5
327.914	354.5
328.143	198.5
328.372	179.5
328.6	135.5
328.829	109.5
329.058	116.5
329.287	115.5
329.515	113.5
329.744	117.5
329.972	132.5
330.201	193.5
330.43	217.5
330.658	150.5
330.887	124.5
331.115	106.5
331.344	89.5
331.572	93.5
331.801	106.5
332.03	103.5
332.258	101.5
332.486	103.5
332.715	88.5
332.943	92.5
333.172	81.5
333.4	99.5
333.629	96.5
333.857	116.5
334.085	136.5
334.314	185.5
334.542	260.5
334.771	248.5
334.999	146.5
335.227	109.5
335.455	104.5
335.684	96.5
335.912	92.5
336.14	104.5
336.369	95.5
336.597	106.5
336.825	101.5
337.053	95.5
337.281	93.5
337.51	86.5
337.738	93.5
337.966	93.5
338.194	107.5
338.422	95.5
338.65	90.5
338.878	97.5
339.106	87.5
339.334	89.5
339.562	84.5
339.79	93.5
340.018	81.5
340.246	92.5
340.474	94.5
340.702	98.5
340.93	101.5
341.158	96.5
341.386	97.5
341.614	96.5
341.842	90.5
342.07	79.5
342.298	83.5
342.526	83.5
342.754	85.5
342.981	86.5
343.209	101.5
343.437	108.5
343.665	75.5
343.893	88.5
344.12	92.5
344.348	109.5
344.576	103.5
344.804	100.5
345.031	97.5
345.259	96.5
345.487	103.5
345.714	109.5
345.942	86.5
346.17	88.5
346.397	105.5
346.625	95.5
346.853	83.5
347.08	92.5
347.308	87.5
347.535	85.5
347.763	101.5
347.99	90.5
348.218	104.5
348.445	100.5
348.673	105.5
348.9	108.5
349.128	116.5
349.355	93.5
349.583	103.5
349.81	95.5
350.037	83.5
350.265	95.5
350.492	93.5
350.72	100.5
350.947	91.5
351.174	107.5
351.402	99.5
351.629	101.5
351.856	102.5
352.083	108.5
352.311	101.5
352.538	117.5
352.765	111.5
352.992	101.5
353.22	109.5
353.447	115.5
353.674	101.5
353.901	103.5
354.128	106.5
354.355	87.5
354.583	105.5
354.81	97.5
355.037	88.5
355.264	107.5
355.491	79.5
355.718	80.5
355.945	107.5
356.172	102.5
356.399	101.5
356.626	93.5
356.853	95.5
357.08	87.5
357.307	95.5
357.534	91.5
357.761	93.5
357.988	101.5
358.215	97.5
358.441	90.5
358.668	79.5
358.895	89.5
359.122	79.5
359.349	95.5
359.576	88.5
359.802	99.5
360.029	111.5
360.256	112.5
360.483	114.5
360.709	92.5
360.936	102.5
361.163	104.5
361.39	98.5
361.616	100.5
361.843	84.5
362.07	91.5
362.296	97.5
362.523	87.5
362.749	88.5
362.976	87.5
363.203	72.5
363.429	101.5
363.656	81.5
363.882	104.5
364.109	104.5
364.335	98.5
364.562	87.5
364.788	97.5
365.015	81.5
365.241	101.5
365.468	103.5
365.694	99.5
365.92	98.5
366.147	92.5
366.373	88.5
366.599	93.5
366.826	88.5
367.052	75.5
367.278	69.5
367.505	105.5
367.731	84.5
367.957	102.5
368.184	91.5
368.41	84.5
368.636	122.5
368.862	104.5
369.089	98.5
369.315	89.5
369.541	95.5
369.767	93.5
369.993	90.5
370.219	89.5
370.445	93.5
370.672	91.5
370.898	89.5
371.124	88.5
371.35	87.5
371.576	100.5
371.802	85.5
372.028	83.5
372.254	88.5
372.48	83.5
372.706	85.5
372.932	88.5
373.158	99.5
373.384	87.5
373.61	88.5
373.835	100.5
374.061	99.5
374.287	87.5
374.513	95.5
374.739	84.5
374.965	88.5
375.191	88.5
375.416	82.5
375.642	89.5
375.868	81.5
376.094	104.5
376.319	104.5
376.545	96.5
376.771	104.5
376.997	87.5
377.222	94.5
377.448	97.5
377.674	96.5
377.899	81.5
378.125	80.5
378.35	100.5
378.576	90.5
378.802	80.5
379.027	75.5
379.253	97.5
379.478	90.5
379.704	104.5
379.929	88.5
380.155	113.5
380.38	100.5
380.606	100.5
380.831	89.5
381.057	97.5
381.282	100.5
381.507	90.5
381.733	76.5
381.958	106.5
382.184	96.5
382.409	102.5
382.634	105.5
382.86	98.5
383.085	92.5
383.31	93.5
383.535	96.5
383.761	95.5
383.986	88.5
384.211	83.5
384.436	105.5
384.662	112.5
384.887	122.5
385.112	95.5
385.337	105.5
385.562	91.5
385.787	83.5
386.013	105.5
386.238	123.5
386.463	93.5
386.688	91.5
386.913	103.5
387.138	121.5
387.363	104.5
387.588	92.5
387.813	93.5
388.038	115.5
388.263	114.5
388.488	126.5
388.713	97.5
388.938	88.5
389.163	99.5
389.387	102.5
389.612	95.5
389.837	101.5
390.062	100.5
390.287	89.5
390.512	92.5
390.736	88.5
390.961	83.5
391.186	104.5
391.411	88.5
391.636	90.5
391.86	92.5
392.085	84.5
392.31	93.5
392.534	80.5
392.759	103.5
392.984	90.5
393.208	86.5
393.433	95.5
393.658	98.5
393.882	90.5
394.107	83.5
394.331	91.5
394.556	74.5
394.78	90.5
395.005	96.5
395.229	64.5
395.454	99.5
395.678	91.5
395.903	99.5
396.127	92.5
396.352	94.5
396.576	97.5
396.801	97.5
397.025	105.5
397.249	81.5
397.474	84.5
397.698	92.5
397.922	91.5
398.147	81.5
398.371	94.5
398.595	87.5
398.82	92.5
399.044	92.5
399.268	75.5
399.492	89.5
399.717	96.5
399.941	86.5
400.165	87.5
400.389	85.5
400.613	88.5
400.837	80.5
401.062	86.5
401.286	105.5
401.51	93.5
401.734	101.5
401.958	105.5
402.182	116.5
402.406	151.5
402.63	105.5
402.854	79.5
403.078	89.5
403.302	90.5
403.526	84.5
403.75	97.5
403.974	102.5
404.198	79.5
404.422	77.5
404.645	83.5
404.869	75.5
405.093	85.5
405.317	93.5
405.541	93.5
405.765	102.5
405.988	110.5
406.212	173.5
406.436	211.5
406.66	141.5
406.883	97.5
407.107	91.5
407.331	89.5
407.555	96.5
407.778	96.5
408.002	79.5
408.226	93.5
408.449	63.5
408.673	87.5
408.896	85.5
409.12	95.5
409.344	81.5
409.567	95.5
409.791	91.5
410.014	95.5
410.238	97.5
410.461	99.5
410.685	98.5
410.908	94.5
411.132	99.5
411.355	98.5
411.578	90.5
411.802	92.5
412.025	92.5
412.249	92.5
412.472	94.5
412.695	106.5
412.919	94.5
413.142	92.5
413.365	91.5
413.589	97.5
413.812	99.5
414.035	99.5
414.258	86.5
414.482	95.5
414.705	94.5
414.928	96.5
415.151	103.5
415.374	92.5
415.597	84.5
415.821	77.5
416.044	88.5
416.267	88.5
416.49	88.5
416.713	95.5
416.936	79.5
417.159	83.5
417.382	81.5
417.605	100.5
417.828	106.5
418.051	95.5
418.274	85.5
418.497	94.5
418.72	87.5
418.943	89.5
419.166	99.5
419.389	99.5
419.611	95.5
419.834	82.5
420.057	93.5
420.28	80.5
420.503	87.5
420.726	88.5
420.948	84.5
421.171	87.5
421.394	87.5
421.617	80.5
421.839	95.5
422.062	93.5
422.285	90.5
422.507	98.5
422.73	91.5
422.953	84.5
423.175	80.5
423.398	91.5
423.621	99.5
423.843	87.5
424.066	88.5
424.288	83.5
424.511	77.5
424.733	103.5
424.956	99.5
425.178	109.5
425.401	93.5
425.623	99.5
425.846	77.5
426.068	80.5
426.291	86.5
426.513	90.5
426.735	102.5
426.958	88.5
427.18	102.5
427.402	139.5
427.625	167.5
427.847	129.5
428.069	124.5
428.292	96.5
428.514	83.5
428.736	75.5
428.958	89.5
429.181	88.5
429.403	97.5
429.625	96.5
429.847	92.5
430.069	112.5
430.292	100.5
430.514	104.5
430.736	79.5
430.958	78.5
431.18	87.5
431.402	100.5
431.624	99.5
431.846	99.5
432.068	76.5
432.29	84.5
432.512	85.5
432.734	91.5
432.956	84.5
433.178	106.5
433.4	98.5
433.622	120.5
433.844	92.5
434.066	90.5
434.287	79.5
434.509	82.5
434.731	90.5
434.953	88.5
435.175	82.5
435.397	79.5
435.618	79.5
435.84	88.5
436.062	113.5
436.284	103.5
436.505	98.5
436.727	119.5
436.949	93.5
437.17	108.5
437.392	87.5
437.614	96.5
437.835	97.5
438.057	115.5
438.278	99.5
438.5	97.5
438.721	116.5
438.943	103.5
439.165	92.5
439.386	75.5
439.608	97.5
439.829	98.5
440.05	130.5
440.272	134.5
440.493	101.5
440.715	96.5
440.936	86.5
441.158	84.5
441.379	92.5
441.6	107.5
441.822	105.5
442.043	83.5
442.264	102.5
442.486	93.5
442.707	84.5
442.928	95.5
443.149	112.5
443.371	122.5
443.592	105.5
443.813	101.5
444.034	99.5
444.255	88.5
444.476	93.5
444.698	93.5
444.919	91.5
445.14	132.5
445.361	128.5
445.582	109.5
445.803	130.5
446.024	132.5
446.245	124.5
446.466	108.5
446.687	89.5
446.908	94.5
447.129	92.5
447.35	83.5
447.571	96.5
447.792	100.5
448.013	91.5
448.234	100.5
448.455	106.5
448.675	101.5
448.896	105.5
449.117	107.5
449.338	97.5
449.559	123.5
449.779	111.5
450	85.5
450.221	89.5
450.442	93.5
450.662	85.5
450.883	103.5
451.104	107.5
451.324	90.5
451.545	87.5
451.766	80.5
451.986	81.5
452.207	93.5
452.428	95.5
452.648	93.5
452.869	107.5
453.089	118.5
453.31	101.5
453.53	105.5
453.751	102.5
453.971	85.5
454.192	109.5
454.412	100.5
454.633	86.5
454.853	91.5
455.073	89.5
455.294	96.5
455.514	94.5
455.734	92.5
455.955	86.5
456.175	82.5
456.395	99.5
456.616	79.5
456.836	89.5
457.056	82.5
457.276	73.5
457.497	83.5
457.717	76.5
457.937	84.5
458.157	89.5
458.377	83.5
458.598	104.5
458.818	139.5
459.038	159.5
459.258	110.5
459.478	98.5
459.698	93.5
459.918	73.5
460.138	100.5
460.358	92.5
460.578	102.5
460.798	88.5
461.018	70.5
461.238	95.5
461.458	77.5
461.678	95.5
461.898	93.5
462.118	83.5
462.338	92.5
462.558	85.5
462.777	77.5
462.997	92.5
463.217	81.5
463.437	79.5
463.657	96.5
463.876	90.5
464.096	95.5
464.316	91.5
464.536	99.5
464.755	100.5
464.975	103.5
465.195	146.5
465.414	136.5
465.634	104.5
465.854	90.5
466.073	81.5
466.293	95.5
466.512	96.5
466.732	92.5
466.951	80.5
467.171	89.5
467.391	89.5
467.61	95.5
467.829	105.5
468.049	135.5
468.268	156.5
468.488	108.5
468.707	80.5
468.927	89.5
469.146	81.5
469.365	86.5
469.585	94.5
469.804	89.5
470.023	94.5
470.243	92.5
470.462	101.5
470.681	117.5
470.901	107.5
471.12	93.5
471.339	96.5
471.558	71.5
471.777	91.5
471.997	113.5
472.216	198.5
472.435	348.5
472.654	130.5
472.873	99.5
473.092	83.5
473.311	95.5
473.53	101.5
473.749	85.5
473.968	100.5
474.187	112.5
474.406	105.5
474.625	89.5
474.844	89.5
475.063	70.5
475.282	94.5
475.501	98.5
475.72	95.5
475.939	98.5
476.158	84.5
476.377	102.5
476.596	81.5
476.814	89.5
477.033	96.5
477.252	88.5
477.471	82.5
477.69	99.5
477.908	88.5
478.127	95.5
478.346	93.5
478.564	97.5
478.783	98.5
479.002	105.5
479.22	94.5
479.439	88.5
479.658	103.5
479.876	89.5
480.095	88.5
480.313	91.5
480.532	99.5
480.751	106.5
480.969	197.5
481.188	556.5
481.406	337.5
481.624	107.5
481.843	100.5
482.061	92.5
482.28	87.5
482.498	84.5
482.717	81.5
482.935	106.5
483.153	96.5
483.372	75.5
483.59	93.5
483.808	79.5
484.027	95.5
484.245	80.5
484.463	91.5
484.681	88.5
484.9	84.5
485.118	98.5
485.336	99.5
485.554	118.5
485.772	98.5
485.99	109.5
486.209	127.5
486.427	99.5
486.645	109.5
486.863	107.5
487.081	99.5
487.299	95.5
487.517	95.5
487.735	97.5
487.953	81.5
488.171	88.5
488.389	91.5
488.607	93.5
488.825	83.5
489.043	90.5
489.261	84.5
489.479	71.5
489.696	92.5
489.914	94.5
490.132	87.5
490.35	90.5
490.568	80.5
490.786	99.5
491.003	95.5
491.221	83.5
491.439	83.5
491.657	87.5
491.874	91.5
492.092	83.5
492.31	93.5
492.527	80.5
492.745	95.5
492.963	84.5
493.18	79.5
493.398	97.5
493.615	89.5
493.833	96.5
494.05	89.5
494.268	91.5
494.485	71.5
494.703	99.5
494.92	95.5
495.138	94.5
495.355	81.5
495.573	100.5
495.79	84.5
496.008	82.5
496.225	96.5
496.442	87.5
496.66	83.5
496.877	101.5
497.094	82.5
497.312	90.5
497.529	87.5
497.746	79.5
497.963	89.5
498.181	92.5
498.398	89.5
498.615	95.5
498.832	99.5
499.049	93.5
499.267	99.5
499.484	92.5
499.701	97.5
499.918	101.5
500.135	88.5
500.352	89.5
500.569	86.5
500.786	89.5
501.003	99.5
501.22	81.5
501.437	90.5
501.654	72.5
501.871	98.5
502.088	79.5
502.305	87.5
502.522	84.5
502.739	82.5
502.956	103.5
503.172	93.5
503.389	82.5
503.606	94.5
503.823	95.5
504.04	85.5
504.256	89.5
504.473	83.5
504.69	87.5
504.907	82.5
505.123	88.5
505.34	99.5
505.557	92.5
505.773	76.5
505.99	87.5
506.207	91.5
506.423	90.5
506.64	99.5
506.856	90.5
507.073	98.5
507.289	89.5
507.506	104.5
507.722	102.5
507.939	110.5
508.155	93.5
508.372	87.5
508.588	93.5
508.805	96.5
509.021	97.5
509.238	96.5
509.454	90.5
509.67	102.5
509.887	107.5
510.103	120.5
510.319	200.5
510.536	667.5
510.752	2077.5
510.968	580.5
511.184	137.5
511.401	113.5
511.617	103.5
511.833	89.5
512.049	85.5
512.265	101.5
512.481	89.5
512.698	89.5
512.914	88.5
513.13	88.5
513.346	96.5
513.562	93.5
513.778	91.5
513.994	95.5
514.21	86.5
514.426	121.5
514.642	121.5
514.858	113.5
515.074	157.5
515.29	391.5
515.506	1233.5
515.721	458.5
515.937	151.5
516.153	121.5
516.369	93.5
516.585	97.5
516.801	95.5
517.016	104.5
517.232	92.5
517.448	87.5
517.664	77.5
517.879	99.5
518.095	105.5
518.311	88.5
518.527	91.5
518.742	102.5
518.958	85.5
519.173	94.5
519.389	92.5
519.605	89.5
519.82	90.5
520.036	101.5
520.251	111.5
520.467	100.5
520.682	102.5
520.898	103.5
521.113	110.5
521.329	131.5
521.544	191.5
521.76	459.5
521.975	2015.5
522.19	1187.5
522.406	278.5
522.621	120.5
522.836	69.5
523.052	99.5
523.267	95.5
523.482	92.5
523.698	100.5
523.913	121.5
524.128	97.5
524.343	81.5
524.559	94.5
524.774	83.5
524.989	87.5
525.204	102.5
525.419	92.5
525.634	83.5
525.849	79.5
526.064	85.5
526.28	89.5
526.495	96.5
526.71	91.5
526.925	81.5
527.14	86.5
527.355	86.5
527.57	72.5
527.785	89.5
527.999	85.5
528.214	93.5
528.429	84.5
528.644	78.5
528.859	87.5
529.074	91.5
529.289	124.5
529.503	159.5
529.718	105.5
529.933	92.5
530.148	91.5
530.363	79.5
530.577	92.5
530.792	92.5
531.007	87.5
531.221	96.5
531.436	97.5
531.651	99.5
531.865	92.5
532.08	88.5
532.295	98.5
532.509	98.5
532.724	79.5
532.938	100.5
533.153	87.5
533.367	98.5
533.582	85.5
533.796	81.5
534.011	88.5
534.225	88.5
534.44	91.5
534.654	81.5
534.868	81.5
535.083	91.5
