Data from Circ_1984_H10_HRD10591_00073.txt Node
Date: Wed Jan 03 12:22:56 EST 2024
User: Yrep
Spectrometer: HR+D1059
Trigger mode: 1
Integration Time (sec): 1.000000E-1
Scans to average: 1
Electric dark correction enabled: true
Nonlinearity correction enabled: false
Boxcar width: 0
XAxis mode: Wavelengths
Number of Pixels in Spectrum: 2048
>>>>>Begin Spectral Data<<<<<
223.165	-13.75
223.4	-13.75
223.635	-13.75
223.869	-15.75
224.104	-22.75
224.338	-11.75
224.573	-10.75
224.808	-14.75
225.042	-11.75
225.277	-9.75
225.511	-9.75
225.746	0.25
225.98	5.25
226.215	11.25
226.449	15.25
226.683	17.25
226.918	26.25
227.152	45.25
227.387	42.25
227.621	46.25
227.856	55.25
228.09	61.25
228.324	56.25
228.559	51.25
228.793	56.25
229.027	63.25
229.262	67.25
229.496	66.25
229.73	77.25
229.964	83.25
230.199	64.25
230.433	81.25
230.667	74.25
230.901	71.25
231.136	89.25
231.37	81.25
231.604	72.25
231.838	79.25
232.072	86.25
232.306	79.25
232.541	82.25
232.775	79.25
233.009	82.25
233.243	79.25
233.477	74.25
233.711	81.25
233.945	68.25
234.179	59.25
234.413	96.25
234.647	87.25
234.881	81.25
235.115	89.25
235.349	80.25
235.583	75.25
235.817	61.25
236.051	80.25
236.285	73.25
236.519	71.25
236.753	77.25
236.987	67.25
237.221	85.25
237.455	80.25
237.689	75.25
237.922	71.25
238.156	67.25
238.39	82.25
238.624	73.25
238.858	83.25
239.091	69.25
239.325	89.25
239.559	81.25
239.793	68.25
240.027	81.25
240.26	85.25
240.494	60.25
240.728	78.25
240.961	81.25
241.195	81.25
241.429	76.25
241.662	75.25
241.896	69.25
242.13	68.25
242.363	69.25
242.597	77.25
242.83	83.25
243.064	65.25
243.298	75.25
243.531	75.25
243.765	80.25
243.998	65.25
244.232	63.25
244.465	85.25
244.699	71.25
244.932	85.25
245.166	94.25
245.399	68.25
245.633	74.25
245.866	81.25
246.099	63.25
246.333	89.25
246.566	95.25
246.8	75.25
247.033	72.25
247.266	75.25
247.5	77.25
247.733	76.25
247.966	77.25
248.2	66.25
248.433	76.25
248.666	84.25
248.899	79.25
249.133	91.25
249.366	82.25
249.599	66.25
249.832	84.25
250.066	79.25
250.299	80.25
250.532	73.25
250.765	103.25
250.998	82.25
251.231	83.25
251.465	77.25
251.698	87.25
251.931	69.25
252.164	73.25
252.397	88.25
252.63	87.25
252.863	68.25
253.096	87.25
253.329	67.25
253.562	72.25
253.795	81.25
254.028	76.25
254.261	67.25
254.494	99.25
254.727	83.25
254.96	79.25
255.193	79.25
255.426	72.25
255.659	71.25
255.892	88.25
256.124	81.25
256.357	83.25
256.59	68.25
256.823	86.25
257.056	70.25
257.289	84.25
257.521	79.25
257.754	84.25
257.987	66.25
258.22	85.25
258.452	90.25
258.685	77.25
258.918	88.25
259.151	83.25
259.383	79.25
259.616	81.25
259.849	89.25
260.081	84.25
260.314	87.25
260.547	91.25
260.779	83.25
261.012	81.25
261.244	83.25
261.477	80.25
261.71	91.25
261.942	98.25
262.175	99.25
262.407	96.25
262.64	83.25
262.872	90.25
263.105	83.25
263.337	80.25
263.57	81.25
263.802	66.25
264.035	89.25
264.267	84.25
264.499	61.25
264.732	83.25
264.964	91.25
265.197	81.25
265.429	76.25
265.661	83.25
265.894	74.25
266.126	75.25
266.358	80.25
266.591	71.25
266.823	99.25
267.055	85.25
267.287	97.25
267.52	85.25
267.752	89.25
267.984	75.25
268.216	76.25
268.448	82.25
268.681	82.25
268.913	72.25
269.145	68.25
269.377	96.25
269.609	80.25
269.841	70.25
270.073	72.25
270.306	87.25
270.538	77.25
270.77	69.25
271.002	79.25
271.234	87.25
271.466	89.25
271.698	97.25
271.93	98.25
272.162	88.25
272.394	82.25
272.626	86.25
272.858	74.25
273.09	87.25
273.322	76.25
273.553	83.25
273.785	91.25
274.017	88.25
274.249	84.25
274.481	93.25
274.713	84.25
274.945	92.25
275.176	86.25
275.408	87.25
275.64	90.25
275.872	93.25
276.104	92.25
276.335	92.25
276.567	89.25
276.799	107.25
277.031	111.25
277.262	86.25
277.494	94.25
277.726	80.25
277.957	85.25
278.189	89.25
278.421	89.25
278.652	83.25
278.884	100.25
279.115	88.25
279.347	94.25
279.579	84.25
279.81	113.25
280.042	106.25
280.273	106.25
280.505	90.25
280.736	98.25
280.968	88.25
281.199	83.25
281.431	73.25
281.662	74.25
281.894	79.25
282.125	107.25
282.356	103.25
282.588	118.25
282.819	104.25
283.051	92.25
283.282	95.25
283.513	79.25
283.745	95.25
283.976	84.25
284.207	85.25
284.439	93.25
284.67	96.25
284.901	74.25
285.132	92.25
285.364	84.25
285.595	87.25
285.826	77.25
286.057	80.25
286.288	89.25
286.52	83.25
286.751	72.25
286.982	80.25
287.213	95.25
287.444	98.25
287.675	83.25
287.906	95.25
288.138	74.25
288.369	90.25
288.6	93.25
288.831	89.25
289.062	96.25
289.293	81.25
289.524	82.25
289.755	95.25
289.986	94.25
290.217	85.25
290.448	102.25
290.679	84.25
290.91	91.25
291.141	79.25
291.371	92.25
291.602	79.25
291.833	87.25
292.064	82.25
292.295	91.25
292.526	97.25
292.757	86.25
292.987	92.25
293.218	80.25
293.449	87.25
293.68	99.25
293.91	92.25
294.141	94.25
294.372	97.25
294.603	90.25
294.833	90.25
295.064	81.25
295.295	86.25
295.525	82.25
295.756	98.25
295.987	114.25
296.217	113.25
296.448	108.25
296.679	77.25
296.909	98.25
297.14	91.25
297.37	87.25
297.601	93.25
297.831	76.25
298.062	81.25
298.292	87.25
298.523	98.25
298.753	91.25
298.984	88.25
299.214	95.25
299.445	96.25
299.675	92.25
299.905	95.25
300.136	82.25
300.366	85.25
300.597	76.25
300.827	93.25
301.057	87.25
301.288	84.25
301.518	106.25
301.748	88.25
301.979	97.25
302.209	95.25
302.439	105.25
302.669	87.25
302.9	83.25
303.13	72.25
303.36	106.25
303.59	104.25
303.82	100.25
304.051	96.25
304.281	91.25
304.511	97.25
304.741	83.25
304.971	91.25
305.201	97.25
305.431	95.25
305.661	97.25
305.891	94.25
306.121	88.25
306.352	99.25
306.582	101.25
306.812	97.25
307.042	96.25
307.272	91.25
307.502	105.25
307.731	85.25
307.961	97.25
308.191	100.25
308.421	96.25
308.651	88.25
308.881	79.25
309.111	94.25
309.341	92.25
309.571	101.25
309.8	98.25
310.03	75.25
310.26	91.25
310.49	97.25
310.72	106.25
310.949	90.25
311.179	104.25
311.409	88.25
311.639	92.25
311.868	82.25
312.098	95.25
312.328	92.25
312.557	95.25
312.787	98.25
313.017	114.25
313.246	89.25
313.476	77.25
313.706	87.25
313.935	97.25
314.165	106.25
314.394	100.25
314.624	102.25
314.853	97.25
315.083	78.25
315.312	111.25
315.542	95.25
315.771	113.25
316.001	83.25
316.23	90.25
316.46	83.25
316.689	97.25
316.919	85.25
317.148	92.25
317.377	89.25
317.607	93.25
317.836	90.25
318.065	99.25
318.295	85.25
318.524	70.25
318.753	89.25
318.983	101.25
319.212	109.25
319.441	96.25
319.67	99.25
319.9	89.25
320.129	94.25
320.358	87.25
320.587	106.25
320.816	91.25
321.046	89.25
321.275	94.25
321.504	93.25
321.733	81.25
321.962	104.25
322.191	86.25
322.42	105.25
322.649	113.25
322.878	111.25
323.108	108.25
323.337	119.25
323.566	130.25
323.795	140.25
324.024	183.25
324.253	305.25
324.482	648.25
324.71	1318.25
324.939	1715.25
325.168	656.25
325.397	199.25
325.626	143.25
325.855	133.25
326.084	127.25
326.313	124.25
326.542	138.25
326.77	204.25
326.999	372.25
327.228	749.25
327.457	1363.25
327.686	1079.25
327.914	330.25
328.143	201.25
328.372	173.25
328.6	138.25
328.829	121.25
329.058	123.25
329.287	118.25
329.515	115.25
329.744	129.25
329.972	157.25
330.201	228.25
330.43	275.25
330.658	181.25
330.887	136.25
331.115	121.25
331.344	90.25
331.572	105.25
331.801	96.25
332.03	118.25
332.258	94.25
332.486	89.25
332.715	95.25
332.943	114.25
333.172	105.25
333.4	99.25
333.629	106.25
333.857	108.25
334.085	147.25
334.314	213.25
334.542	342.25
334.771	319.25
334.999	146.25
335.227	99.25
335.455	100.25
335.684	99.25
335.912	107.25
336.14	110.25
336.369	95.25
336.597	91.25
336.825	88.25
337.053	90.25
337.281	85.25
337.51	91.25
337.738	100.25
337.966	84.25
338.194	91.25
338.422	94.25
338.65	94.25
338.878	100.25
339.106	92.25
339.334	80.25
339.562	92.25
339.79	95.25
340.018	106.25
340.246	83.25
340.474	106.25
340.702	100.25
340.93	96.25
341.158	102.25
341.386	93.25
341.614	111.25
341.842	105.25
342.07	90.25
342.298	91.25
342.526	92.25
342.754	87.25
342.981	108.25
343.209	90.25
343.437	93.25
343.665	91.25
343.893	83.25
344.12	101.25
344.348	88.25
344.576	79.25
344.804	87.25
345.031	99.25
345.259	93.25
345.487	90.25
345.714	87.25
345.942	107.25
346.17	93.25
346.397	108.25
346.625	99.25
346.853	88.25
347.08	99.25
347.308	100.25
347.535	102.25
347.763	103.25
347.99	104.25
348.218	100.25
348.445	99.25
348.673	92.25
348.9	93.25
349.128	87.25
349.355	103.25
349.583	95.25
349.81	81.25
350.037	90.25
350.265	96.25
350.492	86.25
350.72	100.25
350.947	97.25
351.174	95.25
351.402	93.25
351.629	98.25
351.856	86.25
352.083	105.25
352.311	93.25
352.538	106.25
352.765	96.25
352.992	120.25
353.22	120.25
353.447	112.25
353.674	95.25
353.901	100.25
354.128	90.25
354.355	98.25
354.583	91.25
354.81	91.25
355.037	94.25
355.264	98.25
355.491	83.25
355.718	91.25
355.945	91.25
356.172	99.25
356.399	94.25
356.626	101.25
356.853	91.25
357.08	85.25
357.307	95.25
357.534	91.25
357.761	85.25
357.988	95.25
358.215	82.25
358.441	88.25
358.668	99.25
358.895	86.25
359.122	97.25
359.349	83.25
359.576	94.25
359.802	86.25
360.029	96.25
360.256	107.25
360.483	116.25
360.709	92.25
360.936	93.25
361.163	98.25
361.39	91.25
361.616	84.25
361.843	80.25
362.07	92.25
362.296	96.25
362.523	95.25
362.749	76.25
362.976	87.25
363.203	92.25
363.429	90.25
363.656	83.25
363.882	86.25
364.109	98.25
364.335	107.25
364.562	88.25
364.788	87.25
365.015	94.25
365.241	99.25
365.468	108.25
365.694	107.25
365.92	97.25
366.147	87.25
366.373	99.25
366.599	96.25
366.826	98.25
367.052	91.25
367.278	91.25
367.505	90.25
367.731	88.25
367.957	93.25
368.184	82.25
368.41	103.25
368.636	106.25
368.862	109.25
369.089	96.25
369.315	72.25
369.541	82.25
369.767	95.25
369.993	85.25
370.219	96.25
370.445	92.25
370.672	93.25
370.898	80.25
371.124	100.25
371.35	91.25
371.576	92.25
371.802	92.25
372.028	85.25
372.254	77.25
372.48	74.25
372.706	95.25
372.932	91.25
373.158	92.25
373.384	93.25
373.61	84.25
373.835	86.25
374.061	69.25
374.287	83.25
374.513	97.25
374.739	97.25
374.965	89.25
375.191	94.25
375.416	80.25
375.642	91.25
375.868	86.25
376.094	90.25
376.319	87.25
376.545	99.25
376.771	88.25
376.997	88.25
377.222	76.25
377.448	91.25
377.674	81.25
377.899	72.25
378.125	83.25
378.35	76.25
378.576	109.25
378.802	98.25
379.027	91.25
379.253	93.25
379.478	91.25
379.704	96.25
379.929	98.25
380.155	101.25
380.38	87.25
380.606	80.25
380.831	91.25
381.057	101.25
381.282	97.25
381.507	75.25
381.733	100.25
381.958	100.25
382.184	102.25
382.409	98.25
382.634	113.25
382.86	101.25
383.085	96.25
383.31	106.25
383.535	91.25
383.761	98.25
383.986	91.25
384.211	93.25
384.436	88.25
384.662	108.25
384.887	100.25
385.112	88.25
385.337	93.25
385.562	92.25
385.787	99.25
386.013	109.25
386.238	96.25
386.463	105.25
386.688	105.25
386.913	106.25
387.138	100.25
387.363	95.25
387.588	97.25
387.813	91.25
388.038	105.25
388.263	108.25
388.488	112.25
388.713	95.25
388.938	89.25
389.163	97.25
389.387	82.25
389.612	101.25
389.837	100.25
390.062	91.25
390.287	93.25
390.512	91.25
390.736	82.25
390.961	89.25
391.186	90.25
391.411	100.25
391.636	72.25
391.86	80.25
392.085	69.25
392.31	87.25
392.534	85.25
392.759	85.25
392.984	82.25
393.208	92.25
393.433	86.25
393.658	88.25
393.882	75.25
394.107	85.25
394.331	78.25
394.556	86.25
394.78	80.25
395.005	83.25
395.229	87.25
395.454	88.25
395.678	92.25
395.903	93.25
396.127	83.25
396.352	87.25
396.576	90.25
396.801	82.25
397.025	106.25
397.249	79.25
397.474	76.25
397.698	89.25
397.922	92.25
398.147	90.25
398.371	96.25
398.595	101.25
398.82	95.25
399.044	90.25
399.268	96.25
399.492	102.25
399.717	74.25
399.941	95.25
400.165	112.25
400.389	87.25
400.613	92.25
400.837	80.25
401.062	89.25
401.286	93.25
401.51	103.25
401.734	96.25
401.958	84.25
402.182	136.25
402.406	143.25
402.63	118.25
402.854	98.25
403.078	92.25
403.302	81.25
403.526	92.25
403.75	89.25
403.974	90.25
404.198	75.25
404.422	106.25
404.645	91.25
404.869	94.25
405.093	96.25
405.317	92.25
405.541	102.25
405.765	95.25
405.988	115.25
406.212	132.25
406.436	179.25
406.66	119.25
406.883	89.25
407.107	90.25
407.331	90.25
407.555	105.25
407.778	90.25
408.002	97.25
408.226	92.25
408.449	91.25
408.673	83.25
408.896	76.25
409.12	96.25
409.344	91.25
409.567	83.25
409.791	87.25
410.014	120.25
410.238	91.25
410.461	103.25
410.685	97.25
410.908	89.25
411.132	103.25
411.355	92.25
411.578	87.25
411.802	88.25
412.025	105.25
412.249	92.25
412.472	97.25
412.695	114.25
412.919	90.25
413.142	76.25
413.365	104.25
413.589	86.25
413.812	106.25
414.035	100.25
414.258	90.25
414.482	83.25
414.705	99.25
414.928	96.25
415.151	87.25
415.374	102.25
415.597	106.25
415.821	92.25
416.044	97.25
416.267	84.25
416.49	101.25
416.713	97.25
416.936	90.25
417.159	102.25
417.382	72.25
417.605	79.25
417.828	87.25
418.051	97.25
418.274	92.25
418.497	78.25
418.72	91.25
418.943	91.25
419.166	81.25
419.389	73.25
419.611	97.25
419.834	96.25
420.057	96.25
420.28	97.25
420.503	78.25
420.726	70.25
420.948	97.25
421.171	93.25
421.394	107.25
421.617	84.25
421.839	81.25
422.062	80.25
422.285	88.25
422.507	87.25
422.73	94.25
422.953	95.25
423.175	79.25
423.398	83.25
423.621	83.25
423.843	96.25
424.066	83.25
424.288	95.25
424.511	116.25
424.733	90.25
424.956	104.25
425.178	106.25
425.401	92.25
425.623	101.25
425.846	91.25
426.068	98.25
426.291	99.25
426.513	103.25
426.735	87.25
426.958	97.25
427.18	109.25
427.402	123.25
427.625	149.25
427.847	137.25
428.069	115.25
428.292	102.25
428.514	96.25
428.736	86.25
428.958	85.25
429.181	95.25
429.403	97.25
429.625	86.25
429.847	96.25
430.069	108.25
430.292	86.25
430.514	95.25
430.736	50.25
430.958	82.25
431.18	91.25
431.402	75.25
431.624	83.25
431.846	76.25
432.068	95.25
432.29	83.25
432.512	92.25
432.734	80.25
432.956	92.25
433.178	97.25
433.4	100.25
433.622	89.25
433.844	87.25
434.066	80.25
434.287	89.25
434.509	74.25
434.731	89.25
434.953	89.25
435.175	110.25
435.397	88.25
435.618	83.25
435.84	87.25
436.062	115.25
436.284	109.25
436.505	105.25
436.727	104.25
436.949	88.25
437.17	89.25
437.392	74.25
437.614	85.25
437.835	99.25
438.057	113.25
438.278	101.25
438.5	110.25
438.721	108.25
438.943	101.25
439.165	82.25
439.386	94.25
439.608	103.25
439.829	99.25
440.05	109.25
440.272	114.25
440.493	96.25
440.715	89.25
440.936	92.25
441.158	92.25
441.379	92.25
441.6	99.25
441.822	91.25
442.043	107.25
442.264	87.25
442.486	92.25
442.707	81.25
442.928	96.25
443.149	123.25
443.371	127.25
443.592	98.25
443.813	110.25
444.034	106.25
444.255	93.25
444.476	81.25
444.698	85.25
444.919	84.25
445.14	139.25
445.361	119.25
445.582	117.25
445.803	117.25
446.024	137.25
446.245	114.25
446.466	113.25
446.687	81.25
446.908	85.25
447.129	100.25
447.35	92.25
447.571	91.25
447.792	94.25
448.013	94.25
448.234	99.25
448.455	77.25
448.675	102.25
448.896	133.25
449.117	93.25
449.338	106.25
449.559	119.25
449.779	131.25
450	98.25
450.221	87.25
450.442	74.25
450.662	91.25
450.883	109.25
451.104	109.25
451.324	97.25
451.545	87.25
451.766	91.25
451.986	86.25
452.207	74.25
452.428	85.25
452.648	105.25
452.869	93.25
453.089	95.25
453.31	81.25
453.53	92.25
453.751	86.25
453.971	91.25
454.192	90.25
454.412	95.25
454.633	99.25
454.853	92.25
455.073	97.25
455.294	95.25
455.514	91.25
455.734	94.25
455.955	93.25
456.175	73.25
456.395	82.25
456.616	85.25
456.836	92.25
457.056	85.25
457.276	88.25
457.497	70.25
457.717	97.25
457.937	95.25
458.157	98.25
458.377	80.25
458.598	99.25
458.818	128.25
459.038	134.25
459.258	98.25
459.478	86.25
459.698	83.25
459.918	81.25
460.138	89.25
460.358	80.25
460.578	73.25
460.798	100.25
461.018	91.25
461.238	79.25
461.458	91.25
461.678	77.25
461.898	80.25
462.118	90.25
462.338	91.25
462.558	78.25
462.777	76.25
462.997	80.25
463.217	91.25
463.437	83.25
463.657	75.25
463.876	98.25
464.096	91.25
464.316	84.25
464.536	94.25
464.755	96.25
464.975	103.25
465.195	139.25
465.414	116.25
465.634	100.25
465.854	86.25
466.073	76.25
466.293	80.25
466.512	106.25
466.732	74.25
466.951	85.25
467.171	80.25
467.391	95.25
467.61	107.25
467.829	99.25
468.049	151.25
468.268	193.25
468.488	104.25
468.707	89.25
468.927	89.25
469.146	84.25
469.365	84.25
469.585	84.25
469.804	93.25
470.023	91.25
470.243	100.25
470.462	83.25
470.681	113.25
470.901	90.25
471.12	87.25
471.339	106.25
471.558	91.25
471.777	104.25
471.997	134.25
472.216	272.25
472.435	463.25
472.654	163.25
472.873	100.25
473.092	99.25
473.311	96.25
473.53	80.25
473.749	87.25
473.968	79.25
474.187	107.25
474.406	97.25
474.625	91.25
474.844	85.25
475.063	86.25
475.282	95.25
475.501	86.25
475.72	93.25
475.939	95.25
476.158	90.25
476.377	77.25
476.596	100.25
476.814	102.25
477.033	83.25
477.252	90.25
477.471	82.25
477.69	92.25
477.908	90.25
478.127	87.25
478.346	95.25
478.564	102.25
478.783	96.25
479.002	104.25
479.22	91.25
479.439	97.25
479.658	94.25
479.876	104.25
480.095	88.25
480.313	94.25
480.532	97.25
480.751	117.25
480.969	243.25
481.188	768.25
481.406	468.25
481.624	134.25
481.843	109.25
482.061	96.25
482.28	91.25
482.498	89.25
482.717	88.25
482.935	97.25
483.153	97.25
483.372	98.25
483.59	85.25
483.808	82.25
484.027	89.25
484.245	96.25
484.463	95.25
484.681	99.25
484.9	91.25
485.118	103.25
485.336	85.25
485.554	85.25
485.772	83.25
485.99	96.25
486.209	100.25
486.427	118.25
486.645	102.25
486.863	97.25
487.081	91.25
487.299	90.25
487.517	93.25
487.735	90.25
487.953	90.25
488.171	83.25
488.389	79.25
488.607	107.25
488.825	83.25
489.043	81.25
489.261	85.25
489.479	81.25
489.696	83.25
489.914	79.25
490.132	89.25
490.35	100.25
490.568	89.25
490.786	99.25
491.003	91.25
491.221	88.25
491.439	81.25
491.657	79.25
491.874	75.25
492.092	91.25
492.31	82.25
492.527	101.25
492.745	83.25
492.963	91.25
493.18	97.25
493.398	87.25
493.615	98.25
493.833	96.25
494.05	91.25
494.268	97.25
494.485	87.25
494.703	72.25
494.92	88.25
495.138	94.25
495.355	83.25
495.573	92.25
495.79	83.25
496.008	82.25
496.225	96.25
496.442	91.25
496.66	91.25
496.877	87.25
497.094	89.25
497.312	92.25
497.529	95.25
497.746	103.25
497.963	93.25
498.181	94.25
498.398	85.25
498.615	102.25
498.832	103.25
499.049	91.25
499.267	83.25
499.484	87.25
499.701	83.25
499.918	99.25
500.135	86.25
500.352	83.25
500.569	90.25
500.786	91.25
501.003	80.25
501.22	69.25
501.437	87.25
501.654	97.25
501.871	93.25
502.088	97.25
502.305	104.25
502.522	74.25
502.739	99.25
502.956	96.25
503.172	96.25
503.389	92.25
503.606	96.25
503.823	96.25
504.04	87.25
504.256	91.25
504.473	80.25
504.69	99.25
504.907	90.25
505.123	89.25
505.34	82.25
505.557	92.25
505.773	85.25
505.99	83.25
506.207	77.25
506.423	95.25
506.64	81.25
506.856	73.25
507.073	92.25
507.289	87.25
507.506	98.25
507.722	107.25
507.939	83.25
508.155	90.25
508.372	91.25
508.588	85.25
508.805	84.25
509.021	75.25
509.238	89.25
509.454	104.25
509.67	85.25
509.887	99.25
510.103	120.25
510.319	180.25
510.536	570.25
510.752	1789.25
510.968	510.25
511.184	138.25
511.401	109.25
511.617	95.25
511.833	83.25
512.049	81.25
512.265	93.25
512.481	88.25
512.698	87.25
512.914	79.25
513.13	75.25
513.346	88.25
513.562	95.25
513.778	93.25
513.994	95.25
514.21	99.25
514.426	108.25
514.642	124.25
514.858	110.25
515.074	143.25
515.29	323.25
515.506	994.25
515.721	377.25
515.937	130.25
516.153	95.25
