Data from Circ_1984_H10_HRD10591_00082.txt Node
Date: Wed Jan 03 12:22:58 EST 2024
User: Yrep
Spectrometer: HR+D1059
Trigger mode: 1
Integration Time (sec): 1.000000E-1
Scans to average: 1
Electric dark correction enabled: true
Nonlinearity correction enabled: false
Boxcar width: 0
XAxis mode: Wavelengths
Number of Pixels in Spectrum: 2048
>>>>>Begin Spectral Data<<<<<
223.165	-19.12
223.4	-19.12
223.635	-19.12
223.869	-31.12
224.104	-13.12
224.338	-20.12
224.573	-10.12
224.808	-10.12
225.042	-20.12
225.277	-0.12
225.511	-4.12
225.746	6.88
225.98	4.88
226.215	11.88
226.449	20.88
226.683	26.88
226.918	24.88
227.152	31.88
227.387	33.88
227.621	48.88
227.856	52.88
228.09	47.88
228.324	42.88
228.559	51.88
228.793	50.88
229.027	68.88
229.262	66.88
229.496	71.88
229.73	68.88
229.964	85.88
230.199	72.88
230.433	63.88
230.667	65.88
230.901	73.88
231.136	106.88
231.37	89.88
231.604	92.88
231.838	69.88
232.072	76.88
232.306	75.88
232.541	65.88
232.775	80.88
233.009	82.88
233.243	83.88
233.477	97.88
233.711	89.88
233.945	77.88
234.179	84.88
234.413	94.88
234.647	71.88
234.881	76.88
235.115	65.88
235.349	63.88
235.583	67.88
235.817	84.88
236.051	81.88
236.285	86.88
236.519	75.88
236.753	73.88
236.987	67.88
237.221	87.88
237.455	96.88
237.689	74.88
237.922	91.88
238.156	80.88
238.39	57.88
238.624	83.88
238.858	79.88
239.091	79.88
239.325	82.88
239.559	79.88
239.793	82.88
240.027	74.88
240.26	91.88
240.494	75.88
240.728	81.88
240.961	82.88
241.195	88.88
241.429	87.88
241.662	72.88
241.896	81.88
242.13	79.88
242.363	64.88
242.597	77.88
242.83	79.88
243.064	76.88
243.298	79.88
243.531	68.88
243.765	89.88
243.998	73.88
244.232	87.88
244.465	81.88
244.699	68.88
244.932	67.88
245.166	72.88
245.399	64.88
245.633	76.88
245.866	80.88
246.099	84.88
246.333	84.88
246.566	70.88
246.8	89.88
247.033	87.88
247.266	79.88
247.5	84.88
247.733	87.88
247.966	74.88
248.2	83.88
248.433	76.88
248.666	85.88
248.899	74.88
249.133	87.88
249.366	103.88
249.599	101.88
249.832	87.88
250.066	88.88
250.299	75.88
250.532	87.88
250.765	79.88
250.998	64.88
251.231	81.88
251.465	89.88
251.698	84.88
251.931	81.88
252.164	69.88
252.397	80.88
252.63	83.88
252.863	85.88
253.096	68.88
253.329	90.88
253.562	87.88
253.795	87.88
254.028	97.88
254.261	87.88
254.494	88.88
254.727	79.88
254.96	82.88
255.193	65.88
255.426	98.88
255.659	87.88
255.892	85.88
256.124	90.88
256.357	77.88
256.59	89.88
256.823	87.88
257.056	73.88
257.289	76.88
257.521	70.88
257.754	73.88
257.987	83.88
258.22	81.88
258.452	80.88
258.685	90.88
258.918	83.88
259.151	85.88
259.383	82.88
259.616	83.88
259.849	83.88
260.081	76.88
260.314	90.88
260.547	85.88
260.779	87.88
261.012	93.88
261.244	83.88
261.477	95.88
261.71	92.88
261.942	106.88
262.175	114.88
262.407	85.88
262.64	82.88
262.872	89.88
263.105	87.88
263.337	80.88
263.57	87.88
263.802	72.88
264.035	70.88
264.267	88.88
264.499	87.88
264.732	88.88
264.964	85.88
265.197	92.88
265.429	75.88
265.661	79.88
265.894	77.88
266.126	73.88
266.358	74.88
266.591	84.88
266.823	97.88
267.055	76.88
267.287	68.88
267.52	93.88
267.752	87.88
267.984	84.88
268.216	83.88
268.448	79.88
268.681	92.88
268.913	92.88
269.145	85.88
269.377	78.88
269.609	68.88
269.841	79.88
270.073	81.88
270.306	88.88
270.538	67.88
270.77	72.88
271.002	83.88
271.234	93.88
271.466	87.88
271.698	102.88
271.93	93.88
272.162	90.88
272.394	93.88
272.626	95.88
272.858	97.88
273.09	81.88
273.322	80.88
273.553	87.88
273.785	88.88
274.017	64.88
274.249	87.88
274.481	87.88
274.713	89.88
274.945	84.88
275.176	98.88
275.408	93.88
275.64	81.88
275.872	80.88
276.104	89.88
276.335	88.88
276.567	92.88
276.799	100.88
277.031	108.88
277.262	115.88
277.494	95.88
277.726	79.88
277.957	101.88
278.189	77.88
278.421	85.88
278.652	92.88
278.884	95.88
279.115	91.88
279.347	96.88
279.579	81.88
279.81	87.88
280.042	100.88
280.273	102.88
280.505	88.88
280.736	96.88
280.968	84.88
281.199	96.88
281.431	89.88
281.662	94.88
281.894	81.88
282.125	86.88
282.356	104.88
282.588	121.88
282.819	112.88
283.051	83.88
283.282	91.88
283.513	91.88
283.745	79.88
283.976	83.88
284.207	73.88
284.439	103.88
284.67	91.88
284.901	96.88
285.132	83.88
285.364	83.88
285.595	88.88
285.826	99.88
286.057	75.88
286.288	76.88
286.52	95.88
286.751	79.88
286.982	93.88
287.213	89.88
287.444	97.88
287.675	85.88
287.906	95.88
288.138	107.88
288.369	90.88
288.6	85.88
288.831	84.88
289.062	84.88
289.293	91.88
289.524	96.88
289.755	89.88
289.986	81.88
290.217	98.88
290.448	91.88
290.679	72.88
290.91	91.88
291.141	95.88
291.371	92.88
291.602	72.88
291.833	81.88
292.064	95.88
292.295	91.88
292.526	79.88
292.757	92.88
292.987	95.88
293.218	87.88
293.449	90.88
293.68	95.88
293.91	81.88
294.141	92.88
294.372	83.88
294.603	83.88
294.833	91.88
295.064	93.88
295.295	89.88
295.525	93.88
295.756	103.88
295.987	99.88
296.217	118.88
296.448	115.88
296.679	79.88
296.909	89.88
297.14	95.88
297.37	80.88
297.601	91.88
297.831	86.88
298.062	90.88
298.292	80.88
298.523	85.88
298.753	69.88
298.984	93.88
299.214	88.88
299.445	83.88
299.675	94.88
299.905	101.88
300.136	79.88
300.366	101.88
300.597	105.88
300.827	103.88
301.057	87.88
301.288	95.88
301.518	81.88
301.748	84.88
301.979	87.88
302.209	91.88
302.439	81.88
302.669	91.88
302.9	75.88
303.13	79.88
303.36	95.88
303.59	114.88
303.82	106.88
304.051	93.88
304.281	83.88
304.511	90.88
304.741	80.88
304.971	76.88
305.201	92.88
305.431	92.88
305.661	89.88
305.891	97.88
306.121	92.88
306.352	106.88
306.582	100.88
306.812	86.88
307.042	100.88
307.272	107.88
307.502	107.88
307.731	105.88
307.961	98.88
308.191	93.88
308.421	81.88
308.651	91.88
308.881	101.88
309.111	87.88
309.341	89.88
309.571	90.88
309.8	86.88
310.03	107.88
310.26	80.88
310.49	99.88
310.72	87.88
310.949	99.88
311.179	99.88
311.409	96.88
311.639	102.88
311.868	83.88
312.098	83.88
312.328	111.88
312.557	101.88
312.787	91.88
313.017	96.88
313.246	83.88
313.476	97.88
313.706	97.88
313.935	98.88
314.165	100.88
314.394	91.88
314.624	87.88
314.853	92.88
315.083	90.88
315.312	100.88
315.542	101.88
315.771	101.88
316.001	99.88
316.23	90.88
316.46	84.88
316.689	82.88
316.919	99.88
317.148	100.88
317.377	108.88
317.607	91.88
317.836	86.88
318.065	99.88
318.295	100.88
318.524	92.88
318.753	84.88
318.983	94.88
319.212	103.88
319.441	105.88
319.67	107.88
319.9	115.88
320.129	96.88
320.358	88.88
320.587	103.88
320.816	107.88
321.046	95.88
321.275	99.88
321.504	89.88
321.733	84.88
321.962	96.88
322.191	80.88
322.42	97.88
322.649	91.88
322.878	104.88
323.108	112.88
323.337	122.88
323.566	122.88
323.795	137.88
324.024	184.88
324.253	312.88
324.482	685.88
324.71	1380.88
324.939	1849.88
325.168	687.88
325.397	215.88
325.626	135.88
325.855	115.88
326.084	120.88
326.313	130.88
326.542	147.88
326.77	204.88
326.999	383.88
327.228	774.88
327.457	1402.88
327.686	1125.88
327.914	336.88
328.143	223.88
328.372	217.88
328.6	138.88
328.829	118.88
329.058	133.88
329.287	117.88
329.515	109.88
329.744	129.88
329.972	160.88
330.201	241.88
330.43	307.88
330.658	189.88
330.887	138.88
331.115	117.88
331.344	102.88
331.572	90.88
331.801	95.88
332.03	84.88
332.258	111.88
332.486	95.88
332.715	88.88
332.943	89.88
333.172	106.88
333.4	94.88
333.629	108.88
333.857	126.88
334.085	173.88
334.314	232.88
334.542	378.88
334.771	339.88
334.999	148.88
335.227	107.88
335.455	105.88
335.684	98.88
335.912	115.88
336.14	100.88
336.369	112.88
336.597	94.88
336.825	96.88
337.053	96.88
337.281	96.88
337.51	86.88
337.738	95.88
337.966	101.88
338.194	87.88
338.422	89.88
338.65	102.88
338.878	96.88
339.106	90.88
339.334	100.88
339.562	91.88
339.79	83.88
340.018	95.88
340.246	108.88
340.474	96.88
340.702	104.88
340.93	96.88
341.158	101.88
341.386	95.88
341.614	92.88
341.842	98.88
342.07	95.88
342.298	100.88
342.526	92.88
342.754	109.88
342.981	87.88
343.209	99.88
343.437	91.88
343.665	99.88
343.893	98.88
344.12	103.88
344.348	94.88
344.576	101.88
344.804	84.88
345.031	90.88
345.259	87.88
345.487	101.88
345.714	93.88
345.942	100.88
346.17	95.88
346.397	89.88
346.625	95.88
346.853	106.88
347.08	108.88
347.308	99.88
347.535	103.88
347.763	86.88
347.99	99.88
348.218	100.88
348.445	103.88
348.673	81.88
348.9	88.88
349.128	95.88
349.355	92.88
349.583	92.88
349.81	91.88
350.037	87.88
350.265	98.88
350.492	92.88
350.72	98.88
350.947	98.88
351.174	105.88
351.402	116.88
351.629	90.88
351.856	103.88
352.083	102.88
352.311	105.88
352.538	115.88
352.765	96.88
352.992	98.88
353.22	122.88
353.447	97.88
353.674	89.88
353.901	97.88
354.128	100.88
354.355	77.88
354.583	90.88
354.81	98.88
355.037	103.88
355.264	104.88
355.491	105.88
355.718	84.88
355.945	99.88
356.172	101.88
356.399	107.88
356.626	101.88
356.853	86.88
357.08	76.88
357.307	83.88
357.534	98.88
357.761	100.88
357.988	106.88
358.215	100.88
358.441	91.88
358.668	71.88
358.895	98.88
359.122	87.88
359.349	96.88
359.576	90.88
359.802	91.88
360.029	108.88
360.256	104.88
360.483	92.88
360.709	86.88
360.936	88.88
361.163	97.88
361.39	91.88
361.616	93.88
361.843	90.88
362.07	99.88
362.296	96.88
362.523	71.88
362.749	99.88
362.976	93.88
363.203	95.88
363.429	84.88
363.656	98.88
363.882	90.88
364.109	91.88
364.335	87.88
364.562	79.88
364.788	87.88
365.015	97.88
365.241	93.88
365.468	116.88
365.694	115.88
365.92	97.88
366.147	91.88
366.373	97.88
366.599	82.88
366.826	91.88
367.052	83.88
367.278	100.88
367.505	81.88
367.731	93.88
367.957	91.88
368.184	94.88
368.41	100.88
368.636	99.88
368.862	113.88
369.089	101.88
369.315	85.88
369.541	101.88
369.767	99.88
369.993	87.88
370.219	88.88
370.445	81.88
370.672	88.88
370.898	101.88
371.124	88.88
371.35	95.88
371.576	86.88
371.802	91.88
372.028	99.88
372.254	87.88
372.48	80.88
372.706	77.88
372.932	85.88
373.158	85.88
373.384	101.88
373.61	82.88
373.835	89.88
374.061	94.88
374.287	102.88
374.513	83.88
374.739	80.88
374.965	85.88
375.191	84.88
375.416	94.88
375.642	86.88
375.868	96.88
376.094	94.88
376.319	91.88
376.545	87.88
376.771	89.88
376.997	93.88
377.222	82.88
377.448	100.88
377.674	75.88
377.899	88.88
378.125	90.88
378.35	95.88
378.576	92.88
378.802	89.88
379.027	92.88
379.253	95.88
379.478	90.88
379.704	87.88
379.929	96.88
380.155	93.88
380.38	90.88
380.606	90.88
380.831	83.88
381.057	96.88
381.282	100.88
381.507	87.88
381.733	90.88
381.958	93.88
382.184	99.88
382.409	108.88
382.634	98.88
382.86	98.88
383.085	109.88
383.31	99.88
383.535	103.88
383.761	102.88
383.986	99.88
384.211	99.88
384.436	79.88
384.662	101.88
384.887	99.88
385.112	104.88
385.337	96.88
385.562	100.88
385.787	107.88
386.013	110.88
386.238	107.88
386.463	88.88
386.688	93.88
386.913	92.88
387.138	98.88
387.363	101.88
387.588	106.88
387.813	114.88
388.038	98.88
388.263	104.88
388.488	85.88
388.713	104.88
388.938	95.88
389.163	97.88
389.387	95.88
389.612	93.88
389.837	101.88
390.062	83.88
390.287	90.88
390.512	88.88
390.736	96.88
390.961	86.88
391.186	84.88
391.411	88.88
391.636	98.88
391.86	83.88
392.085	105.88
392.31	86.88
392.534	72.88
392.759	90.88
392.984	79.88
393.208	81.88
393.433	97.88
393.658	86.88
393.882	91.88
394.107	94.88
394.331	79.88
394.556	84.88
394.78	93.88
395.005	92.88
395.229	83.88
395.454	86.88
395.678	71.88
395.903	91.88
396.127	82.88
396.352	80.88
396.576	71.88
396.801	103.88
397.025	94.88
397.249	72.88
397.474	99.88
397.698	100.88
397.922	93.88
398.147	86.88
398.371	89.88
398.595	90.88
398.82	92.88
399.044	92.88
399.268	72.88
399.492	76.88
399.717	94.88
399.941	93.88
400.165	97.88
400.389	88.88
400.613	82.88
400.837	97.88
401.062	96.88
401.286	85.88
401.51	88.88
401.734	80.88
401.958	101.88
402.182	129.88
402.406	148.88
402.63	114.88
402.854	86.88
403.078	76.88
403.302	92.88
403.526	88.88
403.75	88.88
403.974	93.88
404.198	71.88
404.422	83.88
404.645	86.88
404.869	97.88
405.093	107.88
405.317	115.88
405.541	98.88
405.765	95.88
405.988	109.88
406.212	139.88
406.436	211.88
406.66	145.88
406.883	104.88
407.107	93.88
407.331	90.88
407.555	83.88
407.778	104.88
408.002	85.88
408.226	92.88
408.449	97.88
408.673	83.88
408.896	83.88
409.12	106.88
409.344	99.88
409.567	80.88
409.791	83.88
410.014	92.88
410.238	91.88
410.461	102.88
410.685	83.88
410.908	96.88
411.132	111.88
411.355	101.88
411.578	95.88
411.802	89.88
412.025	99.88
412.249	91.88
412.472	87.88
412.695	117.88
412.919	97.88
413.142	80.88
413.365	80.88
413.589	81.88
413.812	88.88
414.035	83.88
414.258	75.88
414.482	90.88
414.705	94.88
414.928	92.88
415.151	86.88
415.374	94.88
415.597	89.88
415.821	89.88
416.044	87.88
416.267	93.88
416.49	94.88
416.713	95.88
416.936	90.88
417.159	95.88
417.382	82.88
417.605	96.88
417.828	74.88
418.051	101.88
418.274	88.88
418.497	84.88
418.72	89.88
418.943	95.88
419.166	99.88
419.389	78.88
419.611	96.88
419.834	72.88
420.057	79.88
420.28	85.88
420.503	85.88
420.726	93.88
420.948	79.88
421.171	101.88
421.394	81.88
421.617	104.88
421.839	87.88
422.062	81.88
422.285	78.88
422.507	82.88
422.73	95.88
422.953	93.88
423.175	106.88
423.398	90.88
423.621	88.88
423.843	80.88
424.066	90.88
424.288	75.88
424.511	85.88
424.733	87.88
424.956	101.88
425.178	97.88
425.401	100.88
425.623	112.88
425.846	87.88
426.068	95.88
426.291	93.88
426.513	99.88
426.735	102.88
426.958	96.88
427.18	110.88
427.402	122.88
427.625	156.88
427.847	139.88
428.069	125.88
428.292	105.88
428.514	89.88
428.736	80.88
428.958	91.88
429.181	80.88
429.403	97.88
429.625	92.88
429.847	86.88
430.069	96.88
430.292	97.88
430.514	75.88
430.736	88.88
430.958	93.88
431.18	113.88
431.402	83.88
431.624	98.88
431.846	85.88
432.068	82.88
432.29	96.88
432.512	91.88
432.734	87.88
432.956	93.88
433.178	81.88
433.4	101.88
433.622	99.88
433.844	88.88
434.066	100.88
434.287	94.88
434.509	83.88
434.731	87.88
434.953	89.88
435.175	88.88
435.397	95.88
435.618	89.88
435.84	91.88
436.062	116.88
436.284	105.88
436.505	99.88
436.727	95.88
436.949	85.88
437.17	91.88
437.392	99.88
437.614	104.88
437.835	101.88
438.057	109.88
438.278	112.88
438.5	101.88
438.721	112.88
438.943	95.88
439.165	104.88
439.386	101.88
439.608	93.88
439.829	81.88
440.05	109.88
440.272	120.88
440.493	95.88
440.715	101.88
440.936	96.88
441.158	91.88
441.379	89.88
441.6	93.88
441.822	91.88
442.043	93.88
442.264	121.88
442.486	104.88
442.707	103.88
442.928	103.88
443.149	136.88
443.371	118.88
443.592	103.88
443.813	104.88
444.034	103.88
444.255	94.88
444.476	77.88
444.698	88.88
444.919	89.88
445.14	133.88
445.361	116.88
445.582	110.88
445.803	127.88
446.024	136.88
446.245	137.88
446.466	104.88
446.687	97.88
446.908	92.88
447.129	80.88
447.35	89.88
447.571	90.88
447.792	103.88
448.013	78.88
448.234	107.88
448.455	102.88
448.675	111.88
448.896	121.88
449.117	112.88
449.338	91.88
449.559	119.88
449.779	128.88
450	92.88
450.221	85.88
450.442	89.88
450.662	103.88
450.883	90.88
451.104	108.88
451.324	96.88
451.545	77.88
451.766	90.88
451.986	91.88
452.207	83.88
452.428	98.88
452.648	108.88
452.869	98.88
453.089	119.88
453.31	102.88
453.53	84.88
453.751	108.88
453.971	105.88
454.192	83.88
454.412	91.88
454.633	79.88
454.853	79.88
455.073	88.88
455.294	71.88
455.514	87.88
455.734	98.88
455.955	86.88
456.175	95.88
456.395	88.88
456.616	99.88
456.836	71.88
457.056	93.88
457.276	72.88
457.497	82.88
457.717	85.88
457.937	83.88
458.157	98.88
458.377	84.88
458.598	106.88
458.818	137.88
459.038	139.88
459.258	107.88
459.478	90.88
459.698	83.88
459.918	101.88
460.138	97.88
460.358	95.88
460.578	75.88
460.798	72.88
461.018	100.88
461.238	92.88
461.458	81.88
461.678	76.88
461.898	79.88
462.118	89.88
462.338	87.88
462.558	87.88
462.777	75.88
462.997	72.88
463.217	104.88
463.437	87.88
463.657	88.88
463.876	87.88
464.096	71.88
464.316	86.88
464.536	98.88
464.755	84.88
464.975	105.88
465.195	135.88
465.414	153.88
465.634	96.88
465.854	84.88
466.073	94.88
466.293	90.88
466.512	83.88
466.732	81.88
466.951	90.88
467.171	84.88
467.391	99.88
467.61	96.88
467.829	110.88
468.049	166.88
468.268	200.88
468.488	116.88
468.707	114.88
468.927	83.88
469.146	74.88
469.365	84.88
469.585	105.88
469.804	94.88
470.023	89.88
470.243	105.88
470.462	89.88
470.681	106.88
470.901	91.88
471.12	99.88
471.339	97.88
471.558	91.88
471.777	96.88
471.997	125.88
472.216	283.88
472.435	492.88
472.654	173.88
472.873	113.88
473.092	89.88
473.311	91.88
473.53	88.88
473.749	89.88
473.968	82.88
474.187	97.88
474.406	80.88
474.625	77.88
474.844	89.88
475.063	89.88
475.282	91.88
475.501	90.88
475.72	100.88
475.939	84.88
476.158	95.88
476.377	88.88
476.596	100.88
476.814	101.88
477.033	92.88
477.252	83.88
477.471	93.88
477.69	91.88
477.908	91.88
478.127	88.88
478.346	80.88
478.564	74.88
478.783	92.88
479.002	94.88
479.22	98.88
479.439	101.88
479.658	105.88
479.876	99.88
480.095	102.88
480.313	96.88
480.532	93.88
480.751	121.88
480.969	266.88
481.188	806.88
481.406	501.88
481.624	136.88
481.843	100.88
482.061	75.88
482.28	99.88
482.498	91.88
482.717	88.88
482.935	92.88
483.153	91.88
483.372	89.88
483.59	89.88
483.808	84.88
484.027	82.88
484.245	92.88
484.463	98.88
484.681	100.88
484.9	96.88
485.118	84.88
485.336	87.88
485.554	93.88
485.772	99.88
485.99	105.88
486.209	99.88
486.427	97.88
486.645	100.88
486.863	113.88
487.081	104.88
487.299	84.88
487.517	92.88
487.735	93.88
487.953	81.88
488.171	88.88
488.389	103.88
488.607	83.88
488.825	84.88
489.043	91.88
489.261	90.88
489.479	86.88
489.696	97.88
489.914	91.88
490.132	88.88
490.35	87.88
490.568	89.88
490.786	92.88
491.003	94.88
491.221	88.88
491.439	88.88
491.657	99.88
491.874	82.88
492.092	75.88
492.31	85.88
492.527	87.88
492.745	99.88
492.963	90.88
493.18	91.88
493.398	109.88
493.615	85.88
493.833	87.88
494.05	96.88
494.268	87.88
494.485	86.88
494.703	74.88
494.92	88.88
495.138	90.88
495.355	92.88
495.573	84.88
495.79	82.88
496.008	92.88
496.225	74.88
496.442	88.88
496.66	85.88
496.877	86.88
497.094	99.88
497.312	76.88
497.529	91.88
497.746	96.88
497.963	89.88
498.181	100.88
498.398	95.88
498.615	97.88
498.832	108.88
499.049	87.88
499.267	101.88
499.484	84.88
499.701	79.88
499.918	83.88
500.135	92.88
500.352	79.88
500.569	95.88
500.786	101.88
501.003	87.88
501.22	73.88
501.437	74.88
501.654	96.88
501.871	113.88
502.088	104.88
502.305	91.88
502.522	96.88
502.739	81.88
502.956	97.88
503.172	85.88
503.389	99.88
503.606	100.88
503.823	96.88
504.04	81.88
504.256	91.88
504.473	90.88
504.69	100.88
504.907	103.88
505.123	85.88
505.34	102.88
505.557	85.88
505.773	96.88
505.99	83.88
506.207	83.88
506.423	89.88
506.64	99.88
506.856	94.88
507.073	85.88
507.289	85.88
507.506	88.88
507.722	96.88
507.939	112.88
508.155	82.88
508.372	84.88
508.588	86.88
508.805	93.88
509.021	105.88
509.238	99.88
509.454	100.88
509.67	112.88
509.887	103.88
510.103	130.88
510.319	178.88
510.536	631.88
510.752	2035.88
510.968	571.88
511.184	153.88
511.401	113.88
511.617	101.88
511.833	104.88
512.049	82.88
512.265	84.88
512.481	91.88
512.698	73.88
512.914	97.88
513.13	81.88
513.346	75.88
513.562	98.88
513.778	83.88
513.994	103.88
514.21	89.88
514.426	98.88
514.642	126.88
514.858	116.88
515.074	150.88
515.29	378.88
515.506	1217.88
