Data from Circ_1984_H10_HRD10591_00045.txt Node
Date: Wed Jan 03 12:22:51 EST 2024
User: Yrep
Spectrometer: HR+D1059
Trigger mode: 1
Integration Time (sec): 1.000000E-1
Scans to average: 1
Electric dark correction enabled: true
Nonlinearity correction enabled: false
Boxcar width: 0
XAxis mode: Wavelengths
Number of Pixels in Spectrum: 2048
>>>>>Begin Spectral Data<<<<<
223.165	-18.75
223.4	-18.75
223.635	-18.75
223.869	-24.75
224.104	-11.75
224.338	-2.75
224.573	1.25
224.808	-10.75
225.042	-6.75
225.277	-0.75
225.511	2.25
225.746	-14.75
225.98	-3.75
226.215	-12.75
226.449	16.25
226.683	21.25
226.918	21.25
227.152	45.25
227.387	26.25
227.621	37.25
227.856	55.25
228.09	48.25
228.324	55.25
228.559	58.25
228.793	57.25
229.027	70.25
229.262	59.25
229.496	72.25
229.73	85.25
229.964	76.25
230.199	73.25
230.433	67.25
230.667	79.25
230.901	86.25
231.136	76.25
231.37	74.25
231.604	82.25
231.838	59.25
232.072	92.25
232.306	76.25
232.541	69.25
232.775	74.25
233.009	82.25
233.243	90.25
233.477	81.25
233.711	98.25
233.945	87.25
234.179	79.25
234.413	90.25
234.647	83.25
234.881	83.25
235.115	91.25
235.349	80.25
235.583	67.25
235.817	79.25
236.051	81.25
236.285	77.25
236.519	79.25
236.753	79.25
236.987	91.25
237.221	67.25
237.455	91.25
237.689	92.25
237.922	83.25
238.156	90.25
238.39	72.25
238.624	74.25
238.858	68.25
239.091	69.25
239.325	64.25
239.559	74.25
239.793	71.25
240.027	59.25
240.26	65.25
240.494	60.25
240.728	72.25
240.961	88.25
241.195	95.25
241.429	69.25
241.662	60.25
241.896	70.25
242.13	87.25
242.363	67.25
242.597	76.25
242.83	75.25
243.064	66.25
243.298	91.25
243.531	72.25
243.765	81.25
243.998	85.25
244.232	88.25
244.465	86.25
244.699	74.25
244.932	76.25
245.166	69.25
245.399	79.25
245.633	69.25
245.866	74.25
246.099	85.25
246.333	83.25
246.566	72.25
246.8	83.25
247.033	70.25
247.266	82.25
247.5	71.25
247.733	71.25
247.966	79.25
248.2	81.25
248.433	79.25
248.666	75.25
248.899	84.25
249.133	86.25
249.366	91.25
249.599	111.25
249.832	97.25
250.066	82.25
250.299	79.25
250.532	98.25
250.765	86.25
250.998	87.25
251.231	87.25
251.465	74.25
251.698	74.25
251.931	83.25
252.164	74.25
252.397	87.25
252.63	79.25
252.863	83.25
253.096	79.25
253.329	76.25
253.562	75.25
253.795	85.25
254.028	85.25
254.261	82.25
254.494	81.25
254.727	78.25
254.96	90.25
255.193	82.25
255.426	87.25
255.659	89.25
255.892	81.25
256.124	83.25
256.357	77.25
256.59	74.25
256.823	87.25
257.056	85.25
257.289	97.25
257.521	80.25
257.754	65.25
257.987	82.25
258.22	72.25
258.452	87.25
258.685	64.25
258.918	83.25
259.151	85.25
259.383	87.25
259.616	66.25
259.849	81.25
260.081	92.25
260.314	84.25
260.547	79.25
260.779	85.25
261.012	92.25
261.244	83.25
261.477	83.25
261.71	90.25
261.942	108.25
262.175	115.25
262.407	95.25
262.64	81.25
262.872	92.25
263.105	88.25
263.337	75.25
263.57	79.25
263.802	91.25
264.035	92.25
264.267	68.25
264.499	83.25
264.732	92.25
264.964	73.25
265.197	79.25
265.429	104.25
265.661	77.25
265.894	98.25
266.126	90.25
266.358	97.25
266.591	99.25
266.823	76.25
267.055	87.25
267.287	76.25
267.52	89.25
267.752	79.25
267.984	75.25
268.216	93.25
268.448	74.25
268.681	85.25
268.913	83.25
269.145	92.25
269.377	81.25
269.609	91.25
269.841	87.25
270.073	91.25
270.306	96.25
270.538	99.25
270.77	88.25
271.002	95.25
271.234	70.25
271.466	89.25
271.698	94.25
271.93	92.25
272.162	82.25
272.394	102.25
272.626	85.25
272.858	75.25
273.09	67.25
273.322	84.25
273.553	97.25
273.785	92.25
274.017	81.25
274.249	87.25
274.481	76.25
274.713	93.25
274.945	89.25
275.176	81.25
275.408	105.25
275.64	88.25
275.872	91.25
276.104	86.25
276.335	97.25
276.567	92.25
276.799	110.25
277.031	101.25
277.262	90.25
277.494	93.25
277.726	91.25
277.957	66.25
278.189	87.25
278.421	93.25
278.652	85.25
278.884	81.25
279.115	104.25
279.347	91.25
279.579	82.25
279.81	88.25
280.042	91.25
280.273	109.25
280.505	90.25
280.736	82.25
280.968	65.25
281.199	68.25
281.431	85.25
281.662	71.25
281.894	91.25
282.125	87.25
282.356	106.25
282.588	145.25
282.819	112.25
283.051	85.25
283.282	79.25
283.513	97.25
283.745	84.25
283.976	85.25
284.207	81.25
284.439	97.25
284.67	100.25
284.901	96.25
285.132	93.25
285.364	77.25
285.595	84.25
285.826	83.25
286.057	94.25
286.288	83.25
286.52	97.25
286.751	79.25
286.982	83.25
287.213	88.25
287.444	93.25
287.675	83.25
287.906	95.25
288.138	75.25
288.369	96.25
288.6	97.25
288.831	83.25
289.062	104.25
289.293	90.25
289.524	89.25
289.755	83.25
289.986	72.25
290.217	96.25
290.448	76.25
290.679	106.25
290.91	108.25
291.141	85.25
291.371	83.25
291.602	68.25
291.833	103.25
292.064	87.25
292.295	80.25
292.526	92.25
292.757	104.25
292.987	88.25
293.218	85.25
293.449	84.25
293.68	69.25
293.91	81.25
294.141	99.25
294.372	97.25
294.603	108.25
294.833	100.25
295.064	90.25
295.295	88.25
295.525	90.25
295.756	101.25
295.987	109.25
296.217	142.25
296.448	111.25
296.679	103.25
296.909	83.25
297.14	84.25
297.37	79.25
297.601	81.25
297.831	92.25
298.062	95.25
298.292	82.25
298.523	91.25
298.753	82.25
298.984	95.25
299.214	100.25
299.445	85.25
299.675	95.25
299.905	86.25
300.136	98.25
300.366	84.25
300.597	94.25
300.827	107.25
301.057	105.25
301.288	109.25
301.518	110.25
301.748	97.25
301.979	105.25
302.209	95.25
302.439	100.25
302.669	96.25
302.9	89.25
303.13	92.25
303.36	104.25
303.59	96.25
303.82	118.25
304.051	93.25
304.281	86.25
304.511	81.25
304.741	77.25
304.971	83.25
305.201	96.25
305.431	92.25
305.661	83.25
305.891	109.25
306.121	89.25
306.352	104.25
306.582	121.25
306.812	95.25
307.042	92.25
307.272	104.25
307.502	100.25
307.731	91.25
307.961	90.25
308.191	79.25
308.421	99.25
308.651	80.25
308.881	91.25
309.111	99.25
309.341	82.25
309.571	113.25
309.8	94.25
310.03	103.25
310.26	109.25
310.49	88.25
310.72	107.25
310.949	100.25
311.179	99.25
311.409	90.25
311.639	90.25
311.868	100.25
312.098	97.25
312.328	97.25
312.557	90.25
312.787	101.25
313.017	104.25
313.246	84.25
313.476	85.25
313.706	85.25
313.935	84.25
314.165	96.25
314.394	112.25
314.624	105.25
314.853	104.25
315.083	113.25
315.312	92.25
315.542	88.25
315.771	97.25
316.001	89.25
316.23	80.25
316.46	95.25
316.689	90.25
316.919	95.25
317.148	99.25
317.377	86.25
317.607	88.25
317.836	95.25
318.065	94.25
318.295	80.25
318.524	92.25
318.753	107.25
318.983	86.25
319.212	85.25
319.441	110.25
319.67	100.25
319.9	89.25
320.129	83.25
320.358	86.25
320.587	99.25
320.816	102.25
321.046	95.25
321.275	97.25
321.504	92.25
321.733	89.25
321.962	109.25
322.191	103.25
322.42	97.25
322.649	105.25
322.878	107.25
323.108	115.25
323.337	126.25
323.566	115.25
323.795	138.25
324.024	175.25
324.253	333.25
324.482	672.25
324.71	1366.25
324.939	1819.25
325.168	704.25
325.397	219.25
325.626	136.25
325.855	130.25
326.084	122.25
326.313	109.25
326.542	135.25
326.77	201.25
326.999	378.25
327.228	791.25
327.457	1413.25
327.686	1126.25
327.914	309.25
328.143	198.25
328.372	183.25
328.6	132.25
328.829	129.25
329.058	120.25
329.287	128.25
329.515	112.25
329.744	135.25
329.972	157.25
330.201	207.25
330.43	225.25
330.658	147.25
330.887	141.25
331.115	112.25
331.344	105.25
331.572	107.25
331.801	97.25
332.03	106.25
332.258	94.25
332.486	95.25
332.715	104.25
332.943	107.25
333.172	99.25
333.4	108.25
333.629	117.25
333.857	130.25
334.085	132.25
334.314	191.25
334.542	279.25
334.771	276.25
334.999	135.25
335.227	119.25
335.455	104.25
335.684	99.25
335.912	109.25
336.14	105.25
336.369	103.25
336.597	96.25
336.825	96.25
337.053	102.25
337.281	92.25
337.51	95.25
337.738	109.25
337.966	92.25
338.194	73.25
338.422	99.25
338.65	85.25
338.878	94.25
339.106	89.25
339.334	89.25
339.562	95.25
339.79	94.25
340.018	86.25
340.246	85.25
340.474	89.25
340.702	87.25
340.93	92.25
341.158	103.25
341.386	101.25
341.614	75.25
341.842	87.25
342.07	96.25
342.298	93.25
342.526	101.25
342.754	102.25
342.981	85.25
343.209	95.25
343.437	92.25
343.665	90.25
343.893	91.25
344.12	86.25
344.348	87.25
344.576	82.25
344.804	72.25
345.031	102.25
345.259	93.25
345.487	98.25
345.714	95.25
345.942	93.25
346.17	89.25
346.397	91.25
346.625	94.25
346.853	88.25
347.08	91.25
347.308	98.25
347.535	105.25
347.763	100.25
347.99	102.25
348.218	89.25
348.445	82.25
348.673	108.25
348.9	96.25
349.128	86.25
349.355	97.25
349.583	85.25
349.81	86.25
350.037	100.25
350.265	93.25
350.492	98.25
350.72	95.25
350.947	109.25
351.174	125.25
351.402	108.25
351.629	96.25
351.856	86.25
352.083	85.25
352.311	85.25
352.538	109.25
352.765	117.25
352.992	93.25
353.22	89.25
353.447	87.25
353.674	107.25
353.901	91.25
354.128	95.25
354.355	95.25
354.583	91.25
354.81	104.25
355.037	105.25
355.264	96.25
355.491	92.25
355.718	91.25
355.945	92.25
356.172	89.25
356.399	95.25
356.626	79.25
356.853	88.25
357.08	89.25
357.307	96.25
357.534	96.25
357.761	94.25
357.988	100.25
358.215	88.25
358.441	90.25
358.668	96.25
358.895	81.25
359.122	83.25
359.349	69.25
359.576	105.25
359.802	110.25
360.029	101.25
360.256	93.25
360.483	98.25
360.709	87.25
360.936	91.25
361.163	89.25
361.39	101.25
361.616	100.25
361.843	88.25
362.07	97.25
362.296	76.25
362.523	96.25
362.749	76.25
362.976	71.25
363.203	96.25
363.429	96.25
363.656	97.25
363.882	86.25
364.109	87.25
364.335	88.25
364.562	99.25
364.788	91.25
365.015	90.25
365.241	91.25
365.468	103.25
365.694	96.25
365.92	90.25
366.147	99.25
366.373	79.25
366.599	101.25
366.826	94.25
367.052	99.25
367.278	87.25
367.505	83.25
367.731	81.25
367.957	75.25
368.184	90.25
368.41	89.25
368.636	113.25
368.862	99.25
369.089	109.25
369.315	99.25
369.541	89.25
369.767	85.25
369.993	80.25
370.219	97.25
370.445	72.25
370.672	63.25
370.898	96.25
371.124	95.25
371.35	103.25
371.576	91.25
371.802	83.25
372.028	90.25
372.254	98.25
372.48	89.25
372.706	77.25
372.932	89.25
373.158	82.25
373.384	88.25
373.61	89.25
373.835	87.25
374.061	79.25
374.287	99.25
374.513	98.25
374.739	99.25
374.965	84.25
375.191	99.25
375.416	88.25
375.642	88.25
375.868	101.25
376.094	92.25
376.319	100.25
376.545	101.25
376.771	94.25
376.997	103.25
377.222	96.25
377.448	95.25
377.674	90.25
377.899	92.25
378.125	87.25
378.35	97.25
378.576	89.25
378.802	94.25
379.027	82.25
379.253	105.25
379.478	89.25
379.704	101.25
379.929	105.25
380.155	84.25
380.38	100.25
380.606	99.25
380.831	105.25
381.057	99.25
381.282	80.25
381.507	91.25
381.733	84.25
381.958	92.25
382.184	95.25
382.409	103.25
382.634	82.25
382.86	87.25
383.085	106.25
383.31	107.25
383.535	96.25
383.761	91.25
383.986	95.25
384.211	83.25
384.436	99.25
384.662	98.25
384.887	102.25
385.112	101.25
385.337	104.25
385.562	98.25
385.787	107.25
386.013	128.25
386.238	109.25
386.463	97.25
386.688	96.25
386.913	108.25
387.138	116.25
387.363	113.25
387.588	92.25
387.813	84.25
388.038	97.25
388.263	111.25
388.488	108.25
388.713	99.25
388.938	83.25
389.163	98.25
389.387	89.25
389.612	79.25
389.837	88.25
390.062	107.25
390.287	86.25
390.512	91.25
390.736	72.25
390.961	91.25
391.186	97.25
391.411	87.25
391.636	92.25
391.86	97.25
392.085	79.25
392.31	88.25
392.534	88.25
392.759	81.25
392.984	88.25
393.208	89.25
393.433	95.25
393.658	87.25
393.882	97.25
394.107	79.25
394.331	80.25
394.556	76.25
394.78	81.25
395.005	100.25
395.229	73.25
395.454	88.25
395.678	89.25
395.903	88.25
396.127	92.25
396.352	93.25
396.576	101.25
396.801	74.25
397.025	83.25
397.249	79.25
397.474	98.25
397.698	99.25
397.922	92.25
398.147	94.25
398.371	92.25
398.595	91.25
398.82	70.25
399.044	73.25
399.268	102.25
399.492	81.25
399.717	93.25
399.941	92.25
400.165	95.25
400.389	82.25
400.613	95.25
400.837	86.25
401.062	84.25
401.286	96.25
401.51	83.25
401.734	81.25
401.958	88.25
402.182	119.25
402.406	145.25
402.63	91.25
402.854	86.25
403.078	92.25
403.302	101.25
403.526	89.25
403.75	85.25
403.974	85.25
404.198	82.25
404.422	77.25
404.645	79.25
404.869	93.25
405.093	101.25
405.317	103.25
405.541	101.25
405.765	100.25
405.988	100.25
406.212	145.25
406.436	196.25
406.66	134.25
406.883	105.25
407.107	79.25
407.331	107.25
407.555	88.25
407.778	96.25
408.002	71.25
408.226	83.25
408.449	97.25
408.673	91.25
408.896	92.25
409.12	99.25
409.344	97.25
409.567	81.25
409.791	93.25
410.014	89.25
410.238	98.25
410.461	82.25
410.685	98.25
410.908	90.25
411.132	112.25
411.355	92.25
411.578	91.25
411.802	84.25
412.025	84.25
412.249	94.25
412.472	91.25
412.695	91.25
412.919	85.25
413.142	88.25
413.365	85.25
413.589	85.25
413.812	99.25
414.035	93.25
414.258	85.25
414.482	89.25
414.705	101.25
414.928	82.25
415.151	84.25
415.374	85.25
415.597	96.25
415.821	77.25
416.044	89.25
416.267	77.25
416.49	98.25
416.713	79.25
416.936	76.25
417.159	92.25
417.382	90.25
417.605	84.25
417.828	88.25
418.051	107.25
418.274	87.25
418.497	94.25
418.72	86.25
418.943	72.25
419.166	81.25
419.389	79.25
419.611	105.25
419.834	87.25
420.057	91.25
420.28	77.25
420.503	89.25
420.726	87.25
420.948	91.25
421.171	98.25
421.394	89.25
421.617	95.25
421.839	91.25
422.062	101.25
422.285	94.25
422.507	105.25
422.73	95.25
422.953	92.25
423.175	87.25
423.398	91.25
423.621	98.25
423.843	89.25
424.066	99.25
424.288	92.25
424.511	90.25
424.733	100.25
424.956	95.25
425.178	102.25
425.401	105.25
425.623	88.25
425.846	86.25
426.068	89.25
426.291	99.25
426.513	98.25
426.735	90.25
426.958	76.25
427.18	109.25
427.402	115.25
427.625	151.25
427.847	132.25
428.069	130.25
428.292	87.25
428.514	84.25
428.736	67.25
428.958	84.25
429.181	82.25
429.403	77.25
429.625	76.25
429.847	79.25
430.069	95.25
430.292	90.25
430.514	93.25
430.736	90.25
430.958	91.25
431.18	80.25
431.402	83.25
431.624	81.25
431.846	81.25
432.068	92.25
432.29	104.25
432.512	86.25
432.734	82.25
432.956	95.25
433.178	108.25
433.4	115.25
433.622	95.25
433.844	91.25
434.066	95.25
434.287	102.25
434.509	88.25
434.731	81.25
434.953	83.25
435.175	73.25
435.397	91.25
435.618	96.25
435.84	89.25
436.062	105.25
436.284	93.25
436.505	96.25
436.727	97.25
436.949	94.25
437.17	101.25
437.392	80.25
437.614	77.25
437.835	105.25
438.057	110.25
438.278	109.25
438.5	101.25
438.721	103.25
438.943	98.25
439.165	73.25
439.386	90.25
439.608	95.25
439.829	87.25
440.05	93.25
440.272	122.25
440.493	96.25
440.715	80.25
440.936	95.25
441.158	92.25
441.379	89.25
441.6	89.25
441.822	94.25
442.043	96.25
442.264	85.25
442.486	105.25
442.707	105.25
442.928	92.25
443.149	113.25
443.371	127.25
443.592	113.25
443.813	98.25
444.034	96.25
444.255	84.25
444.476	81.25
444.698	84.25
444.919	91.25
445.14	131.25
445.361	115.25
445.582	105.25
445.803	115.25
446.024	136.25
446.245	124.25
446.466	101.25
446.687	76.25
446.908	87.25
447.129	79.25
447.35	89.25
447.571	97.25
447.792	101.25
448.013	99.25
448.234	101.25
448.455	104.25
448.675	102.25
448.896	119.25
449.117	93.25
449.338	91.25
449.559	128.25
449.779	131.25
450	89.25
450.221	86.25
450.442	90.25
450.662	91.25
450.883	97.25
451.104	105.25
451.324	88.25
451.545	92.25
451.766	83.25
451.986	98.25
452.207	91.25
452.428	101.25
452.648	90.25
452.869	104.25
453.089	104.25
453.31	97.25
453.53	79.25
453.751	99.25
453.971	102.25
454.192	116.25
454.412	89.25
454.633	83.25
454.853	72.25
455.073	83.25
455.294	96.25
455.514	95.25
455.734	84.25
455.955	94.25
456.175	95.25
456.395	97.25
456.616	80.25
456.836	89.25
457.056	89.25
457.276	79.25
457.497	85.25
457.717	83.25
457.937	82.25
458.157	82.25
458.377	81.25
458.598	100.25
458.818	123.25
459.038	122.25
459.258	115.25
459.478	83.25
459.698	79.25
459.918	92.25
460.138	71.25
460.358	77.25
460.578	92.25
460.798	99.25
461.018	89.25
461.238	92.25
461.458	91.25
461.678	91.25
461.898	84.25
462.118	85.25
462.338	89.25
462.558	80.25
462.777	73.25
462.997	92.25
463.217	101.25
463.437	105.25
463.657	76.25
463.876	97.25
464.096	95.25
464.316	85.25
464.536	85.25
464.755	101.25
464.975	109.25
465.195	139.25
465.414	144.25
465.634	87.25
465.854	89.25
466.073	109.25
466.293	85.25
466.512	71.25
466.732	89.25
466.951	92.25
467.171	99.25
467.391	106.25
467.61	118.25
467.829	110.25
468.049	134.25
468.268	175.25
468.488	76.25
468.707	86.25
468.927	72.25
469.146	81.25
469.365	89.25
469.585	87.25
469.804	91.25
470.023	87.25
470.243	94.25
470.462	100.25
470.681	93.25
470.901	98.25
471.12	85.25
471.339	79.25
471.558	83.25
471.777	101.25
471.997	102.25
472.216	226.25
472.435	370.25
472.654	138.25
472.873	76.25
473.092	91.25
473.311	80.25
473.53	86.25
473.749	82.25
473.968	87.25
474.187	88.25
474.406	85.25
474.625	97.25
474.844	96.25
475.063	100.25
475.282	89.25
475.501	83.25
475.72	86.25
475.939	85.25
476.158	87.25
476.377	83.25
476.596	99.25
476.814	96.25
477.033	86.25
477.252	84.25
477.471	88.25
477.69	93.25
477.908	84.25
478.127	94.25
478.346	93.25
478.564	94.25
478.783	101.25
479.002	80.25
479.22	76.25
479.439	99.25
479.658	100.25
479.876	95.25
480.095	81.25
480.313	86.25
480.532	107.25
480.751	111.25
480.969	209.25
481.188	629.25
481.406	373.25
481.624	115.25
481.843	74.25
482.061	105.25
482.28	84.25
482.498	81.25
482.717	81.25
482.935	99.25
483.153	85.25
483.372	81.25
483.59	92.25
483.808	89.25
484.027	90.25
484.245	89.25
484.463	92.25
484.681	99.25
484.9	89.25
485.118	88.25
485.336	88.25
485.554	102.25
485.772	92.25
485.99	105.25
486.209	101.25
486.427	111.25
486.645	105.25
486.863	103.25
487.081	94.25
487.299	106.25
487.517	93.25
487.735	71.25
487.953	92.25
488.171	90.25
488.389	108.25
488.607	97.25
488.825	90.25
489.043	95.25
489.261	99.25
489.479	92.25
489.696	68.25
489.914	88.25
490.132	83.25
490.35	92.25
490.568	91.25
490.786	90.25
491.003	97.25
491.221	85.25
491.439	88.25
491.657	101.25
491.874	85.25
492.092	105.25
492.31	92.25
492.527	85.25
492.745	87.25
492.963	87.25
493.18	91.25
493.398	90.25
493.615	97.25
493.833	94.25
494.05	101.25
494.268	102.25
494.485	95.25
494.703	100.25
494.92	90.25
495.138	71.25
495.355	88.25
495.573	85.25
495.79	84.25
496.008	89.25
496.225	89.25
496.442	84.25
496.66	112.25
496.877	83.25
497.094	85.25
497.312	100.25
497.529	90.25
497.746	76.25
497.963	80.25
498.181	91.25
498.398	99.25
498.615	119.25
498.832	109.25
499.049	74.25
499.267	83.25
499.484	83.25
499.701	86.25
499.918	97.25
500.135	93.25
500.352	82.25
500.569	87.25
500.786	93.25
501.003	93.25
501.22	104.25
501.437	104.25
501.654	88.25
501.871	97.25
502.088	97.25
502.305	88.25
502.522	111.25
502.739	93.25
502.956	84.25
503.172	87.25
503.389	99.25
503.606	100.25
503.823	105.25
504.04	91.25
504.256	71.25
504.473	84.25
504.69	85.25
504.907	104.25
505.123	99.25
505.34	114.25
505.557	92.25
505.773	87.25
505.99	89.25
506.207	87.25
506.423	94.25
506.64	99.25
506.856	103.25
507.073	103.25
507.289	90.25
507.506	102.25
507.722	111.25
507.939	97.25
508.155	86.25
508.372	98.25
508.588	102.25
508.805	97.25
509.021	88.25
509.238	97.25
509.454	100.25
509.67	105.25
509.887	117.25
510.103	124.25
510.319	179.25
510.536	599.25
510.752	1932.25
510.968	556.25
511.184	128.25
511.401	129.25
511.617	90.25
511.833	104.25
512.049	102.25
512.265	104.25
512.481	88.25
512.698	91.25
512.914	100.25
513.13	90.25
513.346	84.25
513.562	91.25
513.778	92.25
513.994	93.25
514.21	105.25
514.426	108.25
514.642	109.25
514.858	100.25
515.074	144.25
515.29	355.25
515.506	1177.25
