Data from Circ_1984_H10_HRD10591_00085.txt Node
Date: Wed Jan 03 12:22:59 EST 2024
User: Yrep
Spectrometer: HR+D1059
Trigger mode: 1
Integration Time (sec): 1.000000E-1
Scans to average: 1
Electric dark correction enabled: true
Nonlinearity correction enabled: false
Boxcar width: 0
XAxis mode: Wavelengths
Number of Pixels in Spectrum: 2048
>>>>>Begin Spectral Data<<<<<
223.165	-12.06
223.4	-12.06
223.635	-12.06
223.869	-19.06
224.104	-23.06
224.338	-8.06
224.573	-17.06
224.808	-11.06
225.042	-23.06
225.277	-1.06
225.511	-0.06
225.746	-5.06
225.98	1.94
226.215	10.94
226.449	13.94
226.683	15.94
226.918	34.94
227.152	41.94
227.387	35.94
227.621	42.94
227.856	41.94
228.09	47.94
228.324	31.94
228.559	54.94
228.793	47.94
229.027	66.94
229.262	66.94
229.496	76.94
229.73	81.94
229.964	72.94
230.199	87.94
230.433	71.94
230.667	82.94
230.901	75.94
231.136	71.94
231.37	83.94
231.604	72.94
231.838	91.94
232.072	73.94
232.306	79.94
232.541	79.94
232.775	91.94
233.009	85.94
233.243	89.94
233.477	86.94
233.711	72.94
233.945	81.94
234.179	70.94
234.413	81.94
234.647	65.94
234.881	89.94
235.115	85.94
235.349	82.94
235.583	80.94
235.817	68.94
236.051	68.94
236.285	63.94
236.519	70.94
236.753	69.94
236.987	85.94
237.221	86.94
237.455	83.94
237.689	80.94
237.922	77.94
238.156	91.94
238.39	75.94
238.624	72.94
238.858	87.94
239.091	75.94
239.325	76.94
239.559	76.94
239.793	72.94
240.027	66.94
240.26	64.94
240.494	68.94
240.728	78.94
240.961	79.94
241.195	76.94
241.429	81.94
241.662	74.94
241.896	81.94
242.13	61.94
242.363	64.94
242.597	84.94
242.83	74.94
243.064	71.94
243.298	71.94
243.531	70.94
243.765	77.94
243.998	69.94
244.232	69.94
244.465	79.94
244.699	72.94
244.932	71.94
245.166	77.94
245.399	83.94
245.633	73.94
245.866	84.94
246.099	79.94
246.333	77.94
246.566	68.94
246.8	82.94
247.033	81.94
247.266	75.94
247.5	81.94
247.733	79.94
247.966	67.94
248.2	63.94
248.433	63.94
248.666	76.94
248.899	75.94
249.133	90.94
249.366	98.94
249.599	95.94
249.832	71.94
250.066	64.94
250.299	68.94
250.532	72.94
250.765	88.94
250.998	81.94
251.231	70.94
251.465	75.94
251.698	81.94
251.931	68.94
252.164	85.94
252.397	89.94
252.63	87.94
252.863	64.94
253.096	92.94
253.329	72.94
253.562	87.94
253.795	79.94
254.028	87.94
254.261	68.94
254.494	69.94
254.727	78.94
254.96	81.94
255.193	83.94
255.426	78.94
255.659	83.94
255.892	79.94
256.124	79.94
256.357	82.94
256.59	85.94
256.823	92.94
257.056	75.94
257.289	91.94
257.521	84.94
257.754	71.94
257.987	77.94
258.22	68.94
258.452	95.94
258.685	83.94
258.918	71.94
259.151	78.94
259.383	83.94
259.616	87.94
259.849	76.94
260.081	80.94
260.314	82.94
260.547	79.94
260.779	103.94
261.012	90.94
261.244	82.94
261.477	88.94
261.71	91.94
261.942	102.94
262.175	91.94
262.407	70.94
262.64	59.94
262.872	75.94
263.105	75.94
263.337	81.94
263.57	82.94
263.802	88.94
264.035	83.94
264.267	56.94
264.499	75.94
264.732	79.94
264.964	69.94
265.197	95.94
265.429	83.94
265.661	79.94
265.894	66.94
266.126	83.94
266.358	82.94
266.591	73.94
266.823	86.94
267.055	97.94
267.287	86.94
267.52	72.94
267.752	88.94
267.984	85.94
268.216	93.94
268.448	88.94
268.681	67.94
268.913	77.94
269.145	70.94
269.377	83.94
269.609	87.94
269.841	82.94
270.073	87.94
270.306	81.94
270.538	81.94
270.77	85.94
271.002	61.94
271.234	84.94
271.466	87.94
271.698	95.94
271.93	95.94
272.162	85.94
272.394	84.94
272.626	82.94
272.858	95.94
273.09	80.94
273.322	79.94
273.553	75.94
273.785	78.94
274.017	75.94
274.249	88.94
274.481	80.94
274.713	75.94
274.945	86.94
275.176	83.94
275.408	72.94
275.64	89.94
275.872	79.94
276.104	75.94
276.335	81.94
276.567	99.94
276.799	89.94
277.031	73.94
277.262	101.94
277.494	91.94
277.726	71.94
277.957	73.94
278.189	66.94
278.421	73.94
278.652	83.94
278.884	71.94
279.115	103.94
279.347	84.94
279.579	80.94
279.81	104.94
280.042	85.94
280.273	100.94
280.505	81.94
280.736	80.94
280.968	71.94
281.199	79.94
281.431	86.94
281.662	88.94
281.894	89.94
282.125	96.94
282.356	109.94
282.588	128.94
282.819	93.94
283.051	84.94
283.282	88.94
283.513	95.94
283.745	72.94
283.976	68.94
284.207	79.94
284.439	89.94
284.67	79.94
284.901	69.94
285.132	69.94
285.364	79.94
285.595	83.94
285.826	79.94
286.057	84.94
286.288	88.94
286.52	80.94
286.751	81.94
286.982	82.94
287.213	91.94
287.444	79.94
287.675	84.94
287.906	73.94
288.138	94.94
288.369	90.94
288.6	99.94
288.831	94.94
289.062	79.94
289.293	77.94
289.524	78.94
289.755	87.94
289.986	86.94
290.217	79.94
290.448	81.94
290.679	85.94
290.91	79.94
291.141	73.94
291.371	78.94
291.602	66.94
291.833	83.94
292.064	91.94
292.295	92.94
292.526	82.94
292.757	93.94
292.987	87.94
293.218	84.94
293.449	77.94
293.68	80.94
293.91	75.94
294.141	87.94
294.372	91.94
294.603	88.94
294.833	77.94
295.064	81.94
295.295	88.94
295.525	77.94
295.756	96.94
295.987	102.94
296.217	113.94
296.448	116.94
296.679	91.94
296.909	78.94
297.14	95.94
297.37	83.94
297.601	83.94
297.831	79.94
298.062	103.94
298.292	91.94
298.523	90.94
298.753	87.94
298.984	83.94
299.214	79.94
299.445	80.94
299.675	95.94
299.905	94.94
300.136	94.94
300.366	101.94
300.597	71.94
300.827	104.94
301.057	84.94
301.288	85.94
301.518	93.94
301.748	89.94
301.979	88.94
302.209	99.94
302.439	95.94
302.669	82.94
302.9	91.94
303.13	79.94
303.36	84.94
303.59	97.94
303.82	92.94
304.051	97.94
304.281	96.94
304.511	105.94
304.741	88.94
304.971	84.94
305.201	82.94
305.431	89.94
305.661	72.94
305.891	67.94
306.121	88.94
306.352	83.94
306.582	83.94
306.812	91.94
307.042	84.94
307.272	100.94
307.502	103.94
307.731	105.94
307.961	91.94
308.191	92.94
308.421	96.94
308.651	87.94
308.881	97.94
309.111	78.94
309.341	83.94
309.571	94.94
309.8	100.94
310.03	88.94
310.26	95.94
310.49	84.94
310.72	92.94
310.949	85.94
311.179	87.94
311.409	86.94
311.639	88.94
311.868	72.94
312.098	76.94
312.328	99.94
312.557	106.94
312.787	93.94
313.017	99.94
313.246	94.94
313.476	85.94
313.706	79.94
313.935	104.94
314.165	100.94
314.394	80.94
314.624	87.94
314.853	104.94
315.083	88.94
315.312	87.94
315.542	90.94
315.771	87.94
316.001	94.94
316.23	84.94
316.46	77.94
316.689	92.94
316.919	86.94
317.148	85.94
317.377	93.94
317.607	89.94
317.836	87.94
318.065	93.94
318.295	75.94
318.524	83.94
318.753	88.94
318.983	98.94
319.212	89.94
319.441	104.94
319.67	99.94
319.9	95.94
320.129	94.94
320.358	105.94
320.587	103.94
320.816	97.94
321.046	104.94
321.275	93.94
321.504	92.94
321.733	91.94
321.962	96.94
322.191	100.94
322.42	94.94
322.649	100.94
322.878	100.94
323.108	112.94
323.337	109.94
323.566	121.94
323.795	119.94
324.024	164.94
324.253	285.94
324.482	631.94
324.71	1256.94
324.939	1649.94
325.168	618.94
325.397	205.94
325.626	136.94
325.855	115.94
326.084	119.94
326.313	120.94
326.542	159.94
326.77	187.94
326.999	343.94
327.228	715.94
327.457	1297.94
327.686	1052.94
327.914	314.94
328.143	215.94
328.372	199.94
328.6	126.94
328.829	109.94
329.058	130.94
329.287	117.94
329.515	110.94
329.744	111.94
329.972	153.94
330.201	234.94
330.43	317.94
330.658	177.94
330.887	135.94
331.115	112.94
331.344	87.94
331.572	101.94
331.801	105.94
332.03	101.94
332.258	98.94
332.486	81.94
332.715	103.94
332.943	95.94
333.172	89.94
333.4	105.94
333.629	114.94
333.857	115.94
334.085	166.94
334.314	235.94
334.542	355.94
334.771	339.94
334.999	131.94
335.227	91.94
335.455	93.94
335.684	96.94
335.912	88.94
336.14	101.94
336.369	93.94
336.597	84.94
336.825	86.94
337.053	99.94
337.281	96.94
337.51	87.94
337.738	93.94
337.966	86.94
338.194	98.94
338.422	86.94
338.65	91.94
338.878	91.94
339.106	95.94
339.334	82.94
339.562	79.94
339.79	88.94
340.018	77.94
340.246	91.94
340.474	84.94
340.702	89.94
340.93	88.94
341.158	87.94
341.386	81.94
341.614	84.94
341.842	95.94
342.07	81.94
342.298	94.94
342.526	97.94
342.754	81.94
342.981	88.94
343.209	82.94
343.437	89.94
343.665	77.94
343.893	87.94
344.12	90.94
344.348	94.94
344.576	88.94
344.804	78.94
345.031	97.94
345.259	95.94
345.487	86.94
345.714	83.94
345.942	88.94
346.17	84.94
346.397	96.94
346.625	95.94
346.853	97.94
347.08	92.94
347.308	91.94
347.535	84.94
347.763	110.94
347.99	101.94
348.218	107.94
348.445	105.94
348.673	85.94
348.9	83.94
349.128	92.94
349.355	99.94
349.583	92.94
349.81	91.94
350.037	85.94
350.265	84.94
350.492	68.94
350.72	88.94
350.947	75.94
351.174	104.94
351.402	103.94
351.629	84.94
351.856	86.94
352.083	103.94
352.311	88.94
352.538	85.94
352.765	100.94
352.992	117.94
353.22	102.94
353.447	99.94
353.674	98.94
353.901	103.94
354.128	92.94
354.355	84.94
354.583	85.94
354.81	92.94
355.037	103.94
355.264	90.94
355.491	87.94
355.718	77.94
355.945	91.94
356.172	90.94
356.399	86.94
356.626	92.94
356.853	81.94
357.08	100.94
357.307	87.94
357.534	77.94
357.761	78.94
357.988	90.94
358.215	82.94
358.441	98.94
358.668	85.94
358.895	91.94
359.122	64.94
359.349	94.94
359.576	88.94
359.802	94.94
360.029	94.94
360.256	95.94
360.483	87.94
360.709	67.94
360.936	87.94
361.163	90.94
361.39	102.94
361.616	92.94
361.843	88.94
362.07	82.94
362.296	71.94
362.523	89.94
362.749	91.94
362.976	82.94
363.203	95.94
363.429	101.94
363.656	84.94
363.882	93.94
364.109	100.94
364.335	89.94
364.562	93.94
364.788	82.94
365.015	81.94
365.241	100.94
365.468	100.94
365.694	104.94
365.92	88.94
366.147	81.94
366.373	94.94
366.599	75.94
366.826	73.94
367.052	103.94
367.278	91.94
367.505	93.94
367.731	87.94
367.957	78.94
368.184	89.94
368.41	95.94
368.636	104.94
368.862	117.94
369.089	99.94
369.315	92.94
369.541	105.94
369.767	83.94
369.993	83.94
370.219	81.94
370.445	77.94
370.672	78.94
370.898	81.94
371.124	83.94
371.35	87.94
371.576	81.94
371.802	78.94
372.028	74.94
372.254	80.94
372.48	92.94
372.706	82.94
372.932	76.94
373.158	88.94
373.384	92.94
373.61	100.94
373.835	78.94
374.061	91.94
374.287	79.94
374.513	76.94
374.739	93.94
374.965	92.94
375.191	82.94
375.416	72.94
375.642	93.94
375.868	81.94
376.094	94.94
376.319	80.94
376.545	78.94
376.771	101.94
376.997	93.94
377.222	82.94
377.448	85.94
377.674	94.94
377.899	77.94
378.125	83.94
378.35	96.94
378.576	98.94
378.802	79.94
379.027	95.94
379.253	97.94
379.478	91.94
379.704	106.94
379.929	73.94
380.155	96.94
380.38	79.94
380.606	88.94
380.831	101.94
381.057	96.94
381.282	81.94
381.507	87.94
381.733	90.94
381.958	95.94
382.184	93.94
382.409	82.94
382.634	79.94
382.86	83.94
383.085	101.94
383.31	97.94
383.535	81.94
383.761	91.94
383.986	91.94
384.211	95.94
384.436	97.94
384.662	88.94
384.887	94.94
385.112	85.94
385.337	94.94
385.562	91.94
385.787	102.94
386.013	86.94
386.238	96.94
386.463	116.94
386.688	100.94
386.913	88.94
387.138	100.94
387.363	88.94
387.588	101.94
387.813	93.94
388.038	98.94
388.263	110.94
388.488	102.94
388.713	84.94
388.938	94.94
389.163	88.94
389.387	82.94
389.612	94.94
389.837	90.94
390.062	91.94
390.287	87.94
390.512	79.94
390.736	84.94
390.961	84.94
391.186	86.94
391.411	84.94
391.636	87.94
391.86	80.94
392.085	80.94
392.31	75.94
392.534	74.94
392.759	79.94
392.984	58.94
393.208	71.94
393.433	92.94
393.658	96.94
393.882	76.94
394.107	95.94
394.331	84.94
394.556	85.94
394.78	88.94
395.005	87.94
395.229	82.94
395.454	92.94
395.678	64.94
395.903	85.94
396.127	79.94
396.352	90.94
396.576	83.94
396.801	79.94
397.025	91.94
397.249	85.94
397.474	83.94
397.698	78.94
397.922	94.94
398.147	79.94
398.371	72.94
398.595	91.94
398.82	101.94
399.044	90.94
399.268	90.94
399.492	90.94
399.717	80.94
399.941	69.94
400.165	75.94
400.389	77.94
400.613	82.94
400.837	86.94
401.062	82.94
401.286	84.94
401.51	92.94
401.734	82.94
401.958	81.94
402.182	102.94
402.406	141.94
402.63	97.94
402.854	94.94
403.078	98.94
403.302	73.94
403.526	77.94
403.75	77.94
403.974	80.94
404.198	93.94
404.422	88.94
404.645	88.94
404.869	90.94
405.093	95.94
405.317	97.94
405.541	100.94
405.765	81.94
405.988	107.94
406.212	125.94
406.436	179.94
406.66	115.94
406.883	86.94
407.107	82.94
407.331	92.94
407.555	79.94
407.778	90.94
408.002	79.94
408.226	86.94
408.449	96.94
408.673	78.94
408.896	82.94
409.12	99.94
409.344	77.94
409.567	85.94
409.791	68.94
410.014	79.94
410.238	92.94
410.461	91.94
410.685	81.94
410.908	81.94
411.132	106.94
411.355	93.94
411.578	91.94
411.802	78.94
412.025	88.94
412.249	98.94
412.472	80.94
412.695	92.94
412.919	89.94
413.142	83.94
413.365	89.94
413.589	72.94
413.812	83.94
414.035	92.94
414.258	83.94
414.482	95.94
414.705	91.94
414.928	86.94
415.151	88.94
415.374	95.94
415.597	91.94
415.821	83.94
416.044	76.94
416.267	80.94
416.49	84.94
416.713	87.94
416.936	101.94
417.159	91.94
417.382	82.94
417.605	77.94
417.828	81.94
418.051	93.94
418.274	90.94
418.497	80.94
418.72	89.94
418.943	77.94
419.166	82.94
419.389	72.94
419.611	83.94
419.834	79.94
420.057	79.94
420.28	82.94
420.503	80.94
420.726	90.94
420.948	85.94
421.171	89.94
421.394	78.94
421.617	81.94
421.839	79.94
422.062	92.94
422.285	94.94
422.507	112.94
422.73	101.94
422.953	90.94
423.175	73.94
423.398	77.94
423.621	79.94
423.843	86.94
424.066	80.94
424.288	69.94
424.511	98.94
424.733	96.94
424.956	87.94
425.178	95.94
425.401	95.94
425.623	92.94
425.846	89.94
426.068	81.94
426.291	84.94
426.513	81.94
426.735	77.94
426.958	83.94
427.18	109.94
427.402	99.94
427.625	135.94
427.847	131.94
428.069	115.94
428.292	76.94
428.514	85.94
428.736	85.94
428.958	75.94
429.181	71.94
429.403	90.94
429.625	63.94
429.847	83.94
430.069	108.94
430.292	81.94
430.514	81.94
430.736	68.94
430.958	86.94
431.18	85.94
431.402	79.94
431.624	84.94
431.846	84.94
432.068	84.94
432.29	102.94
432.512	78.94
432.734	68.94
432.956	72.94
433.178	93.94
433.4	103.94
433.622	83.94
433.844	87.94
434.066	77.94
434.287	92.94
434.509	95.94
434.731	79.94
434.953	92.94
435.175	80.94
435.397	76.94
435.618	84.94
435.84	101.94
436.062	104.94
436.284	106.94
436.505	99.94
436.727	99.94
436.949	92.94
437.17	96.94
437.392	87.94
437.614	87.94
437.835	97.94
438.057	102.94
438.278	95.94
438.5	83.94
438.721	106.94
438.943	96.94
439.165	85.94
439.386	81.94
439.608	83.94
439.829	94.94
440.05	109.94
440.272	119.94
440.493	85.94
440.715	89.94
440.936	93.94
441.158	91.94
441.379	89.94
441.6	81.94
441.822	88.94
442.043	88.94
442.264	93.94
442.486	78.94
442.707	93.94
442.928	80.94
443.149	112.94
443.371	110.94
443.592	90.94
443.813	110.94
444.034	111.94
444.255	78.94
444.476	76.94
444.698	97.94
444.919	79.94
445.14	139.94
445.361	124.94
445.582	107.94
445.803	109.94
446.024	119.94
446.245	124.94
446.466	102.94
446.687	82.94
446.908	83.94
447.129	86.94
447.35	87.94
447.571	78.94
447.792	81.94
448.013	85.94
448.234	100.94
448.455	82.94
448.675	99.94
448.896	99.94
449.117	85.94
449.338	95.94
449.559	107.94
449.779	109.94
450	98.94
450.221	72.94
450.442	81.94
450.662	79.94
450.883	104.94
451.104	95.94
451.324	88.94
451.545	79.94
451.766	86.94
451.986	84.94
452.207	71.94
452.428	72.94
452.648	78.94
452.869	91.94
453.089	112.94
453.31	95.94
453.53	79.94
453.751	85.94
453.971	86.94
454.192	101.94
454.412	98.94
454.633	89.94
454.853	93.94
455.073	63.94
455.294	84.94
455.514	87.94
455.734	72.94
455.955	82.94
456.175	85.94
456.395	69.94
456.616	73.94
456.836	85.94
457.056	75.94
457.276	81.94
457.497	84.94
457.717	79.94
457.937	62.94
458.157	85.94
458.377	70.94
458.598	81.94
458.818	130.94
459.038	118.94
459.258	106.94
459.478	77.94
459.698	70.94
459.918	98.94
460.138	80.94
460.358	71.94
460.578	75.94
460.798	93.94
461.018	88.94
461.238	92.94
461.458	79.94
461.678	75.94
461.898	85.94
462.118	84.94
462.338	75.94
462.558	77.94
462.777	85.94
462.997	89.94
463.217	88.94
463.437	83.94
463.657	91.94
463.876	77.94
464.096	82.94
464.316	76.94
464.536	68.94
464.755	78.94
464.975	99.94
465.195	145.94
465.414	137.94
465.634	87.94
465.854	84.94
466.073	99.94
466.293	101.94
466.512	92.94
466.732	89.94
466.951	91.94
467.171	83.94
467.391	83.94
467.61	99.94
467.829	108.94
468.049	151.94
468.268	200.94
468.488	117.94
468.707	81.94
468.927	83.94
469.146	80.94
469.365	92.94
469.585	89.94
469.804	90.94
470.023	87.94
470.243	91.94
470.462	80.94
470.681	103.94
470.901	98.94
471.12	88.94
471.339	75.94
471.558	99.94
471.777	103.94
471.997	94.94
472.216	254.94
472.435	487.94
472.654	166.94
472.873	101.94
473.092	88.94
473.311	72.94
473.53	83.94
473.749	78.94
473.968	81.94
474.187	99.94
474.406	100.94
474.625	71.94
474.844	82.94
475.063	75.94
475.282	72.94
475.501	96.94
475.72	92.94
475.939	82.94
476.158	75.94
476.377	79.94
476.596	89.94
476.814	89.94
477.033	82.94
477.252	88.94
477.471	82.94
477.69	80.94
477.908	75.94
478.127	79.94
478.346	77.94
478.564	96.94
478.783	93.94
479.002	87.94
479.22	87.94
479.439	92.94
479.658	83.94
479.876	110.94
480.095	83.94
480.313	91.94
480.532	110.94
480.751	134.94
480.969	264.94
481.188	835.94
481.406	494.94
481.624	118.94
481.843	79.94
482.061	80.94
482.28	98.94
482.498	101.94
482.717	87.94
482.935	85.94
483.153	79.94
483.372	80.94
483.59	91.94
483.808	88.94
484.027	77.94
484.245	76.94
484.463	78.94
484.681	82.94
484.9	75.94
485.118	88.94
485.336	85.94
485.554	71.94
485.772	98.94
485.99	108.94
486.209	100.94
486.427	95.94
486.645	119.94
486.863	93.94
487.081	83.94
487.299	92.94
487.517	95.94
487.735	98.94
487.953	86.94
488.171	75.94
488.389	88.94
488.607	95.94
488.825	84.94
489.043	89.94
489.261	88.94
489.479	76.94
489.696	86.94
489.914	87.94
490.132	85.94
490.35	85.94
490.568	70.94
490.786	81.94
491.003	86.94
491.221	103.94
491.439	81.94
491.657	73.94
491.874	96.94
492.092	87.94
492.31	75.94
492.527	92.94
492.745	99.94
492.963	78.94
493.18	88.94
493.398	83.94
493.615	89.94
493.833	81.94
494.05	82.94
494.268	76.94
494.485	96.94
494.703	81.94
494.92	87.94
495.138	94.94
495.355	86.94
495.573	91.94
495.79	90.94
496.008	85.94
496.225	94.94
496.442	93.94
496.66	87.94
496.877	87.94
497.094	84.94
497.312	91.94
497.529	78.94
497.746	79.94
497.963	87.94
498.181	84.94
498.398	100.94
498.615	96.94
498.832	100.94
499.049	93.94
499.267	86.94
499.484	93.94
499.701	82.94
499.918	97.94
500.135	95.94
500.352	93.94
500.569	86.94
500.786	94.94
501.003	89.94
501.22	89.94
501.437	86.94
501.654	90.94
501.871	97.94
502.088	84.94
502.305	76.94
502.522	91.94
502.739	70.94
502.956	85.94
503.172	86.94
503.389	87.94
503.606	94.94
503.823	75.94
504.04	75.94
504.256	96.94
504.473	84.94
504.69	72.94
504.907	83.94
505.123	75.94
505.34	82.94
505.557	82.94
505.773	83.94
505.99	91.94
506.207	79.94
506.423	82.94
506.64	72.94
506.856	86.94
507.073	92.94
507.289	82.94
507.506	91.94
507.722	113.94
507.939	101.94
508.155	95.94
508.372	95.94
508.588	98.94
508.805	87.94
509.021	86.94
509.238	94.94
509.454	96.94
509.67	100.94
509.887	98.94
510.103	118.94
510.319	168.94
510.536	584.94
510.752	1817.94
510.968	514.94
511.184	145.94
511.401	97.94
511.617	89.94
511.833	88.94
512.049	77.94
512.265	90.94
512.481	85.94
512.698	87.94
512.914	86.94
513.13	96.94
513.346	83.94
513.562	91.94
513.778	87.94
513.994	79.94
514.21	96.94
514.426	108.94
514.642	120.94
514.858	100.94
515.074	134.94
515.29	326.94
515.506	1090.94
515.721	420.94
515.937	126.94
516.153	105.94
516.369	108.94
516.585	91.94
516.801	93.94
517.016	91.94
517.232	82.94
