Data from Circ_1984_H10_HRD10591_00060.txt Node
Date: Wed Jan 03 12:22:54 EST 2024
User: Yrep
Spectrometer: HR+D1059
Trigger mode: 1
Integration Time (sec): 1.000000E-1
Scans to average: 1
Electric dark correction enabled: true
Nonlinearity correction enabled: false
Boxcar width: 0
XAxis mode: Wavelengths
Number of Pixels in Spectrum: 2048
>>>>>Begin Spectral Data<<<<<
223.165	-1.44
223.4	-1.44
223.635	-1.44
223.869	-21.44
224.104	-18.44
224.338	-19.44
224.573	-9.44
224.808	-24.44
225.042	1.56
225.277	-19.44
225.511	-10.44
225.746	2.56
225.98	14.56
226.215	6.56
226.449	23.56
226.683	12.56
226.918	30.56
227.152	32.56
227.387	54.56
227.621	52.56
227.856	45.56
228.09	40.56
228.324	64.56
228.559	73.56
228.793	66.56
229.027	62.56
229.262	52.56
229.496	78.56
229.73	88.56
229.964	68.56
230.199	72.56
230.433	81.56
230.667	88.56
230.901	90.56
231.136	81.56
231.37	71.56
231.604	76.56
231.838	80.56
232.072	81.56
232.306	96.56
232.541	91.56
232.775	100.56
233.009	80.56
233.243	85.56
233.477	73.56
233.711	81.56
233.945	75.56
234.179	98.56
234.413	85.56
234.647	91.56
234.881	88.56
235.115	85.56
235.349	86.56
235.583	70.56
235.817	85.56
236.051	84.56
236.285	76.56
236.519	78.56
236.753	90.56
236.987	76.56
237.221	93.56
237.455	86.56
237.689	75.56
237.922	76.56
238.156	84.56
238.39	82.56
238.624	80.56
238.858	79.56
239.091	71.56
239.325	80.56
239.559	82.56
239.793	82.56
240.027	76.56
240.26	78.56
240.494	81.56
240.728	83.56
240.961	68.56
241.195	86.56
241.429	89.56
241.662	74.56
241.896	83.56
242.13	72.56
242.363	67.56
242.597	82.56
242.83	79.56
243.064	68.56
243.298	66.56
243.531	57.56
243.765	80.56
243.998	80.56
244.232	86.56
244.465	85.56
244.699	90.56
244.932	80.56
245.166	88.56
245.399	77.56
245.633	91.56
245.866	70.56
246.099	85.56
246.333	74.56
246.566	93.56
246.8	84.56
247.033	90.56
247.266	91.56
247.5	71.56
247.733	84.56
247.966	72.56
248.2	72.56
248.433	80.56
248.666	84.56
248.899	86.56
249.133	71.56
249.366	92.56
249.599	96.56
249.832	80.56
250.066	81.56
250.299	82.56
250.532	90.56
250.765	90.56
250.998	88.56
251.231	89.56
251.465	71.56
251.698	74.56
251.931	92.56
252.164	77.56
252.397	94.56
252.63	86.56
252.863	75.56
253.096	82.56
253.329	80.56
253.562	68.56
253.795	83.56
254.028	89.56
254.261	66.56
254.494	84.56
254.727	87.56
254.96	73.56
255.193	77.56
255.426	76.56
255.659	76.56
255.892	92.56
256.124	77.56
256.357	82.56
256.59	89.56
256.823	81.56
257.056	67.56
257.289	76.56
257.521	83.56
257.754	80.56
257.987	84.56
258.22	87.56
258.452	92.56
258.685	81.56
258.918	81.56
259.151	85.56
259.383	95.56
259.616	94.56
259.849	80.56
260.081	77.56
260.314	86.56
260.547	94.56
260.779	80.56
261.012	85.56
261.244	73.56
261.477	90.56
261.71	94.56
261.942	110.56
262.175	98.56
262.407	92.56
262.64	72.56
262.872	75.56
263.105	103.56
263.337	94.56
263.57	76.56
263.802	86.56
264.035	88.56
264.267	76.56
264.499	80.56
264.732	89.56
264.964	95.56
265.197	83.56
265.429	96.56
265.661	82.56
265.894	91.56
266.126	69.56
266.358	82.56
266.591	87.56
266.823	85.56
267.055	88.56
267.287	89.56
267.52	85.56
267.752	106.56
267.984	80.56
268.216	101.56
268.448	77.56
268.681	84.56
268.913	74.56
269.145	80.56
269.377	80.56
269.609	87.56
269.841	87.56
270.073	77.56
270.306	84.56
270.538	71.56
270.77	85.56
271.002	80.56
271.234	77.56
271.466	80.56
271.698	87.56
271.93	68.56
272.162	88.56
272.394	84.56
272.626	86.56
272.858	92.56
273.09	89.56
273.322	72.56
273.553	85.56
273.785	100.56
274.017	92.56
274.249	87.56
274.481	102.56
274.713	78.56
274.945	85.56
275.176	89.56
275.408	87.56
275.64	93.56
275.872	90.56
276.104	100.56
276.335	101.56
276.567	97.56
276.799	106.56
277.031	97.56
277.262	112.56
277.494	97.56
277.726	99.56
277.957	99.56
278.189	94.56
278.421	90.56
278.652	89.56
278.884	91.56
279.115	96.56
279.347	92.56
279.579	86.56
279.81	95.56
280.042	95.56
280.273	107.56
280.505	108.56
280.736	96.56
280.968	90.56
281.199	91.56
281.431	91.56
281.662	94.56
281.894	92.56
282.125	104.56
282.356	110.56
282.588	137.56
282.819	113.56
283.051	82.56
283.282	88.56
283.513	86.56
283.745	88.56
283.976	83.56
284.207	88.56
284.439	80.56
284.67	93.56
284.901	90.56
285.132	91.56
285.364	80.56
285.595	84.56
285.826	85.56
286.057	76.56
286.288	97.56
286.52	75.56
286.751	78.56
286.982	86.56
287.213	82.56
287.444	89.56
287.675	81.56
287.906	87.56
288.138	96.56
288.369	107.56
288.6	105.56
288.831	91.56
289.062	83.56
289.293	99.56
289.524	82.56
289.755	90.56
289.986	82.56
290.217	93.56
290.448	88.56
290.679	91.56
290.91	88.56
291.141	89.56
291.371	91.56
291.602	80.56
291.833	86.56
292.064	99.56
292.295	91.56
292.526	91.56
292.757	86.56
292.987	77.56
293.218	86.56
293.449	82.56
293.68	78.56
293.91	82.56
294.141	90.56
294.372	89.56
294.603	76.56
294.833	88.56
295.064	74.56
295.295	86.56
295.525	86.56
295.756	103.56
295.987	108.56
296.217	141.56
296.448	118.56
296.679	100.56
296.909	89.56
297.14	88.56
297.37	88.56
297.601	91.56
297.831	88.56
298.062	88.56
298.292	82.56
298.523	85.56
298.753	72.56
298.984	81.56
299.214	96.56
299.445	104.56
299.675	89.56
299.905	113.56
300.136	97.56
300.366	90.56
300.597	85.56
300.827	99.56
301.057	98.56
301.288	103.56
301.518	95.56
301.748	86.56
301.979	91.56
302.209	93.56
302.439	83.56
302.669	81.56
302.9	92.56
303.13	107.56
303.36	100.56
303.59	107.56
303.82	100.56
304.051	99.56
304.281	102.56
304.511	95.56
304.741	89.56
304.971	84.56
305.201	91.56
305.431	97.56
305.661	90.56
305.891	112.56
306.121	90.56
306.352	97.56
306.582	108.56
306.812	91.56
307.042	96.56
307.272	96.56
307.502	102.56
307.731	114.56
307.961	106.56
308.191	98.56
308.421	87.56
308.651	75.56
308.881	89.56
309.111	95.56
309.341	92.56
309.571	86.56
309.8	87.56
310.03	93.56
310.26	112.56
310.49	93.56
310.72	116.56
310.949	107.56
311.179	98.56
311.409	100.56
311.639	107.56
311.868	98.56
312.098	101.56
312.328	83.56
312.557	98.56
312.787	108.56
313.017	106.56
313.246	82.56
313.476	92.56
313.706	105.56
313.935	102.56
314.165	98.56
314.394	98.56
314.624	93.56
314.853	101.56
315.083	82.56
315.312	111.56
315.542	95.56
315.771	94.56
316.001	83.56
316.23	96.56
316.46	98.56
316.689	99.56
316.919	80.56
317.148	92.56
317.377	85.56
317.607	86.56
317.836	85.56
318.065	87.56
318.295	102.56
318.524	96.56
318.753	95.56
318.983	101.56
319.212	109.56
319.441	108.56
319.67	113.56
319.9	95.56
320.129	101.56
320.358	93.56
320.587	93.56
320.816	90.56
321.046	92.56
321.275	89.56
321.504	91.56
321.733	100.56
321.962	92.56
322.191	113.56
322.42	116.56
322.649	99.56
322.878	124.56
323.108	119.56
323.337	125.56
323.566	124.56
323.795	152.56
324.024	190.56
324.253	331.56
324.482	720.56
324.71	1456.56
324.939	1919.56
325.168	722.56
325.397	217.56
325.626	135.56
325.855	127.56
326.084	129.56
326.313	122.56
326.542	155.56
326.77	201.56
326.999	400.56
327.228	829.56
327.457	1490.56
327.686	1196.56
327.914	336.56
328.143	218.56
328.372	178.56
328.6	158.56
328.829	117.56
329.058	120.56
329.287	130.56
329.515	119.56
329.744	115.56
329.972	160.56
330.201	227.56
330.43	272.56
330.658	184.56
330.887	148.56
331.115	112.56
331.344	88.56
331.572	105.56
331.801	120.56
332.03	94.56
332.258	101.56
332.486	96.56
332.715	102.56
332.943	108.56
333.172	103.56
333.4	91.56
333.629	118.56
333.857	120.56
334.085	141.56
334.314	228.56
334.542	332.56
334.771	309.56
334.999	144.56
335.227	114.56
335.455	97.56
335.684	96.56
335.912	111.56
336.14	78.56
336.369	108.56
336.597	104.56
336.825	92.56
337.053	102.56
337.281	86.56
337.51	91.56
337.738	82.56
337.966	98.56
338.194	113.56
338.422	94.56
338.65	94.56
338.878	97.56
339.106	80.56
339.334	98.56
339.562	78.56
339.79	82.56
340.018	88.56
340.246	92.56
340.474	103.56
340.702	98.56
340.93	97.56
341.158	98.56
341.386	98.56
341.614	100.56
341.842	100.56
342.07	96.56
342.298	96.56
342.526	100.56
342.754	96.56
342.981	89.56
343.209	88.56
343.437	96.56
343.665	87.56
343.893	92.56
344.12	102.56
344.348	87.56
344.576	90.56
344.804	100.56
345.031	91.56
345.259	95.56
345.487	87.56
345.714	92.56
345.942	96.56
346.17	84.56
346.397	89.56
346.625	91.56
346.853	114.56
347.08	93.56
347.308	97.56
347.535	96.56
347.763	97.56
347.99	96.56
348.218	108.56
348.445	92.56
348.673	87.56
348.9	114.56
349.128	107.56
349.355	98.56
349.583	109.56
349.81	92.56
350.037	94.56
350.265	98.56
350.492	101.56
350.72	92.56
350.947	114.56
351.174	114.56
351.402	117.56
351.629	92.56
351.856	108.56
352.083	94.56
352.311	100.56
352.538	100.56
352.765	103.56
352.992	124.56
353.22	97.56
353.447	95.56
353.674	108.56
353.901	84.56
354.128	113.56
354.355	88.56
354.583	97.56
354.81	100.56
355.037	82.56
355.264	94.56
355.491	97.56
355.718	88.56
355.945	87.56
356.172	96.56
356.399	102.56
356.626	90.56
356.853	85.56
357.08	103.56
357.307	89.56
357.534	85.56
357.761	89.56
357.988	83.56
358.215	98.56
358.441	85.56
358.668	87.56
358.895	96.56
359.122	90.56
359.349	98.56
359.576	105.56
359.802	97.56
360.029	105.56
360.256	109.56
360.483	100.56
360.709	85.56
360.936	90.56
361.163	98.56
361.39	106.56
361.616	83.56
361.843	102.56
362.07	89.56
362.296	97.56
362.523	92.56
362.749	101.56
362.976	89.56
363.203	96.56
363.429	84.56
363.656	86.56
363.882	86.56
364.109	82.56
364.335	91.56
364.562	92.56
364.788	96.56
365.015	95.56
365.241	91.56
365.468	116.56
365.694	96.56
365.92	98.56
366.147	91.56
366.373	84.56
366.599	89.56
366.826	92.56
367.052	90.56
367.278	83.56
367.505	86.56
367.731	95.56
367.957	99.56
368.184	93.56
368.41	105.56
368.636	99.56
368.862	103.56
369.089	87.56
369.315	84.56
369.541	88.56
369.767	74.56
369.993	85.56
370.219	87.56
370.445	81.56
370.672	91.56
370.898	94.56
371.124	99.56
371.35	93.56
371.576	85.56
371.802	83.56
372.028	82.56
372.254	84.56
372.48	94.56
372.706	93.56
372.932	89.56
373.158	91.56
373.384	92.56
373.61	94.56
373.835	97.56
374.061	88.56
374.287	85.56
374.513	91.56
374.739	97.56
374.965	95.56
375.191	85.56
375.416	98.56
375.642	106.56
375.868	93.56
376.094	81.56
376.319	84.56
376.545	82.56
376.771	95.56
376.997	78.56
377.222	100.56
377.448	95.56
377.674	98.56
377.899	90.56
378.125	93.56
378.35	103.56
378.576	91.56
378.802	85.56
379.027	88.56
379.253	96.56
379.478	85.56
379.704	92.56
379.929	90.56
380.155	86.56
380.38	110.56
380.606	89.56
380.831	88.56
381.057	88.56
381.282	92.56
381.507	98.56
381.733	104.56
381.958	104.56
382.184	99.56
382.409	89.56
382.634	111.56
382.86	91.56
383.085	102.56
383.31	99.56
383.535	80.56
383.761	93.56
383.986	97.56
384.211	100.56
384.436	96.56
384.662	92.56
384.887	83.56
385.112	99.56
385.337	102.56
385.562	96.56
385.787	96.56
386.013	108.56
386.238	90.56
386.463	82.56
386.688	108.56
386.913	87.56
387.138	102.56
387.363	88.56
387.588	105.56
387.813	80.56
388.038	80.56
388.263	108.56
388.488	99.56
388.713	109.56
388.938	85.56
389.163	88.56
389.387	100.56
389.612	107.56
389.837	88.56
390.062	88.56
390.287	101.56
390.512	90.56
390.736	104.56
390.961	94.56
391.186	84.56
391.411	104.56
391.636	103.56
391.86	89.56
392.085	90.56
392.31	75.56
392.534	86.56
392.759	101.56
392.984	91.56
393.208	90.56
393.433	108.56
393.658	105.56
393.882	80.56
394.107	84.56
394.331	84.56
394.556	81.56
394.78	80.56
395.005	101.56
395.229	82.56
395.454	82.56
395.678	70.56
395.903	76.56
396.127	84.56
396.352	87.56
396.576	80.56
396.801	90.56
397.025	98.56
397.249	96.56
397.474	95.56
397.698	98.56
397.922	99.56
398.147	89.56
398.371	102.56
398.595	93.56
398.82	88.56
399.044	84.56
399.268	86.56
399.492	74.56
399.717	95.56
399.941	93.56
400.165	91.56
400.389	91.56
400.613	86.56
400.837	93.56
401.062	93.56
401.286	74.56
401.51	94.56
401.734	90.56
401.958	102.56
402.182	127.56
402.406	148.56
402.63	110.56
402.854	94.56
403.078	91.56
403.302	71.56
403.526	86.56
403.75	78.56
403.974	97.56
404.198	93.56
404.422	76.56
404.645	91.56
404.869	96.56
405.093	99.56
405.317	112.56
405.541	104.56
405.765	98.56
405.988	116.56
406.212	161.56
406.436	205.56
406.66	141.56
406.883	107.56
407.107	93.56
407.331	85.56
407.555	92.56
407.778	88.56
408.002	78.56
408.226	97.56
408.449	93.56
408.673	93.56
408.896	91.56
409.12	103.56
409.344	105.56
409.567	101.56
409.791	97.56
410.014	102.56
410.238	90.56
410.461	84.56
410.685	88.56
410.908	90.56
411.132	102.56
411.355	83.56
411.578	88.56
411.802	82.56
412.025	81.56
412.249	96.56
412.472	93.56
412.695	96.56
412.919	88.56
413.142	90.56
413.365	84.56
413.589	81.56
413.812	87.56
414.035	94.56
414.258	93.56
414.482	92.56
414.705	109.56
414.928	85.56
415.151	93.56
415.374	93.56
415.597	90.56
415.821	74.56
416.044	83.56
416.267	81.56
416.49	89.56
416.713	80.56
416.936	103.56
417.159	82.56
417.382	88.56
417.605	87.56
417.828	95.56
418.051	92.56
418.274	89.56
418.497	102.56
418.72	72.56
418.943	92.56
419.166	88.56
419.389	73.56
419.611	110.56
419.834	93.56
420.057	90.56
420.28	69.56
420.503	92.56
420.726	86.56
420.948	86.56
421.171	94.56
421.394	77.56
421.617	90.56
421.839	88.56
422.062	89.56
422.285	94.56
422.507	106.56
422.73	105.56
422.953	92.56
423.175	81.56
423.398	79.56
423.621	100.56
423.843	103.56
424.066	92.56
424.288	85.56
424.511	69.56
424.733	82.56
424.956	89.56
425.178	92.56
425.401	104.56
425.623	100.56
425.846	99.56
426.068	89.56
426.291	78.56
426.513	83.56
426.735	103.56
426.958	101.56
427.18	105.56
427.402	136.56
427.625	164.56
427.847	134.56
428.069	129.56
428.292	106.56
428.514	75.56
428.736	92.56
428.958	92.56
429.181	89.56
429.403	91.56
429.625	84.56
429.847	85.56
430.069	98.56
430.292	93.56
430.514	92.56
430.736	78.56
430.958	88.56
431.18	81.56
431.402	80.56
431.624	89.56
431.846	80.56
432.068	91.56
432.29	90.56
432.512	91.56
432.734	84.56
432.956	80.56
433.178	101.56
433.4	88.56
433.622	97.56
433.844	90.56
434.066	97.56
434.287	98.56
434.509	88.56
434.731	97.56
434.953	88.56
435.175	96.56
435.397	93.56
435.618	98.56
435.84	88.56
436.062	115.56
436.284	88.56
436.505	90.56
436.727	105.56
436.949	73.56
437.17	83.56
437.392	87.56
437.614	88.56
437.835	94.56
438.057	117.56
438.278	94.56
438.5	94.56
438.721	106.56
438.943	99.56
439.165	86.56
439.386	98.56
439.608	92.56
439.829	93.56
440.05	124.56
440.272	123.56
440.493	94.56
440.715	90.56
440.936	77.56
441.158	83.56
441.379	100.56
441.6	87.56
441.822	82.56
442.043	97.56
442.264	97.56
442.486	95.56
442.707	103.56
442.928	108.56
443.149	111.56
443.371	128.56
443.592	108.56
443.813	108.56
444.034	98.56
444.255	92.56
444.476	67.56
444.698	82.56
444.919	84.56
445.14	135.56
445.361	124.56
445.582	128.56
445.803	130.56
446.024	125.56
446.245	114.56
446.466	116.56
446.687	78.56
446.908	83.56
447.129	93.56
447.35	83.56
447.571	94.56
447.792	94.56
448.013	96.56
448.234	96.56
448.455	102.56
448.675	106.56
448.896	110.56
449.117	94.56
449.338	109.56
449.559	131.56
449.779	109.56
450	99.56
450.221	97.56
450.442	75.56
450.662	85.56
450.883	96.56
451.104	100.56
451.324	89.56
451.545	80.56
451.766	99.56
451.986	94.56
452.207	100.56
452.428	84.56
452.648	104.56
452.869	114.56
453.089	100.56
453.31	108.56
453.53	89.56
453.751	86.56
453.971	105.56
454.192	111.56
454.412	87.56
454.633	101.56
454.853	88.56
455.073	90.56
455.294	90.56
455.514	85.56
455.734	87.56
455.955	84.56
456.175	99.56
456.395	80.56
456.616	93.56
456.836	97.56
457.056	96.56
457.276	87.56
457.497	76.56
457.717	71.56
457.937	77.56
458.157	85.56
458.377	84.56
458.598	99.56
458.818	135.56
459.038	150.56
459.258	108.56
459.478	95.56
459.698	88.56
459.918	80.56
460.138	77.56
460.358	80.56
460.578	92.56
460.798	94.56
461.018	86.56
461.238	89.56
461.458	89.56
461.678	68.56
461.898	85.56
462.118	88.56
462.338	85.56
462.558	84.56
462.777	97.56
462.997	82.56
463.217	91.56
463.437	88.56
463.657	91.56
463.876	97.56
464.096	89.56
464.316	103.56
464.536	97.56
464.755	82.56
464.975	97.56
465.195	160.56
465.414	138.56
465.634	86.56
465.854	90.56
466.073	84.56
466.293	86.56
466.512	98.56
466.732	97.56
466.951	91.56
467.171	87.56
467.391	102.56
467.61	100.56
467.829	107.56
468.049	149.56
468.268	178.56
468.488	103.56
468.707	84.56
468.927	84.56
469.146	87.56
469.365	83.56
469.585	102.56
469.804	82.56
470.023	84.56
470.243	74.56
470.462	106.56
470.681	101.56
470.901	97.56
471.12	91.56
471.339	94.56
471.558	94.56
471.777	93.56
471.997	127.56
472.216	232.56
472.435	404.56
472.654	158.56
472.873	101.56
473.092	89.56
473.311	84.56
473.53	88.56
473.749	85.56
473.968	95.56
474.187	97.56
474.406	83.56
474.625	91.56
474.844	94.56
475.063	91.56
475.282	86.56
475.501	86.56
475.72	100.56
475.939	82.56
476.158	99.56
476.377	88.56
476.596	86.56
476.814	90.56
477.033	90.56
477.252	88.56
477.471	87.56
477.69	93.56
477.908	89.56
478.127	86.56
478.346	87.56
478.564	91.56
478.783	105.56
479.002	94.56
479.22	80.56
479.439	92.56
479.658	90.56
479.876	72.56
480.095	98.56
480.313	115.56
480.532	101.56
480.751	120.56
480.969	242.56
481.188	728.56
481.406	445.56
481.624	108.56
481.843	91.56
482.061	102.56
482.28	85.56
482.498	86.56
482.717	92.56
482.935	97.56
483.153	80.56
483.372	85.56
483.59	84.56
483.808	95.56
484.027	94.56
484.245	96.56
484.463	95.56
484.681	98.56
484.9	93.56
485.118	84.56
485.336	81.56
485.554	102.56
485.772	84.56
485.99	107.56
486.209	100.56
486.427	117.56
486.645	105.56
486.863	107.56
487.081	96.56
487.299	94.56
487.517	99.56
487.735	93.56
487.953	84.56
488.171	89.56
488.389	87.56
488.607	107.56
488.825	96.56
489.043	81.56
489.261	93.56
489.479	82.56
489.696	85.56
489.914	93.56
490.132	90.56
490.35	99.56
490.568	75.56
490.786	84.56
491.003	101.56
491.221	96.56
491.439	80.56
491.657	91.56
491.874	81.56
492.092	97.56
492.31	82.56
492.527	103.56
492.745	89.56
492.963	81.56
493.18	91.56
493.398	103.56
493.615	96.56
493.833	77.56
494.05	94.56
494.268	95.56
494.485	88.56
494.703	90.56
494.92	88.56
495.138	93.56
495.355	89.56
495.573	86.56
495.79	86.56
496.008	103.56
496.225	93.56
496.442	97.56
496.66	89.56
496.877	94.56
497.094	93.56
497.312	90.56
497.529	76.56
497.746	91.56
497.963	73.56
498.181	89.56
498.398	97.56
498.615	98.56
498.832	117.56
499.049	82.56
499.267	88.56
499.484	103.56
499.701	89.56
499.918	98.56
500.135	89.56
500.352	94.56
500.569	92.56
500.786	87.56
501.003	108.56
501.22	90.56
501.437	81.56
501.654	104.56
501.871	120.56
502.088	99.56
502.305	88.56
502.522	80.56
502.739	82.56
502.956	81.56
503.172	97.56
503.389	89.56
503.606	90.56
503.823	89.56
504.04	94.56
504.256	103.56
504.473	94.56
504.69	81.56
504.907	112.56
505.123	88.56
505.34	86.56
505.557	91.56
505.773	88.56
505.99	88.56
506.207	89.56
506.423	78.56
506.64	87.56
506.856	103.56
507.073	85.56
507.289	92.56
507.506	96.56
507.722	115.56
507.939	99.56
508.155	84.56
508.372	97.56
508.588	94.56
508.805	100.56
509.021	92.56
509.238	96.56
509.454	91.56
509.67	98.56
509.887	93.56
510.103	152.56
510.319	194.56
510.536	678.56
510.752	2121.56
510.968	586.56
511.184	150.56
511.401	102.56
511.617	83.56
511.833	102.56
512.049	98.56
512.265	81.56
512.481	103.56
512.698	90.56
512.914	92.56
513.13	91.56
513.346	101.56
513.562	93.56
513.778	82.56
513.994	98.56
514.21	98.56
514.426	102.56
514.642	121.56
514.858	120.56
515.074	153.56
515.29	380.56
515.506	1259.56
515.721	448.56
