Data from Circ_1984_H10_HRD10591_00089.txt Node
Date: Wed Jan 03 12:22:59 EST 2024
User: Yrep
Spectrometer: HR+D1059
Trigger mode: 1
Integration Time (sec): 1.000000E-1
Scans to average: 1
Electric dark correction enabled: true
Nonlinearity correction enabled: false
Boxcar width: 0
XAxis mode: Wavelengths
Number of Pixels in Spectrum: 2048
>>>>>Begin Spectral Data<<<<<
223.165	-21.19
223.4	-21.19
223.635	-21.19
223.869	-23.19
224.104	-24.19
224.338	-6.19
224.573	-16.19
224.808	-19.19
225.042	-8.19
225.277	-6.19
225.511	-2.19
225.746	-10.19
225.98	13.81
226.215	26.81
226.449	9.81
226.683	18.81
226.918	29.81
227.152	37.81
227.387	34.81
227.621	24.81
227.856	48.81
228.09	37.81
228.324	70.81
228.559	35.81
228.793	44.81
229.027	79.81
229.262	71.81
229.496	68.81
229.73	79.81
229.964	76.81
230.199	77.81
230.433	53.81
230.667	69.81
230.901	77.81
231.136	71.81
231.37	74.81
231.604	70.81
231.838	85.81
232.072	76.81
232.306	90.81
232.541	89.81
232.775	64.81
233.009	76.81
233.243	83.81
233.477	96.81
233.711	77.81
233.945	81.81
234.179	80.81
234.413	80.81
234.647	77.81
234.881	85.81
235.115	76.81
235.349	84.81
235.583	74.81
235.817	74.81
236.051	84.81
236.285	85.81
236.519	58.81
236.753	69.81
236.987	81.81
237.221	88.81
237.455	79.81
237.689	79.81
237.922	85.81
238.156	72.81
238.39	91.81
238.624	83.81
238.858	79.81
239.091	80.81
239.325	80.81
239.559	66.81
239.793	71.81
240.027	71.81
240.26	79.81
240.494	74.81
240.728	90.81
240.961	79.81
241.195	86.81
241.429	66.81
241.662	64.81
241.896	69.81
242.13	83.81
242.363	79.81
242.597	86.81
242.83	73.81
243.064	63.81
243.298	71.81
243.531	72.81
243.765	92.81
243.998	81.81
244.232	76.81
244.465	80.81
244.699	89.81
244.932	79.81
245.166	86.81
245.399	72.81
245.633	67.81
245.866	72.81
246.099	83.81
246.333	93.81
246.566	76.81
246.8	83.81
247.033	70.81
247.266	72.81
247.5	78.81
247.733	78.81
247.966	73.81
248.2	96.81
248.433	89.81
248.666	75.81
248.899	72.81
249.133	69.81
249.366	88.81
249.599	75.81
249.832	75.81
250.066	74.81
250.299	81.81
250.532	74.81
250.765	83.81
250.998	87.81
251.231	75.81
251.465	77.81
251.698	71.81
251.931	82.81
252.164	85.81
252.397	80.81
252.63	60.81
252.863	83.81
253.096	81.81
253.329	84.81
253.562	55.81
253.795	81.81
254.028	83.81
254.261	77.81
254.494	72.81
254.727	91.81
254.96	71.81
255.193	83.81
255.426	91.81
255.659	80.81
255.892	73.81
256.124	80.81
256.357	73.81
256.59	76.81
256.823	83.81
257.056	79.81
257.289	82.81
257.521	87.81
257.754	69.81
257.987	79.81
258.22	90.81
258.452	88.81
258.685	88.81
258.918	75.81
259.151	81.81
259.383	94.81
259.616	84.81
259.849	79.81
260.081	87.81
260.314	87.81
260.547	75.81
260.779	93.81
261.012	68.81
261.244	90.81
261.477	90.81
261.71	89.81
261.942	100.81
262.175	113.81
262.407	92.81
262.64	81.81
262.872	82.81
263.105	94.81
263.337	81.81
263.57	79.81
263.802	77.81
264.035	87.81
264.267	82.81
264.499	75.81
264.732	81.81
264.964	97.81
265.197	84.81
265.429	98.81
265.661	84.81
265.894	80.81
266.126	71.81
266.358	72.81
266.591	90.81
266.823	86.81
267.055	89.81
267.287	79.81
267.52	72.81
267.752	65.81
267.984	81.81
268.216	85.81
268.448	88.81
268.681	85.81
268.913	96.81
269.145	89.81
269.377	95.81
269.609	82.81
269.841	87.81
270.073	80.81
270.306	89.81
270.538	73.81
270.77	97.81
271.002	77.81
271.234	87.81
271.466	80.81
271.698	89.81
271.93	81.81
272.162	87.81
272.394	81.81
272.626	98.81
272.858	83.81
273.09	89.81
273.322	91.81
273.553	90.81
273.785	83.81
274.017	79.81
274.249	89.81
274.481	92.81
274.713	88.81
274.945	94.81
275.176	88.81
275.408	81.81
275.64	82.81
275.872	92.81
276.104	72.81
276.335	104.81
276.567	92.81
276.799	113.81
277.031	99.81
277.262	112.81
277.494	96.81
277.726	92.81
277.957	92.81
278.189	72.81
278.421	98.81
278.652	97.81
278.884	89.81
279.115	101.81
279.347	87.81
279.579	73.81
279.81	77.81
280.042	91.81
280.273	96.81
280.505	87.81
280.736	98.81
280.968	93.81
281.199	95.81
281.431	98.81
281.662	72.81
281.894	91.81
282.125	114.81
282.356	102.81
282.588	129.81
282.819	111.81
283.051	95.81
283.282	100.81
283.513	80.81
283.745	93.81
283.976	105.81
284.207	89.81
284.439	72.81
284.67	85.81
284.901	89.81
285.132	94.81
285.364	106.81
285.595	91.81
285.826	85.81
286.057	81.81
286.288	79.81
286.52	91.81
286.751	92.81
286.982	85.81
287.213	87.81
287.444	101.81
287.675	101.81
287.906	95.81
288.138	96.81
288.369	89.81
288.6	89.81
288.831	83.81
289.062	91.81
289.293	84.81
289.524	91.81
289.755	96.81
289.986	77.81
290.217	86.81
290.448	97.81
290.679	86.81
290.91	95.81
291.141	81.81
291.371	84.81
291.602	81.81
291.833	87.81
292.064	96.81
292.295	76.81
292.526	68.81
292.757	89.81
292.987	87.81
293.218	109.81
293.449	79.81
293.68	88.81
293.91	82.81
294.141	83.81
294.372	76.81
294.603	90.81
294.833	86.81
295.064	83.81
295.295	80.81
295.525	101.81
295.756	88.81
295.987	110.81
296.217	116.81
296.448	113.81
296.679	94.81
296.909	107.81
297.14	79.81
297.37	82.81
297.601	89.81
297.831	83.81
298.062	85.81
298.292	82.81
298.523	92.81
298.753	85.81
298.984	79.81
299.214	75.81
299.445	88.81
299.675	90.81
299.905	92.81
300.136	76.81
300.366	88.81
300.597	73.81
300.827	99.81
301.057	97.81
301.288	104.81
301.518	88.81
301.748	83.81
301.979	92.81
302.209	76.81
302.439	107.81
302.669	89.81
302.9	91.81
303.13	91.81
303.36	107.81
303.59	111.81
303.82	112.81
304.051	91.81
304.281	96.81
304.511	81.81
304.741	89.81
304.971	80.81
305.201	100.81
305.431	66.81
305.661	80.81
305.891	80.81
306.121	103.81
306.352	97.81
306.582	97.81
306.812	98.81
307.042	95.81
307.272	116.81
307.502	117.81
307.731	123.81
307.961	97.81
308.191	76.81
308.421	95.81
308.651	85.81
308.881	97.81
309.111	98.81
309.341	91.81
309.571	98.81
309.8	93.81
310.03	100.81
310.26	96.81
310.49	83.81
310.72	93.81
310.949	108.81
311.179	92.81
311.409	96.81
311.639	103.81
311.868	96.81
312.098	99.81
312.328	93.81
312.557	103.81
312.787	94.81
313.017	96.81
313.246	82.81
313.476	89.81
313.706	81.81
313.935	80.81
314.165	104.81
314.394	123.81
314.624	103.81
314.853	100.81
315.083	88.81
315.312	91.81
315.542	79.81
315.771	88.81
316.001	95.81
316.23	92.81
316.46	88.81
316.689	74.81
316.919	78.81
317.148	89.81
317.377	102.81
317.607	91.81
317.836	104.81
318.065	74.81
318.295	98.81
318.524	97.81
318.753	95.81
318.983	98.81
319.212	107.81
319.441	93.81
319.67	100.81
319.9	91.81
320.129	99.81
320.358	84.81
320.587	105.81
320.816	81.81
321.046	97.81
321.275	101.81
321.504	76.81
321.733	96.81
321.962	93.81
322.191	88.81
322.42	107.81
322.649	117.81
322.878	123.81
323.108	121.81
323.337	103.81
323.566	122.81
323.795	124.81
324.024	168.81
324.253	352.81
324.482	680.81
324.71	1391.81
324.939	1810.81
325.168	671.81
325.397	221.81
325.626	140.81
325.855	112.81
326.084	116.81
326.313	116.81
326.542	136.81
326.77	194.81
326.999	372.81
327.228	805.81
327.457	1408.81
327.686	1129.81
327.914	337.81
328.143	227.81
328.372	207.81
328.6	154.81
328.829	136.81
329.058	113.81
329.287	108.81
329.515	111.81
329.744	120.81
329.972	169.81
330.201	268.81
330.43	332.81
330.658	188.81
330.887	139.81
331.115	132.81
331.344	104.81
331.572	93.81
331.801	90.81
332.03	108.81
332.258	99.81
332.486	83.81
332.715	89.81
332.943	97.81
333.172	99.81
333.4	95.81
333.629	118.81
333.857	127.81
334.085	164.81
334.314	243.81
334.542	412.81
334.771	374.81
334.999	147.81
335.227	95.81
335.455	95.81
335.684	105.81
335.912	98.81
336.14	101.81
336.369	105.81
336.597	111.81
336.825	97.81
337.053	104.81
337.281	107.81
337.51	85.81
337.738	78.81
337.966	91.81
338.194	92.81
338.422	95.81
338.65	89.81
338.878	71.81
339.106	91.81
339.334	99.81
339.562	101.81
339.79	102.81
340.018	89.81
340.246	87.81
340.474	92.81
340.702	89.81
340.93	80.81
341.158	89.81
341.386	110.81
341.614	104.81
341.842	84.81
342.07	89.81
342.298	96.81
342.526	73.81
342.754	86.81
342.981	95.81
343.209	79.81
343.437	85.81
343.665	105.81
343.893	92.81
344.12	96.81
344.348	87.81
344.576	79.81
344.804	74.81
345.031	97.81
345.259	98.81
345.487	87.81
345.714	99.81
345.942	104.81
346.17	87.81
346.397	99.81
346.625	95.81
346.853	97.81
347.08	104.81
347.308	76.81
347.535	95.81
347.763	111.81
347.99	96.81
348.218	119.81
348.445	91.81
348.673	97.81
348.9	83.81
349.128	94.81
349.355	102.81
349.583	89.81
349.81	85.81
350.037	95.81
350.265	93.81
350.492	91.81
350.72	107.81
350.947	108.81
351.174	113.81
351.402	103.81
351.629	105.81
351.856	103.81
352.083	102.81
352.311	93.81
352.538	108.81
352.765	85.81
352.992	103.81
353.22	99.81
353.447	113.81
353.674	92.81
353.901	89.81
354.128	96.81
354.355	99.81
354.583	100.81
354.81	91.81
355.037	100.81
355.264	91.81
355.491	93.81
355.718	95.81
355.945	111.81
356.172	81.81
356.399	106.81
356.626	90.81
356.853	95.81
357.08	87.81
357.307	103.81
357.534	98.81
357.761	104.81
357.988	87.81
358.215	83.81
358.441	89.81
358.668	108.81
358.895	86.81
359.122	91.81
359.349	95.81
359.576	83.81
359.802	90.81
360.029	107.81
360.256	105.81
360.483	88.81
360.709	110.81
360.936	89.81
361.163	93.81
361.39	100.81
361.616	97.81
361.843	108.81
362.07	93.81
362.296	77.81
362.523	96.81
362.749	81.81
362.976	91.81
363.203	95.81
363.429	91.81
363.656	85.81
363.882	91.81
364.109	76.81
364.335	96.81
364.562	93.81
364.788	98.81
365.015	99.81
365.241	95.81
365.468	96.81
365.694	89.81
365.92	88.81
366.147	97.81
366.373	87.81
366.599	101.81
366.826	87.81
367.052	72.81
367.278	85.81
367.505	98.81
367.731	91.81
367.957	73.81
368.184	84.81
368.41	106.81
368.636	102.81
368.862	126.81
369.089	95.81
369.315	88.81
369.541	85.81
369.767	91.81
369.993	98.81
370.219	95.81
370.445	74.81
370.672	85.81
370.898	93.81
371.124	74.81
371.35	91.81
371.576	83.81
371.802	94.81
372.028	85.81
372.254	104.81
372.48	95.81
372.706	87.81
372.932	81.81
373.158	89.81
373.384	79.81
373.61	86.81
373.835	91.81
374.061	84.81
374.287	98.81
374.513	95.81
374.739	83.81
374.965	91.81
375.191	87.81
375.416	105.81
375.642	94.81
375.868	90.81
376.094	92.81
376.319	92.81
376.545	92.81
376.771	76.81
376.997	99.81
377.222	96.81
377.448	86.81
377.674	88.81
377.899	93.81
378.125	96.81
378.35	98.81
378.576	76.81
378.802	93.81
379.027	105.81
379.253	89.81
379.478	83.81
379.704	81.81
379.929	95.81
380.155	92.81
380.38	85.81
380.606	96.81
380.831	88.81
381.057	101.81
381.282	97.81
381.507	100.81
381.733	94.81
381.958	92.81
382.184	101.81
382.409	94.81
382.634	97.81
382.86	91.81
383.085	97.81
383.31	96.81
383.535	95.81
383.761	104.81
383.986	94.81
384.211	100.81
384.436	91.81
384.662	95.81
384.887	88.81
385.112	99.81
385.337	92.81
385.562	95.81
385.787	103.81
386.013	103.81
386.238	93.81
386.463	93.81
386.688	115.81
386.913	100.81
387.138	101.81
387.363	88.81
387.588	96.81
387.813	114.81
388.038	93.81
388.263	100.81
388.488	112.81
388.713	107.81
388.938	99.81
389.163	94.81
389.387	96.81
389.612	93.81
389.837	95.81
390.062	71.81
390.287	84.81
390.512	83.81
390.736	76.81
390.961	94.81
391.186	84.81
391.411	99.81
391.636	89.81
391.86	93.81
392.085	78.81
392.31	85.81
392.534	82.81
392.759	95.81
392.984	103.81
393.208	84.81
393.433	103.81
393.658	96.81
393.882	91.81
394.107	80.81
394.331	93.81
394.556	79.81
394.78	82.81
395.005	86.81
395.229	97.81
395.454	95.81
395.678	77.81
395.903	76.81
396.127	100.81
396.352	88.81
396.576	85.81
396.801	87.81
397.025	91.81
397.249	93.81
397.474	90.81
397.698	91.81
397.922	94.81
398.147	95.81
398.371	80.81
398.595	86.81
398.82	92.81
399.044	87.81
399.268	84.81
399.492	86.81
399.717	76.81
399.941	85.81
400.165	94.81
400.389	85.81
400.613	95.81
400.837	79.81
401.062	96.81
401.286	97.81
401.51	102.81
401.734	85.81
401.958	87.81
402.182	105.81
402.406	139.81
402.63	108.81
402.854	86.81
403.078	93.81
403.302	86.81
403.526	96.81
403.75	90.81
403.974	96.81
404.198	83.81
404.422	99.81
404.645	83.81
404.869	89.81
405.093	89.81
405.317	111.81
405.541	100.81
405.765	101.81
405.988	116.81
406.212	165.81
406.436	190.81
406.66	128.81
406.883	91.81
407.107	103.81
407.331	99.81
407.555	99.81
407.778	105.81
408.002	110.81
408.226	90.81
408.449	87.81
408.673	87.81
408.896	93.81
409.12	92.81
409.344	83.81
409.567	85.81
409.791	83.81
410.014	91.81
410.238	91.81
410.461	86.81
410.685	87.81
410.908	76.81
411.132	113.81
411.355	82.81
411.578	80.81
411.802	98.81
412.025	79.81
412.249	99.81
412.472	117.81
412.695	103.81
412.919	99.81
413.142	86.81
413.365	91.81
413.589	94.81
413.812	106.81
414.035	92.81
414.258	95.81
414.482	83.81
414.705	77.81
414.928	113.81
415.151	102.81
415.374	86.81
415.597	103.81
415.821	97.81
416.044	80.81
416.267	81.81
416.49	93.81
416.713	100.81
416.936	100.81
417.159	101.81
417.382	89.81
417.605	87.81
417.828	82.81
418.051	85.81
418.274	92.81
418.497	84.81
418.72	84.81
418.943	89.81
419.166	95.81
419.389	82.81
419.611	90.81
419.834	96.81
420.057	99.81
420.28	91.81
420.503	85.81
420.726	86.81
420.948	76.81
421.171	95.81
421.394	97.81
421.617	93.81
421.839	95.81
422.062	90.81
422.285	96.81
422.507	88.81
422.73	109.81
422.953	92.81
423.175	92.81
423.398	89.81
423.621	86.81
423.843	83.81
424.066	87.81
424.288	84.81
424.511	84.81
424.733	91.81
424.956	89.81
425.178	98.81
425.401	112.81
425.623	95.81
425.846	73.81
426.068	91.81
426.291	89.81
426.513	85.81
426.735	98.81
426.958	97.81
427.18	108.81
427.402	133.81
427.625	158.81
427.847	137.81
428.069	132.81
428.292	99.81
428.514	92.81
428.736	86.81
428.958	86.81
429.181	92.81
429.403	81.81
429.625	102.81
429.847	87.81
430.069	73.81
430.292	91.81
430.514	97.81
430.736	84.81
430.958	84.81
431.18	91.81
431.402	84.81
431.624	79.81
431.846	77.81
432.068	90.81
432.29	81.81
432.512	87.81
432.734	93.81
432.956	83.81
433.178	101.81
433.4	101.81
433.622	84.81
433.844	83.81
434.066	96.81
434.287	98.81
434.509	84.81
434.731	90.81
434.953	78.81
435.175	83.81
435.397	87.81
435.618	88.81
435.84	92.81
436.062	116.81
436.284	97.81
436.505	93.81
436.727	81.81
436.949	75.81
437.17	81.81
437.392	76.81
437.614	106.81
437.835	99.81
438.057	116.81
438.278	109.81
438.5	97.81
438.721	110.81
438.943	99.81
439.165	90.81
439.386	87.81
439.608	84.81
439.829	103.81
440.05	113.81
440.272	127.81
440.493	109.81
440.715	87.81
440.936	96.81
441.158	85.81
441.379	91.81
441.6	90.81
441.822	85.81
442.043	92.81
442.264	94.81
442.486	96.81
442.707	102.81
442.928	101.81
443.149	122.81
443.371	131.81
443.592	104.81
443.813	69.81
444.034	104.81
444.255	88.81
444.476	83.81
444.698	89.81
444.919	81.81
445.14	124.81
445.361	114.81
445.582	111.81
445.803	122.81
446.024	118.81
446.245	128.81
446.466	90.81
446.687	83.81
446.908	81.81
447.129	88.81
447.35	90.81
447.571	104.81
447.792	94.81
448.013	99.81
448.234	113.81
448.455	99.81
448.675	108.81
448.896	115.81
449.117	108.81
449.338	100.81
449.559	131.81
449.779	125.81
450	94.81
450.221	106.81
450.442	99.81
450.662	87.81
450.883	90.81
451.104	104.81
451.324	94.81
451.545	89.81
451.766	73.81
451.986	86.81
452.207	77.81
452.428	100.81
452.648	99.81
452.869	103.81
453.089	92.81
453.31	119.81
453.53	84.81
453.751	83.81
453.971	110.81
454.192	99.81
454.412	96.81
454.633	95.81
454.853	88.81
455.073	92.81
455.294	90.81
455.514	88.81
455.734	92.81
455.955	83.81
456.175	83.81
456.395	85.81
456.616	91.81
456.836	91.81
457.056	85.81
457.276	72.81
457.497	81.81
457.717	77.81
457.937	87.81
458.157	77.81
458.377	74.81
458.598	105.81
458.818	124.81
459.038	143.81
459.258	105.81
459.478	94.81
459.698	87.81
459.918	86.81
460.138	95.81
460.358	85.81
460.578	89.81
460.798	95.81
461.018	86.81
461.238	80.81
461.458	81.81
461.678	81.81
461.898	96.81
462.118	85.81
462.338	80.81
462.558	94.81
462.777	77.81
462.997	97.81
463.217	85.81
463.437	93.81
463.657	87.81
463.876	95.81
464.096	85.81
464.316	89.81
464.536	93.81
464.755	103.81
464.975	115.81
465.195	158.81
465.414	127.81
465.634	97.81
465.854	77.81
466.073	99.81
466.293	98.81
466.512	81.81
466.732	85.81
466.951	91.81
467.171	86.81
467.391	89.81
467.61	120.81
467.829	102.81
468.049	148.81
468.268	214.81
468.488	112.81
468.707	87.81
468.927	93.81
469.146	78.81
469.365	84.81
469.585	86.81
469.804	97.81
470.023	101.81
470.243	102.81
470.462	88.81
470.681	101.81
470.901	111.81
471.12	99.81
471.339	95.81
471.558	106.81
471.777	93.81
471.997	120.81
472.216	309.81
472.435	535.81
472.654	168.81
472.873	95.81
473.092	90.81
473.311	108.81
473.53	86.81
473.749	91.81
473.968	115.81
474.187	102.81
474.406	101.81
474.625	90.81
474.844	81.81
475.063	89.81
475.282	79.81
475.501	83.81
475.72	77.81
475.939	87.81
476.158	85.81
476.377	88.81
476.596	85.81
476.814	97.81
477.033	96.81
477.252	90.81
477.471	87.81
477.69	84.81
477.908	91.81
478.127	91.81
478.346	82.81
478.564	89.81
478.783	77.81
479.002	98.81
479.22	87.81
479.439	112.81
479.658	100.81
479.876	109.81
480.095	92.81
480.313	98.81
480.532	110.81
480.751	110.81
480.969	284.81
481.188	964.81
481.406	535.81
481.624	137.81
481.843	105.81
482.061	116.81
482.28	90.81
482.498	92.81
482.717	72.81
482.935	79.81
483.153	85.81
483.372	85.81
483.59	105.81
483.808	89.81
484.027	90.81
484.245	97.81
484.463	92.81
484.681	110.81
484.9	82.81
485.118	95.81
485.336	96.81
485.554	91.81
485.772	107.81
485.99	97.81
486.209	114.81
486.427	96.81
486.645	104.81
486.863	114.81
487.081	91.81
487.299	112.81
487.517	100.81
487.735	87.81
487.953	107.81
488.171	76.81
488.389	90.81
488.607	92.81
488.825	88.81
489.043	87.81
489.261	83.81
489.479	91.81
489.696	89.81
489.914	96.81
490.132	97.81
490.35	100.81
490.568	103.81
490.786	78.81
491.003	89.81
491.221	83.81
491.439	95.81
491.657	84.81
491.874	88.81
492.092	99.81
492.31	87.81
492.527	90.81
492.745	97.81
492.963	87.81
493.18	98.81
493.398	95.81
493.615	87.81
493.833	108.81
494.05	109.81
494.268	98.81
494.485	99.81
494.703	90.81
494.92	95.81
495.138	88.81
495.355	91.81
495.573	102.81
495.79	94.81
496.008	90.81
496.225	87.81
496.442	93.81
496.66	94.81
496.877	89.81
497.094	87.81
497.312	88.81
497.529	77.81
497.746	100.81
497.963	95.81
498.181	99.81
498.398	110.81
498.615	98.81
498.832	100.81
499.049	99.81
499.267	100.81
499.484	76.81
499.701	87.81
499.918	84.81
500.135	84.81
500.352	91.81
500.569	95.81
500.786	92.81
501.003	97.81
501.22	79.81
501.437	91.81
501.654	86.81
501.871	96.81
502.088	94.81
502.305	93.81
502.522	97.81
502.739	91.81
502.956	87.81
503.172	86.81
503.389	88.81
503.606	100.81
503.823	101.81
504.04	109.81
504.256	91.81
504.473	86.81
504.69	93.81
504.907	93.81
505.123	84.81
505.34	85.81
505.557	97.81
505.773	87.81
505.99	82.81
506.207	96.81
506.423	101.81
506.64	94.81
506.856	87.81
507.073	97.81
507.289	95.81
507.506	87.81
507.722	108.81
507.939	106.81
508.155	92.81
508.372	88.81
508.588	87.81
508.805	96.81
509.021	104.81
509.238	97.81
509.454	87.81
509.67	91.81
509.887	85.81
510.103	112.81
510.319	188.81
510.536	651.81
510.752	1993.81
510.968	567.81
511.184	147.81
511.401	102.81
511.617	95.81
511.833	101.81
512.049	95.81
512.265	95.81
512.481	99.81
512.698	88.81
512.914	94.81
513.13	96.81
513.346	96.81
513.562	101.81
513.778	95.81
513.994	98.81
514.21	109.81
514.426	108.81
514.642	130.81
514.858	114.81
515.074	146.81
515.29	379.81
515.506	1217.81
515.721	455.81
