Data from Circ_1984_H10_HRD10591_00058.txt Node
Date: Wed Jan 03 12:22:53 EST 2024
User: Yrep
Spectrometer: HR+D1059
Trigger mode: 1
Integration Time (sec): 1.000000E-1
Scans to average: 1
Electric dark correction enabled: true
Nonlinearity correction enabled: false
Boxcar width: 0
XAxis mode: Wavelengths
Number of Pixels in Spectrum: 2048
>>>>>Begin Spectral Data<<<<<
223.165	-31.81
223.4	-31.81
223.635	-31.81
223.869	-19.81
224.104	-21.81
224.338	-18.81
224.573	-10.81
224.808	-16.81
225.042	-6.81
225.277	-10.81
225.511	-0.81
225.746	10.19
225.98	5.19
226.215	17.19
226.449	21.19
226.683	22.19
226.918	26.19
227.152	36.19
227.387	28.19
227.621	35.19
227.856	35.19
228.09	44.19
228.324	51.19
228.559	58.19
228.793	62.19
229.027	65.19
229.262	61.19
229.496	66.19
229.73	78.19
229.964	86.19
230.199	78.19
230.433	84.19
230.667	74.19
230.901	85.19
231.136	81.19
231.37	76.19
231.604	72.19
231.838	87.19
232.072	89.19
232.306	74.19
232.541	83.19
232.775	85.19
233.009	85.19
233.243	99.19
233.477	75.19
233.711	82.19
233.945	89.19
234.179	98.19
234.413	81.19
234.647	73.19
234.881	92.19
235.115	69.19
235.349	76.19
235.583	71.19
235.817	69.19
236.051	94.19
236.285	70.19
236.519	75.19
236.753	78.19
236.987	82.19
237.221	81.19
237.455	92.19
237.689	82.19
237.922	67.19
238.156	78.19
238.39	75.19
238.624	83.19
238.858	91.19
239.091	93.19
239.325	70.19
239.559	75.19
239.793	88.19
240.027	81.19
240.26	74.19
240.494	81.19
240.728	57.19
240.961	81.19
241.195	77.19
241.429	68.19
241.662	82.19
241.896	77.19
242.13	85.19
242.363	61.19
242.597	81.19
242.83	79.19
243.064	81.19
243.298	84.19
243.531	70.19
243.765	75.19
243.998	80.19
244.232	77.19
244.465	75.19
244.699	76.19
244.932	87.19
245.166	81.19
245.399	76.19
245.633	83.19
245.866	78.19
246.099	80.19
246.333	75.19
246.566	76.19
246.8	76.19
247.033	75.19
247.266	79.19
247.5	97.19
247.733	83.19
247.966	84.19
248.2	66.19
248.433	81.19
248.666	75.19
248.899	67.19
249.133	72.19
249.366	92.19
249.599	93.19
249.832	81.19
250.066	90.19
250.299	99.19
250.532	96.19
250.765	73.19
250.998	81.19
251.231	92.19
251.465	90.19
251.698	97.19
251.931	82.19
252.164	87.19
252.397	84.19
252.63	90.19
252.863	76.19
253.096	85.19
253.329	94.19
253.562	86.19
253.795	86.19
254.028	89.19
254.261	79.19
254.494	97.19
254.727	81.19
254.96	69.19
255.193	78.19
255.426	65.19
255.659	78.19
255.892	101.19
256.124	95.19
256.357	91.19
256.59	90.19
256.823	86.19
257.056	92.19
257.289	77.19
257.521	83.19
257.754	81.19
257.987	84.19
258.22	77.19
258.452	85.19
258.685	86.19
258.918	87.19
259.151	86.19
259.383	84.19
259.616	74.19
259.849	78.19
260.081	84.19
260.314	83.19
260.547	83.19
260.779	90.19
261.012	98.19
261.244	86.19
261.477	86.19
261.71	97.19
261.942	106.19
262.175	112.19
262.407	99.19
262.64	97.19
262.872	89.19
263.105	91.19
263.337	98.19
263.57	81.19
263.802	99.19
264.035	81.19
264.267	81.19
264.499	95.19
264.732	86.19
264.964	76.19
265.197	73.19
265.429	75.19
265.661	86.19
265.894	78.19
266.126	77.19
266.358	81.19
266.591	78.19
266.823	90.19
267.055	87.19
267.287	95.19
267.52	77.19
267.752	69.19
267.984	87.19
268.216	71.19
268.448	99.19
268.681	72.19
268.913	87.19
269.145	82.19
269.377	90.19
269.609	71.19
269.841	75.19
270.073	94.19
270.306	94.19
270.538	89.19
270.77	81.19
271.002	92.19
271.234	86.19
271.466	98.19
271.698	84.19
271.93	70.19
272.162	79.19
272.394	86.19
272.626	81.19
272.858	83.19
273.09	83.19
273.322	99.19
273.553	99.19
273.785	92.19
274.017	71.19
274.249	104.19
274.481	81.19
274.713	90.19
274.945	81.19
275.176	92.19
275.408	89.19
275.64	95.19
275.872	87.19
276.104	87.19
276.335	94.19
276.567	94.19
276.799	93.19
277.031	101.19
277.262	90.19
277.494	92.19
277.726	88.19
277.957	87.19
278.189	83.19
278.421	75.19
278.652	90.19
278.884	81.19
279.115	98.19
279.347	102.19
279.579	90.19
279.81	92.19
280.042	94.19
280.273	100.19
280.505	90.19
280.736	97.19
280.968	97.19
281.199	89.19
281.431	78.19
281.662	87.19
281.894	87.19
282.125	103.19
282.356	111.19
282.588	146.19
282.819	93.19
283.051	79.19
283.282	86.19
283.513	94.19
283.745	89.19
283.976	81.19
284.207	77.19
284.439	76.19
284.67	97.19
284.901	75.19
285.132	93.19
285.364	98.19
285.595	85.19
285.826	78.19
286.057	73.19
286.288	95.19
286.52	93.19
286.751	101.19
286.982	96.19
287.213	87.19
287.444	107.19
287.675	87.19
287.906	87.19
288.138	86.19
288.369	98.19
288.6	79.19
288.831	77.19
289.062	82.19
289.293	86.19
289.524	82.19
289.755	86.19
289.986	94.19
290.217	93.19
290.448	96.19
290.679	84.19
290.91	103.19
291.141	79.19
291.371	90.19
291.602	79.19
291.833	65.19
292.064	89.19
292.295	97.19
292.526	84.19
292.757	79.19
292.987	92.19
293.218	76.19
293.449	90.19
293.68	89.19
293.91	87.19
294.141	88.19
294.372	97.19
294.603	93.19
294.833	107.19
295.064	88.19
295.295	102.19
295.525	84.19
295.756	99.19
295.987	106.19
296.217	129.19
296.448	114.19
296.679	97.19
296.909	99.19
297.14	81.19
297.37	85.19
297.601	88.19
297.831	97.19
298.062	91.19
298.292	101.19
298.523	99.19
298.753	78.19
298.984	81.19
299.214	85.19
299.445	83.19
299.675	92.19
299.905	93.19
300.136	93.19
300.366	101.19
300.597	93.19
300.827	89.19
301.057	102.19
301.288	101.19
301.518	103.19
301.748	89.19
301.979	108.19
302.209	85.19
302.439	95.19
302.669	85.19
302.9	89.19
303.13	85.19
303.36	89.19
303.59	99.19
303.82	105.19
304.051	78.19
304.281	97.19
304.511	89.19
304.741	88.19
304.971	82.19
305.201	87.19
305.431	73.19
305.661	92.19
305.891	102.19
306.121	109.19
306.352	105.19
306.582	108.19
306.812	90.19
307.042	107.19
307.272	101.19
307.502	95.19
307.731	113.19
307.961	99.19
308.191	101.19
308.421	97.19
308.651	86.19
308.881	102.19
309.111	103.19
309.341	98.19
309.571	96.19
309.8	84.19
310.03	103.19
310.26	87.19
310.49	98.19
310.72	104.19
310.949	117.19
311.179	106.19
311.409	89.19
311.639	109.19
311.868	97.19
312.098	91.19
312.328	93.19
312.557	106.19
312.787	101.19
313.017	98.19
313.246	92.19
313.476	100.19
313.706	79.19
313.935	83.19
314.165	105.19
314.394	94.19
314.624	86.19
314.853	95.19
315.083	93.19
315.312	85.19
315.542	82.19
315.771	105.19
316.001	91.19
316.23	75.19
316.46	82.19
316.689	89.19
316.919	86.19
317.148	93.19
317.377	92.19
317.607	99.19
317.836	86.19
318.065	89.19
318.295	102.19
318.524	82.19
318.753	98.19
318.983	82.19
319.212	105.19
319.441	111.19
319.67	102.19
319.9	105.19
320.129	106.19
320.358	108.19
320.587	93.19
320.816	101.19
321.046	91.19
321.275	81.19
321.504	98.19
321.733	98.19
321.962	104.19
322.191	100.19
322.42	109.19
322.649	90.19
322.878	99.19
323.108	117.19
323.337	111.19
323.566	131.19
323.795	130.19
324.024	155.19
324.253	296.19
324.482	614.19
324.71	1227.19
324.939	1615.19
325.168	626.19
325.397	203.19
325.626	131.19
325.855	121.19
326.084	122.19
326.313	134.19
326.542	142.19
326.77	188.19
326.999	345.19
327.228	698.19
327.457	1263.19
327.686	1004.19
327.914	316.19
328.143	203.19
328.372	171.19
328.6	141.19
328.829	102.19
329.058	106.19
329.287	106.19
329.515	105.19
329.744	108.19
329.972	138.19
330.201	211.19
330.43	246.19
330.658	157.19
330.887	126.19
331.115	112.19
331.344	94.19
331.572	105.19
331.801	104.19
332.03	102.19
332.258	108.19
332.486	92.19
332.715	105.19
332.943	88.19
333.172	98.19
333.4	99.19
333.629	104.19
333.857	132.19
334.085	132.19
334.314	184.19
334.542	297.19
334.771	262.19
334.999	136.19
335.227	103.19
335.455	102.19
335.684	94.19
335.912	97.19
336.14	100.19
336.369	99.19
336.597	116.19
336.825	93.19
337.053	93.19
337.281	91.19
337.51	91.19
337.738	100.19
337.966	92.19
338.194	93.19
338.422	89.19
338.65	98.19
338.878	107.19
339.106	101.19
339.334	98.19
339.562	81.19
339.79	87.19
340.018	93.19
340.246	106.19
340.474	102.19
340.702	105.19
340.93	102.19
341.158	101.19
341.386	97.19
341.614	100.19
341.842	102.19
342.07	78.19
342.298	85.19
342.526	99.19
342.754	97.19
342.981	89.19
343.209	88.19
343.437	98.19
343.665	78.19
343.893	93.19
344.12	89.19
344.348	79.19
344.576	87.19
344.804	76.19
345.031	86.19
345.259	83.19
345.487	87.19
345.714	98.19
345.942	120.19
346.17	93.19
346.397	86.19
346.625	98.19
346.853	101.19
347.08	89.19
347.308	95.19
347.535	88.19
347.763	97.19
347.99	100.19
348.218	108.19
348.445	90.19
348.673	100.19
348.9	108.19
349.128	94.19
349.355	83.19
349.583	83.19
349.81	79.19
350.037	103.19
350.265	97.19
350.492	93.19
350.72	97.19
350.947	102.19
351.174	93.19
351.402	105.19
351.629	102.19
351.856	105.19
352.083	92.19
352.311	112.19
352.538	87.19
352.765	111.19
352.992	115.19
353.22	115.19
353.447	108.19
353.674	94.19
353.901	91.19
354.128	92.19
354.355	109.19
354.583	102.19
354.81	95.19
355.037	107.19
355.264	82.19
355.491	95.19
355.718	80.19
355.945	86.19
356.172	89.19
356.399	108.19
356.626	89.19
356.853	87.19
357.08	98.19
357.307	108.19
357.534	105.19
357.761	88.19
357.988	98.19
358.215	92.19
358.441	101.19
358.668	100.19
358.895	93.19
359.122	97.19
359.349	84.19
359.576	91.19
359.802	91.19
360.029	103.19
360.256	111.19
360.483	95.19
360.709	91.19
360.936	100.19
361.163	93.19
361.39	101.19
361.616	93.19
361.843	105.19
362.07	101.19
362.296	96.19
362.523	92.19
362.749	70.19
362.976	102.19
363.203	79.19
363.429	85.19
363.656	73.19
363.882	94.19
364.109	83.19
364.335	107.19
364.562	87.19
364.788	86.19
365.015	87.19
365.241	89.19
365.468	105.19
365.694	111.19
365.92	100.19
366.147	90.19
366.373	88.19
366.599	93.19
366.826	93.19
367.052	90.19
367.278	104.19
367.505	86.19
367.731	99.19
367.957	82.19
368.184	94.19
368.41	97.19
368.636	95.19
368.862	105.19
369.089	107.19
369.315	88.19
369.541	95.19
369.767	92.19
369.993	94.19
370.219	100.19
370.445	87.19
370.672	87.19
370.898	82.19
371.124	92.19
371.35	93.19
371.576	89.19
371.802	87.19
372.028	108.19
372.254	100.19
372.48	86.19
372.706	76.19
372.932	83.19
373.158	80.19
373.384	75.19
373.61	89.19
373.835	94.19
374.061	104.19
374.287	93.19
374.513	91.19
374.739	88.19
374.965	86.19
375.191	98.19
375.416	101.19
375.642	99.19
375.868	88.19
376.094	98.19
376.319	90.19
376.545	92.19
376.771	93.19
376.997	83.19
377.222	86.19
377.448	87.19
377.674	79.19
377.899	70.19
378.125	74.19
378.35	95.19
378.576	86.19
378.802	108.19
379.027	89.19
379.253	87.19
379.478	97.19
379.704	102.19
379.929	90.19
380.155	95.19
380.38	104.19
380.606	91.19
380.831	81.19
381.057	98.19
381.282	94.19
381.507	94.19
381.733	96.19
381.958	97.19
382.184	97.19
382.409	103.19
382.634	93.19
382.86	91.19
383.085	106.19
383.31	74.19
383.535	95.19
383.761	101.19
383.986	109.19
384.211	88.19
384.436	100.19
384.662	85.19
384.887	115.19
385.112	115.19
385.337	106.19
385.562	101.19
385.787	109.19
386.013	113.19
386.238	96.19
386.463	108.19
386.688	92.19
386.913	106.19
387.138	96.19
387.363	111.19
387.588	115.19
387.813	105.19
388.038	99.19
388.263	98.19
388.488	102.19
388.713	106.19
388.938	89.19
389.163	91.19
389.387	100.19
389.612	85.19
389.837	97.19
390.062	112.19
390.287	92.19
390.512	86.19
390.736	93.19
390.961	93.19
391.186	93.19
391.411	84.19
391.636	84.19
391.86	88.19
392.085	85.19
392.31	76.19
392.534	73.19
392.759	86.19
392.984	85.19
393.208	75.19
393.433	100.19
393.658	88.19
393.882	82.19
394.107	97.19
394.331	89.19
394.556	84.19
394.78	81.19
395.005	96.19
395.229	94.19
395.454	101.19
395.678	84.19
395.903	81.19
396.127	83.19
396.352	100.19
396.576	89.19
396.801	92.19
397.025	88.19
397.249	91.19
397.474	95.19
397.698	76.19
397.922	96.19
398.147	96.19
398.371	77.19
398.595	110.19
398.82	90.19
399.044	62.19
399.268	74.19
399.492	91.19
399.717	100.19
399.941	92.19
400.165	107.19
400.389	99.19
400.613	84.19
400.837	76.19
401.062	79.19
401.286	76.19
401.51	94.19
401.734	106.19
401.958	94.19
402.182	102.19
402.406	122.19
402.63	115.19
402.854	100.19
403.078	101.19
403.302	85.19
403.526	100.19
403.75	89.19
403.974	93.19
404.198	109.19
404.422	84.19
404.645	91.19
404.869	72.19
405.093	84.19
405.317	89.19
405.541	93.19
405.765	103.19
405.988	110.19
406.212	142.19
406.436	195.19
406.66	140.19
406.883	102.19
407.107	93.19
407.331	87.19
407.555	94.19
407.778	97.19
408.002	87.19
408.226	86.19
408.449	87.19
408.673	87.19
408.896	85.19
409.12	83.19
409.344	90.19
409.567	85.19
409.791	98.19
410.014	93.19
410.238	95.19
410.461	93.19
410.685	86.19
410.908	100.19
411.132	89.19
411.355	98.19
411.578	99.19
411.802	100.19
412.025	85.19
412.249	98.19
412.472	87.19
412.695	102.19
412.919	88.19
413.142	79.19
413.365	94.19
413.589	102.19
413.812	86.19
414.035	76.19
414.258	89.19
414.482	90.19
414.705	90.19
414.928	84.19
415.151	83.19
415.374	111.19
415.597	99.19
415.821	94.19
416.044	89.19
416.267	78.19
416.49	95.19
416.713	88.19
416.936	93.19
417.159	90.19
417.382	90.19
417.605	96.19
417.828	97.19
418.051	97.19
418.274	109.19
418.497	78.19
418.72	88.19
418.943	85.19
419.166	87.19
419.389	93.19
419.611	87.19
419.834	91.19
420.057	89.19
420.28	99.19
420.503	106.19
420.726	81.19
420.948	91.19
421.171	97.19
421.394	89.19
421.617	96.19
421.839	87.19
422.062	82.19
422.285	106.19
422.507	99.19
422.73	106.19
422.953	90.19
423.175	90.19
423.398	87.19
423.621	83.19
423.843	88.19
424.066	97.19
424.288	87.19
424.511	97.19
424.733	85.19
424.956	104.19
425.178	99.19
425.401	98.19
425.623	94.19
425.846	103.19
426.068	101.19
426.291	92.19
426.513	87.19
426.735	75.19
426.958	92.19
427.18	101.19
427.402	114.19
427.625	135.19
427.847	137.19
428.069	132.19
428.292	98.19
428.514	94.19
428.736	89.19
428.958	85.19
429.181	93.19
429.403	87.19
429.625	101.19
429.847	78.19
430.069	102.19
430.292	110.19
430.514	92.19
430.736	95.19
430.958	90.19
431.18	97.19
431.402	89.19
431.624	94.19
431.846	77.19
432.068	82.19
432.29	84.19
432.512	77.19
432.734	92.19
432.956	83.19
433.178	84.19
433.4	82.19
433.622	83.19
433.844	98.19
434.066	83.19
434.287	93.19
434.509	78.19
434.731	97.19
434.953	110.19
435.175	91.19
435.397	89.19
435.618	83.19
435.84	97.19
436.062	97.19
436.284	106.19
436.505	103.19
436.727	83.19
436.949	95.19
437.17	96.19
437.392	88.19
437.614	90.19
437.835	99.19
438.057	101.19
438.278	99.19
438.5	91.19
438.721	98.19
438.943	93.19
439.165	102.19
439.386	91.19
439.608	94.19
439.829	92.19
440.05	106.19
440.272	137.19
440.493	83.19
440.715	91.19
440.936	88.19
441.158	92.19
441.379	84.19
441.6	78.19
441.822	100.19
442.043	91.19
442.264	99.19
442.486	90.19
442.707	88.19
442.928	105.19
443.149	115.19
443.371	111.19
443.592	111.19
443.813	111.19
444.034	95.19
444.255	98.19
444.476	83.19
444.698	102.19
444.919	103.19
445.14	134.19
445.361	130.19
445.582	109.19
445.803	123.19
446.024	116.19
446.245	110.19
446.466	120.19
446.687	90.19
446.908	90.19
447.129	96.19
447.35	76.19
447.571	85.19
447.792	97.19
448.013	101.19
448.234	101.19
448.455	90.19
448.675	101.19
448.896	113.19
449.117	100.19
449.338	98.19
449.559	112.19
449.779	126.19
450	97.19
450.221	83.19
450.442	93.19
450.662	100.19
450.883	105.19
451.104	108.19
451.324	81.19
451.545	81.19
451.766	105.19
451.986	91.19
452.207	97.19
452.428	86.19
452.648	95.19
452.869	95.19
453.089	100.19
453.31	97.19
453.53	98.19
453.751	81.19
453.971	92.19
454.192	91.19
454.412	98.19
454.633	82.19
454.853	93.19
455.073	91.19
455.294	96.19
455.514	95.19
455.734	80.19
455.955	93.19
456.175	88.19
456.395	83.19
456.616	81.19
456.836	87.19
457.056	95.19
457.276	85.19
457.497	90.19
457.717	91.19
457.937	82.19
458.157	89.19
458.377	86.19
458.598	100.19
458.818	123.19
459.038	139.19
459.258	122.19
459.478	86.19
459.698	85.19
459.918	82.19
460.138	91.19
460.358	97.19
460.578	88.19
460.798	100.19
461.018	92.19
461.238	83.19
461.458	78.19
461.678	89.19
461.898	93.19
462.118	90.19
462.338	86.19
462.558	101.19
462.777	85.19
462.997	89.19
463.217	91.19
463.437	85.19
463.657	84.19
463.876	80.19
464.096	75.19
464.316	87.19
464.536	91.19
464.755	86.19
464.975	103.19
465.195	132.19
465.414	138.19
465.634	87.19
465.854	87.19
466.073	92.19
466.293	91.19
466.512	83.19
466.732	73.19
466.951	95.19
467.171	86.19
467.391	91.19
467.61	109.19
467.829	106.19
468.049	133.19
468.268	177.19
468.488	89.19
468.707	95.19
468.927	89.19
469.146	88.19
469.365	89.19
469.585	74.19
469.804	77.19
470.023	97.19
470.243	92.19
470.462	96.19
470.681	106.19
470.901	105.19
471.12	81.19
471.339	86.19
471.558	90.19
471.777	83.19
471.997	120.19
472.216	219.19
472.435	369.19
472.654	158.19
472.873	107.19
473.092	81.19
473.311	83.19
473.53	88.19
473.749	87.19
473.968	89.19
474.187	98.19
474.406	92.19
474.625	78.19
474.844	99.19
475.063	94.19
475.282	74.19
475.501	75.19
475.72	104.19
475.939	89.19
476.158	90.19
476.377	98.19
476.596	87.19
476.814	101.19
477.033	91.19
477.252	97.19
477.471	90.19
477.69	77.19
477.908	93.19
478.127	91.19
478.346	96.19
478.564	98.19
478.783	87.19
479.002	99.19
479.22	87.19
479.439	93.19
479.658	104.19
479.876	92.19
480.095	101.19
480.313	101.19
480.532	85.19
480.751	109.19
480.969	211.19
481.188	637.19
481.406	390.19
481.624	120.19
481.843	101.19
482.061	83.19
482.28	85.19
482.498	95.19
482.717	85.19
482.935	85.19
483.153	92.19
483.372	99.19
483.59	89.19
483.808	86.19
484.027	91.19
484.245	104.19
484.463	93.19
484.681	102.19
484.9	88.19
485.118	105.19
485.336	99.19
485.554	106.19
485.772	117.19
485.99	91.19
486.209	111.19
486.427	109.19
486.645	103.19
486.863	101.19
487.081	108.19
487.299	98.19
487.517	84.19
487.735	94.19
487.953	91.19
488.171	86.19
488.389	93.19
488.607	95.19
488.825	92.19
489.043	73.19
489.261	81.19
489.479	87.19
489.696	93.19
489.914	96.19
490.132	88.19
490.35	84.19
490.568	101.19
490.786	85.19
491.003	106.19
491.221	77.19
491.439	86.19
491.657	85.19
491.874	102.19
492.092	93.19
492.31	95.19
492.527	95.19
492.745	88.19
492.963	89.19
493.18	90.19
493.398	90.19
493.615	99.19
493.833	92.19
494.05	86.19
494.268	87.19
494.485	111.19
494.703	83.19
494.92	86.19
495.138	86.19
495.355	76.19
495.573	90.19
495.79	103.19
496.008	97.19
496.225	106.19
496.442	90.19
496.66	109.19
496.877	98.19
497.094	91.19
497.312	106.19
497.529	96.19
497.746	97.19
497.963	86.19
498.181	90.19
498.398	109.19
498.615	111.19
498.832	101.19
499.049	69.19
499.267	106.19
499.484	81.19
499.701	82.19
499.918	108.19
500.135	87.19
500.352	93.19
500.569	68.19
500.786	83.19
501.003	98.19
501.22	102.19
501.437	110.19
501.654	94.19
501.871	88.19
502.088	83.19
502.305	89.19
502.522	78.19
502.739	86.19
502.956	88.19
503.172	98.19
503.389	104.19
503.606	96.19
503.823	102.19
504.04	99.19
504.256	105.19
504.473	93.19
504.69	89.19
504.907	94.19
505.123	87.19
505.34	79.19
505.557	89.19
505.773	88.19
505.99	83.19
506.207	85.19
506.423	82.19
506.64	95.19
506.856	98.19
507.073	94.19
507.289	83.19
507.506	101.19
507.722	105.19
507.939	111.19
508.155	105.19
508.372	101.19
508.588	87.19
508.805	87.19
509.021	88.19
509.238	92.19
509.454	79.19
509.67	91.19
509.887	104.19
510.103	124.19
510.319	174.19
510.536	601.19
510.752	1811.19
510.968	529.19
511.184	137.19
511.401	107.19
511.617	113.19
511.833	84.19
512.049	100.19
512.265	91.19
512.481	91.19
512.698	92.19
512.914	84.19
513.13	97.19
513.346	100.19
513.562	96.19
513.778	93.19
513.994	103.19
514.21	96.19
514.426	102.19
514.642	106.19
514.858	104.19
515.074	129.19
515.29	348.19
