Data from Circ_1984_H10_HRD10591_00086.txt Node
Date: Wed Jan 03 12:22:59 EST 2024
User: Yrep
Spectrometer: HR+D1059
Trigger mode: 1
Integration Time (sec): 1.000000E-1
Scans to average: 1
Electric dark correction enabled: true
Nonlinearity correction enabled: false
Boxcar width: 0
XAxis mode: Wavelengths
Number of Pixels in Spectrum: 2048
>>>>>Begin Spectral Data<<<<<
223.165	-10.25
223.4	-10.25
223.635	-10.25
223.869	-14.25
224.104	-19.25
224.338	-6.25
224.573	-24.25
224.808	-16.25
225.042	-12.25
225.277	-1.25
225.511	-4.25
225.746	8.75
225.98	7.75
226.215	2.75
226.449	7.75
226.683	19.75
226.918	30.75
227.152	30.75
227.387	41.75
227.621	43.75
227.856	38.75
228.09	42.75
228.324	51.75
228.559	48.75
228.793	54.75
229.027	68.75
229.262	66.75
229.496	45.75
229.73	75.75
229.964	84.75
230.199	62.75
230.433	83.75
230.667	66.75
230.901	80.75
231.136	72.75
231.37	72.75
231.604	72.75
231.838	94.75
232.072	69.75
232.306	75.75
232.541	81.75
232.775	86.75
233.009	76.75
233.243	82.75
233.477	85.75
233.711	83.75
233.945	68.75
234.179	83.75
234.413	75.75
234.647	74.75
234.881	81.75
235.115	74.75
235.349	74.75
235.583	62.75
235.817	73.75
236.051	83.75
236.285	63.75
236.519	70.75
236.753	71.75
236.987	83.75
237.221	65.75
237.455	66.75
237.689	82.75
237.922	84.75
238.156	90.75
238.39	75.75
238.624	69.75
238.858	70.75
239.091	70.75
239.325	62.75
239.559	64.75
239.793	85.75
240.027	86.75
240.26	78.75
240.494	66.75
240.728	76.75
240.961	85.75
241.195	75.75
241.429	81.75
241.662	66.75
241.896	78.75
242.13	72.75
242.363	73.75
242.597	83.75
242.83	70.75
243.064	75.75
243.298	71.75
243.531	71.75
243.765	79.75
243.998	80.75
244.232	95.75
244.465	62.75
244.699	90.75
244.932	84.75
245.166	65.75
245.399	58.75
245.633	79.75
245.866	82.75
246.099	75.75
246.333	86.75
246.566	78.75
246.8	87.75
247.033	89.75
247.266	67.75
247.5	83.75
247.733	74.75
247.966	85.75
248.2	74.75
248.433	83.75
248.666	88.75
248.899	80.75
249.133	87.75
249.366	98.75
249.599	101.75
249.832	79.75
250.066	98.75
250.299	84.75
250.532	102.75
250.765	77.75
250.998	72.75
251.231	91.75
251.465	70.75
251.698	81.75
251.931	81.75
252.164	81.75
252.397	84.75
252.63	79.75
252.863	93.75
253.096	92.75
253.329	84.75
253.562	76.75
253.795	75.75
254.028	86.75
254.261	86.75
254.494	71.75
254.727	86.75
254.96	68.75
255.193	71.75
255.426	69.75
255.659	82.75
255.892	81.75
256.124	76.75
256.357	66.75
256.59	72.75
256.823	75.75
257.056	81.75
257.289	73.75
257.521	85.75
257.754	75.75
257.987	86.75
258.22	78.75
258.452	81.75
258.685	102.75
258.918	71.75
259.151	78.75
259.383	85.75
259.616	81.75
259.849	79.75
260.081	79.75
260.314	76.75
260.547	79.75
260.779	90.75
261.012	98.75
261.244	94.75
261.477	84.75
261.71	92.75
261.942	97.75
262.175	105.75
262.407	79.75
262.64	89.75
262.872	89.75
263.105	73.75
263.337	78.75
263.57	86.75
263.802	80.75
264.035	74.75
264.267	84.75
264.499	83.75
264.732	88.75
264.964	85.75
265.197	81.75
265.429	84.75
265.661	99.75
265.894	80.75
266.126	73.75
266.358	94.75
266.591	78.75
266.823	84.75
267.055	73.75
267.287	74.75
267.52	71.75
267.752	84.75
267.984	89.75
268.216	98.75
268.448	86.75
268.681	69.75
268.913	75.75
269.145	71.75
269.377	71.75
269.609	75.75
269.841	75.75
270.073	82.75
270.306	86.75
270.538	83.75
270.77	80.75
271.002	84.75
271.234	95.75
271.466	91.75
271.698	79.75
271.93	104.75
272.162	76.75
272.394	91.75
272.626	83.75
272.858	83.75
273.09	94.75
273.322	89.75
273.553	83.75
273.785	90.75
274.017	73.75
274.249	93.75
274.481	81.75
274.713	98.75
274.945	85.75
275.176	86.75
275.408	101.75
275.64	99.75
275.872	99.75
276.104	91.75
276.335	84.75
276.567	105.75
276.799	108.75
277.031	116.75
277.262	104.75
277.494	106.75
277.726	83.75
277.957	79.75
278.189	90.75
278.421	82.75
278.652	93.75
278.884	71.75
279.115	93.75
279.347	86.75
279.579	90.75
279.81	82.75
280.042	90.75
280.273	94.75
280.505	102.75
280.736	81.75
280.968	85.75
281.199	90.75
281.431	94.75
281.662	77.75
281.894	95.75
282.125	108.75
282.356	108.75
282.588	124.75
282.819	108.75
283.051	94.75
283.282	82.75
283.513	81.75
283.745	101.75
283.976	84.75
284.207	79.75
284.439	81.75
284.67	79.75
284.901	83.75
285.132	84.75
285.364	91.75
285.595	87.75
285.826	89.75
286.057	85.75
286.288	83.75
286.52	94.75
286.751	82.75
286.982	81.75
287.213	98.75
287.444	79.75
287.675	102.75
287.906	90.75
288.138	98.75
288.369	89.75
288.6	91.75
288.831	82.75
289.062	92.75
289.293	89.75
289.524	82.75
289.755	94.75
289.986	82.75
290.217	65.75
290.448	94.75
290.679	85.75
290.91	80.75
291.141	95.75
291.371	86.75
291.602	85.75
291.833	80.75
292.064	89.75
292.295	72.75
292.526	90.75
292.757	85.75
292.987	86.75
293.218	69.75
293.449	84.75
293.68	94.75
293.91	89.75
294.141	93.75
294.372	80.75
294.603	102.75
294.833	70.75
295.064	95.75
295.295	103.75
295.525	79.75
295.756	106.75
295.987	89.75
296.217	112.75
296.448	100.75
296.679	102.75
296.909	80.75
297.14	86.75
297.37	74.75
297.601	92.75
297.831	83.75
298.062	90.75
298.292	85.75
298.523	90.75
298.753	97.75
298.984	75.75
299.214	94.75
299.445	94.75
299.675	75.75
299.905	95.75
300.136	97.75
300.366	99.75
300.597	75.75
300.827	93.75
301.057	93.75
301.288	100.75
301.518	90.75
301.748	95.75
301.979	110.75
302.209	91.75
302.439	97.75
302.669	74.75
302.9	84.75
303.13	83.75
303.36	85.75
303.59	96.75
303.82	103.75
304.051	107.75
304.281	89.75
304.511	90.75
304.741	81.75
304.971	83.75
305.201	93.75
305.431	74.75
305.661	102.75
305.891	97.75
306.121	91.75
306.352	105.75
306.582	93.75
306.812	96.75
307.042	96.75
307.272	104.75
307.502	102.75
307.731	106.75
307.961	97.75
308.191	86.75
308.421	91.75
308.651	87.75
308.881	86.75
309.111	92.75
309.341	110.75
309.571	101.75
309.8	86.75
310.03	112.75
310.26	88.75
310.49	97.75
310.72	90.75
310.949	107.75
311.179	85.75
311.409	104.75
311.639	103.75
311.868	91.75
312.098	87.75
312.328	89.75
312.557	108.75
312.787	98.75
313.017	99.75
313.246	89.75
313.476	91.75
313.706	94.75
313.935	95.75
314.165	89.75
314.394	83.75
314.624	80.75
314.853	82.75
315.083	93.75
315.312	89.75
315.542	75.75
315.771	97.75
316.001	94.75
316.23	80.75
316.46	79.75
316.689	71.75
316.919	82.75
317.148	90.75
317.377	83.75
317.607	87.75
317.836	75.75
318.065	73.75
318.295	90.75
318.524	77.75
318.753	79.75
318.983	93.75
319.212	85.75
319.441	105.75
319.67	103.75
319.9	103.75
320.129	91.75
320.358	95.75
320.587	100.75
320.816	97.75
321.046	102.75
321.275	79.75
321.504	100.75
321.733	98.75
321.962	114.75
322.191	95.75
322.42	90.75
322.649	107.75
322.878	122.75
323.108	104.75
323.337	118.75
323.566	119.75
323.795	144.75
324.024	189.75
324.253	295.75
324.482	626.75
324.71	1278.75
324.939	1698.75
325.168	651.75
325.397	199.75
325.626	132.75
325.855	123.75
326.084	123.75
326.313	105.75
326.542	141.75
326.77	178.75
326.999	367.75
327.228	744.75
327.457	1328.75
327.686	1050.75
327.914	318.75
328.143	206.75
328.372	194.75
328.6	153.75
328.829	109.75
329.058	117.75
329.287	112.75
329.515	115.75
329.744	118.75
329.972	157.75
330.201	245.75
330.43	310.75
330.658	174.75
330.887	138.75
331.115	102.75
331.344	93.75
331.572	105.75
331.801	92.75
332.03	100.75
332.258	89.75
332.486	88.75
332.715	84.75
332.943	86.75
333.172	112.75
333.4	99.75
333.629	107.75
333.857	133.75
334.085	164.75
334.314	243.75
334.542	414.75
334.771	342.75
334.999	156.75
335.227	105.75
335.455	101.75
335.684	106.75
335.912	106.75
336.14	97.75
336.369	96.75
336.597	104.75
336.825	91.75
337.053	96.75
337.281	103.75
337.51	87.75
337.738	99.75
337.966	99.75
338.194	84.75
338.422	101.75
338.65	102.75
338.878	92.75
339.106	97.75
339.334	71.75
339.562	96.75
339.79	99.75
340.018	87.75
340.246	81.75
340.474	92.75
340.702	91.75
340.93	83.75
341.158	91.75
341.386	91.75
341.614	95.75
341.842	91.75
342.07	85.75
342.298	99.75
342.526	88.75
342.754	76.75
342.981	86.75
343.209	84.75
343.437	101.75
343.665	91.75
343.893	94.75
344.12	82.75
344.348	95.75
344.576	85.75
344.804	86.75
345.031	101.75
345.259	99.75
345.487	85.75
345.714	95.75
345.942	89.75
346.17	100.75
346.397	91.75
346.625	101.75
346.853	91.75
347.08	80.75
347.308	106.75
347.535	80.75
347.763	87.75
347.99	78.75
348.218	95.75
348.445	99.75
348.673	78.75
348.9	84.75
349.128	86.75
349.355	89.75
349.583	68.75
349.81	91.75
350.037	89.75
350.265	99.75
350.492	90.75
350.72	98.75
350.947	96.75
351.174	112.75
351.402	87.75
351.629	98.75
351.856	104.75
352.083	90.75
352.311	95.75
352.538	107.75
352.765	107.75
352.992	109.75
353.22	110.75
353.447	90.75
353.674	102.75
353.901	101.75
354.128	78.75
354.355	91.75
354.583	88.75
354.81	83.75
355.037	112.75
355.264	90.75
355.491	93.75
355.718	99.75
355.945	89.75
356.172	92.75
356.399	91.75
356.626	79.75
356.853	86.75
357.08	82.75
357.307	84.75
357.534	114.75
357.761	91.75
357.988	82.75
358.215	89.75
358.441	101.75
358.668	104.75
358.895	86.75
359.122	84.75
359.349	85.75
359.576	81.75
359.802	92.75
360.029	104.75
360.256	86.75
360.483	97.75
360.709	82.75
360.936	69.75
361.163	99.75
361.39	102.75
361.616	92.75
361.843	87.75
362.07	97.75
362.296	91.75
362.523	86.75
362.749	94.75
362.976	89.75
363.203	94.75
363.429	72.75
363.656	80.75
363.882	83.75
364.109	66.75
364.335	82.75
364.562	80.75
364.788	86.75
365.015	79.75
365.241	95.75
365.468	96.75
365.694	92.75
365.92	107.75
366.147	103.75
366.373	97.75
366.599	84.75
366.826	100.75
367.052	94.75
367.278	81.75
367.505	80.75
367.731	88.75
367.957	82.75
368.184	92.75
368.41	90.75
368.636	106.75
368.862	95.75
369.089	95.75
369.315	95.75
369.541	82.75
369.767	97.75
369.993	77.75
370.219	97.75
370.445	87.75
370.672	92.75
370.898	82.75
371.124	97.75
371.35	81.75
371.576	81.75
371.802	74.75
372.028	83.75
372.254	92.75
372.48	78.75
372.706	81.75
372.932	100.75
373.158	83.75
373.384	88.75
373.61	79.75
373.835	88.75
374.061	70.75
374.287	96.75
374.513	84.75
374.739	88.75
374.965	88.75
375.191	82.75
375.416	77.75
375.642	94.75
375.868	82.75
376.094	81.75
376.319	85.75
376.545	90.75
376.771	86.75
376.997	87.75
377.222	74.75
377.448	88.75
377.674	88.75
377.899	86.75
378.125	105.75
378.35	95.75
378.576	98.75
378.802	82.75
379.027	85.75
379.253	81.75
379.478	95.75
379.704	105.75
379.929	101.75
380.155	91.75
380.38	105.75
380.606	97.75
380.831	96.75
381.057	95.75
381.282	90.75
381.507	83.75
381.733	94.75
381.958	105.75
382.184	102.75
382.409	93.75
382.634	84.75
382.86	89.75
383.085	107.75
383.31	88.75
383.535	102.75
383.761	99.75
383.986	89.75
384.211	98.75
384.436	99.75
384.662	97.75
384.887	88.75
385.112	102.75
385.337	118.75
385.562	88.75
385.787	85.75
386.013	100.75
386.238	109.75
386.463	86.75
386.688	115.75
386.913	98.75
387.138	104.75
387.363	95.75
387.588	98.75
387.813	97.75
388.038	103.75
388.263	99.75
388.488	102.75
388.713	118.75
388.938	101.75
389.163	100.75
389.387	104.75
389.612	83.75
389.837	86.75
390.062	92.75
390.287	98.75
390.512	89.75
390.736	75.75
390.961	89.75
391.186	84.75
391.411	81.75
391.636	83.75
391.86	87.75
392.085	72.75
392.31	93.75
392.534	76.75
392.759	82.75
392.984	80.75
393.208	75.75
393.433	79.75
393.658	82.75
393.882	87.75
394.107	86.75
394.331	93.75
394.556	91.75
394.78	101.75
395.005	90.75
395.229	101.75
395.454	82.75
395.678	88.75
395.903	91.75
396.127	92.75
396.352	74.75
396.576	85.75
396.801	82.75
397.025	74.75
397.249	88.75
397.474	109.75
397.698	84.75
397.922	95.75
398.147	87.75
398.371	82.75
398.595	79.75
398.82	87.75
399.044	81.75
399.268	65.75
399.492	98.75
399.717	77.75
399.941	83.75
400.165	100.75
400.389	86.75
400.613	75.75
400.837	91.75
401.062	91.75
401.286	96.75
401.51	102.75
401.734	97.75
401.958	90.75
402.182	121.75
402.406	143.75
402.63	98.75
402.854	92.75
403.078	86.75
403.302	90.75
403.526	78.75
403.75	79.75
403.974	66.75
404.198	74.75
404.422	73.75
404.645	62.75
404.869	85.75
405.093	90.75
405.317	102.75
405.541	102.75
405.765	93.75
405.988	91.75
406.212	136.75
406.436	182.75
406.66	121.75
406.883	97.75
407.107	97.75
407.331	90.75
407.555	96.75
407.778	99.75
408.002	94.75
408.226	89.75
408.449	82.75
408.673	84.75
408.896	85.75
409.12	88.75
409.344	75.75
409.567	84.75
409.791	104.75
410.014	92.75
410.238	88.75
410.461	95.75
410.685	83.75
410.908	95.75
411.132	111.75
411.355	105.75
411.578	94.75
411.802	94.75
412.025	93.75
412.249	92.75
412.472	97.75
412.695	114.75
412.919	102.75
413.142	94.75
413.365	105.75
413.589	96.75
413.812	83.75
414.035	85.75
414.258	67.75
414.482	77.75
414.705	84.75
414.928	84.75
415.151	93.75
415.374	95.75
415.597	105.75
415.821	88.75
416.044	83.75
416.267	92.75
416.49	90.75
416.713	82.75
416.936	99.75
417.159	90.75
417.382	93.75
417.605	102.75
417.828	100.75
418.051	92.75
418.274	93.75
418.497	83.75
418.72	86.75
418.943	86.75
419.166	87.75
419.389	83.75
419.611	97.75
419.834	92.75
420.057	78.75
420.28	85.75
420.503	90.75
420.726	97.75
420.948	95.75
421.171	100.75
421.394	105.75
421.617	86.75
421.839	80.75
422.062	89.75
422.285	87.75
422.507	92.75
422.73	85.75
422.953	85.75
423.175	92.75
423.398	91.75
423.621	78.75
423.843	88.75
424.066	81.75
424.288	74.75
424.511	99.75
424.733	104.75
424.956	108.75
425.178	89.75
425.401	98.75
425.623	103.75
425.846	76.75
426.068	101.75
426.291	90.75
426.513	89.75
426.735	91.75
426.958	96.75
427.18	91.75
427.402	120.75
427.625	142.75
427.847	130.75
428.069	134.75
428.292	90.75
428.514	97.75
428.736	99.75
428.958	93.75
429.181	79.75
429.403	87.75
429.625	82.75
429.847	92.75
430.069	100.75
430.292	99.75
430.514	84.75
430.736	100.75
430.958	99.75
431.18	88.75
431.402	87.75
431.624	82.75
431.846	86.75
432.068	82.75
432.29	78.75
432.512	81.75
432.734	90.75
432.956	89.75
433.178	92.75
433.4	96.75
433.622	88.75
433.844	89.75
434.066	113.75
434.287	89.75
434.509	83.75
434.731	86.75
434.953	98.75
435.175	94.75
435.397	79.75
435.618	82.75
435.84	95.75
436.062	123.75
436.284	107.75
436.505	85.75
436.727	112.75
436.949	91.75
437.17	107.75
437.392	88.75
437.614	93.75
437.835	90.75
438.057	107.75
438.278	97.75
438.5	96.75
438.721	115.75
438.943	90.75
439.165	91.75
439.386	95.75
439.608	86.75
439.829	103.75
440.05	103.75
440.272	135.75
440.493	102.75
440.715	90.75
440.936	77.75
441.158	75.75
441.379	93.75
441.6	94.75
441.822	87.75
442.043	104.75
442.264	105.75
442.486	107.75
442.707	103.75
442.928	102.75
443.149	115.75
443.371	115.75
443.592	103.75
443.813	101.75
444.034	96.75
444.255	104.75
444.476	79.75
444.698	73.75
444.919	91.75
445.14	137.75
445.361	122.75
445.582	121.75
445.803	129.75
446.024	123.75
446.245	122.75
446.466	98.75
446.687	90.75
446.908	96.75
447.129	91.75
447.35	74.75
447.571	96.75
447.792	80.75
448.013	99.75
448.234	78.75
448.455	81.75
448.675	95.75
448.896	119.75
449.117	100.75
449.338	92.75
449.559	108.75
449.779	112.75
450	80.75
450.221	95.75
450.442	79.75
450.662	83.75
450.883	105.75
451.104	93.75
451.324	94.75
451.545	83.75
451.766	72.75
451.986	84.75
452.207	73.75
452.428	94.75
452.648	98.75
452.869	105.75
453.089	94.75
453.31	88.75
453.53	88.75
453.751	97.75
453.971	90.75
454.192	107.75
454.412	94.75
454.633	82.75
454.853	82.75
455.073	89.75
455.294	97.75
455.514	113.75
455.734	78.75
455.955	80.75
456.175	85.75
456.395	75.75
456.616	90.75
456.836	75.75
457.056	82.75
457.276	82.75
457.497	70.75
457.717	78.75
457.937	93.75
458.157	90.75
458.377	109.75
458.598	98.75
458.818	138.75
459.038	145.75
459.258	110.75
459.478	93.75
459.698	89.75
459.918	84.75
460.138	88.75
460.358	82.75
460.578	90.75
460.798	93.75
461.018	118.75
461.238	72.75
461.458	78.75
461.678	66.75
461.898	71.75
462.118	99.75
462.338	81.75
462.558	82.75
462.777	93.75
462.997	82.75
463.217	100.75
463.437	85.75
463.657	90.75
463.876	73.75
464.096	76.75
464.316	91.75
464.536	92.75
464.755	90.75
464.975	99.75
465.195	132.75
465.414	132.75
465.634	84.75
465.854	88.75
466.073	97.75
466.293	80.75
466.512	91.75
466.732	98.75
466.951	91.75
467.171	76.75
467.391	90.75
467.61	103.75
467.829	105.75
468.049	158.75
468.268	192.75
468.488	98.75
468.707	84.75
468.927	79.75
469.146	65.75
469.365	80.75
469.585	75.75
469.804	82.75
470.023	106.75
470.243	86.75
470.462	99.75
470.681	105.75
470.901	88.75
471.12	86.75
471.339	89.75
471.558	82.75
471.777	82.75
471.997	115.75
472.216	263.75
472.435	488.75
472.654	173.75
472.873	98.75
473.092	81.75
473.311	92.75
473.53	96.75
473.749	90.75
473.968	88.75
474.187	104.75
474.406	85.75
474.625	94.75
474.844	90.75
475.063	71.75
475.282	71.75
475.501	80.75
475.72	82.75
475.939	83.75
476.158	83.75
476.377	74.75
476.596	84.75
476.814	84.75
477.033	82.75
477.252	90.75
477.471	72.75
477.69	93.75
477.908	98.75
478.127	100.75
478.346	92.75
478.564	86.75
478.783	107.75
479.002	87.75
479.22	99.75
479.439	100.75
479.658	107.75
479.876	105.75
480.095	101.75
480.313	87.75
480.532	116.75
480.751	133.75
480.969	258.75
481.188	851.75
481.406	518.75
481.624	158.75
481.843	94.75
482.061	89.75
482.28	84.75
482.498	82.75
482.717	85.75
482.935	85.75
483.153	89.75
483.372	97.75
483.59	84.75
483.808	88.75
484.027	100.75
484.245	108.75
484.463	108.75
484.681	84.75
484.9	79.75
485.118	105.75
485.336	80.75
485.554	94.75
485.772	91.75
485.99	100.75
486.209	114.75
486.427	105.75
486.645	106.75
486.863	113.75
487.081	100.75
487.299	87.75
487.517	94.75
487.735	84.75
487.953	82.75
488.171	87.75
488.389	98.75
488.607	98.75
488.825	100.75
489.043	95.75
489.261	88.75
489.479	92.75
489.696	96.75
489.914	80.75
490.132	91.75
490.35	84.75
490.568	82.75
490.786	75.75
491.003	91.75
491.221	92.75
491.439	87.75
491.657	83.75
491.874	91.75
492.092	98.75
492.31	92.75
492.527	92.75
492.745	85.75
492.963	95.75
493.18	83.75
493.398	102.75
493.615	100.75
493.833	92.75
494.05	79.75
494.268	88.75
494.485	86.75
494.703	85.75
494.92	88.75
495.138	87.75
495.355	92.75
495.573	94.75
495.79	91.75
496.008	87.75
496.225	86.75
496.442	89.75
496.66	90.75
496.877	88.75
497.094	93.75
497.312	84.75
497.529	83.75
497.746	92.75
497.963	85.75
498.181	90.75
498.398	92.75
498.615	106.75
498.832	90.75
499.049	92.75
499.267	90.75
499.484	78.75
499.701	80.75
499.918	99.75
500.135	89.75
500.352	95.75
500.569	97.75
500.786	86.75
501.003	98.75
501.22	80.75
501.437	95.75
501.654	85.75
501.871	100.75
502.088	90.75
502.305	84.75
502.522	88.75
502.739	101.75
502.956	102.75
503.172	95.75
503.389	84.75
503.606	105.75
503.823	82.75
504.04	78.75
504.256	95.75
504.473	92.75
504.69	78.75
504.907	95.75
505.123	100.75
505.34	89.75
505.557	90.75
505.773	84.75
505.99	91.75
506.207	98.75
506.423	80.75
506.64	87.75
506.856	82.75
507.073	86.75
507.289	96.75
507.506	104.75
507.722	88.75
507.939	104.75
508.155	98.75
508.372	95.75
508.588	94.75
508.805	98.75
509.021	102.75
509.238	89.75
509.454	94.75
509.67	87.75
509.887	95.75
510.103	115.75
510.319	172.75
510.536	574.75
510.752	1754.75
510.968	519.75
511.184	130.75
511.401	93.75
511.617	86.75
511.833	89.75
512.049	88.75
512.265	86.75
512.481	89.75
512.698	89.75
512.914	89.75
513.13	89.75
513.346	86.75
513.562	91.75
513.778	96.75
513.994	100.75
514.21	94.75
514.426	110.75
514.642	128.75
514.858	122.75
515.074	135.75
515.29	328.75
515.506	1004.75
515.721	405.75
515.937	135.75
516.153	104.75
