Data from Circ_1984_H10_HRD10591_00041.txt Node
Date: Wed Jan 03 12:22:50 EST 2024
User: Yrep
Spectrometer: HR+D1059
Trigger mode: 1
Integration Time (sec): 1.000000E-1
Scans to average: 1
Electric dark correction enabled: true
Nonlinearity correction enabled: false
Boxcar width: 0
XAxis mode: Wavelengths
Number of Pixels in Spectrum: 2048
>>>>>Begin Spectral Data<<<<<
223.165	-22.75
223.4	-22.75
223.635	-22.75
223.869	-23.75
224.104	-13.75
224.338	-7.75
224.573	-15.75
224.808	-5.75
225.042	-16.75
225.277	-10.75
225.511	-11.75
225.746	9.25
225.98	20.25
226.215	14.25
226.449	22.25
226.683	19.25
226.918	16.25
227.152	27.25
227.387	41.25
227.621	41.25
227.856	54.25
228.09	44.25
228.324	52.25
228.559	58.25
228.793	68.25
229.027	62.25
229.262	69.25
229.496	71.25
229.73	79.25
229.964	66.25
230.199	78.25
230.433	65.25
230.667	72.25
230.901	75.25
231.136	75.25
231.37	86.25
231.604	73.25
231.838	80.25
232.072	71.25
232.306	98.25
232.541	71.25
232.775	80.25
233.009	80.25
233.243	76.25
233.477	83.25
233.711	75.25
233.945	73.25
234.179	72.25
234.413	65.25
234.647	94.25
234.881	80.25
235.115	77.25
235.349	73.25
235.583	72.25
235.817	82.25
236.051	82.25
236.285	72.25
236.519	72.25
236.753	77.25
236.987	72.25
237.221	64.25
237.455	75.25
237.689	86.25
237.922	72.25
238.156	80.25
238.39	72.25
238.624	83.25
238.858	74.25
239.091	78.25
239.325	78.25
239.559	89.25
239.793	81.25
240.027	84.25
240.26	76.25
240.494	68.25
240.728	79.25
240.961	68.25
241.195	81.25
241.429	78.25
241.662	58.25
241.896	62.25
242.13	76.25
242.363	91.25
242.597	66.25
242.83	83.25
243.064	86.25
243.298	82.25
243.531	73.25
243.765	81.25
243.998	74.25
244.232	74.25
244.465	83.25
244.699	83.25
244.932	79.25
245.166	86.25
245.399	73.25
245.633	82.25
245.866	73.25
246.099	85.25
246.333	85.25
246.566	86.25
246.8	93.25
247.033	84.25
247.266	90.25
247.5	80.25
247.733	73.25
247.966	86.25
248.2	80.25
248.433	72.25
248.666	82.25
248.899	90.25
249.133	81.25
249.366	90.25
249.599	93.25
249.832	81.25
250.066	87.25
250.299	80.25
250.532	67.25
250.765	84.25
250.998	80.25
251.231	68.25
251.465	87.25
251.698	84.25
251.931	76.25
252.164	88.25
252.397	88.25
252.63	87.25
252.863	77.25
253.096	74.25
253.329	88.25
253.562	99.25
253.795	74.25
254.028	81.25
254.261	89.25
254.494	82.25
254.727	74.25
254.96	80.25
255.193	86.25
255.426	68.25
255.659	73.25
255.892	85.25
256.124	78.25
256.357	82.25
256.59	85.25
256.823	87.25
257.056	65.25
257.289	84.25
257.521	101.25
257.754	76.25
257.987	86.25
258.22	78.25
258.452	89.25
258.685	74.25
258.918	85.25
259.151	90.25
259.383	92.25
259.616	76.25
259.849	83.25
260.081	85.25
260.314	70.25
260.547	84.25
260.779	88.25
261.012	74.25
261.244	75.25
261.477	91.25
261.71	88.25
261.942	101.25
262.175	104.25
262.407	84.25
262.64	75.25
262.872	74.25
263.105	66.25
263.337	87.25
263.57	84.25
263.802	75.25
264.035	67.25
264.267	79.25
264.499	91.25
264.732	76.25
264.964	78.25
265.197	78.25
265.429	69.25
265.661	86.25
265.894	75.25
266.126	76.25
266.358	75.25
266.591	86.25
266.823	70.25
267.055	80.25
267.287	82.25
267.52	79.25
267.752	87.25
267.984	60.25
268.216	52.25
268.448	83.25
268.681	69.25
268.913	90.25
269.145	98.25
269.377	77.25
269.609	82.25
269.841	92.25
270.073	79.25
270.306	86.25
270.538	86.25
270.77	91.25
271.002	78.25
271.234	70.25
271.466	93.25
271.698	86.25
271.93	82.25
272.162	85.25
272.394	84.25
272.626	87.25
272.858	83.25
273.09	88.25
273.322	71.25
273.553	82.25
273.785	78.25
274.017	79.25
274.249	71.25
274.481	78.25
274.713	75.25
274.945	69.25
275.176	82.25
275.408	84.25
275.64	89.25
275.872	86.25
276.104	91.25
276.335	91.25
276.567	79.25
276.799	103.25
277.031	90.25
277.262	83.25
277.494	97.25
277.726	85.25
277.957	80.25
278.189	60.25
278.421	86.25
278.652	88.25
278.884	88.25
279.115	95.25
279.347	75.25
279.579	87.25
279.81	78.25
280.042	95.25
280.273	89.25
280.505	88.25
280.736	68.25
280.968	86.25
281.199	94.25
281.431	89.25
281.662	100.25
281.894	76.25
282.125	90.25
282.356	105.25
282.588	123.25
282.819	116.25
283.051	91.25
283.282	87.25
283.513	68.25
283.745	90.25
283.976	81.25
284.207	78.25
284.439	90.25
284.67	89.25
284.901	85.25
285.132	87.25
285.364	92.25
285.595	88.25
285.826	82.25
286.057	86.25
286.288	87.25
286.52	86.25
286.751	96.25
286.982	82.25
287.213	85.25
287.444	91.25
287.675	79.25
287.906	98.25
288.138	80.25
288.369	93.25
288.6	85.25
288.831	75.25
289.062	100.25
289.293	86.25
289.524	85.25
289.755	88.25
289.986	98.25
290.217	74.25
290.448	91.25
290.679	111.25
290.91	88.25
291.141	88.25
291.371	83.25
291.602	86.25
291.833	76.25
292.064	73.25
292.295	84.25
292.526	96.25
292.757	87.25
292.987	88.25
293.218	83.25
293.449	86.25
293.68	97.25
293.91	86.25
294.141	91.25
294.372	95.25
294.603	78.25
294.833	75.25
295.064	82.25
295.295	98.25
295.525	99.25
295.756	107.25
295.987	98.25
296.217	112.25
296.448	126.25
296.679	88.25
296.909	98.25
297.14	69.25
297.37	96.25
297.601	98.25
297.831	98.25
298.062	90.25
298.292	95.25
298.523	86.25
298.753	71.25
298.984	100.25
299.214	75.25
299.445	87.25
299.675	95.25
299.905	93.25
300.136	83.25
300.366	96.25
300.597	85.25
300.827	83.25
301.057	94.25
301.288	111.25
301.518	87.25
301.748	90.25
301.979	96.25
302.209	92.25
302.439	95.25
302.669	75.25
302.9	81.25
303.13	82.25
303.36	84.25
303.59	94.25
303.82	105.25
304.051	94.25
304.281	84.25
304.511	90.25
304.741	88.25
304.971	82.25
305.201	88.25
305.431	88.25
305.661	81.25
305.891	75.25
306.121	90.25
306.352	102.25
306.582	113.25
306.812	86.25
307.042	105.25
307.272	99.25
307.502	105.25
307.731	95.25
307.961	98.25
308.191	97.25
308.421	96.25
308.651	91.25
308.881	87.25
309.111	103.25
309.341	101.25
309.571	99.25
309.8	98.25
310.03	88.25
310.26	96.25
310.49	92.25
310.72	87.25
310.949	115.25
311.179	91.25
311.409	99.25
311.639	84.25
311.868	98.25
312.098	82.25
312.328	98.25
312.557	107.25
312.787	99.25
313.017	97.25
313.246	113.25
313.476	101.25
313.706	86.25
313.935	90.25
314.165	99.25
314.394	94.25
314.624	99.25
314.853	95.25
315.083	94.25
315.312	96.25
315.542	92.25
315.771	93.25
316.001	95.25
316.23	84.25
316.46	95.25
316.689	108.25
316.919	121.25
317.148	105.25
317.377	76.25
317.607	97.25
317.836	98.25
318.065	90.25
318.295	85.25
318.524	83.25
318.753	87.25
318.983	88.25
319.212	103.25
319.441	107.25
319.67	88.25
319.9	75.25
320.129	88.25
320.358	97.25
320.587	83.25
320.816	85.25
321.046	90.25
321.275	88.25
321.504	91.25
321.733	92.25
321.962	95.25
322.191	98.25
322.42	92.25
322.649	106.25
322.878	111.25
323.108	104.25
323.337	113.25
323.566	114.25
323.795	148.25
324.024	180.25
324.253	332.25
324.482	656.25
324.71	1332.25
324.939	1765.25
325.168	674.25
325.397	216.25
325.626	130.25
325.855	124.25
326.084	113.25
326.313	138.25
326.542	135.25
326.77	187.25
326.999	373.25
327.228	774.25
327.457	1352.25
327.686	1098.25
327.914	321.25
328.143	192.25
328.372	172.25
328.6	130.25
328.829	105.25
329.058	123.25
329.287	110.25
329.515	108.25
329.744	115.25
329.972	127.25
330.201	179.25
330.43	232.25
330.658	158.25
330.887	146.25
331.115	127.25
331.344	97.25
331.572	97.25
331.801	99.25
332.03	108.25
332.258	100.25
332.486	94.25
332.715	81.25
332.943	90.25
333.172	96.25
333.4	99.25
333.629	109.25
333.857	127.25
334.085	136.25
334.314	170.25
334.542	267.25
334.771	242.25
334.999	132.25
335.227	107.25
335.455	99.25
335.684	97.25
335.912	99.25
336.14	98.25
336.369	100.25
336.597	99.25
336.825	102.25
337.053	97.25
337.281	84.25
337.51	93.25
337.738	94.25
337.966	93.25
338.194	94.25
338.422	95.25
338.65	102.25
338.878	88.25
339.106	82.25
339.334	92.25
339.562	103.25
339.79	94.25
340.018	88.25
340.246	102.25
340.474	88.25
340.702	88.25
340.93	85.25
341.158	94.25
341.386	85.25
341.614	89.25
341.842	100.25
342.07	88.25
342.298	92.25
342.526	97.25
342.754	90.25
342.981	97.25
343.209	87.25
343.437	98.25
343.665	86.25
343.893	99.25
344.12	95.25
344.348	88.25
344.576	104.25
344.804	88.25
345.031	98.25
345.259	99.25
345.487	100.25
345.714	90.25
345.942	82.25
346.17	105.25
346.397	96.25
346.625	100.25
346.853	89.25
347.08	94.25
347.308	88.25
347.535	94.25
347.763	91.25
347.99	96.25
348.218	97.25
348.445	95.25
348.673	107.25
348.9	99.25
349.128	103.25
349.355	94.25
349.583	85.25
349.81	90.25
350.037	83.25
350.265	91.25
350.492	91.25
350.72	92.25
350.947	110.25
351.174	123.25
351.402	113.25
351.629	103.25
351.856	105.25
352.083	93.25
352.311	100.25
352.538	100.25
352.765	104.25
352.992	107.25
353.22	97.25
353.447	104.25
353.674	94.25
353.901	89.25
354.128	91.25
354.355	97.25
354.583	94.25
354.81	87.25
355.037	91.25
355.264	95.25
355.491	88.25
355.718	88.25
355.945	88.25
356.172	103.25
356.399	89.25
356.626	98.25
356.853	83.25
357.08	94.25
357.307	79.25
357.534	98.25
357.761	103.25
357.988	99.25
358.215	97.25
358.441	91.25
358.668	96.25
358.895	98.25
359.122	108.25
359.349	86.25
359.576	84.25
359.802	103.25
360.029	104.25
360.256	97.25
360.483	97.25
360.709	93.25
360.936	89.25
361.163	102.25
361.39	91.25
361.616	93.25
361.843	87.25
362.07	96.25
362.296	106.25
362.523	90.25
362.749	89.25
362.976	89.25
363.203	95.25
363.429	91.25
363.656	92.25
363.882	96.25
364.109	97.25
364.335	86.25
364.562	83.25
364.788	97.25
365.015	91.25
365.241	92.25
365.468	108.25
365.694	87.25
365.92	93.25
366.147	101.25
366.373	94.25
366.599	90.25
366.826	86.25
367.052	92.25
367.278	86.25
367.505	95.25
367.731	82.25
367.957	78.25
368.184	97.25
368.41	90.25
368.636	100.25
368.862	126.25
369.089	88.25
369.315	100.25
369.541	79.25
369.767	75.25
369.993	96.25
370.219	96.25
370.445	92.25
370.672	89.25
370.898	84.25
371.124	84.25
371.35	88.25
371.576	91.25
371.802	95.25
372.028	96.25
372.254	90.25
372.48	91.25
372.706	87.25
372.932	94.25
373.158	87.25
373.384	98.25
373.61	89.25
373.835	86.25
374.061	92.25
374.287	94.25
374.513	92.25
374.739	91.25
374.965	88.25
375.191	96.25
375.416	99.25
375.642	83.25
375.868	86.25
376.094	95.25
376.319	98.25
376.545	95.25
376.771	88.25
376.997	90.25
377.222	84.25
377.448	97.25
377.674	84.25
377.899	73.25
378.125	97.25
378.35	94.25
378.576	75.25
378.802	82.25
379.027	97.25
379.253	109.25
379.478	95.25
379.704	88.25
379.929	110.25
380.155	94.25
380.38	89.25
380.606	98.25
380.831	92.25
381.057	107.25
381.282	99.25
381.507	93.25
381.733	90.25
381.958	76.25
382.184	92.25
382.409	94.25
382.634	95.25
382.86	91.25
383.085	111.25
383.31	85.25
383.535	106.25
383.761	99.25
383.986	101.25
384.211	90.25
384.436	105.25
384.662	101.25
384.887	101.25
385.112	114.25
385.337	107.25
385.562	111.25
385.787	98.25
386.013	98.25
386.238	102.25
386.463	107.25
386.688	122.25
386.913	105.25
387.138	107.25
387.363	83.25
387.588	98.25
387.813	99.25
388.038	105.25
388.263	104.25
388.488	116.25
388.713	103.25
388.938	120.25
389.163	94.25
389.387	107.25
389.612	86.25
389.837	99.25
390.062	89.25
390.287	92.25
390.512	96.25
390.736	96.25
390.961	88.25
391.186	92.25
391.411	86.25
391.636	95.25
391.86	92.25
392.085	96.25
392.31	103.25
392.534	93.25
392.759	85.25
392.984	99.25
393.208	113.25
393.433	103.25
393.658	88.25
393.882	92.25
394.107	85.25
394.331	89.25
394.556	90.25
394.78	99.25
395.005	86.25
395.229	79.25
395.454	82.25
395.678	97.25
395.903	75.25
396.127	100.25
396.352	94.25
396.576	90.25
396.801	84.25
397.025	110.25
397.249	80.25
397.474	79.25
397.698	90.25
397.922	82.25
398.147	80.25
398.371	82.25
398.595	86.25
398.82	72.25
399.044	91.25
399.268	82.25
399.492	88.25
399.717	94.25
399.941	90.25
400.165	96.25
400.389	84.25
400.613	82.25
400.837	72.25
401.062	86.25
401.286	78.25
401.51	82.25
401.734	80.25
401.958	81.25
402.182	118.25
402.406	131.25
402.63	111.25
402.854	99.25
403.078	102.25
403.302	91.25
403.526	72.25
403.75	91.25
403.974	92.25
404.198	107.25
404.422	92.25
404.645	95.25
404.869	83.25
405.093	96.25
405.317	98.25
405.541	101.25
405.765	86.25
405.988	100.25
406.212	152.25
406.436	196.25
406.66	133.25
406.883	100.25
407.107	90.25
407.331	102.25
407.555	99.25
407.778	106.25
408.002	75.25
408.226	88.25
408.449	90.25
408.673	87.25
408.896	99.25
409.12	78.25
409.344	100.25
409.567	88.25
409.791	89.25
410.014	94.25
410.238	97.25
410.461	99.25
410.685	93.25
410.908	95.25
411.132	103.25
411.355	103.25
411.578	90.25
411.802	105.25
412.025	85.25
412.249	91.25
412.472	89.25
412.695	105.25
412.919	100.25
413.142	85.25
413.365	90.25
413.589	78.25
413.812	89.25
414.035	96.25
414.258	86.25
414.482	84.25
414.705	94.25
414.928	93.25
415.151	86.25
415.374	95.25
415.597	102.25
415.821	87.25
416.044	90.25
416.267	79.25
416.49	82.25
416.713	97.25
416.936	94.25
417.159	86.25
417.382	100.25
417.605	78.25
417.828	85.25
418.051	99.25
418.274	102.25
418.497	79.25
418.72	90.25
418.943	92.25
419.166	81.25
419.389	92.25
419.611	96.25
419.834	97.25
420.057	93.25
420.28	91.25
420.503	81.25
420.726	88.25
420.948	96.25
421.171	80.25
421.394	89.25
421.617	90.25
421.839	95.25
422.062	117.25
422.285	92.25
422.507	95.25
422.73	92.25
422.953	92.25
423.175	75.25
423.398	90.25
423.621	100.25
423.843	89.25
424.066	79.25
424.288	100.25
424.511	80.25
424.733	84.25
424.956	113.25
425.178	91.25
425.401	106.25
425.623	105.25
425.846	100.25
426.068	104.25
426.291	70.25
426.513	87.25
426.735	91.25
426.958	86.25
427.18	114.25
427.402	130.25
427.625	159.25
427.847	131.25
428.069	130.25
428.292	88.25
428.514	89.25
428.736	69.25
428.958	90.25
429.181	86.25
429.403	87.25
429.625	80.25
429.847	85.25
430.069	104.25
430.292	88.25
430.514	91.25
430.736	85.25
430.958	81.25
431.18	88.25
431.402	78.25
431.624	72.25
431.846	75.25
432.068	84.25
432.29	90.25
432.512	83.25
432.734	63.25
432.956	100.25
433.178	82.25
433.4	100.25
433.622	90.25
433.844	82.25
434.066	94.25
434.287	87.25
434.509	84.25
434.731	88.25
434.953	85.25
435.175	85.25
435.397	96.25
435.618	91.25
435.84	97.25
436.062	114.25
436.284	102.25
436.505	85.25
436.727	90.25
436.949	104.25
437.17	85.25
437.392	95.25
437.614	82.25
437.835	106.25
438.057	116.25
438.278	108.25
438.5	89.25
438.721	121.25
438.943	96.25
439.165	92.25
439.386	86.25
439.608	99.25
439.829	90.25
440.05	110.25
440.272	132.25
440.493	100.25
440.715	90.25
440.936	86.25
441.158	95.25
441.379	84.25
441.6	84.25
441.822	87.25
442.043	97.25
442.264	104.25
442.486	115.25
442.707	98.25
442.928	107.25
443.149	118.25
443.371	125.25
443.592	106.25
443.813	95.25
444.034	106.25
444.255	92.25
444.476	94.25
444.698	83.25
444.919	91.25
445.14	138.25
445.361	142.25
445.582	106.25
445.803	113.25
446.024	124.25
446.245	116.25
446.466	98.25
446.687	92.25
446.908	91.25
447.129	91.25
447.35	89.25
447.571	97.25
447.792	103.25
448.013	100.25
448.234	107.25
448.455	102.25
448.675	108.25
448.896	104.25
449.117	98.25
449.338	100.25
449.559	119.25
449.779	112.25
450	90.25
450.221	83.25
450.442	102.25
450.662	85.25
450.883	92.25
451.104	111.25
451.324	90.25
451.545	83.25
451.766	84.25
451.986	87.25
452.207	73.25
452.428	86.25
452.648	107.25
452.869	107.25
453.089	92.25
453.31	119.25
453.53	104.25
453.751	89.25
453.971	102.25
454.192	84.25
454.412	85.25
454.633	96.25
454.853	79.25
455.073	87.25
455.294	90.25
455.514	93.25
455.734	84.25
455.955	85.25
456.175	83.25
456.395	93.25
456.616	90.25
456.836	89.25
457.056	90.25
457.276	98.25
457.497	79.25
457.717	70.25
457.937	78.25
458.157	82.25
458.377	80.25
458.598	99.25
458.818	127.25
459.038	138.25
459.258	118.25
459.478	88.25
459.698	94.25
459.918	86.25
460.138	83.25
460.358	102.25
460.578	71.25
460.798	103.25
461.018	85.25
461.238	80.25
461.458	78.25
461.678	85.25
461.898	63.25
462.118	94.25
462.338	95.25
462.558	82.25
462.777	66.25
462.997	92.25
463.217	85.25
463.437	76.25
463.657	76.25
463.876	86.25
464.096	84.25
464.316	82.25
464.536	67.25
464.755	95.25
464.975	103.25
465.195	150.25
465.414	137.25
465.634	98.25
465.854	88.25
466.073	89.25
466.293	85.25
466.512	93.25
466.732	93.25
466.951	82.25
467.171	88.25
467.391	97.25
467.61	122.25
467.829	105.25
468.049	132.25
468.268	147.25
468.488	95.25
468.707	85.25
468.927	81.25
469.146	92.25
469.365	106.25
469.585	87.25
469.804	83.25
470.023	96.25
470.243	87.25
470.462	96.25
470.681	102.25
470.901	91.25
471.12	89.25
471.339	78.25
471.558	89.25
471.777	95.25
471.997	117.25
472.216	184.25
472.435	326.25
472.654	143.25
472.873	111.25
473.092	94.25
473.311	96.25
473.53	68.25
473.749	92.25
473.968	80.25
474.187	78.25
474.406	95.25
474.625	90.25
474.844	86.25
475.063	78.25
475.282	91.25
475.501	82.25
475.72	91.25
475.939	90.25
476.158	79.25
476.377	70.25
476.596	84.25
476.814	80.25
477.033	100.25
477.252	89.25
477.471	80.25
477.69	76.25
477.908	81.25
478.127	88.25
478.346	86.25
478.564	90.25
478.783	105.25
479.002	78.25
479.22	92.25
479.439	90.25
479.658	94.25
479.876	105.25
480.095	93.25
480.313	89.25
480.532	100.25
480.751	113.25
480.969	200.25
481.188	530.25
481.406	354.25
481.624	128.25
481.843	88.25
482.061	81.25
482.28	83.25
482.498	84.25
482.717	85.25
482.935	71.25
483.153	95.25
483.372	85.25
483.59	77.25
483.808	76.25
484.027	100.25
484.245	84.25
484.463	67.25
484.681	108.25
484.9	91.25
485.118	87.25
485.336	107.25
485.554	84.25
485.772	123.25
485.99	107.25
486.209	100.25
486.427	104.25
486.645	116.25
486.863	110.25
487.081	94.25
487.299	89.25
487.517	80.25
487.735	94.25
487.953	88.25
488.171	90.25
488.389	94.25
488.607	113.25
488.825	89.25
489.043	101.25
489.261	91.25
489.479	87.25
489.696	87.25
489.914	89.25
490.132	76.25
490.35	98.25
490.568	74.25
490.786	87.25
491.003	89.25
491.221	79.25
491.439	70.25
491.657	88.25
491.874	78.25
492.092	86.25
492.31	78.25
492.527	78.25
492.745	73.25
492.963	88.25
493.18	88.25
493.398	88.25
493.615	111.25
493.833	89.25
494.05	95.25
494.268	84.25
494.485	85.25
494.703	92.25
494.92	97.25
495.138	96.25
495.355	71.25
495.573	94.25
495.79	90.25
496.008	82.25
496.225	95.25
496.442	78.25
496.66	87.25
496.877	79.25
497.094	69.25
497.312	95.25
497.529	99.25
497.746	82.25
497.963	84.25
498.181	82.25
498.398	84.25
498.615	104.25
498.832	106.25
499.049	101.25
499.267	99.25
499.484	87.25
499.701	100.25
499.918	90.25
500.135	86.25
500.352	98.25
500.569	73.25
500.786	98.25
501.003	98.25
501.22	83.25
501.437	81.25
501.654	83.25
501.871	93.25
502.088	84.25
502.305	94.25
502.522	95.25
502.739	87.25
502.956	95.25
503.172	98.25
503.389	101.25
503.606	106.25
503.823	94.25
504.04	82.25
504.256	81.25
504.473	92.25
504.69	95.25
504.907	104.25
505.123	92.25
505.34	101.25
505.557	98.25
505.773	96.25
505.99	68.25
506.207	82.25
506.423	84.25
506.64	101.25
506.856	100.25
507.073	89.25
507.289	87.25
507.506	103.25
507.722	98.25
507.939	95.25
508.155	93.25
508.372	80.25
508.588	103.25
508.805	96.25
509.021	95.25
509.238	97.25
509.454	100.25
509.67	94.25
509.887	96.25
510.103	121.25
510.319	190.25
510.536	620.25
510.752	1988.25
510.968	544.25
511.184	137.25
511.401	115.25
511.617	93.25
511.833	84.25
512.049	84.25
512.265	95.25
512.481	93.25
512.698	90.25
512.914	91.25
513.13	105.25
513.346	87.25
513.562	98.25
513.778	82.25
513.994	99.25
514.21	90.25
514.426	114.25
514.642	116.25
514.858	108.25
515.074	139.25
515.29	361.25
515.506	1182.25
515.721	426.25
515.937	127.25
