Data from Circ_1984_H10_HRD10591_00067.txt Node
Date: Wed Jan 03 12:22:55 EST 2024
User: Yrep
Spectrometer: HR+D1059
Trigger mode: 1
Integration Time (sec): 1.000000E-1
Scans to average: 1
Electric dark correction enabled: true
Nonlinearity correction enabled: false
Boxcar width: 0
XAxis mode: Wavelengths
Number of Pixels in Spectrum: 2048
>>>>>Begin Spectral Data<<<<<
223.165	-13
223.4	-13
223.635	-13
223.869	-19
224.104	-22
224.338	-19
224.573	-20
224.808	-17
225.042	-10
225.277	-7
225.511	-8
225.746	11
225.98	6
226.215	8
226.449	27
226.683	21
226.918	26
227.152	36
227.387	35
227.621	29
227.856	54
228.09	50
228.324	50
228.559	53
228.793	57
229.027	70
229.262	68
229.496	73
229.73	94
229.964	84
230.199	72
230.433	74
230.667	85
230.901	82
231.136	76
231.37	85
231.604	76
231.838	75
232.072	90
232.306	87
232.541	83
232.775	66
233.009	80
233.243	68
233.477	94
233.711	82
233.945	88
234.179	83
234.413	76
234.647	93
234.881	74
235.115	70
235.349	77
235.583	81
235.817	90
236.051	73
236.285	72
236.519	84
236.753	74
236.987	81
237.221	89
237.455	88
237.689	88
237.922	83
238.156	82
238.39	86
238.624	71
238.858	68
239.091	66
239.325	60
239.559	78
239.793	70
240.027	85
240.26	78
240.494	86
240.728	69
240.961	81
241.195	86
241.429	72
241.662	76
241.896	72
242.13	77
242.363	70
242.597	73
242.83	80
243.064	73
243.298	70
243.531	74
243.765	80
243.998	75
244.232	80
244.465	80
244.699	81
244.932	97
245.166	83
245.399	72
245.633	83
245.866	81
246.099	82
246.333	70
246.566	87
246.8	77
247.033	78
247.266	72
247.5	77
247.733	95
247.966	72
248.2	72
248.433	77
248.666	68
248.899	84
249.133	90
249.366	92
249.599	101
249.832	85
250.066	81
250.299	77
250.532	82
250.765	81
250.998	77
251.231	77
251.465	76
251.698	81
251.931	70
252.164	98
252.397	80
252.63	75
252.863	68
253.096	70
253.329	77
253.562	96
253.795	75
254.028	80
254.261	77
254.494	89
254.727	66
254.96	76
255.193	75
255.426	84
255.659	77
255.892	72
256.124	80
256.357	77
256.59	85
256.823	80
257.056	100
257.289	88
257.521	85
257.754	84
257.987	85
258.22	96
258.452	94
258.685	89
258.918	77
259.151	77
259.383	78
259.616	80
259.849	76
260.081	96
260.314	88
260.547	82
260.779	90
261.012	89
261.244	74
261.477	76
261.71	82
261.942	97
262.175	106
262.407	89
262.64	83
262.872	68
263.105	92
263.337	88
263.57	92
263.802	85
264.035	82
264.267	81
264.499	79
264.732	81
264.964	90
265.197	78
265.429	89
265.661	82
265.894	69
266.126	80
266.358	88
266.591	100
266.823	91
267.055	72
267.287	93
267.52	94
267.752	84
267.984	84
268.216	91
268.448	88
268.681	70
268.913	80
269.145	76
269.377	82
269.609	98
269.841	82
270.073	72
270.306	90
270.538	88
270.77	90
271.002	101
271.234	89
271.466	92
271.698	84
271.93	85
272.162	99
272.394	96
272.626	89
272.858	88
273.09	94
273.322	67
273.553	93
273.785	82
274.017	97
274.249	84
274.481	98
274.713	92
274.945	88
275.176	89
275.408	78
275.64	94
275.872	85
276.104	81
276.335	95
276.567	92
276.799	111
277.031	99
277.262	120
277.494	90
277.726	92
277.957	93
278.189	90
278.421	76
278.652	83
278.884	87
279.115	89
279.347	86
279.579	94
279.81	103
280.042	93
280.273	111
280.505	90
280.736	94
280.968	85
281.199	84
281.431	86
281.662	98
281.894	88
282.125	96
282.356	105
282.588	129
282.819	109
283.051	100
283.282	82
283.513	84
283.745	89
283.976	81
284.207	88
284.439	84
284.67	80
284.901	76
285.132	91
285.364	102
285.595	103
285.826	86
286.057	88
286.288	94
286.52	84
286.751	88
286.982	81
287.213	81
287.444	95
287.675	100
287.906	77
288.138	84
288.369	82
288.6	98
288.831	87
289.062	84
289.293	89
289.524	91
289.755	89
289.986	91
290.217	91
290.448	75
290.679	82
290.91	85
291.141	64
291.371	95
291.602	85
291.833	84
292.064	96
292.295	86
292.526	88
292.757	85
292.987	95
293.218	106
293.449	88
293.68	97
293.91	96
294.141	92
294.372	96
294.603	81
294.833	103
295.064	102
295.295	94
295.525	91
295.756	103
295.987	96
296.217	110
296.448	122
296.679	99
296.909	88
297.14	90
297.37	83
297.601	92
297.831	88
298.062	85
298.292	88
298.523	104
298.753	84
298.984	103
299.214	83
299.445	93
299.675	96
299.905	101
300.136	91
300.366	104
300.597	89
300.827	98
301.057	88
301.288	105
301.518	108
301.748	104
301.979	113
302.209	87
302.439	84
302.669	93
302.9	84
303.13	96
303.36	97
303.59	115
303.82	113
304.051	91
304.281	89
304.511	92
304.741	99
304.971	80
305.201	96
305.431	102
305.661	98
305.891	98
306.121	89
306.352	86
306.582	113
306.812	85
307.042	98
307.272	104
307.502	100
307.731	91
307.961	108
308.191	93
308.421	97
308.651	89
308.881	96
309.111	82
309.341	90
309.571	96
309.8	90
310.03	98
310.26	92
310.49	85
310.72	96
310.949	108
311.179	103
311.409	103
311.639	102
311.868	100
312.098	95
312.328	109
312.557	105
312.787	108
313.017	100
313.246	85
313.476	102
313.706	97
313.935	94
314.165	88
314.394	106
314.624	101
314.853	84
315.083	88
315.312	98
315.542	80
315.771	108
316.001	89
316.23	93
316.46	105
316.689	94
316.919	104
317.148	75
317.377	97
317.607	102
317.836	87
318.065	99
318.295	97
318.524	92
318.753	89
318.983	96
319.212	99
319.441	103
319.67	106
319.9	110
320.129	91
320.358	95
320.587	109
320.816	94
321.046	87
321.275	90
321.504	98
321.733	90
321.962	92
322.191	98
322.42	94
322.649	99
322.878	122
323.108	108
323.337	127
323.566	114
323.795	136
324.024	182
324.253	321
324.482	649
324.71	1330
324.939	1808
325.168	671
325.397	228
325.626	142
325.855	116
326.084	122
326.313	117
326.542	138
326.77	204
326.999	362
327.228	763
327.457	1379
327.686	1112
327.914	339
328.143	197
328.372	188
328.6	127
328.829	118
329.058	123
329.287	129
329.515	109
329.744	121
329.972	141
330.201	219
330.43	270
330.658	159
330.887	146
331.115	121
331.344	98
331.572	106
331.801	115
332.03	87
332.258	106
332.486	93
332.715	96
332.943	84
333.172	89
333.4	104
333.629	110
333.857	117
334.085	132
334.314	219
334.542	347
334.771	321
334.999	154
335.227	102
335.455	94
335.684	94
335.912	90
336.14	111
336.369	94
336.597	90
336.825	107
337.053	100
337.281	83
337.51	94
337.738	100
337.966	92
338.194	76
338.422	88
338.65	94
338.878	88
339.106	85
339.334	101
339.562	89
339.79	80
340.018	84
340.246	97
340.474	85
340.702	96
340.93	83
341.158	93
341.386	100
341.614	98
341.842	82
342.07	100
342.298	96
342.526	96
342.754	82
342.981	87
343.209	99
343.437	99
343.665	88
343.893	98
344.12	87
344.348	85
344.576	94
344.804	81
345.031	100
345.259	112
345.487	114
345.714	110
345.942	96
346.17	104
346.397	103
346.625	78
346.853	86
347.08	84
347.308	98
347.535	97
347.763	99
347.99	103
348.218	105
348.445	107
348.673	94
348.9	89
349.128	100
349.355	91
349.583	95
349.81	94
350.037	95
350.265	100
350.492	87
350.72	92
350.947	90
351.174	106
351.402	94
351.629	111
351.856	99
352.083	99
352.311	95
352.538	106
352.765	103
352.992	112
353.22	120
353.447	104
353.674	93
353.901	88
354.128	86
354.355	95
354.583	97
354.81	90
355.037	79
355.264	112
355.491	109
355.718	102
355.945	90
356.172	98
356.399	97
356.626	108
356.853	87
357.08	107
357.307	87
357.534	99
357.761	89
357.988	84
358.215	80
358.441	87
358.668	95
358.895	94
359.122	86
359.349	99
359.576	93
359.802	96
360.029	110
360.256	104
360.483	105
360.709	96
360.936	98
361.163	91
361.39	98
361.616	96
361.843	95
362.07	97
362.296	93
362.523	91
362.749	98
362.976	98
363.203	97
363.429	92
363.656	104
363.882	98
364.109	87
364.335	103
364.562	82
364.788	77
365.015	99
365.241	85
365.468	96
365.694	103
365.92	110
366.147	98
366.373	84
366.599	89
366.826	89
367.052	101
367.278	100
367.505	88
367.731	103
367.957	89
368.184	84
368.41	98
368.636	87
368.862	113
369.089	100
369.315	93
369.541	86
369.767	79
369.993	88
370.219	96
370.445	78
370.672	84
370.898	99
371.124	88
371.35	68
371.576	78
371.802	88
372.028	93
372.254	76
372.48	89
372.706	92
372.932	86
373.158	93
373.384	110
373.61	92
373.835	91
374.061	87
374.287	91
374.513	91
374.739	91
374.965	92
375.191	81
375.416	77
375.642	90
375.868	100
376.094	95
376.319	97
376.545	89
376.771	78
376.997	86
377.222	87
377.448	89
377.674	100
377.899	102
378.125	83
378.35	94
378.576	86
378.802	97
379.027	96
379.253	82
379.478	100
379.704	94
379.929	80
380.155	85
380.38	70
380.606	94
380.831	88
381.057	106
381.282	103
381.507	97
381.733	90
381.958	103
382.184	92
382.409	92
382.634	92
382.86	95
383.085	107
383.31	97
383.535	93
383.761	103
383.986	103
384.211	93
384.436	94
384.662	99
384.887	92
385.112	106
385.337	104
385.562	88
385.787	104
386.013	109
386.238	102
386.463	98
386.688	102
386.913	94
387.138	97
387.363	110
387.588	77
387.813	102
388.038	103
388.263	106
388.488	116
388.713	93
388.938	100
389.163	113
389.387	108
389.612	105
389.837	99
390.062	99
390.287	95
390.512	84
390.736	78
390.961	91
391.186	93
391.411	99
391.636	90
391.86	84
392.085	92
392.31	96
392.534	80
392.759	87
392.984	84
393.208	81
393.433	92
393.658	90
393.882	79
394.107	92
394.331	90
394.556	84
394.78	85
395.005	93
395.229	86
395.454	96
395.678	98
395.903	93
396.127	97
396.352	106
396.576	96
396.801	96
397.025	88
397.249	94
397.474	97
397.698	89
397.922	90
398.147	93
398.371	91
398.595	76
398.82	102
399.044	82
399.268	81
399.492	96
399.717	94
399.941	86
400.165	88
400.389	92
400.613	80
400.837	86
401.062	88
401.286	93
401.51	73
401.734	73
401.958	107
402.182	124
402.406	134
402.63	102
402.854	91
403.078	70
403.302	100
403.526	101
403.75	90
403.974	88
404.198	86
404.422	89
404.645	92
404.869	93
405.093	96
405.317	104
405.541	97
405.765	115
405.988	105
406.212	137
406.436	200
406.66	131
406.883	100
407.107	90
407.331	88
407.555	105
407.778	83
408.002	96
408.226	90
408.449	85
408.673	86
408.896	84
409.12	99
409.344	90
409.567	91
409.791	91
410.014	94
410.238	105
410.461	85
410.685	81
410.908	98
411.132	108
411.355	101
411.578	93
411.802	86
412.025	86
412.249	100
412.472	101
412.695	97
412.919	105
413.142	92
413.365	92
413.589	76
413.812	89
414.035	106
414.258	86
414.482	98
414.705	98
414.928	77
415.151	105
415.374	108
415.597	102
415.821	92
416.044	93
416.267	89
416.49	82
416.713	72
416.936	90
417.159	89
417.382	93
417.605	81
417.828	89
418.051	84
418.274	100
418.497	98
418.72	101
418.943	96
419.166	96
419.389	92
419.611	87
419.834	81
420.057	92
420.28	83
420.503	95
420.726	89
420.948	99
421.171	87
421.394	92
421.617	89
421.839	86
422.062	90
422.285	101
422.507	92
422.73	108
422.953	85
423.175	87
423.398	92
423.621	97
423.843	80
424.066	96
424.288	82
424.511	89
424.733	85
424.956	104
425.178	99
425.401	88
425.623	84
425.846	89
426.068	89
426.291	94
426.513	87
426.735	95
426.958	97
427.18	111
427.402	140
427.625	141
427.847	120
428.069	124
428.292	96
428.514	97
428.736	84
428.958	80
429.181	89
429.403	88
429.625	80
429.847	97
430.069	102
430.292	84
430.514	94
430.736	91
430.958	100
431.18	80
431.402	90
431.624	96
431.846	93
432.068	92
432.29	85
432.512	81
432.734	76
432.956	86
433.178	92
433.4	103
433.622	93
433.844	96
434.066	86
434.287	106
434.509	89
434.731	87
434.953	85
435.175	96
435.397	86
435.618	99
435.84	103
436.062	122
436.284	104
436.505	115
436.727	96
436.949	85
437.17	90
437.392	98
437.614	88
437.835	93
438.057	105
438.278	95
438.5	91
438.721	105
438.943	92
439.165	84
439.386	83
439.608	106
439.829	109
440.05	120
440.272	136
440.493	85
440.715	90
440.936	92
441.158	90
441.379	82
441.6	101
441.822	113
442.043	96
442.264	94
442.486	97
442.707	84
442.928	103
443.149	116
443.371	119
443.592	98
443.813	115
444.034	112
444.255	100
444.476	88
444.698	90
444.919	88
445.14	133
445.361	123
445.582	105
445.803	118
446.024	125
446.245	128
446.466	105
446.687	75
446.908	86
447.129	96
447.35	92
447.571	108
447.792	89
448.013	95
448.234	98
448.455	106
448.675	103
448.896	100
449.117	107
449.338	98
449.559	117
449.779	132
450	93
450.221	93
450.442	93
450.662	91
450.883	106
451.104	92
451.324	101
451.545	100
451.766	93
451.986	84
452.207	93
452.428	101
452.648	95
452.869	101
453.089	109
453.31	99
453.53	98
453.751	103
453.971	97
454.192	104
454.412	92
454.633	83
454.853	84
455.073	75
455.294	74
455.514	92
455.734	86
455.955	101
456.175	88
456.395	80
456.616	92
456.836	96
457.056	85
457.276	87
457.497	89
457.717	92
457.937	77
458.157	87
458.377	92
458.598	98
458.818	135
459.038	133
459.258	87
459.478	95
459.698	84
459.918	101
460.138	88
460.358	92
460.578	77
460.798	93
461.018	82
461.238	85
461.458	94
461.678	90
461.898	102
462.118	100
462.338	96
462.558	92
462.777	80
462.997	87
463.217	97
463.437	89
463.657	85
463.876	77
464.096	83
464.316	95
464.536	97
464.755	90
464.975	105
465.195	138
465.414	140
465.634	94
465.854	88
466.073	84
466.293	92
466.512	75
466.732	72
466.951	89
467.171	90
467.391	97
467.61	105
467.829	102
468.049	139
468.268	182
468.488	90
468.707	89
468.927	75
469.146	87
469.365	74
469.585	89
469.804	92
470.023	98
470.243	98
470.462	77
470.681	93
470.901	104
471.12	97
471.339	99
471.558	89
471.777	101
471.997	112
472.216	236
472.435	420
472.654	157
472.873	94
473.092	78
473.311	93
473.53	96
473.749	95
473.968	94
474.187	90
474.406	87
474.625	76
474.844	98
475.063	73
475.282	96
475.501	85
475.72	96
475.939	88
476.158	96
476.377	90
476.596	78
476.814	94
477.033	98
477.252	84
477.471	94
477.69	74
477.908	80
478.127	88
478.346	89
478.564	92
478.783	100
479.002	80
479.22	93
479.439	95
479.658	91
479.876	83
480.095	101
480.313	119
480.532	102
480.751	127
480.969	226
481.188	739
481.406	440
481.624	133
481.843	97
482.061	84
482.28	101
482.498	90
482.717	81
482.935	95
483.153	86
483.372	90
483.59	94
483.808	93
484.027	94
484.245	94
484.463	107
484.681	90
484.9	98
485.118	84
485.336	100
485.554	104
485.772	98
485.99	109
486.209	105
486.427	109
486.645	123
486.863	110
487.081	92
487.299	96
487.517	98
487.735	87
487.953	73
488.171	87
488.389	88
488.607	93
488.825	102
489.043	93
489.261	108
489.479	99
489.696	93
489.914	77
490.132	85
490.35	65
490.568	101
490.786	98
491.003	91
491.221	101
491.439	78
491.657	76
491.874	100
492.092	85
492.31	76
492.527	83
492.745	88
492.963	99
493.18	104
493.398	94
493.615	97
493.833	96
494.05	102
494.268	83
494.485	83
494.703	77
494.92	94
495.138	101
495.355	101
495.573	88
495.79	103
496.008	93
496.225	92
496.442	101
496.66	93
496.877	101
497.094	103
497.312	85
497.529	71
497.746	103
497.963	96
498.181	98
498.398	85
498.615	99
498.832	87
499.049	96
499.267	96
499.484	81
499.701	88
499.918	95
500.135	90
500.352	88
500.569	90
500.786	83
501.003	86
501.22	94
501.437	89
501.654	85
501.871	106
502.088	84
502.305	88
502.522	95
502.739	100
502.956	78
503.172	94
503.389	82
503.606	109
503.823	105
504.04	87
504.256	88
504.473	80
504.69	91
504.907	91
505.123	93
505.34	90
505.557	80
505.773	90
505.99	91
506.207	99
506.423	99
506.64	90
506.856	90
507.073	101
507.289	89
507.506	102
507.722	117
507.939	106
508.155	86
508.372	100
508.588	99
508.805	88
509.021	117
509.238	107
509.454	92
509.67	109
509.887	107
510.103	131
510.319	198
510.536	636
510.752	1931
510.968	546
511.184	138
511.401	103
511.617	97
511.833	76
512.049	82
512.265	89
512.481	85
512.698	89
512.914	100
513.13	93
513.346	74
513.562	103
513.778	97
513.994	86
514.21	105
514.426	102
514.642	112
514.858	113
515.074	142
515.29	348
515.506	1117
515.721	425
515.937	146
516.153	109
516.369	90
516.585	94
516.801	85
517.016	90
517.232	84
517.448	93
517.664	101
517.879	93
518.095	89
518.311	115
518.527	94
518.742	93
518.958	96
519.173	92
519.389	86
519.605	93
519.82	91
520.036	108
520.251	110
520.467	106
520.682	92
520.898	105
521.113	107
521.329	119
521.544	169
521.76	448
521.975	1861
522.19	1111
522.406	264
522.621	119
522.836	101
523.052	95
523.267	91
523.482	89
523.698	105
523.913	113
524.128	100
524.343	92
524.559	94
524.774	80
524.989	89
525.204	107
525.419	89
525.634	91
525.849	97
526.064	62
526.28	97
526.495	94
526.71	101
526.925	91
527.14	93
527.355	82
527.57	96
527.785	89
527.999	89
528.214	98
528.429	85
528.644	99
528.859	94
529.074	104
529.289	118
529.503	156
529.718	109
529.933	100
530.148	88
530.363	85
530.577	89
530.792	90
531.007	88
531.221	94
531.436	89
531.651	96
531.865	96
532.08	103
532.295	72
532.509	104
532.724	94
532.938	88
533.153	107
533.367	92
533.582	89
533.796	99
534.011	92
534.225	85
534.44	94
534.654	106
534.868	96
535.083	88
535.297	102
535.511	97
535.726	94
535.94	100
536.154	96
536.369	89
536.583	88
536.797	102
537.011	87
537.225	90
537.44	104
537.654	102
537.868	92
538.082	78
538.296	91
538.51	90
538.724	98
538.938	94
539.153	83
539.367	92
539.581	90
539.795	94
540.009	77
540.222	93
540.436	96
540.65	72
540.864	103
541.078	83
541.292	93
541.506	95
541.72	106
541.934	91
542.147	104
542.361	87
542.575	91
542.789	96
543.002	80
543.216	77
543.43	82
543.644	100
543.857	95
544.071	99
544.285	96
544.498	87
544.712	104
544.925	88
545.139	81
545.352	100
545.566	85
545.779	91
545.993	88
546.206	83
546.42	99
546.633	86
546.847	93
547.06	91
547.274	81
547.487	82
547.7	96
547.914	85
548.127	92
548.34	100
548.554	84
548.767	90
548.98	86
549.193	88
549.407	91
549.62	85
549.833	91
550.046	105
550.259	88
550.473	74
550.686	81
550.899	98
551.112	93
551.325	88
551.538	93
551.751	88
551.964	100
552.177	104
552.39	106
552.603	93
552.816	93
553.029	97
553.242	88
553.455	93
553.667	106
553.88	92
554.093	89
554.306	94
554.519	97
554.732	101
554.944	92
555.157	96
555.37	88
555.583	93
555.795	90
556.008	95
556.221	78
556.433	83
556.646	88
556.859	96
557.071	86
557.284	102
557.496	97
557.709	74
557.921	85
558.134	98
558.346	91
558.559	88
558.771	75
558.984	96
559.196	86
559.409	91
559.621	78
559.833	88
560.046	89
560.258	85
560.47	92
560.683	98
560.895	89
561.107	97
561.32	104
561.532	83
561.744	99
561.956	100
562.168	109
562.381	96
562.593	90
562.805	88
563.017	98
563.229	94
563.441	98
563.653	99
563.865	86
564.077	80
564.289	90
564.501	89
564.713	86
564.925	98
565.137	105
565.349	97
565.561	94
565.773	92
565.985	78
566.197	96
566.408	83
566.62	87
566.832	81
567.044	92
567.255	74
567.467	102
567.679	109
567.891	101
568.102	80
568.314	82
568.526	86
568.737	83
568.949	90
569.161	89
569.372	102
569.584	93
569.795	81
570.007	110
570.218	208
570.43	108
570.641	105
570.853	96
571.064	84
571.276	88
571.487	87
571.698	84
571.91	90
572.121	98
572.333	100
572.544	94
572.755	99
572.966	94
573.178	97
573.389	95
573.6	105
573.811	94
574.023	88
574.234	92
574.445	91
574.656	84
574.867	96
575.078	92
575.289	92
575.501	82
575.712	87
575.923	74
576.134	87
576.345	88
576.556	100
576.767	90
576.978	84
577.188	108
577.399	95
577.61	88
577.821	102
578.032	106
578.243	221
578.454	587
578.665	184
578.875	101
579.086	108
579.297	84
579.508	97
579.718	93
579.929	92
580.14	98
580.35	100
580.561	89
580.772	84
580.982	76
581.193	106
581.403	93
581.614	73
581.825	86
582.035	90
582.246	82
582.456	83
582.667	79
582.877	81
583.087	88
583.298	93
583.508	74
