Data from Circ_1984_H10_HRD10591_00030.txt Node
Date: Wed Jan 03 12:22:48 EST 2024
User: Yrep
Spectrometer: HR+D1059
Trigger mode: 1
Integration Time (sec): 1.000000E-1
Scans to average: 1
Electric dark correction enabled: true
Nonlinearity correction enabled: false
Boxcar width: 0
XAxis mode: Wavelengths
Number of Pixels in Spectrum: 2048
>>>>>Begin Spectral Data<<<<<
223.165	-20.5
223.4	-20.5
223.635	-20.5
223.869	-21.5
224.104	-19.5
224.338	-3.5
224.573	-8.5
224.808	-14.5
225.042	9.5
225.277	-8.5
225.511	-6.5
225.746	1.5
225.98	-1.5
226.215	-7.5
226.449	9.5
226.683	28.5
226.918	33.5
227.152	29.5
227.387	38.5
227.621	42.5
227.856	44.5
228.09	48.5
228.324	58.5
228.559	69.5
228.793	59.5
229.027	76.5
229.262	71.5
229.496	75.5
229.73	82.5
229.964	75.5
230.199	64.5
230.433	82.5
230.667	67.5
230.901	83.5
231.136	76.5
231.37	59.5
231.604	76.5
231.838	83.5
232.072	75.5
232.306	69.5
232.541	86.5
232.775	90.5
233.009	89.5
233.243	81.5
233.477	86.5
233.711	81.5
233.945	84.5
234.179	85.5
234.413	82.5
234.647	75.5
234.881	73.5
235.115	70.5
235.349	89.5
235.583	77.5
235.817	90.5
236.051	73.5
236.285	74.5
236.519	73.5
236.753	88.5
236.987	80.5
237.221	76.5
237.455	94.5
237.689	86.5
237.922	61.5
238.156	65.5
238.39	93.5
238.624	83.5
238.858	75.5
239.091	86.5
239.325	67.5
239.559	89.5
239.793	71.5
240.027	74.5
240.26	71.5
240.494	78.5
240.728	78.5
240.961	84.5
241.195	75.5
241.429	83.5
241.662	78.5
241.896	81.5
242.13	87.5
242.363	81.5
242.597	88.5
242.83	83.5
243.064	76.5
243.298	82.5
243.531	84.5
243.765	82.5
243.998	79.5
244.232	72.5
244.465	75.5
244.699	100.5
244.932	69.5
245.166	71.5
245.399	86.5
245.633	81.5
245.866	85.5
246.099	86.5
246.333	99.5
246.566	77.5
246.8	80.5
247.033	86.5
247.266	73.5
247.5	83.5
247.733	77.5
247.966	89.5
248.2	71.5
248.433	85.5
248.666	82.5
248.899	75.5
249.133	84.5
249.366	76.5
249.599	91.5
249.832	83.5
250.066	86.5
250.299	84.5
250.532	65.5
250.765	64.5
250.998	83.5
251.231	76.5
251.465	89.5
251.698	73.5
251.931	77.5
252.164	86.5
252.397	83.5
252.63	85.5
252.863	87.5
253.096	91.5
253.329	79.5
253.562	76.5
253.795	75.5
254.028	83.5
254.261	86.5
254.494	81.5
254.727	82.5
254.96	78.5
255.193	90.5
255.426	76.5
255.659	75.5
255.892	74.5
256.124	85.5
256.357	87.5
256.59	73.5
256.823	81.5
257.056	70.5
257.289	91.5
257.521	85.5
257.754	81.5
257.987	78.5
258.22	99.5
258.452	88.5
258.685	87.5
258.918	89.5
259.151	69.5
259.383	77.5
259.616	89.5
259.849	92.5
260.081	86.5
260.314	78.5
260.547	73.5
260.779	88.5
261.012	80.5
261.244	98.5
261.477	84.5
261.71	96.5
261.942	106.5
262.175	108.5
262.407	82.5
262.64	76.5
262.872	81.5
263.105	93.5
263.337	83.5
263.57	96.5
263.802	101.5
264.035	82.5
264.267	83.5
264.499	91.5
264.732	90.5
264.964	75.5
265.197	86.5
265.429	87.5
265.661	84.5
265.894	81.5
266.126	102.5
266.358	85.5
266.591	87.5
266.823	82.5
267.055	74.5
267.287	77.5
267.52	85.5
267.752	83.5
267.984	93.5
268.216	95.5
268.448	91.5
268.681	88.5
268.913	86.5
269.145	99.5
269.377	92.5
269.609	81.5
269.841	81.5
270.073	81.5
270.306	83.5
270.538	91.5
270.77	93.5
271.002	87.5
271.234	85.5
271.466	89.5
271.698	81.5
271.93	79.5
272.162	96.5
272.394	87.5
272.626	92.5
272.858	92.5
273.09	77.5
273.322	83.5
273.553	89.5
273.785	93.5
274.017	75.5
274.249	94.5
274.481	85.5
274.713	80.5
274.945	73.5
275.176	78.5
275.408	83.5
275.64	89.5
275.872	76.5
276.104	83.5
276.335	93.5
276.567	97.5
276.799	115.5
277.031	103.5
277.262	92.5
277.494	93.5
277.726	102.5
277.957	92.5
278.189	93.5
278.421	84.5
278.652	86.5
278.884	77.5
279.115	100.5
279.347	72.5
279.579	89.5
279.81	97.5
280.042	89.5
280.273	89.5
280.505	86.5
280.736	94.5
280.968	103.5
281.199	90.5
281.431	91.5
281.662	94.5
281.894	94.5
282.125	93.5
282.356	120.5
282.588	122.5
282.819	110.5
283.051	77.5
283.282	72.5
283.513	85.5
283.745	90.5
283.976	109.5
284.207	90.5
284.439	72.5
284.67	93.5
284.901	90.5
285.132	85.5
285.364	87.5
285.595	92.5
285.826	84.5
286.057	93.5
286.288	93.5
286.52	76.5
286.751	88.5
286.982	78.5
287.213	67.5
287.444	83.5
287.675	80.5
287.906	90.5
288.138	92.5
288.369	94.5
288.6	87.5
288.831	92.5
289.062	89.5
289.293	100.5
289.524	99.5
289.755	94.5
289.986	75.5
290.217	95.5
290.448	99.5
290.679	86.5
290.91	85.5
291.141	101.5
291.371	82.5
291.602	91.5
291.833	94.5
292.064	86.5
292.295	98.5
292.526	100.5
292.757	92.5
292.987	94.5
293.218	86.5
293.449	95.5
293.68	91.5
293.91	83.5
294.141	78.5
294.372	82.5
294.603	93.5
294.833	105.5
295.064	99.5
295.295	91.5
295.525	71.5
295.756	87.5
295.987	111.5
296.217	137.5
296.448	108.5
296.679	97.5
296.909	103.5
297.14	105.5
297.37	81.5
297.601	85.5
297.831	91.5
298.062	92.5
298.292	78.5
298.523	107.5
298.753	92.5
298.984	91.5
299.214	70.5
299.445	100.5
299.675	92.5
299.905	97.5
300.136	87.5
300.366	88.5
300.597	102.5
300.827	107.5
301.057	92.5
301.288	97.5
301.518	97.5
301.748	88.5
301.979	99.5
302.209	83.5
302.439	84.5
302.669	81.5
302.9	81.5
303.13	91.5
303.36	94.5
303.59	104.5
303.82	107.5
304.051	92.5
304.281	81.5
304.511	97.5
304.741	88.5
304.971	92.5
305.201	105.5
305.431	86.5
305.661	95.5
305.891	91.5
306.121	105.5
306.352	99.5
306.582	110.5
306.812	98.5
307.042	100.5
307.272	108.5
307.502	93.5
307.731	98.5
307.961	109.5
308.191	88.5
308.421	90.5
308.651	87.5
308.881	96.5
309.111	90.5
309.341	98.5
309.571	103.5
309.8	83.5
310.03	95.5
310.26	111.5
310.49	119.5
310.72	114.5
310.949	100.5
311.179	95.5
311.409	83.5
311.639	89.5
311.868	105.5
312.098	84.5
312.328	93.5
312.557	114.5
312.787	97.5
313.017	102.5
313.246	84.5
313.476	89.5
313.706	88.5
313.935	93.5
314.165	90.5
314.394	97.5
314.624	92.5
314.853	106.5
315.083	94.5
315.312	89.5
315.542	90.5
315.771	85.5
316.001	86.5
316.23	102.5
316.46	97.5
316.689	88.5
316.919	116.5
317.148	94.5
317.377	87.5
317.607	94.5
317.836	110.5
318.065	94.5
318.295	86.5
318.524	94.5
318.753	87.5
318.983	90.5
319.212	115.5
319.441	102.5
319.67	93.5
319.9	97.5
320.129	90.5
320.358	101.5
320.587	90.5
320.816	87.5
321.046	94.5
321.275	105.5
321.504	85.5
321.733	92.5
321.962	91.5
322.191	87.5
322.42	104.5
322.649	113.5
322.878	105.5
323.108	111.5
323.337	104.5
323.566	104.5
323.795	138.5
324.024	190.5
324.253	335.5
324.482	705.5
324.71	1462.5
324.939	1940.5
325.168	742.5
325.397	249.5
325.626	136.5
325.855	122.5
326.084	121.5
326.313	119.5
326.542	134.5
326.77	198.5
326.999	396.5
327.228	787.5
327.457	1451.5
327.686	1146.5
327.914	342.5
328.143	205.5
328.372	169.5
328.6	116.5
328.829	116.5
329.058	108.5
329.287	127.5
329.515	105.5
329.744	114.5
329.972	152.5
330.201	161.5
330.43	202.5
330.658	159.5
330.887	139.5
331.115	123.5
331.344	107.5
331.572	94.5
331.801	109.5
332.03	86.5
332.258	89.5
332.486	96.5
332.715	105.5
332.943	86.5
333.172	93.5
333.4	105.5
333.629	118.5
333.857	113.5
334.085	151.5
334.314	167.5
334.542	257.5
334.771	221.5
334.999	122.5
335.227	95.5
335.455	101.5
335.684	112.5
335.912	103.5
336.14	97.5
336.369	100.5
336.597	82.5
336.825	101.5
337.053	106.5
337.281	85.5
337.51	87.5
337.738	97.5
337.966	94.5
338.194	102.5
338.422	94.5
338.65	96.5
338.878	87.5
339.106	95.5
339.334	80.5
339.562	85.5
339.79	101.5
340.018	95.5
340.246	84.5
340.474	99.5
340.702	103.5
340.93	100.5
341.158	95.5
341.386	97.5
341.614	96.5
341.842	116.5
342.07	84.5
342.298	89.5
342.526	91.5
342.754	98.5
342.981	84.5
343.209	85.5
343.437	98.5
343.665	87.5
343.893	95.5
344.12	101.5
344.348	93.5
344.576	92.5
344.804	84.5
345.031	103.5
345.259	95.5
345.487	98.5
345.714	95.5
345.942	73.5
346.17	94.5
346.397	99.5
346.625	114.5
346.853	91.5
347.08	85.5
347.308	98.5
347.535	94.5
347.763	87.5
347.99	91.5
348.218	101.5
348.445	93.5
348.673	102.5
348.9	101.5
349.128	100.5
349.355	89.5
349.583	86.5
349.81	88.5
350.037	89.5
350.265	98.5
350.492	111.5
350.72	102.5
350.947	97.5
351.174	100.5
351.402	108.5
351.629	109.5
351.856	99.5
352.083	101.5
352.311	109.5
352.538	108.5
352.765	86.5
352.992	113.5
353.22	98.5
353.447	93.5
353.674	90.5
353.901	104.5
354.128	106.5
354.355	104.5
354.583	94.5
354.81	87.5
355.037	93.5
355.264	77.5
355.491	83.5
355.718	89.5
355.945	102.5
356.172	106.5
356.399	103.5
356.626	98.5
356.853	76.5
357.08	83.5
357.307	99.5
357.534	77.5
357.761	89.5
357.988	87.5
358.215	88.5
358.441	97.5
358.668	81.5
358.895	100.5
359.122	98.5
359.349	87.5
359.576	90.5
359.802	86.5
360.029	98.5
360.256	107.5
360.483	107.5
360.709	92.5
360.936	106.5
361.163	100.5
361.39	88.5
361.616	102.5
361.843	84.5
362.07	99.5
362.296	109.5
362.523	100.5
362.749	84.5
362.976	96.5
363.203	102.5
363.429	89.5
363.656	94.5
363.882	89.5
364.109	91.5
364.335	89.5
364.562	89.5
364.788	93.5
365.015	102.5
365.241	99.5
365.468	93.5
365.694	98.5
365.92	98.5
366.147	84.5
366.373	79.5
366.599	87.5
366.826	97.5
367.052	93.5
367.278	79.5
367.505	92.5
367.731	86.5
367.957	101.5
368.184	88.5
368.41	92.5
368.636	115.5
368.862	114.5
369.089	119.5
369.315	91.5
369.541	93.5
369.767	102.5
369.993	93.5
370.219	93.5
370.445	92.5
370.672	82.5
370.898	74.5
371.124	95.5
371.35	90.5
371.576	93.5
371.802	86.5
372.028	83.5
372.254	94.5
372.48	93.5
372.706	88.5
372.932	81.5
373.158	76.5
373.384	91.5
373.61	86.5
373.835	83.5
374.061	83.5
374.287	97.5
374.513	84.5
374.739	90.5
374.965	102.5
375.191	106.5
375.416	97.5
375.642	92.5
375.868	94.5
376.094	97.5
376.319	93.5
376.545	99.5
376.771	101.5
376.997	95.5
377.222	82.5
377.448	84.5
377.674	84.5
377.899	98.5
378.125	89.5
378.35	100.5
378.576	92.5
378.802	87.5
379.027	87.5
379.253	98.5
379.478	91.5
379.704	98.5
379.929	84.5
380.155	95.5
380.38	91.5
380.606	95.5
380.831	87.5
381.057	99.5
381.282	100.5
381.507	90.5
381.733	95.5
381.958	104.5
382.184	102.5
382.409	98.5
382.634	112.5
382.86	108.5
383.085	105.5
383.31	87.5
383.535	94.5
383.761	104.5
383.986	85.5
384.211	99.5
384.436	93.5
384.662	107.5
384.887	98.5
385.112	107.5
385.337	103.5
385.562	95.5
385.787	109.5
386.013	98.5
386.238	117.5
386.463	97.5
386.688	114.5
386.913	110.5
387.138	116.5
387.363	99.5
387.588	109.5
387.813	127.5
388.038	109.5
388.263	104.5
388.488	110.5
388.713	104.5
388.938	109.5
389.163	90.5
389.387	98.5
389.612	65.5
389.837	85.5
390.062	97.5
390.287	86.5
390.512	86.5
390.736	82.5
390.961	92.5
391.186	96.5
391.411	92.5
391.636	86.5
391.86	84.5
392.085	95.5
392.31	97.5
392.534	86.5
392.759	85.5
392.984	92.5
393.208	96.5
393.433	104.5
393.658	78.5
393.882	86.5
394.107	85.5
394.331	93.5
394.556	78.5
394.78	86.5
395.005	83.5
395.229	83.5
395.454	78.5
395.678	65.5
395.903	90.5
396.127	83.5
396.352	92.5
396.576	87.5
396.801	99.5
397.025	106.5
397.249	94.5
397.474	83.5
397.698	89.5
397.922	78.5
398.147	84.5
398.371	85.5
398.595	94.5
398.82	85.5
399.044	83.5
399.268	90.5
399.492	87.5
399.717	103.5
399.941	77.5
400.165	98.5
400.389	85.5
400.613	87.5
400.837	108.5
401.062	94.5
401.286	93.5
401.51	94.5
401.734	87.5
401.958	89.5
402.182	116.5
402.406	157.5
402.63	123.5
402.854	97.5
403.078	83.5
403.302	83.5
403.526	89.5
403.75	94.5
403.974	90.5
404.198	85.5
404.422	93.5
404.645	85.5
404.869	82.5
405.093	98.5
405.317	99.5
405.541	97.5
405.765	103.5
405.988	125.5
406.212	172.5
406.436	220.5
406.66	145.5
406.883	104.5
407.107	99.5
407.331	104.5
407.555	94.5
407.778	82.5
408.002	101.5
408.226	72.5
408.449	92.5
408.673	88.5
408.896	95.5
409.12	98.5
409.344	96.5
409.567	91.5
409.791	91.5
410.014	90.5
410.238	102.5
410.461	91.5
410.685	78.5
410.908	95.5
411.132	105.5
411.355	93.5
411.578	95.5
411.802	94.5
412.025	92.5
412.249	93.5
412.472	101.5
412.695	100.5
412.919	90.5
413.142	90.5
413.365	81.5
413.589	89.5
413.812	94.5
414.035	95.5
414.258	95.5
414.482	90.5
414.705	87.5
414.928	97.5
415.151	84.5
415.374	90.5
415.597	93.5
415.821	78.5
416.044	87.5
416.267	81.5
416.49	97.5
416.713	90.5
416.936	97.5
417.159	92.5
417.382	75.5
417.605	101.5
417.828	86.5
418.051	85.5
418.274	85.5
418.497	98.5
418.72	86.5
418.943	96.5
419.166	84.5
419.389	92.5
419.611	85.5
419.834	82.5
420.057	83.5
420.28	83.5
420.503	103.5
420.726	81.5
420.948	97.5
421.171	92.5
421.394	74.5
421.617	98.5
421.839	75.5
422.062	91.5
422.285	77.5
422.507	116.5
422.73	100.5
422.953	102.5
423.175	91.5
423.398	82.5
423.621	98.5
423.843	94.5
424.066	95.5
424.288	90.5
424.511	98.5
424.733	103.5
424.956	100.5
425.178	108.5
425.401	97.5
425.623	104.5
425.846	96.5
426.068	81.5
426.291	83.5
426.513	84.5
426.735	84.5
426.958	95.5
427.18	104.5
427.402	129.5
427.625	141.5
427.847	137.5
428.069	139.5
428.292	94.5
428.514	88.5
428.736	87.5
428.958	72.5
429.181	85.5
429.403	82.5
429.625	96.5
429.847	89.5
430.069	88.5
430.292	100.5
430.514	87.5
430.736	91.5
430.958	85.5
431.18	76.5
431.402	98.5
431.624	83.5
431.846	103.5
432.068	85.5
432.29	76.5
432.512	97.5
432.734	99.5
432.956	81.5
433.178	95.5
433.4	113.5
433.622	102.5
433.844	99.5
434.066	97.5
434.287	88.5
434.509	90.5
434.731	86.5
434.953	79.5
435.175	104.5
435.397	99.5
435.618	102.5
435.84	98.5
436.062	125.5
436.284	117.5
436.505	103.5
436.727	101.5
436.949	76.5
437.17	93.5
437.392	105.5
437.614	85.5
437.835	101.5
438.057	110.5
438.278	110.5
438.5	103.5
438.721	111.5
438.943	95.5
439.165	88.5
439.386	103.5
439.608	99.5
439.829	100.5
440.05	114.5
440.272	126.5
440.493	91.5
440.715	89.5
440.936	97.5
441.158	81.5
441.379	82.5
441.6	97.5
441.822	102.5
442.043	98.5
442.264	111.5
442.486	99.5
442.707	95.5
442.928	109.5
443.149	126.5
443.371	113.5
443.592	121.5
443.813	112.5
444.034	114.5
444.255	98.5
444.476	80.5
444.698	79.5
444.919	88.5
445.14	153.5
445.361	115.5
445.582	102.5
445.803	119.5
446.024	126.5
446.245	114.5
446.466	106.5
446.687	107.5
446.908	75.5
447.129	100.5
447.35	87.5
447.571	101.5
447.792	89.5
448.013	102.5
448.234	96.5
448.455	101.5
448.675	99.5
448.896	117.5
449.117	108.5
449.338	106.5
449.559	115.5
449.779	123.5
450	98.5
450.221	69.5
450.442	87.5
450.662	74.5
450.883	102.5
451.104	107.5
451.324	92.5
451.545	93.5
451.766	88.5
451.986	78.5
452.207	91.5
452.428	104.5
452.648	95.5
452.869	103.5
453.089	111.5
453.31	99.5
453.53	101.5
453.751	88.5
453.971	102.5
454.192	107.5
454.412	90.5
454.633	87.5
454.853	75.5
455.073	93.5
455.294	99.5
455.514	85.5
455.734	85.5
455.955	92.5
456.175	85.5
456.395	89.5
456.616	86.5
456.836	81.5
457.056	92.5
457.276	89.5
457.497	83.5
457.717	78.5
457.937	73.5
458.157	80.5
458.377	93.5
458.598	102.5
458.818	122.5
459.038	138.5
459.258	118.5
459.478	97.5
459.698	87.5
459.918	93.5
460.138	87.5
460.358	88.5
460.578	75.5
460.798	80.5
461.018	91.5
461.238	88.5
461.458	91.5
461.678	69.5
461.898	94.5
462.118	101.5
462.338	99.5
462.558	98.5
462.777	85.5
462.997	93.5
463.217	93.5
463.437	84.5
463.657	76.5
463.876	91.5
464.096	91.5
464.316	90.5
464.536	88.5
464.755	98.5
464.975	103.5
465.195	159.5
465.414	154.5
465.634	93.5
465.854	88.5
466.073	97.5
466.293	91.5
466.512	89.5
466.732	91.5
466.951	99.5
467.171	88.5
467.391	96.5
467.61	106.5
467.829	100.5
468.049	114.5
468.268	148.5
468.488	92.5
468.707	87.5
468.927	85.5
469.146	86.5
469.365	82.5
469.585	90.5
469.804	104.5
470.023	98.5
470.243	99.5
470.462	108.5
470.681	116.5
470.901	85.5
471.12	85.5
471.339	90.5
471.558	100.5
471.777	79.5
471.997	117.5
472.216	179.5
472.435	294.5
472.654	131.5
472.873	86.5
473.092	88.5
473.311	89.5
473.53	79.5
473.749	94.5
473.968	90.5
474.187	102.5
474.406	91.5
474.625	88.5
474.844	95.5
475.063	94.5
475.282	86.5
475.501	95.5
475.72	87.5
475.939	87.5
476.158	95.5
476.377	97.5
476.596	91.5
476.814	88.5
477.033	83.5
477.252	88.5
477.471	87.5
477.69	81.5
477.908	99.5
478.127	91.5
478.346	95.5
478.564	95.5
478.783	96.5
479.002	85.5
479.22	92.5
479.439	94.5
479.658	98.5
479.876	99.5
480.095	99.5
480.313	90.5
480.532	94.5
480.751	109.5
480.969	175.5
481.188	502.5
481.406	325.5
481.624	99.5
481.843	92.5
482.061	102.5
482.28	83.5
482.498	92.5
482.717	89.5
482.935	87.5
483.153	87.5
483.372	98.5
483.59	81.5
483.808	78.5
484.027	87.5
484.245	90.5
484.463	97.5
484.681	100.5
484.9	96.5
485.118	92.5
485.336	82.5
485.554	103.5
485.772	106.5
485.99	104.5
486.209	104.5
486.427	101.5
486.645	117.5
486.863	115.5
487.081	96.5
487.299	95.5
487.517	89.5
487.735	97.5
487.953	108.5
488.171	74.5
488.389	93.5
488.607	87.5
488.825	78.5
489.043	100.5
489.261	94.5
489.479	85.5
489.696	97.5
489.914	93.5
490.132	81.5
490.35	97.5
490.568	99.5
490.786	85.5
491.003	90.5
491.221	88.5
491.439	94.5
491.657	101.5
491.874	85.5
492.092	86.5
492.31	95.5
492.527	98.5
492.745	89.5
492.963	89.5
493.18	102.5
493.398	95.5
493.615	99.5
493.833	97.5
494.05	82.5
494.268	98.5
494.485	91.5
494.703	99.5
494.92	92.5
495.138	82.5
495.355	87.5
495.573	94.5
495.79	89.5
496.008	94.5
496.225	89.5
496.442	97.5
496.66	107.5
496.877	108.5
497.094	103.5
497.312	99.5
497.529	104.5
497.746	83.5
497.963	93.5
498.181	87.5
498.398	102.5
498.615	111.5
498.832	109.5
499.049	90.5
499.267	89.5
499.484	103.5
499.701	87.5
499.918	99.5
500.135	98.5
500.352	94.5
500.569	88.5
500.786	88.5
501.003	103.5
501.22	73.5
501.437	98.5
501.654	85.5
501.871	112.5
502.088	87.5
502.305	88.5
502.522	93.5
502.739	114.5
502.956	94.5
503.172	89.5
503.389	94.5
503.606	93.5
503.823	85.5
504.04	93.5
504.256	99.5
504.473	82.5
504.69	89.5
504.907	97.5
505.123	84.5
505.34	78.5
505.557	89.5
505.773	93.5
505.99	77.5
506.207	93.5
506.423	95.5
506.64	85.5
506.856	96.5
507.073	93.5
507.289	83.5
507.506	96.5
507.722	109.5
507.939	119.5
508.155	94.5
508.372	115.5
508.588	94.5
508.805	83.5
509.021	90.5
509.238	104.5
509.454	92.5
509.67	104.5
509.887	116.5
510.103	132.5
510.319	202.5
510.536	686.5
510.752	2152.5
510.968	597.5
511.184	133.5
511.401	109.5
511.617	93.5
511.833	107.5
512.049	98.5
512.265	92.5
512.481	83.5
512.698	107.5
512.914	98.5
513.13	85.5
513.346	98.5
513.562	101.5
513.778	105.5
513.994	88.5
514.21	108.5
514.426	99.5
514.642	112.5
514.858	126.5
515.074	152.5
515.29	377.5
515.506	1335.5
515.721	488.5
515.937	147.5
516.153	108.5
516.369	99.5
516.585	101.5
516.801	86.5
517.016	86.5
517.232	94.5
517.448	93.5
517.664	93.5
517.879	75.5
518.095	102.5
518.311	93.5
518.527	83.5
518.742	95.5
518.958	90.5
519.173	88.5
519.389	85.5
519.605	96.5
519.82	95.5
520.036	106.5
520.251	109.5
520.467	113.5
520.682	106.5
520.898	109.5
521.113	100.5
521.329	129.5
521.544	187.5
521.76	512.5
521.975	2169.5
522.19	1299.5
522.406	279.5
522.621	121.5
522.836	115.5
523.052	82.5
523.267	97.5
523.482	95.5
523.698	94.5
523.913	113.5
524.128	107.5
524.343	91.5
524.559	91.5
524.774	100.5
524.989	111.5
525.204	102.5
525.419	105.5
525.634	72.5
525.849	86.5
526.064	94.5
526.28	89.5
526.495	95.5
526.71	98.5
526.925	78.5
527.14	89.5
527.355	81.5
527.57	83.5
527.785	81.5
527.999	96.5
528.214	99.5
528.429	94.5
528.644	83.5
528.859	93.5
529.074	94.5
529.289	120.5
529.503	164.5
529.718	107.5
529.933	111.5
530.148	87.5
530.363	97.5
530.577	101.5
530.792	95.5
531.007	86.5
531.221	89.5
531.436	84.5
531.651	93.5
531.865	95.5
532.08	76.5
532.295	81.5
532.509	81.5
532.724	101.5
532.938	92.5
533.153	90.5
533.367	109.5
533.582	101.5
533.796	99.5
534.011	103.5
534.225	91.5
534.44	97.5
534.654	93.5
534.868	95.5
