Data from Circ_1984_H10_HRD10591_00095.txt Node
Date: Wed Jan 03 12:23:01 EST 2024
User: Yrep
Spectrometer: HR+D1059
Trigger mode: 1
Integration Time (sec): 1.000000E-1
Scans to average: 1
Electric dark correction enabled: true
Nonlinearity correction enabled: false
Boxcar width: 0
XAxis mode: Wavelengths
Number of Pixels in Spectrum: 2048
>>>>>Begin Spectral Data<<<<<
223.165	-30
223.4	-30
223.635	-30
223.869	-22
224.104	-21
224.338	-16
224.573	-13
224.808	-7
225.042	-7
225.277	-5
225.511	13
225.746	-2
225.98	3
226.215	17
226.449	17
226.683	8
226.918	30
227.152	35
227.387	22
227.621	46
227.856	53
228.09	39
228.324	60
228.559	49
228.793	47
229.027	57
229.262	64
229.496	63
229.73	79
229.964	101
230.199	83
230.433	68
230.667	73
230.901	89
231.136	79
231.37	83
231.604	83
231.838	83
232.072	79
232.306	92
232.541	80
232.775	80
233.009	82
233.243	85
233.477	78
233.711	73
233.945	89
234.179	65
234.413	95
234.647	74
234.881	75
235.115	80
235.349	81
235.583	89
235.817	81
236.051	85
236.285	76
236.519	71
236.753	82
236.987	87
237.221	87
237.455	80
237.689	73
237.922	71
238.156	82
238.39	72
238.624	71
238.858	80
239.091	83
239.325	72
239.559	72
239.793	75
240.027	82
240.26	74
240.494	83
240.728	72
240.961	71
241.195	79
241.429	76
241.662	81
241.896	73
242.13	70
242.363	83
242.597	73
242.83	86
243.064	88
243.298	87
243.531	77
243.765	86
243.998	81
244.232	90
244.465	87
244.699	80
244.932	76
245.166	68
245.399	84
245.633	80
245.866	54
246.099	71
246.333	76
246.566	72
246.8	85
247.033	72
247.266	73
247.5	71
247.733	78
247.966	81
248.2	83
248.433	77
248.666	81
248.899	79
249.133	92
249.366	84
249.599	89
249.832	83
250.066	87
250.299	93
250.532	79
250.765	80
250.998	90
251.231	85
251.465	79
251.698	90
251.931	77
252.164	88
252.397	92
252.63	95
252.863	87
253.096	85
253.329	82
253.562	72
253.795	75
254.028	84
254.261	85
254.494	72
254.727	91
254.96	85
255.193	84
255.426	83
255.659	80
255.892	71
256.124	96
256.357	72
256.59	76
256.823	81
257.056	84
257.289	81
257.521	98
257.754	76
257.987	87
258.22	85
258.452	82
258.685	72
258.918	87
259.151	91
259.383	95
259.616	75
259.849	73
260.081	80
260.314	81
260.547	86
260.779	89
261.012	87
261.244	83
261.477	95
261.71	89
261.942	89
262.175	107
262.407	93
262.64	81
262.872	97
263.105	97
263.337	83
263.57	68
263.802	70
264.035	83
264.267	75
264.499	73
264.732	79
264.964	79
265.197	79
265.429	80
265.661	93
265.894	104
266.126	90
266.358	88
266.591	83
266.823	99
267.055	87
267.287	77
267.52	87
267.752	82
267.984	82
268.216	88
268.448	72
268.681	68
268.913	80
269.145	80
269.377	81
269.609	82
269.841	95
270.073	76
270.306	80
270.538	85
270.77	73
271.002	77
271.234	91
271.466	93
271.698	95
271.93	92
272.162	90
272.394	96
272.626	75
272.858	86
273.09	93
273.322	80
273.553	91
273.785	88
274.017	82
274.249	77
274.481	76
274.713	74
274.945	83
275.176	88
275.408	92
275.64	75
275.872	95
276.104	84
276.335	93
276.567	89
276.799	90
277.031	91
277.262	116
277.494	91
277.726	85
277.957	81
278.189	82
278.421	89
278.652	78
278.884	87
279.115	94
279.347	80
279.579	94
279.81	81
280.042	95
280.273	94
280.505	92
280.736	87
280.968	96
281.199	86
281.431	89
281.662	81
281.894	106
282.125	114
282.356	107
282.588	106
282.819	106
283.051	78
283.282	86
283.513	79
283.745	81
283.976	99
284.207	84
284.439	93
284.67	94
284.901	91
285.132	80
285.364	78
285.595	84
285.826	83
286.057	92
286.288	84
286.52	94
286.751	88
286.982	80
287.213	72
287.444	94
287.675	77
287.906	90
288.138	90
288.369	88
288.6	97
288.831	77
289.062	107
289.293	97
289.524	88
289.755	79
289.986	92
290.217	79
290.448	91
290.679	82
290.91	104
291.141	95
291.371	84
291.602	79
291.833	91
292.064	90
292.295	102
292.526	80
292.757	96
292.987	96
293.218	95
293.449	79
293.68	83
293.91	96
294.141	82
294.372	99
294.603	90
294.833	82
295.064	91
295.295	92
295.525	90
295.756	102
295.987	108
296.217	132
296.448	126
296.679	76
296.909	95
297.14	98
297.37	96
297.601	79
297.831	85
298.062	93
298.292	84
298.523	84
298.753	88
298.984	85
299.214	82
299.445	108
299.675	104
299.905	88
300.136	94
300.366	91
300.597	96
300.827	81
301.057	102
301.288	71
301.518	91
301.748	87
301.979	117
302.209	89
302.439	101
302.669	93
302.9	97
303.13	83
303.36	92
303.59	96
303.82	103
304.051	88
304.281	97
304.511	99
304.741	81
304.971	98
305.201	95
305.431	82
305.661	80
305.891	93
306.121	79
306.352	103
306.582	121
306.812	99
307.042	87
307.272	103
307.502	112
307.731	116
307.961	103
308.191	95
308.421	81
308.651	103
308.881	92
309.111	89
309.341	107
309.571	105
309.8	84
310.03	100
310.26	106
310.49	96
310.72	106
310.949	98
311.179	97
311.409	101
311.639	93
311.868	98
312.098	90
312.328	104
312.557	111
312.787	97
313.017	104
313.246	95
313.476	93
313.706	98
313.935	80
314.165	110
314.394	104
314.624	105
314.853	103
315.083	89
315.312	92
315.542	90
315.771	100
316.001	89
316.23	95
316.46	80
316.689	87
316.919	93
317.148	81
317.377	91
317.607	92
317.836	91
318.065	79
318.295	92
318.524	90
318.753	92
318.983	102
319.212	98
319.441	93
319.67	99
319.9	103
320.129	75
320.358	83
320.587	85
320.816	109
321.046	101
321.275	90
321.504	87
321.733	81
321.962	108
322.191	108
322.42	95
322.649	96
322.878	104
323.108	112
323.337	112
323.566	121
323.795	139
324.024	180
324.253	336
324.482	668
324.71	1371
324.939	1821
325.168	689
325.397	203
325.626	133
325.855	121
326.084	112
326.313	116
326.542	144
326.77	197
326.999	373
327.228	769
327.457	1421
327.686	1129
327.914	341
328.143	224
328.372	202
328.6	151
328.829	111
329.058	112
329.287	119
329.515	118
329.744	117
329.972	168
330.201	260
330.43	332
330.658	181
330.887	144
331.115	119
331.344	105
331.572	104
331.801	109
332.03	98
332.258	96
332.486	95
332.715	99
332.943	92
333.172	100
333.4	104
333.629	114
333.857	127
334.085	171
334.314	246
334.542	400
334.771	358
334.999	163
335.227	109
335.455	90
335.684	94
335.912	100
336.14	102
336.369	113
336.597	109
336.825	114
337.053	95
337.281	93
337.51	98
337.738	91
337.966	89
338.194	92
338.422	89
338.65	103
338.878	84
339.106	87
339.334	76
339.562	86
339.79	85
340.018	90
340.246	107
340.474	91
340.702	87
340.93	86
341.158	83
341.386	90
341.614	97
341.842	100
342.07	84
342.298	90
342.526	107
342.754	70
342.981	76
343.209	89
343.437	99
343.665	95
343.893	90
344.12	99
344.348	90
344.576	87
344.804	89
345.031	99
345.259	90
345.487	85
345.714	75
345.942	90
346.17	85
346.397	82
346.625	89
346.853	85
347.08	91
347.308	93
347.535	108
347.763	98
347.99	88
348.218	102
348.445	106
348.673	90
348.9	102
349.128	107
349.355	112
349.583	69
349.81	99
350.037	92
350.265	91
350.492	96
350.72	102
350.947	91
351.174	100
351.402	107
351.629	97
351.856	108
352.083	108
352.311	101
352.538	104
352.765	99
352.992	126
353.22	110
353.447	95
353.674	108
353.901	99
354.128	100
354.355	90
354.583	92
354.81	94
355.037	105
355.264	98
355.491	88
355.718	93
355.945	93
356.172	100
356.399	91
356.626	100
356.853	87
357.08	87
357.307	85
357.534	84
357.761	105
357.988	95
358.215	85
358.441	93
358.668	91
358.895	87
359.122	81
359.349	97
359.576	82
359.802	81
360.029	97
360.256	104
360.483	103
360.709	97
360.936	102
361.163	104
361.39	94
361.616	95
361.843	85
362.07	90
362.296	91
362.523	94
362.749	107
362.976	81
363.203	96
363.429	81
363.656	93
363.882	94
364.109	94
364.335	85
364.562	98
364.788	95
365.015	97
365.241	81
365.468	98
365.694	98
365.92	101
366.147	108
366.373	82
366.599	80
366.826	103
367.052	88
367.278	95
367.505	85
367.731	80
367.957	89
368.184	96
368.41	100
368.636	113
368.862	121
369.089	114
369.315	95
369.541	106
369.767	95
369.993	84
370.219	77
370.445	80
370.672	90
370.898	103
371.124	95
371.35	87
371.576	83
371.802	85
372.028	91
372.254	91
372.48	90
372.706	92
372.932	92
373.158	71
373.384	96
373.61	83
373.835	98
374.061	75
374.287	93
374.513	89
374.739	92
374.965	98
375.191	99
375.416	89
375.642	95
375.868	85
376.094	88
376.319	81
376.545	87
376.771	91
376.997	96
377.222	97
377.448	81
377.674	97
377.899	100
378.125	89
378.35	100
378.576	97
378.802	84
379.027	80
379.253	98
379.478	97
379.704	98
379.929	98
380.155	95
380.38	96
380.606	91
380.831	93
381.057	96
381.282	90
381.507	97
381.733	91
381.958	105
382.184	90
382.409	87
382.634	108
382.86	91
383.085	100
383.31	98
383.535	104
383.761	109
383.986	99
384.211	83
384.436	99
384.662	99
384.887	109
385.112	95
385.337	101
385.562	79
385.787	102
386.013	96
386.238	112
386.463	114
386.688	115
386.913	91
387.138	100
387.363	103
387.588	86
387.813	83
388.038	102
388.263	107
388.488	104
388.713	111
388.938	72
389.163	95
389.387	95
389.612	107
389.837	84
390.062	88
390.287	95
390.512	92
390.736	84
390.961	106
391.186	93
391.411	99
391.636	104
391.86	87
392.085	92
392.31	84
392.534	95
392.759	76
392.984	81
393.208	70
393.433	75
393.658	84
393.882	71
394.107	74
394.331	76
394.556	90
394.78	84
395.005	89
395.229	84
395.454	86
395.678	99
395.903	98
396.127	88
396.352	94
396.576	85
396.801	95
397.025	87
397.249	83
397.474	87
397.698	95
397.922	88
398.147	74
398.371	99
398.595	85
398.82	92
399.044	85
399.268	84
399.492	97
399.717	82
399.941	98
400.165	89
400.389	84
400.613	91
400.837	96
401.062	97
401.286	86
401.51	96
401.734	81
401.958	103
402.182	121
402.406	144
402.63	105
402.854	84
403.078	83
403.302	82
403.526	89
403.75	91
403.974	77
404.198	88
404.422	95
404.645	78
404.869	92
405.093	98
405.317	104
405.541	97
405.765	105
405.988	112
406.212	159
406.436	195
406.66	131
406.883	102
407.107	95
407.331	99
407.555	91
407.778	88
408.002	88
408.226	73
408.449	99
408.673	81
408.896	85
409.12	91
409.344	91
409.567	96
409.791	89
410.014	83
410.238	89
410.461	105
410.685	90
410.908	85
411.132	103
411.355	90
411.578	97
411.802	81
412.025	97
412.249	93
412.472	102
412.695	89
412.919	91
413.142	80
413.365	77
413.589	89
413.812	98
414.035	98
414.258	85
414.482	83
414.705	92
414.928	98
415.151	106
415.374	102
415.597	97
415.821	85
416.044	84
416.267	96
416.49	97
416.713	89
416.936	83
417.159	92
417.382	87
417.605	70
417.828	91
418.051	75
418.274	81
418.497	70
418.72	92
418.943	83
419.166	88
419.389	83
419.611	83
419.834	99
420.057	87
420.28	91
420.503	89
420.726	83
420.948	88
421.171	98
421.394	86
421.617	99
421.839	89
422.062	91
422.285	90
422.507	117
422.73	105
422.953	93
423.175	90
423.398	87
423.621	67
423.843	81
424.066	74
424.288	90
424.511	97
424.733	102
424.956	99
425.178	96
425.401	99
425.623	84
425.846	92
426.068	99
426.291	96
426.513	105
426.735	91
426.958	92
427.18	98
427.402	108
427.625	138
427.847	137
428.069	137
428.292	101
428.514	72
428.736	79
428.958	74
429.181	102
429.403	79
429.625	87
429.847	72
430.069	99
430.292	87
430.514	79
430.736	95
430.958	96
431.18	79
431.402	93
431.624	96
431.846	95
432.068	102
432.29	92
432.512	96
432.734	87
432.956	80
433.178	93
433.4	91
433.622	99
433.844	96
434.066	101
434.287	91
434.509	95
434.731	90
434.953	92
435.175	87
435.397	92
435.618	109
435.84	101
436.062	122
436.284	108
436.505	116
436.727	98
436.949	100
437.17	81
437.392	85
437.614	104
437.835	104
438.057	117
438.278	107
438.5	89
438.721	115
438.943	93
439.165	89
439.386	90
439.608	99
439.829	96
440.05	123
440.272	120
440.493	91
440.715	81
440.936	94
441.158	98
441.379	84
441.6	85
441.822	112
442.043	102
442.264	115
442.486	102
442.707	81
442.928	105
443.149	122
443.371	120
443.592	105
443.813	110
444.034	106
444.255	87
444.476	89
444.698	96
444.919	95
445.14	138
445.361	113
445.582	128
445.803	115
446.024	133
446.245	116
446.466	105
446.687	80
446.908	90
447.129	96
447.35	95
447.571	98
447.792	87
448.013	81
448.234	100
448.455	89
448.675	109
448.896	124
449.117	91
449.338	96
449.559	111
449.779	115
450	97
450.221	99
450.442	76
450.662	97
450.883	103
451.104	108
451.324	109
451.545	76
451.766	72
451.986	83
452.207	90
452.428	96
452.648	90
452.869	90
453.089	114
453.31	101
453.53	83
453.751	95
453.971	95
454.192	101
454.412	82
454.633	80
454.853	76
455.073	85
455.294	88
455.514	88
455.734	83
455.955	87
456.175	83
456.395	92
456.616	95
456.836	85
457.056	86
457.276	91
457.497	92
457.717	89
457.937	95
458.157	90
458.377	91
458.598	101
458.818	133
459.038	128
459.258	106
459.478	95
459.698	73
459.918	68
460.138	82
460.358	83
460.578	86
460.798	85
461.018	91
461.238	88
461.458	101
461.678	71
461.898	79
462.118	87
462.338	85
462.558	84
462.777	88
462.997	81
463.217	94
463.437	96
463.657	74
463.876	87
464.096	85
464.316	92
464.536	96
464.755	96
464.975	105
465.195	134
465.414	144
465.634	101
465.854	88
466.073	92
466.293	76
466.512	91
466.732	95
466.951	95
467.171	84
467.391	95
467.61	92
467.829	107
468.049	177
468.268	211
468.488	105
468.707	92
468.927	97
469.146	88
469.365	85
469.585	89
469.804	98
470.023	89
470.243	81
470.462	85
470.681	107
470.901	86
471.12	88
471.339	92
471.558	84
471.777	89
471.997	125
472.216	297
472.435	505
472.654	181
472.873	88
473.092	89
473.311	83
473.53	79
473.749	93
473.968	95
474.187	98
474.406	82
474.625	79
474.844	93
475.063	84
475.282	95
475.501	86
475.72	89
475.939	85
476.158	100
476.377	87
476.596	72
476.814	116
477.033	88
477.252	91
477.471	87
477.69	84
477.908	75
478.127	83
478.346	91
478.564	91
478.783	95
479.002	91
479.22	86
479.439	99
479.658	97
479.876	106
480.095	100
480.313	88
480.532	103
480.751	121
480.969	271
481.188	904
481.406	537
481.624	145
481.843	99
482.061	83
482.28	86
482.498	91
482.717	79
482.935	90
483.153	89
483.372	77
483.59	93
483.808	76
484.027	95
484.245	91
484.463	90
484.681	92
484.9	92
485.118	87
485.336	84
485.554	92
485.772	108
485.99	109
486.209	108
486.427	91
486.645	103
486.863	106
487.081	104
487.299	94
487.517	107
487.735	81
487.953	101
488.171	96
488.389	90
488.607	92
488.825	95
489.043	91
489.261	100
489.479	107
489.696	80
489.914	86
490.132	80
490.35	93
490.568	92
490.786	76
491.003	82
491.221	81
491.439	99
491.657	91
491.874	96
492.092	89
492.31	95
492.527	84
492.745	92
492.963	79
493.18	68
493.398	90
493.615	88
493.833	69
494.05	87
494.268	80
494.485	87
494.703	79
494.92	90
495.138	90
495.355	87
495.573	85
495.79	89
496.008	94
496.225	87
496.442	86
496.66	105
496.877	75
497.094	93
497.312	79
497.529	73
497.746	87
497.963	93
498.181	74
498.398	90
498.615	112
498.832	108
499.049	96
499.267	99
499.484	90
499.701	94
499.918	92
500.135	94
500.352	94
500.569	108
500.786	90
501.003	83
501.22	96
501.437	100
501.654	92
501.871	102
502.088	82
502.305	97
502.522	93
502.739	97
502.956	85
503.172	91
503.389	104
503.606	93
503.823	92
504.04	107
504.256	105
504.473	86
504.69	87
504.907	82
505.123	96
505.34	100
505.557	91
505.773	89
505.99	91
506.207	90
506.423	97
506.64	80
506.856	85
507.073	91
507.289	97
507.506	82
507.722	104
507.939	109
508.155	108
508.372	90
508.588	101
508.805	90
509.021	109
509.238	92
509.454	103
509.67	93
509.887	102
510.103	120
510.319	181
510.536	586
510.752	1858
510.968	520
511.184	140
511.401	101
511.617	107
511.833	96
512.049	89
512.265	89
512.481	72
512.698	80
512.914	81
513.13	102
513.346	91
513.562	94
513.778	96
513.994	94
514.21	85
514.426	113
514.642	116
514.858	111
515.074	145
515.29	355
515.506	1105
515.721	405
515.937	119
516.153	103
516.369	99
516.585	83
516.801	97
517.016	89
517.232	85
517.448	88
517.664	89
517.879	98
518.095	89
518.311	97
518.527	91
518.742	98
518.958	85
519.173	84
519.389	96
519.605	91
519.82	71
520.036	91
520.251	115
520.467	91
520.682	93
520.898	106
521.113	116
521.329	108
521.544	177
521.76	432
521.975	1769
522.19	1082
522.406	253
522.621	106
522.836	107
523.052	89
523.267	95
523.482	83
523.698	100
523.913	128
524.128	90
524.343	77
524.559	89
524.774	90
524.989	96
525.204	104
525.419	106
525.634	87
525.849	84
526.064	86
526.28	83
526.495	82
526.71	96
526.925	98
527.14	88
527.355	90
527.57	85
527.785	94
527.999	95
528.214	96
528.429	85
528.644	99
528.859	87
529.074	92
529.289	106
529.503	143
529.718	99
529.933	96
530.148	95
530.363	96
530.577	99
530.792	97
531.007	89
531.221	105
531.436	81
531.651	101
531.865	98
532.08	91
532.295	82
532.509	85
532.724	93
532.938	96
533.153	105
533.367	102
533.582	91
533.796	87
534.011	93
534.225	94
534.44	96
534.654	91
534.868	87
535.083	89
535.297	83
535.511	100
535.726	96
535.94	96
536.154	89
536.369	104
536.583	88
536.797	85
537.011	80
537.225	91
537.44	95
537.654	86
537.868	89
538.082	92
538.296	98
538.51	94
538.724	77
538.938	91
539.153	101
539.367	102
539.581	92
539.795	89
540.009	83
540.222	73
540.436	79
540.65	103
540.864	93
541.078	93
541.292	94
541.506	92
541.72	84
541.934	100
542.147	97
542.361	98
542.575	85
542.789	78
543.002	73
543.216	87
543.43	88
543.644	105
543.857	88
544.071	88
544.285	86
544.498	99
544.712	110
544.925	89
545.139	87
545.352	96
545.566	84
545.779	91
545.993	104
546.206	80
546.42	91
546.633	90
546.847	95
547.06	100
547.274	108
547.487	83
547.7	83
547.914	83
548.127	102
548.34	72
548.554	81
548.767	89
548.98	92
549.193	88
549.407	96
549.62	85
549.833	88
550.046	90
550.259	78
550.473	85
550.686	101
550.899	72
551.112	91
551.325	84
551.538	73
551.751	72
551.964	88
552.177	89
552.39	91
552.603	82
552.816	95
553.029	83
553.242	98
553.455	103
553.667	89
553.88	102
554.093	77
554.306	101
554.519	102
554.732	81
554.944	76
555.157	103
555.37	83
555.583	67
555.795	102
556.008	88
556.221	105
556.433	92
556.646	96
556.859	93
557.071	97
557.284	96
557.496	98
557.709	89
557.921	96
558.134	94
558.346	89
558.559	97
558.771	80
558.984	78
559.196	75
559.409	87
559.621	97
559.833	92
560.046	88
560.258	84
560.47	92
560.683	99
560.895	88
561.107	98
561.32	87
561.532	84
561.744	80
561.956	80
562.168	108
562.381	95
562.593	80
562.805	97
563.017	85
563.229	89
563.441	91
563.653	90
563.865	84
564.077	83
564.289	92
564.501	83
564.713	69
564.925	99
565.137	100
565.349	76
565.561	93
565.773	89
565.985	80
566.197	83
566.408	82
566.62	86
566.832	83
567.044	91
567.255	84
567.467	86
567.679	86
567.891	102
568.102	105
568.314	85
568.526	79
568.737	82
568.949	84
569.161	79
569.372	86
569.584	85
569.795	104
570.007	95
570.218	195
570.43	118
570.641	88
570.853	83
571.064	72
571.276	105
571.487	72
571.698	81
571.91	87
572.121	86
572.333	85
572.544	93
572.755	80
572.966	90
573.178	82
573.389	86
573.6	81
573.811	83
574.023	101
574.234	91
574.445	95
574.656	99
574.867	96
575.078	80
575.289	86
575.501	94
575.712	90
575.923	92
576.134	81
576.345	85
576.556	95
576.767	101
576.978	90
577.188	95
577.399	83
577.61	87
577.821	89
578.032	118
578.243	224
578.454	572
578.665	185
578.875	104
579.086	79
579.297	90
579.508	91
579.718	77
579.929	87
580.14	79
580.35	90
580.561	75
580.772	89
580.982	90
581.193	88
581.403	93
581.614	81
581.825	74
582.035	75
582.246	82
582.456	83
582.667	75
582.877	106
583.087	90
583.298	88
583.508	95
583.719	75
583.929	85
584.139	96
584.35	102
