Data from Circ_1984_H10_HRD10591_00054.txt Node
Date: Wed Jan 03 12:22:52 EST 2024
User: Yrep
Spectrometer: HR+D1059
Trigger mode: 1
Integration Time (sec): 1.000000E-1
Scans to average: 1
Electric dark correction enabled: true
Nonlinearity correction enabled: false
Boxcar width: 0
XAxis mode: Wavelengths
Number of Pixels in Spectrum: 2048
>>>>>Begin Spectral Data<<<<<
223.165	-30.44
223.4	-30.44
223.635	-30.44
223.869	-22.44
224.104	-18.44
224.338	-18.44
224.573	-8.44
224.808	0.56
225.042	1.56
225.277	-5.44
225.511	-12.44
225.746	7.56
225.98	-5.44
226.215	4.56
226.449	17.56
226.683	27.56
226.918	27.56
227.152	34.56
227.387	23.56
227.621	45.56
227.856	41.56
228.09	45.56
228.324	57.56
228.559	63.56
228.793	58.56
229.027	56.56
229.262	67.56
229.496	81.56
229.73	83.56
229.964	69.56
230.199	70.56
230.433	84.56
230.667	89.56
230.901	85.56
231.136	87.56
231.37	85.56
231.604	89.56
231.838	86.56
232.072	92.56
232.306	76.56
232.541	97.56
232.775	89.56
233.009	62.56
233.243	84.56
233.477	76.56
233.711	84.56
233.945	74.56
234.179	77.56
234.413	83.56
234.647	83.56
234.881	79.56
235.115	81.56
235.349	69.56
235.583	75.56
235.817	91.56
236.051	86.56
236.285	86.56
236.519	77.56
236.753	78.56
236.987	77.56
237.221	92.56
237.455	87.56
237.689	68.56
237.922	81.56
238.156	77.56
238.39	83.56
238.624	83.56
238.858	66.56
239.091	95.56
239.325	85.56
239.559	81.56
239.793	85.56
240.027	84.56
240.26	79.56
240.494	78.56
240.728	77.56
240.961	102.56
241.195	86.56
241.429	85.56
241.662	79.56
241.896	89.56
242.13	85.56
242.363	64.56
242.597	79.56
242.83	78.56
243.064	85.56
243.298	85.56
243.531	68.56
243.765	83.56
243.998	82.56
244.232	73.56
244.465	73.56
244.699	91.56
244.932	69.56
245.166	63.56
245.399	75.56
245.633	72.56
245.866	73.56
246.099	95.56
246.333	91.56
246.566	85.56
246.8	70.56
247.033	83.56
247.266	66.56
247.5	75.56
247.733	68.56
247.966	82.56
248.2	74.56
248.433	87.56
248.666	73.56
248.899	83.56
249.133	79.56
249.366	81.56
249.599	87.56
249.832	88.56
250.066	90.56
250.299	81.56
250.532	89.56
250.765	78.56
250.998	85.56
251.231	88.56
251.465	72.56
251.698	83.56
251.931	90.56
252.164	79.56
252.397	82.56
252.63	74.56
252.863	84.56
253.096	93.56
253.329	82.56
253.562	79.56
253.795	89.56
254.028	93.56
254.261	87.56
254.494	81.56
254.727	93.56
254.96	93.56
255.193	73.56
255.426	82.56
255.659	88.56
255.892	76.56
256.124	81.56
256.357	81.56
256.59	81.56
256.823	88.56
257.056	92.56
257.289	78.56
257.521	87.56
257.754	83.56
257.987	102.56
258.22	89.56
258.452	85.56
258.685	88.56
258.918	77.56
259.151	75.56
259.383	75.56
259.616	83.56
259.849	90.56
260.081	94.56
260.314	74.56
260.547	89.56
260.779	82.56
261.012	88.56
261.244	74.56
261.477	86.56
261.71	90.56
261.942	92.56
262.175	111.56
262.407	91.56
262.64	85.56
262.872	78.56
263.105	74.56
263.337	86.56
263.57	75.56
263.802	87.56
264.035	101.56
264.267	84.56
264.499	84.56
264.732	78.56
264.964	76.56
265.197	86.56
265.429	85.56
265.661	102.56
265.894	101.56
266.126	94.56
266.358	87.56
266.591	82.56
266.823	81.56
267.055	81.56
267.287	75.56
267.52	75.56
267.752	84.56
267.984	95.56
268.216	84.56
268.448	91.56
268.681	93.56
268.913	76.56
269.145	63.56
269.377	84.56
269.609	76.56
269.841	69.56
270.073	89.56
270.306	85.56
270.538	94.56
270.77	86.56
271.002	84.56
271.234	85.56
271.466	89.56
271.698	78.56
271.93	84.56
272.162	91.56
272.394	98.56
272.626	92.56
272.858	89.56
273.09	90.56
273.322	95.56
273.553	102.56
273.785	86.56
274.017	85.56
274.249	76.56
274.481	103.56
274.713	74.56
274.945	102.56
275.176	75.56
275.408	79.56
275.64	100.56
275.872	99.56
276.104	91.56
276.335	95.56
276.567	108.56
276.799	112.56
277.031	105.56
277.262	104.56
277.494	100.56
277.726	99.56
277.957	89.56
278.189	86.56
278.421	75.56
278.652	90.56
278.884	69.56
279.115	83.56
279.347	109.56
279.579	98.56
279.81	83.56
280.042	90.56
280.273	111.56
280.505	87.56
280.736	94.56
280.968	84.56
281.199	88.56
281.431	84.56
281.662	82.56
281.894	88.56
282.125	96.56
282.356	90.56
282.588	141.56
282.819	118.56
283.051	92.56
283.282	93.56
283.513	93.56
283.745	97.56
283.976	83.56
284.207	100.56
284.439	90.56
284.67	92.56
284.901	83.56
285.132	85.56
285.364	87.56
285.595	92.56
285.826	90.56
286.057	100.56
286.288	94.56
286.52	90.56
286.751	76.56
286.982	103.56
287.213	83.56
287.444	93.56
287.675	89.56
287.906	93.56
288.138	92.56
288.369	93.56
288.6	81.56
288.831	76.56
289.062	94.56
289.293	95.56
289.524	91.56
289.755	103.56
289.986	97.56
290.217	95.56
290.448	83.56
290.679	91.56
290.91	96.56
291.141	92.56
291.371	92.56
291.602	88.56
291.833	96.56
292.064	84.56
292.295	94.56
292.526	102.56
292.757	78.56
292.987	91.56
293.218	92.56
293.449	97.56
293.68	76.56
293.91	79.56
294.141	89.56
294.372	92.56
294.603	88.56
294.833	92.56
295.064	96.56
295.295	93.56
295.525	85.56
295.756	91.56
295.987	115.56
296.217	120.56
296.448	109.56
296.679	77.56
296.909	97.56
297.14	81.56
297.37	91.56
297.601	91.56
297.831	97.56
298.062	103.56
298.292	85.56
298.523	95.56
298.753	90.56
298.984	88.56
299.214	93.56
299.445	94.56
299.675	77.56
299.905	112.56
300.136	102.56
300.366	91.56
300.597	82.56
300.827	103.56
301.057	108.56
301.288	112.56
301.518	96.56
301.748	87.56
301.979	85.56
302.209	88.56
302.439	99.56
302.669	92.56
302.9	86.56
303.13	77.56
303.36	90.56
303.59	83.56
303.82	109.56
304.051	81.56
304.281	93.56
304.511	104.56
304.741	84.56
304.971	93.56
305.201	99.56
305.431	93.56
305.661	81.56
305.891	97.56
306.121	93.56
306.352	99.56
306.582	109.56
306.812	102.56
307.042	109.56
307.272	109.56
307.502	94.56
307.731	113.56
307.961	96.56
308.191	99.56
308.421	93.56
308.651	101.56
308.881	97.56
309.111	97.56
309.341	98.56
309.571	92.56
309.8	87.56
310.03	92.56
310.26	97.56
310.49	95.56
310.72	93.56
310.949	99.56
311.179	104.56
311.409	100.56
311.639	102.56
311.868	84.56
312.098	102.56
312.328	103.56
312.557	105.56
312.787	101.56
313.017	99.56
313.246	85.56
313.476	86.56
313.706	94.56
313.935	102.56
314.165	101.56
314.394	106.56
314.624	107.56
314.853	88.56
315.083	101.56
315.312	101.56
315.542	98.56
315.771	105.56
316.001	90.56
316.23	94.56
316.46	91.56
316.689	93.56
316.919	89.56
317.148	69.56
317.377	96.56
317.607	98.56
317.836	101.56
318.065	89.56
318.295	87.56
318.524	93.56
318.753	81.56
318.983	94.56
319.212	98.56
319.441	106.56
319.67	93.56
319.9	84.56
320.129	75.56
320.358	88.56
320.587	91.56
320.816	101.56
321.046	98.56
321.275	87.56
321.504	105.56
321.733	104.56
321.962	109.56
322.191	86.56
322.42	105.56
322.649	104.56
322.878	106.56
323.108	99.56
323.337	109.56
323.566	122.56
323.795	133.56
324.024	168.56
324.253	325.56
324.482	647.56
324.71	1292.56
324.939	1747.56
325.168	659.56
325.397	210.56
325.626	135.56
325.855	126.56
326.084	113.56
326.313	113.56
326.542	134.56
326.77	193.56
326.999	377.56
327.228	728.56
327.457	1337.56
327.686	1061.56
327.914	329.56
328.143	190.56
328.372	171.56
328.6	141.56
328.829	131.56
329.058	125.56
329.287	115.56
329.515	116.56
329.744	126.56
329.972	126.56
330.201	206.56
330.43	270.56
330.658	165.56
330.887	142.56
331.115	122.56
331.344	92.56
331.572	107.56
331.801	106.56
332.03	97.56
332.258	90.56
332.486	104.56
332.715	97.56
332.943	105.56
333.172	90.56
333.4	112.56
333.629	120.56
333.857	134.56
334.085	142.56
334.314	209.56
334.542	313.56
334.771	289.56
334.999	126.56
335.227	120.56
335.455	112.56
335.684	113.56
335.912	98.56
336.14	100.56
336.369	93.56
336.597	102.56
336.825	101.56
337.053	94.56
337.281	114.56
337.51	91.56
337.738	103.56
337.966	88.56
338.194	95.56
338.422	99.56
338.65	94.56
338.878	89.56
339.106	90.56
339.334	97.56
339.562	102.56
339.79	93.56
340.018	102.56
340.246	90.56
340.474	92.56
340.702	94.56
340.93	89.56
341.158	92.56
341.386	104.56
341.614	83.56
341.842	93.56
342.07	87.56
342.298	95.56
342.526	92.56
342.754	101.56
342.981	101.56
343.209	101.56
343.437	110.56
343.665	91.56
343.893	96.56
344.12	96.56
344.348	93.56
344.576	86.56
344.804	93.56
345.031	97.56
345.259	76.56
345.487	99.56
345.714	106.56
345.942	87.56
346.17	87.56
346.397	98.56
346.625	100.56
346.853	91.56
347.08	90.56
347.308	99.56
347.535	98.56
347.763	107.56
347.99	99.56
348.218	108.56
348.445	87.56
348.673	104.56
348.9	101.56
349.128	85.56
349.355	100.56
349.583	86.56
349.81	101.56
350.037	113.56
350.265	92.56
350.492	102.56
350.72	104.56
350.947	107.56
351.174	104.56
351.402	115.56
351.629	86.56
351.856	110.56
352.083	92.56
352.311	106.56
352.538	103.56
352.765	103.56
352.992	110.56
353.22	111.56
353.447	95.56
353.674	111.56
353.901	98.56
354.128	94.56
354.355	99.56
354.583	94.56
354.81	79.56
355.037	109.56
355.264	91.56
355.491	83.56
355.718	102.56
355.945	78.56
356.172	100.56
356.399	94.56
356.626	95.56
356.853	93.56
357.08	89.56
357.307	87.56
357.534	85.56
357.761	85.56
357.988	111.56
358.215	86.56
358.441	93.56
358.668	94.56
358.895	87.56
359.122	83.56
359.349	86.56
359.576	86.56
359.802	99.56
360.029	98.56
360.256	108.56
360.483	96.56
360.709	91.56
360.936	78.56
361.163	101.56
361.39	98.56
361.616	92.56
361.843	84.56
362.07	94.56
362.296	90.56
362.523	93.56
362.749	92.56
362.976	78.56
363.203	119.56
363.429	112.56
363.656	92.56
363.882	93.56
364.109	97.56
364.335	81.56
364.562	78.56
364.788	106.56
365.015	101.56
365.241	114.56
365.468	118.56
365.694	93.56
365.92	87.56
366.147	90.56
366.373	85.56
366.599	87.56
366.826	100.56
367.052	105.56
367.278	81.56
367.505	94.56
367.731	97.56
367.957	78.56
368.184	93.56
368.41	91.56
368.636	103.56
368.862	125.56
369.089	95.56
369.315	94.56
369.541	90.56
369.767	84.56
369.993	99.56
370.219	88.56
370.445	65.56
370.672	86.56
370.898	97.56
371.124	92.56
371.35	98.56
371.576	80.56
371.802	100.56
372.028	89.56
372.254	97.56
372.48	95.56
372.706	94.56
372.932	100.56
373.158	100.56
373.384	99.56
373.61	86.56
373.835	99.56
374.061	100.56
374.287	99.56
374.513	84.56
374.739	108.56
374.965	93.56
375.191	94.56
375.416	96.56
375.642	101.56
375.868	94.56
376.094	86.56
376.319	85.56
376.545	90.56
376.771	97.56
376.997	88.56
377.222	104.56
377.448	97.56
377.674	94.56
377.899	109.56
378.125	65.56
378.35	91.56
378.576	94.56
378.802	93.56
379.027	98.56
379.253	76.56
379.478	83.56
379.704	94.56
379.929	94.56
380.155	98.56
380.38	100.56
380.606	101.56
380.831	87.56
381.057	97.56
381.282	107.56
381.507	94.56
381.733	96.56
381.958	83.56
382.184	88.56
382.409	98.56
382.634	102.56
382.86	93.56
383.085	90.56
383.31	101.56
383.535	104.56
383.761	98.56
383.986	98.56
384.211	100.56
384.436	98.56
384.662	93.56
384.887	117.56
385.112	94.56
385.337	109.56
385.562	103.56
385.787	104.56
386.013	106.56
386.238	105.56
386.463	92.56
386.688	114.56
386.913	106.56
387.138	93.56
387.363	93.56
387.588	98.56
387.813	110.56
388.038	94.56
388.263	103.56
388.488	110.56
388.713	99.56
388.938	93.56
389.163	106.56
389.387	89.56
389.612	97.56
389.837	85.56
390.062	113.56
390.287	103.56
390.512	88.56
390.736	95.56
390.961	105.56
391.186	86.56
391.411	85.56
391.636	89.56
391.86	83.56
392.085	77.56
392.31	92.56
392.534	108.56
392.759	75.56
392.984	82.56
393.208	98.56
393.433	97.56
393.658	106.56
393.882	89.56
394.107	87.56
394.331	93.56
394.556	82.56
394.78	94.56
395.005	89.56
395.229	84.56
395.454	89.56
395.678	72.56
395.903	85.56
396.127	94.56
396.352	91.56
396.576	85.56
396.801	93.56
397.025	96.56
397.249	91.56
397.474	102.56
397.698	80.56
397.922	84.56
398.147	77.56
398.371	96.56
398.595	90.56
398.82	83.56
399.044	77.56
399.268	85.56
399.492	71.56
399.717	86.56
399.941	78.56
400.165	84.56
400.389	91.56
400.613	79.56
400.837	81.56
401.062	98.56
401.286	88.56
401.51	97.56
401.734	90.56
401.958	78.56
402.182	95.56
402.406	141.56
402.63	118.56
402.854	92.56
403.078	100.56
403.302	81.56
403.526	91.56
403.75	94.56
403.974	99.56
404.198	87.56
404.422	88.56
404.645	101.56
404.869	96.56
405.093	99.56
405.317	89.56
405.541	100.56
405.765	99.56
405.988	111.56
406.212	156.56
406.436	198.56
406.66	139.56
406.883	87.56
407.107	91.56
407.331	93.56
407.555	97.56
407.778	94.56
408.002	85.56
408.226	85.56
408.449	81.56
408.673	96.56
408.896	106.56
409.12	96.56
409.344	92.56
409.567	105.56
409.791	102.56
410.014	89.56
410.238	98.56
410.461	88.56
410.685	99.56
410.908	95.56
411.132	106.56
411.355	86.56
411.578	77.56
411.802	94.56
412.025	81.56
412.249	82.56
412.472	94.56
412.695	107.56
412.919	117.56
413.142	104.56
413.365	93.56
413.589	84.56
413.812	95.56
414.035	92.56
414.258	99.56
414.482	99.56
414.705	85.56
414.928	90.56
415.151	94.56
415.374	91.56
415.597	87.56
415.821	93.56
416.044	102.56
416.267	98.56
416.49	104.56
416.713	91.56
416.936	103.56
417.159	83.56
417.382	91.56
417.605	78.56
417.828	102.56
418.051	97.56
418.274	93.56
418.497	78.56
418.72	99.56
418.943	90.56
419.166	87.56
419.389	107.56
419.611	88.56
419.834	86.56
420.057	91.56
420.28	91.56
420.503	89.56
420.726	85.56
420.948	90.56
421.171	81.56
421.394	95.56
421.617	72.56
421.839	88.56
422.062	93.56
422.285	88.56
422.507	95.56
422.73	112.56
422.953	100.56
423.175	91.56
423.398	90.56
423.621	92.56
423.843	83.56
424.066	85.56
424.288	84.56
424.511	89.56
424.733	94.56
424.956	97.56
425.178	101.56
425.401	100.56
425.623	100.56
425.846	98.56
426.068	91.56
426.291	94.56
426.513	97.56
426.735	98.56
426.958	100.56
427.18	94.56
427.402	135.56
427.625	145.56
427.847	134.56
428.069	126.56
428.292	87.56
428.514	102.56
428.736	98.56
428.958	85.56
429.181	95.56
429.403	97.56
429.625	91.56
429.847	101.56
430.069	102.56
430.292	91.56
430.514	91.56
430.736	88.56
430.958	82.56
431.18	93.56
431.402	81.56
431.624	100.56
431.846	91.56
432.068	108.56
432.29	89.56
432.512	83.56
432.734	94.56
432.956	101.56
433.178	94.56
433.4	109.56
433.622	75.56
433.844	89.56
434.066	99.56
434.287	95.56
434.509	93.56
434.731	84.56
434.953	85.56
435.175	85.56
435.397	87.56
435.618	83.56
435.84	90.56
436.062	116.56
436.284	118.56
436.505	92.56
436.727	102.56
436.949	93.56
437.17	104.56
437.392	89.56
437.614	103.56
437.835	104.56
438.057	107.56
438.278	100.56
438.5	109.56
438.721	129.56
438.943	98.56
439.165	85.56
439.386	97.56
439.608	87.56
439.829	82.56
440.05	125.56
440.272	131.56
440.493	91.56
440.715	89.56
440.936	81.56
441.158	92.56
441.379	94.56
441.6	100.56
441.822	99.56
442.043	90.56
442.264	104.56
442.486	99.56
442.707	91.56
442.928	109.56
443.149	94.56
443.371	115.56
443.592	113.56
443.813	116.56
444.034	97.56
444.255	97.56
444.476	85.56
444.698	83.56
444.919	92.56
445.14	130.56
445.361	105.56
445.582	112.56
445.803	121.56
446.024	132.56
446.245	116.56
446.466	116.56
446.687	95.56
446.908	81.56
447.129	85.56
447.35	83.56
447.571	94.56
447.792	93.56
448.013	102.56
448.234	99.56
448.455	95.56
448.675	109.56
448.896	103.56
449.117	108.56
449.338	90.56
449.559	96.56
449.779	139.56
450	105.56
450.221	97.56
450.442	91.56
450.662	89.56
450.883	98.56
451.104	101.56
451.324	91.56
451.545	112.56
451.766	81.56
451.986	86.56
452.207	91.56
452.428	93.56
452.648	87.56
452.869	111.56
453.089	99.56
453.31	119.56
453.53	92.56
453.751	89.56
453.971	86.56
454.192	99.56
454.412	91.56
454.633	93.56
454.853	94.56
455.073	100.56
455.294	85.56
455.514	93.56
455.734	90.56
455.955	91.56
456.175	93.56
456.395	92.56
456.616	102.56
456.836	98.56
457.056	89.56
457.276	82.56
457.497	92.56
457.717	76.56
457.937	86.56
458.157	83.56
458.377	92.56
458.598	95.56
458.818	137.56
459.038	130.56
459.258	110.56
459.478	91.56
459.698	95.56
459.918	88.56
460.138	88.56
460.358	77.56
460.578	89.56
460.798	106.56
461.018	83.56
461.238	79.56
461.458	91.56
461.678	77.56
461.898	83.56
462.118	93.56
462.338	83.56
462.558	76.56
462.777	78.56
462.997	97.56
463.217	89.56
463.437	91.56
463.657	87.56
463.876	87.56
464.096	90.56
464.316	93.56
464.536	95.56
464.755	93.56
464.975	95.56
465.195	152.56
465.414	134.56
465.634	94.56
465.854	98.56
466.073	87.56
466.293	87.56
466.512	88.56
466.732	92.56
466.951	85.56
467.171	85.56
467.391	93.56
467.61	118.56
467.829	109.56
468.049	140.56
468.268	190.56
468.488	104.56
468.707	86.56
468.927	87.56
469.146	89.56
469.365	91.56
469.585	90.56
469.804	110.56
470.023	97.56
470.243	103.56
470.462	102.56
470.681	97.56
470.901	98.56
471.12	93.56
471.339	89.56
471.558	102.56
471.777	90.56
471.997	114.56
472.216	237.56
472.435	417.56
472.654	158.56
472.873	95.56
473.092	93.56
473.311	76.56
473.53	81.56
473.749	85.56
473.968	90.56
474.187	104.56
474.406	101.56
474.625	93.56
474.844	101.56
475.063	82.56
475.282	85.56
475.501	86.56
475.72	97.56
475.939	83.56
476.158	103.56
476.377	83.56
476.596	73.56
476.814	100.56
477.033	98.56
477.252	81.56
477.471	94.56
477.69	77.56
477.908	92.56
478.127	81.56
478.346	90.56
478.564	112.56
478.783	94.56
479.002	99.56
479.22	90.56
479.439	97.56
479.658	106.56
479.876	109.56
480.095	93.56
480.313	91.56
480.532	102.56
480.751	117.56
480.969	225.56
481.188	687.56
481.406	423.56
481.624	121.56
481.843	93.56
482.061	85.56
482.28	87.56
482.498	99.56
482.717	89.56
482.935	81.56
483.153	99.56
483.372	89.56
483.59	94.56
483.808	83.56
484.027	95.56
484.245	106.56
484.463	82.56
484.681	86.56
484.9	89.56
485.118	108.56
485.336	116.56
485.554	89.56
485.772	105.56
485.99	103.56
486.209	108.56
486.427	101.56
486.645	116.56
486.863	116.56
487.081	99.56
487.299	95.56
487.517	90.56
487.735	88.56
487.953	86.56
488.171	92.56
488.389	100.56
488.607	101.56
488.825	91.56
489.043	85.56
489.261	101.56
489.479	78.56
489.696	99.56
489.914	79.56
490.132	71.56
490.35	95.56
490.568	100.56
490.786	99.56
491.003	92.56
491.221	81.56
491.439	107.56
491.657	85.56
491.874	79.56
492.092	89.56
492.31	95.56
492.527	85.56
492.745	106.56
492.963	93.56
493.18	78.56
493.398	86.56
493.615	97.56
493.833	94.56
494.05	87.56
494.268	102.56
494.485	93.56
494.703	98.56
494.92	86.56
495.138	81.56
495.355	103.56
495.573	104.56
495.79	86.56
496.008	87.56
496.225	89.56
496.442	100.56
496.66	93.56
496.877	87.56
497.094	95.56
497.312	92.56
497.529	78.56
497.746	85.56
497.963	101.56
498.181	87.56
498.398	102.56
498.615	94.56
498.832	94.56
499.049	83.56
499.267	82.56
499.484	89.56
499.701	95.56
499.918	81.56
500.135	87.56
500.352	100.56
500.569	97.56
500.786	99.56
501.003	83.56
501.22	94.56
501.437	94.56
501.654	99.56
501.871	101.56
502.088	101.56
502.305	98.56
502.522	97.56
502.739	88.56
502.956	87.56
503.172	87.56
503.389	102.56
503.606	101.56
503.823	72.56
504.04	95.56
504.256	78.56
504.473	109.56
504.69	97.56
504.907	109.56
505.123	89.56
505.34	96.56
505.557	87.56
505.773	95.56
505.99	87.56
506.207	98.56
506.423	97.56
506.64	94.56
506.856	85.56
507.073	89.56
507.289	92.56
507.506	108.56
507.722	115.56
507.939	118.56
508.155	91.56
508.372	93.56
508.588	107.56
508.805	94.56
509.021	76.56
509.238	98.56
509.454	98.56
509.67	115.56
509.887	102.56
510.103	127.56
510.319	180.56
510.536	615.56
510.752	1947.56
510.968	557.56
511.184	129.56
511.401	106.56
511.617	90.56
511.833	94.56
512.049	90.56
512.265	95.56
512.481	103.56
512.698	97.56
512.914	94.56
513.13	87.56
513.346	102.56
513.562	105.56
513.778	103.56
513.994	87.56
514.21	94.56
514.426	112.56
514.642	116.56
514.858	100.56
515.074	139.56
