Data from Circ_1984_H10_HRD10591_00091.txt Node
Date: Wed Jan 03 12:23:00 EST 2024
User: Yrep
Spectrometer: HR+D1059
Trigger mode: 1
Integration Time (sec): 1.000000E-1
Scans to average: 1
Electric dark correction enabled: true
Nonlinearity correction enabled: false
Boxcar width: 0
XAxis mode: Wavelengths
Number of Pixels in Spectrum: 2048
>>>>>Begin Spectral Data<<<<<
223.165	-14.69
223.4	-14.69
223.635	-14.69
223.869	-25.69
224.104	-21.69
224.338	-17.69
224.573	-8.69
224.808	-26.69
225.042	-6.69
225.277	-2.69
225.511	-7.69
225.746	13.31
225.98	8.31
226.215	1.31
226.449	10.31
226.683	33.31
226.918	34.31
227.152	31.31
227.387	15.31
227.621	32.31
227.856	57.31
228.09	43.31
228.324	42.31
228.559	57.31
228.793	52.31
229.027	71.31
229.262	65.31
229.496	69.31
229.73	74.31
229.964	77.31
230.199	64.31
230.433	77.31
230.667	65.31
230.901	74.31
231.136	90.31
231.37	73.31
231.604	78.31
231.838	72.31
232.072	76.31
232.306	76.31
232.541	78.31
232.775	86.31
233.009	85.31
233.243	82.31
233.477	82.31
233.711	90.31
233.945	68.31
234.179	83.31
234.413	83.31
234.647	78.31
234.881	66.31
235.115	85.31
235.349	79.31
235.583	85.31
235.817	81.31
236.051	68.31
236.285	85.31
236.519	81.31
236.753	73.31
236.987	68.31
237.221	70.31
237.455	83.31
237.689	70.31
237.922	85.31
238.156	83.31
238.39	67.31
238.624	78.31
238.858	59.31
239.091	71.31
239.325	69.31
239.559	86.31
239.793	74.31
240.027	75.31
240.26	71.31
240.494	75.31
240.728	73.31
240.961	78.31
241.195	73.31
241.429	75.31
241.662	65.31
241.896	83.31
242.13	69.31
242.363	83.31
242.597	65.31
242.83	75.31
243.064	74.31
243.298	64.31
243.531	70.31
243.765	70.31
243.998	85.31
244.232	92.31
244.465	71.31
244.699	70.31
244.932	78.31
245.166	71.31
245.399	70.31
245.633	74.31
245.866	73.31
246.099	79.31
246.333	73.31
246.566	67.31
246.8	79.31
247.033	88.31
247.266	70.31
247.5	73.31
247.733	81.31
247.966	84.31
248.2	74.31
248.433	82.31
248.666	70.31
248.899	79.31
249.133	84.31
249.366	82.31
249.599	90.31
249.832	83.31
250.066	82.31
250.299	83.31
250.532	69.31
250.765	72.31
250.998	79.31
251.231	83.31
251.465	69.31
251.698	75.31
251.931	84.31
252.164	87.31
252.397	70.31
252.63	75.31
252.863	79.31
253.096	70.31
253.329	73.31
253.562	73.31
253.795	74.31
254.028	83.31
254.261	68.31
254.494	90.31
254.727	81.31
254.96	77.31
255.193	75.31
255.426	87.31
255.659	75.31
255.892	85.31
256.124	86.31
256.357	82.31
256.59	93.31
256.823	88.31
257.056	79.31
257.289	70.31
257.521	76.31
257.754	84.31
257.987	78.31
258.22	96.31
258.452	74.31
258.685	79.31
258.918	82.31
259.151	89.31
259.383	88.31
259.616	82.31
259.849	86.31
260.081	70.31
260.314	78.31
260.547	83.31
260.779	96.31
261.012	86.31
261.244	68.31
261.477	94.31
261.71	72.31
261.942	99.31
262.175	105.31
262.407	101.31
262.64	94.31
262.872	87.31
263.105	77.31
263.337	94.31
263.57	71.31
263.802	84.31
264.035	95.31
264.267	82.31
264.499	93.31
264.732	81.31
264.964	85.31
265.197	103.31
265.429	81.31
265.661	71.31
265.894	83.31
266.126	91.31
266.358	69.31
266.591	79.31
266.823	91.31
267.055	94.31
267.287	77.31
267.52	83.31
267.752	85.31
267.984	81.31
268.216	74.31
268.448	93.31
268.681	95.31
268.913	91.31
269.145	81.31
269.377	84.31
269.609	89.31
269.841	91.31
270.073	100.31
270.306	96.31
270.538	96.31
270.77	95.31
271.002	84.31
271.234	84.31
271.466	78.31
271.698	102.31
271.93	93.31
272.162	75.31
272.394	73.31
272.626	86.31
272.858	74.31
273.09	91.31
273.322	82.31
273.553	75.31
273.785	82.31
274.017	83.31
274.249	77.31
274.481	94.31
274.713	90.31
274.945	83.31
275.176	98.31
275.408	78.31
275.64	81.31
275.872	83.31
276.104	79.31
276.335	95.31
276.567	92.31
276.799	103.31
277.031	96.31
277.262	91.31
277.494	84.31
277.726	81.31
277.957	87.31
278.189	90.31
278.421	82.31
278.652	66.31
278.884	93.31
279.115	81.31
279.347	81.31
279.579	74.31
279.81	80.31
280.042	99.31
280.273	114.31
280.505	89.31
280.736	101.31
280.968	89.31
281.199	100.31
281.431	85.31
281.662	82.31
281.894	88.31
282.125	92.31
282.356	93.31
282.588	131.31
282.819	106.31
283.051	86.31
283.282	81.31
283.513	81.31
283.745	89.31
283.976	97.31
284.207	95.31
284.439	85.31
284.67	93.31
284.901	86.31
285.132	81.31
285.364	81.31
285.595	94.31
285.826	84.31
286.057	81.31
286.288	69.31
286.52	91.31
286.751	82.31
286.982	81.31
287.213	81.31
287.444	81.31
287.675	117.31
287.906	66.31
288.138	89.31
288.369	90.31
288.6	96.31
288.831	93.31
289.062	104.31
289.293	87.31
289.524	89.31
289.755	94.31
289.986	84.31
290.217	103.31
290.448	83.31
290.679	78.31
290.91	86.31
291.141	81.31
291.371	90.31
291.602	82.31
291.833	93.31
292.064	70.31
292.295	89.31
292.526	77.31
292.757	93.31
292.987	89.31
293.218	82.31
293.449	68.31
293.68	98.31
293.91	92.31
294.141	84.31
294.372	88.31
294.603	83.31
294.833	95.31
295.064	89.31
295.295	95.31
295.525	91.31
295.756	83.31
295.987	102.31
296.217	128.31
296.448	101.31
296.679	96.31
296.909	85.31
297.14	85.31
297.37	83.31
297.601	84.31
297.831	67.31
298.062	75.31
298.292	89.31
298.523	83.31
298.753	85.31
298.984	91.31
299.214	80.31
299.445	102.31
299.675	96.31
299.905	99.31
300.136	81.31
300.366	73.31
300.597	75.31
300.827	97.31
301.057	90.31
301.288	108.31
301.518	87.31
301.748	96.31
301.979	107.31
302.209	78.31
302.439	86.31
302.669	98.31
302.9	103.31
303.13	91.31
303.36	90.31
303.59	100.31
303.82	103.31
304.051	94.31
304.281	91.31
304.511	89.31
304.741	81.31
304.971	84.31
305.201	100.31
305.431	89.31
305.661	80.31
305.891	86.31
306.121	102.31
306.352	78.31
306.582	85.31
306.812	87.31
307.042	92.31
307.272	112.31
307.502	97.31
307.731	94.31
307.961	96.31
308.191	102.31
308.421	90.31
308.651	102.31
308.881	90.31
309.111	93.31
309.341	93.31
309.571	102.31
309.8	104.31
310.03	91.31
310.26	83.31
310.49	99.31
310.72	104.31
310.949	119.31
311.179	111.31
311.409	89.31
311.639	92.31
311.868	98.31
312.098	96.31
312.328	90.31
312.557	100.31
312.787	103.31
313.017	94.31
313.246	92.31
313.476	95.31
313.706	106.31
313.935	91.31
314.165	79.31
314.394	107.31
314.624	110.31
314.853	103.31
315.083	90.31
315.312	95.31
315.542	86.31
315.771	76.31
316.001	97.31
316.23	89.31
316.46	75.31
316.689	90.31
316.919	89.31
317.148	99.31
317.377	84.31
317.607	92.31
317.836	81.31
318.065	85.31
318.295	81.31
318.524	94.31
318.753	88.31
318.983	110.31
319.212	101.31
319.441	106.31
319.67	110.31
319.9	96.31
320.129	94.31
320.358	95.31
320.587	106.31
320.816	98.31
321.046	106.31
321.275	90.31
321.504	86.31
321.733	109.31
321.962	101.31
322.191	96.31
322.42	108.31
322.649	94.31
322.878	108.31
323.108	105.31
323.337	107.31
323.566	135.31
323.795	147.31
324.024	171.31
324.253	317.31
324.482	669.31
324.71	1416.31
324.939	1827.31
325.168	678.31
325.397	217.31
325.626	145.31
325.855	125.31
326.084	122.31
326.313	109.31
326.542	134.31
326.77	205.31
326.999	381.31
327.228	769.31
327.457	1415.31
327.686	1118.31
327.914	335.31
328.143	211.31
328.372	194.31
328.6	138.31
328.829	116.31
329.058	113.31
329.287	118.31
329.515	120.31
329.744	128.31
329.972	190.31
330.201	250.31
330.43	333.31
330.658	197.31
330.887	160.31
331.115	116.31
331.344	98.31
331.572	95.31
331.801	100.31
332.03	92.31
332.258	92.31
332.486	102.31
332.715	92.31
332.943	104.31
333.172	99.31
333.4	101.31
333.629	103.31
333.857	136.31
334.085	185.31
334.314	261.31
334.542	429.31
334.771	379.31
334.999	164.31
335.227	113.31
335.455	94.31
335.684	94.31
335.912	107.31
336.14	90.31
336.369	94.31
336.597	98.31
336.825	91.31
337.053	82.31
337.281	103.31
337.51	100.31
337.738	95.31
337.966	100.31
338.194	89.31
338.422	102.31
338.65	89.31
338.878	81.31
339.106	88.31
339.334	85.31
339.562	80.31
339.79	83.31
340.018	90.31
340.246	81.31
340.474	100.31
340.702	98.31
340.93	88.31
341.158	102.31
341.386	93.31
341.614	91.31
341.842	103.31
342.07	80.31
342.298	76.31
342.526	91.31
342.754	85.31
342.981	93.31
343.209	93.31
343.437	120.31
343.665	89.31
343.893	95.31
344.12	102.31
344.348	104.31
344.576	101.31
344.804	101.31
345.031	87.31
345.259	86.31
345.487	89.31
345.714	96.31
345.942	91.31
346.17	86.31
346.397	83.31
346.625	83.31
346.853	94.31
347.08	74.31
347.308	96.31
347.535	102.31
347.763	93.31
347.99	85.31
348.218	98.31
348.445	98.31
348.673	101.31
348.9	110.31
349.128	94.31
349.355	93.31
349.583	89.31
349.81	87.31
350.037	89.31
350.265	90.31
350.492	80.31
350.72	81.31
350.947	112.31
351.174	104.31
351.402	106.31
351.629	103.31
351.856	107.31
352.083	95.31
352.311	98.31
352.538	96.31
352.765	100.31
352.992	102.31
353.22	108.31
353.447	95.31
353.674	84.31
353.901	90.31
354.128	91.31
354.355	98.31
354.583	99.31
354.81	88.31
355.037	106.31
355.264	94.31
355.491	93.31
355.718	100.31
355.945	85.31
356.172	90.31
356.399	91.31
356.626	87.31
356.853	97.31
357.08	97.31
357.307	79.31
357.534	85.31
357.761	89.31
357.988	91.31
358.215	86.31
358.441	101.31
358.668	106.31
358.895	89.31
359.122	92.31
359.349	93.31
359.576	88.31
359.802	87.31
360.029	115.31
360.256	107.31
360.483	95.31
360.709	91.31
360.936	89.31
361.163	91.31
361.39	110.31
361.616	89.31
361.843	79.31
362.07	80.31
362.296	95.31
362.523	103.31
362.749	98.31
362.976	88.31
363.203	95.31
363.429	81.31
363.656	90.31
363.882	89.31
364.109	71.31
364.335	80.31
364.562	86.31
364.788	86.31
365.015	94.31
365.241	90.31
365.468	101.31
365.694	91.31
365.92	101.31
366.147	85.31
366.373	89.31
366.599	100.31
366.826	102.31
367.052	91.31
367.278	81.31
367.505	88.31
367.731	92.31
367.957	91.31
368.184	95.31
368.41	88.31
368.636	96.31
368.862	105.31
369.089	98.31
369.315	95.31
369.541	92.31
369.767	84.31
369.993	76.31
370.219	109.31
370.445	96.31
370.672	77.31
370.898	91.31
371.124	84.31
371.35	93.31
371.576	87.31
371.802	87.31
372.028	74.31
372.254	74.31
372.48	79.31
372.706	77.31
372.932	82.31
373.158	89.31
373.384	82.31
373.61	86.31
373.835	85.31
374.061	99.31
374.287	82.31
374.513	89.31
374.739	88.31
374.965	76.31
375.191	97.31
375.416	85.31
375.642	77.31
375.868	81.31
376.094	87.31
376.319	81.31
376.545	83.31
376.771	79.31
376.997	94.31
377.222	91.31
377.448	97.31
377.674	98.31
377.899	85.31
378.125	89.31
378.35	85.31
378.576	85.31
378.802	83.31
379.027	87.31
379.253	88.31
379.478	85.31
379.704	85.31
379.929	92.31
380.155	88.31
380.38	100.31
380.606	92.31
380.831	97.31
381.057	96.31
381.282	94.31
381.507	80.31
381.733	87.31
381.958	98.31
382.184	96.31
382.409	105.31
382.634	92.31
382.86	85.31
383.085	100.31
383.31	96.31
383.535	86.31
383.761	92.31
383.986	97.31
384.211	95.31
384.436	95.31
384.662	109.31
384.887	86.31
385.112	109.31
385.337	99.31
385.562	107.31
385.787	94.31
386.013	115.31
386.238	104.31
386.463	101.31
386.688	91.31
386.913	85.31
387.138	85.31
387.363	101.31
387.588	85.31
387.813	99.31
388.038	104.31
388.263	102.31
388.488	107.31
388.713	95.31
388.938	91.31
389.163	98.31
389.387	82.31
389.612	94.31
389.837	94.31
390.062	104.31
390.287	78.31
390.512	78.31
390.736	77.31
390.961	79.31
391.186	97.31
391.411	98.31
391.636	92.31
391.86	81.31
392.085	87.31
392.31	83.31
392.534	84.31
392.759	89.31
392.984	97.31
393.208	84.31
393.433	98.31
393.658	81.31
393.882	81.31
394.107	96.31
394.331	69.31
394.556	78.31
394.78	85.31
395.005	84.31
395.229	88.31
395.454	93.31
395.678	86.31
395.903	89.31
396.127	77.31
396.352	93.31
396.576	94.31
396.801	89.31
397.025	91.31
397.249	101.31
397.474	81.31
397.698	92.31
397.922	87.31
398.147	73.31
398.371	83.31
398.595	93.31
398.82	82.31
399.044	82.31
399.268	74.31
399.492	98.31
399.717	83.31
399.941	80.31
400.165	83.31
400.389	86.31
400.613	88.31
400.837	86.31
401.062	88.31
401.286	69.31
401.51	103.31
401.734	86.31
401.958	82.31
402.182	121.31
402.406	150.31
402.63	112.31
402.854	88.31
403.078	91.31
403.302	81.31
403.526	88.31
403.75	90.31
403.974	86.31
404.198	91.31
404.422	80.31
404.645	72.31
404.869	83.31
405.093	86.31
405.317	104.31
405.541	93.31
405.765	96.31
405.988	92.31
406.212	149.31
406.436	191.31
406.66	128.31
406.883	101.31
407.107	91.31
407.331	106.31
407.555	113.31
407.778	106.31
408.002	95.31
408.226	69.31
408.449	83.31
408.673	84.31
408.896	78.31
409.12	99.31
409.344	94.31
409.567	85.31
409.791	99.31
410.014	98.31
410.238	85.31
410.461	93.31
410.685	96.31
410.908	102.31
411.132	95.31
411.355	90.31
411.578	98.31
411.802	98.31
412.025	71.31
412.249	91.31
412.472	84.31
412.695	108.31
412.919	108.31
413.142	87.31
413.365	99.31
413.589	72.31
413.812	91.31
414.035	89.31
414.258	92.31
414.482	73.31
414.705	83.31
414.928	87.31
415.151	92.31
415.374	99.31
415.597	90.31
415.821	98.31
416.044	81.31
416.267	89.31
416.49	88.31
416.713	81.31
416.936	85.31
417.159	87.31
417.382	103.31
417.605	98.31
417.828	97.31
418.051	92.31
418.274	89.31
418.497	77.31
418.72	69.31
418.943	86.31
419.166	80.31
419.389	81.31
419.611	78.31
419.834	86.31
420.057	73.31
420.28	91.31
420.503	100.31
420.726	79.31
420.948	77.31
421.171	92.31
421.394	79.31
421.617	84.31
421.839	99.31
422.062	73.31
422.285	72.31
422.507	97.31
422.73	109.31
422.953	94.31
423.175	87.31
423.398	70.31
423.621	82.31
423.843	87.31
424.066	79.31
424.288	77.31
424.511	91.31
424.733	92.31
424.956	90.31
425.178	99.31
425.401	93.31
425.623	95.31
425.846	85.31
426.068	104.31
426.291	85.31
426.513	88.31
426.735	91.31
426.958	93.31
427.18	96.31
427.402	135.31
427.625	159.31
427.847	150.31
428.069	141.31
428.292	95.31
428.514	83.31
428.736	86.31
428.958	97.31
429.181	93.31
429.403	75.31
429.625	69.31
429.847	89.31
430.069	86.31
430.292	82.31
430.514	80.31
430.736	93.31
430.958	78.31
431.18	81.31
431.402	98.31
431.624	70.31
431.846	62.31
432.068	91.31
432.29	95.31
432.512	90.31
432.734	86.31
432.956	109.31
433.178	97.31
433.4	98.31
433.622	81.31
433.844	87.31
434.066	84.31
434.287	95.31
434.509	99.31
434.731	81.31
434.953	90.31
435.175	88.31
435.397	96.31
435.618	88.31
435.84	99.31
436.062	118.31
436.284	116.31
436.505	87.31
436.727	89.31
436.949	75.31
437.17	79.31
437.392	88.31
437.614	85.31
437.835	90.31
438.057	101.31
438.278	109.31
438.5	121.31
438.721	113.31
438.943	96.31
439.165	72.31
439.386	78.31
439.608	86.31
439.829	101.31
440.05	132.31
440.272	132.31
440.493	96.31
440.715	78.31
440.936	91.31
441.158	81.31
441.379	82.31
441.6	87.31
441.822	70.31
442.043	93.31
442.264	112.31
442.486	104.31
442.707	93.31
442.928	98.31
443.149	114.31
443.371	117.31
443.592	93.31
443.813	103.31
444.034	111.31
444.255	91.31
444.476	91.31
444.698	93.31
444.919	86.31
445.14	129.31
445.361	113.31
445.582	117.31
445.803	124.31
446.024	114.31
446.245	141.31
446.466	120.31
446.687	99.31
446.908	89.31
447.129	78.31
447.35	102.31
447.571	94.31
447.792	75.31
448.013	91.31
448.234	101.31
448.455	89.31
448.675	98.31
448.896	111.31
449.117	93.31
449.338	106.31
449.559	129.31
449.779	106.31
450	92.31
450.221	85.31
450.442	79.31
450.662	89.31
450.883	102.31
451.104	102.31
451.324	105.31
451.545	80.31
451.766	84.31
451.986	75.31
452.207	73.31
452.428	90.31
452.648	83.31
452.869	95.31
453.089	101.31
453.31	112.31
453.53	93.31
453.751	79.31
453.971	97.31
454.192	114.31
454.412	87.31
454.633	83.31
454.853	77.31
455.073	86.31
455.294	95.31
455.514	92.31
455.734	108.31
455.955	93.31
456.175	86.31
456.395	72.31
456.616	90.31
456.836	87.31
457.056	102.31
457.276	89.31
457.497	97.31
457.717	85.31
457.937	78.31
458.157	79.31
458.377	85.31
458.598	101.31
458.818	124.31
459.038	135.31
459.258	97.31
459.478	90.31
459.698	89.31
459.918	82.31
460.138	87.31
460.358	82.31
460.578	96.31
460.798	74.31
461.018	72.31
461.238	99.31
461.458	91.31
461.678	74.31
461.898	74.31
462.118	94.31
462.338	81.31
462.558	86.31
462.777	89.31
462.997	90.31
463.217	88.31
463.437	74.31
463.657	84.31
463.876	81.31
464.096	81.31
464.316	102.31
464.536	83.31
464.755	76.31
464.975	106.31
465.195	151.31
465.414	138.31
465.634	95.31
465.854	89.31
466.073	95.31
466.293	83.31
466.512	91.31
466.732	88.31
466.951	71.31
467.171	86.31
467.391	97.31
467.61	104.31
467.829	95.31
468.049	185.31
468.268	207.31
468.488	97.31
468.707	89.31
468.927	80.31
469.146	85.31
469.365	74.31
469.585	80.31
469.804	87.31
470.023	85.31
470.243	93.31
470.462	90.31
470.681	98.31
470.901	85.31
471.12	85.31
471.339	78.31
471.558	99.31
471.777	89.31
471.997	142.31
472.216	285.31
472.435	528.31
472.654	169.31
472.873	93.31
473.092	94.31
473.311	93.31
473.53	96.31
473.749	93.31
473.968	97.31
474.187	92.31
474.406	104.31
474.625	97.31
474.844	87.31
475.063	79.31
475.282	80.31
475.501	89.31
475.72	100.31
475.939	77.31
476.158	71.31
476.377	86.31
476.596	85.31
476.814	80.31
477.033	92.31
477.252	95.31
477.471	88.31
477.69	89.31
477.908	98.31
478.127	83.31
478.346	82.31
478.564	83.31
478.783	99.31
479.002	96.31
479.22	95.31
479.439	99.31
479.658	110.31
479.876	93.31
480.095	103.31
480.313	88.31
480.532	109.31
480.751	122.31
480.969	290.31
481.188	967.31
481.406	565.31
481.624	136.31
481.843	102.31
482.061	96.31
482.28	98.31
482.498	104.31
482.717	83.31
482.935	79.31
483.153	87.31
483.372	92.31
483.59	90.31
483.808	90.31
484.027	89.31
484.245	90.31
484.463	90.31
484.681	92.31
484.9	102.31
485.118	106.31
485.336	82.31
485.554	102.31
485.772	91.31
485.99	93.31
486.209	104.31
486.427	113.31
486.645	105.31
486.863	112.31
487.081	102.31
487.299	105.31
487.517	87.31
487.735	90.31
487.953	95.31
488.171	99.31
488.389	93.31
488.607	94.31
488.825	88.31
489.043	93.31
489.261	97.31
489.479	88.31
489.696	83.31
489.914	80.31
490.132	97.31
490.35	83.31
490.568	78.31
490.786	86.31
491.003	85.31
491.221	78.31
491.439	86.31
491.657	88.31
491.874	97.31
492.092	87.31
492.31	91.31
492.527	94.31
492.745	90.31
492.963	95.31
493.18	97.31
493.398	88.31
493.615	90.31
493.833	84.31
494.05	81.31
494.268	92.31
494.485	113.31
494.703	87.31
494.92	85.31
495.138	86.31
495.355	100.31
495.573	95.31
495.79	81.31
496.008	79.31
496.225	97.31
496.442	92.31
496.66	90.31
496.877	101.31
497.094	75.31
497.312	85.31
497.529	89.31
497.746	82.31
497.963	96.31
498.181	103.31
498.398	91.31
498.615	100.31
498.832	83.31
499.049	85.31
499.267	74.31
499.484	86.31
499.701	80.31
499.918	86.31
500.135	80.31
500.352	89.31
500.569	89.31
500.786	93.31
501.003	81.31
501.22	82.31
501.437	82.31
501.654	89.31
501.871	101.31
502.088	94.31
502.305	93.31
502.522	87.31
502.739	87.31
502.956	94.31
503.172	91.31
503.389	104.31
503.606	98.31
503.823	104.31
504.04	87.31
504.256	98.31
504.473	103.31
504.69	101.31
504.907	99.31
505.123	99.31
505.34	93.31
505.557	98.31
505.773	69.31
505.99	79.31
506.207	97.31
506.423	83.31
506.64	90.31
506.856	87.31
507.073	91.31
507.289	98.31
507.506	81.31
507.722	99.31
507.939	111.31
508.155	102.31
508.372	84.31
508.588	88.31
508.805	96.31
509.021	93.31
509.238	101.31
509.454	108.31
509.67	102.31
509.887	111.31
510.103	129.31
510.319	196.31
510.536	634.31
510.752	1959.31
510.968	549.31
511.184	147.31
511.401	109.31
511.617	89.31
511.833	92.31
512.049	79.31
512.265	74.31
512.481	89.31
512.698	70.31
512.914	87.31
513.13	90.31
513.346	84.31
513.562	102.31
513.778	98.31
513.994	97.31
514.21	102.31
514.426	101.31
514.642	116.31
514.858	134.31
515.074	144.31
515.29	352.31
515.506	1161.31
515.721	439.31
515.937	147.31
516.153	105.31
