Data from Circ_1984_H10_HRD10591_00057.txt Node
Date: Wed Jan 03 12:22:53 EST 2024
User: Yrep
Spectrometer: HR+D1059
Trigger mode: 1
Integration Time (sec): 1.000000E-1
Scans to average: 1
Electric dark correction enabled: true
Nonlinearity correction enabled: false
Boxcar width: 0
XAxis mode: Wavelengths
Number of Pixels in Spectrum: 2048
>>>>>Begin Spectral Data<<<<<
223.165	-16.75
223.4	-16.75
223.635	-16.75
223.869	-22.75
224.104	-19.75
224.338	-17.75
224.573	-6.75
224.808	-13.75
225.042	-14.75
225.277	-2.75
225.511	-1.75
225.746	4.25
225.98	10.25
226.215	26.25
226.449	9.25
226.683	16.25
226.918	20.25
227.152	30.25
227.387	34.25
227.621	37.25
227.856	44.25
228.09	41.25
228.324	46.25
228.559	63.25
228.793	49.25
229.027	51.25
229.262	71.25
229.496	53.25
229.73	63.25
229.964	79.25
230.199	78.25
230.433	60.25
230.667	71.25
230.901	85.25
231.136	71.25
231.37	82.25
231.604	71.25
231.838	67.25
232.072	70.25
232.306	83.25
232.541	93.25
232.775	101.25
233.009	82.25
233.243	95.25
233.477	82.25
233.711	71.25
233.945	82.25
234.179	76.25
234.413	94.25
234.647	77.25
234.881	69.25
235.115	74.25
235.349	75.25
235.583	82.25
235.817	69.25
236.051	72.25
236.285	83.25
236.519	86.25
236.753	94.25
236.987	65.25
237.221	89.25
237.455	66.25
237.689	80.25
237.922	82.25
238.156	95.25
238.39	70.25
238.624	71.25
238.858	60.25
239.091	80.25
239.325	79.25
239.559	77.25
239.793	78.25
240.027	79.25
240.26	88.25
240.494	64.25
240.728	76.25
240.961	63.25
241.195	80.25
241.429	60.25
241.662	79.25
241.896	74.25
242.13	78.25
242.363	74.25
242.597	68.25
242.83	78.25
243.064	63.25
243.298	75.25
243.531	72.25
243.765	88.25
243.998	87.25
244.232	79.25
244.465	85.25
244.699	78.25
244.932	65.25
245.166	73.25
245.399	87.25
245.633	89.25
245.866	81.25
246.099	84.25
246.333	87.25
246.566	66.25
246.8	86.25
247.033	60.25
247.266	76.25
247.5	77.25
247.733	80.25
247.966	80.25
248.2	93.25
248.433	89.25
248.666	72.25
248.899	78.25
249.133	78.25
249.366	100.25
249.599	95.25
249.832	74.25
250.066	84.25
250.299	76.25
250.532	71.25
250.765	71.25
250.998	84.25
251.231	76.25
251.465	80.25
251.698	78.25
251.931	82.25
252.164	73.25
252.397	82.25
252.63	82.25
252.863	77.25
253.096	84.25
253.329	65.25
253.562	56.25
253.795	65.25
254.028	78.25
254.261	83.25
254.494	61.25
254.727	67.25
254.96	88.25
255.193	82.25
255.426	58.25
255.659	86.25
255.892	85.25
256.124	76.25
256.357	73.25
256.59	76.25
256.823	82.25
257.056	69.25
257.289	80.25
257.521	76.25
257.754	89.25
257.987	74.25
258.22	66.25
258.452	81.25
258.685	84.25
258.918	83.25
259.151	81.25
259.383	67.25
259.616	76.25
259.849	83.25
260.081	82.25
260.314	88.25
260.547	73.25
260.779	87.25
261.012	80.25
261.244	82.25
261.477	93.25
261.71	81.25
261.942	88.25
262.175	101.25
262.407	81.25
262.64	76.25
262.872	72.25
263.105	79.25
263.337	68.25
263.57	73.25
263.802	72.25
264.035	81.25
264.267	66.25
264.499	100.25
264.732	71.25
264.964	85.25
265.197	62.25
265.429	94.25
265.661	90.25
265.894	88.25
266.126	89.25
266.358	78.25
266.591	83.25
266.823	73.25
267.055	83.25
267.287	76.25
267.52	75.25
267.752	68.25
267.984	89.25
268.216	77.25
268.448	76.25
268.681	82.25
268.913	82.25
269.145	71.25
269.377	92.25
269.609	71.25
269.841	82.25
270.073	80.25
270.306	92.25
270.538	80.25
270.77	78.25
271.002	85.25
271.234	88.25
271.466	89.25
271.698	67.25
271.93	85.25
272.162	80.25
272.394	76.25
272.626	88.25
272.858	90.25
273.09	93.25
273.322	76.25
273.553	85.25
273.785	87.25
274.017	100.25
274.249	82.25
274.481	64.25
274.713	80.25
274.945	78.25
275.176	82.25
275.408	92.25
275.64	86.25
275.872	98.25
276.104	79.25
276.335	86.25
276.567	99.25
276.799	82.25
277.031	86.25
277.262	100.25
277.494	82.25
277.726	81.25
277.957	82.25
278.189	93.25
278.421	87.25
278.652	81.25
278.884	85.25
279.115	89.25
279.347	93.25
279.579	90.25
279.81	89.25
280.042	85.25
280.273	98.25
280.505	93.25
280.736	87.25
280.968	76.25
281.199	98.25
281.431	93.25
281.662	76.25
281.894	86.25
282.125	90.25
282.356	92.25
282.588	120.25
282.819	105.25
283.051	73.25
283.282	78.25
283.513	85.25
283.745	78.25
283.976	83.25
284.207	75.25
284.439	76.25
284.67	84.25
284.901	78.25
285.132	92.25
285.364	86.25
285.595	78.25
285.826	85.25
286.057	84.25
286.288	84.25
286.52	96.25
286.751	80.25
286.982	90.25
287.213	84.25
287.444	73.25
287.675	73.25
287.906	77.25
288.138	82.25
288.369	87.25
288.6	92.25
288.831	90.25
289.062	83.25
289.293	86.25
289.524	85.25
289.755	71.25
289.986	81.25
290.217	74.25
290.448	78.25
290.679	74.25
290.91	83.25
291.141	84.25
291.371	79.25
291.602	84.25
291.833	87.25
292.064	80.25
292.295	87.25
292.526	82.25
292.757	98.25
292.987	87.25
293.218	88.25
293.449	92.25
293.68	80.25
293.91	80.25
294.141	96.25
294.372	76.25
294.603	81.25
294.833	95.25
295.064	93.25
295.295	81.25
295.525	90.25
295.756	95.25
295.987	104.25
296.217	111.25
296.448	119.25
296.679	97.25
296.909	77.25
297.14	96.25
297.37	94.25
297.601	84.25
297.831	77.25
298.062	86.25
298.292	93.25
298.523	81.25
298.753	75.25
298.984	76.25
299.214	85.25
299.445	83.25
299.675	72.25
299.905	83.25
300.136	91.25
300.366	89.25
300.597	91.25
300.827	81.25
301.057	90.25
301.288	84.25
301.518	78.25
301.748	86.25
301.979	100.25
302.209	96.25
302.439	85.25
302.669	71.25
302.9	78.25
303.13	100.25
303.36	92.25
303.59	97.25
303.82	94.25
304.051	74.25
304.281	91.25
304.511	86.25
304.741	84.25
304.971	95.25
305.201	90.25
305.431	80.25
305.661	101.25
305.891	86.25
306.121	87.25
306.352	81.25
306.582	92.25
306.812	110.25
307.042	86.25
307.272	95.25
307.502	111.25
307.731	93.25
307.961	90.25
308.191	74.25
308.421	90.25
308.651	76.25
308.881	82.25
309.111	86.25
309.341	93.25
309.571	79.25
309.8	81.25
310.03	94.25
310.26	92.25
310.49	95.25
310.72	88.25
310.949	83.25
311.179	109.25
311.409	90.25
311.639	84.25
311.868	84.25
312.098	99.25
312.328	89.25
312.557	80.25
312.787	92.25
313.017	73.25
313.246	96.25
313.476	105.25
313.706	78.25
313.935	90.25
314.165	78.25
314.394	94.25
314.624	80.25
314.853	84.25
315.083	81.25
315.312	90.25
315.542	89.25
315.771	98.25
316.001	91.25
316.23	95.25
316.46	78.25
316.689	83.25
316.919	92.25
317.148	99.25
317.377	91.25
317.607	90.25
317.836	69.25
318.065	81.25
318.295	84.25
318.524	98.25
318.753	89.25
318.983	78.25
319.212	88.25
319.441	101.25
319.67	112.25
319.9	97.25
320.129	98.25
320.358	96.25
320.587	95.25
320.816	92.25
321.046	94.25
321.275	89.25
321.504	99.25
321.733	95.25
321.962	98.25
322.191	93.25
322.42	99.25
322.649	100.25
322.878	96.25
323.108	89.25
323.337	114.25
323.566	118.25
323.795	125.25
324.024	173.25
324.253	313.25
324.482	659.25
324.71	1299.25
324.939	1744.25
325.168	644.25
325.397	211.25
325.626	145.25
325.855	112.25
326.084	100.25
326.313	127.25
326.542	145.25
326.77	182.25
326.999	367.25
327.228	754.25
327.457	1331.25
327.686	1062.25
327.914	336.25
328.143	194.25
328.372	185.25
328.6	141.25
328.829	112.25
329.058	96.25
329.287	109.25
329.515	110.25
329.744	115.25
329.972	142.25
330.201	201.25
330.43	241.25
330.658	170.25
330.887	127.25
331.115	117.25
331.344	98.25
331.572	88.25
331.801	96.25
332.03	103.25
332.258	86.25
332.486	90.25
332.715	90.25
332.943	99.25
333.172	84.25
333.4	95.25
333.629	119.25
333.857	119.25
334.085	138.25
334.314	206.25
334.542	296.25
334.771	276.25
334.999	129.25
335.227	90.25
335.455	92.25
335.684	99.25
335.912	79.25
336.14	91.25
336.369	90.25
336.597	93.25
336.825	94.25
337.053	95.25
337.281	83.25
337.51	86.25
337.738	96.25
337.966	80.25
338.194	89.25
338.422	101.25
338.65	81.25
338.878	104.25
339.106	88.25
339.334	93.25
339.562	96.25
339.79	96.25
340.018	90.25
340.246	94.25
340.474	91.25
340.702	90.25
340.93	85.25
341.158	91.25
341.386	88.25
341.614	76.25
341.842	102.25
342.07	87.25
342.298	110.25
342.526	84.25
342.754	70.25
342.981	94.25
343.209	88.25
343.437	102.25
343.665	88.25
343.893	92.25
344.12	91.25
344.348	71.25
344.576	84.25
344.804	94.25
345.031	95.25
345.259	98.25
345.487	88.25
345.714	97.25
345.942	88.25
346.17	94.25
346.397	84.25
346.625	88.25
346.853	89.25
347.08	88.25
347.308	97.25
347.535	98.25
347.763	89.25
347.99	98.25
348.218	94.25
348.445	79.25
348.673	92.25
348.9	98.25
349.128	95.25
349.355	88.25
349.583	77.25
349.81	78.25
350.037	98.25
350.265	99.25
350.492	83.25
350.72	96.25
350.947	90.25
351.174	99.25
351.402	103.25
351.629	92.25
351.856	90.25
352.083	90.25
352.311	105.25
352.538	85.25
352.765	104.25
352.992	76.25
353.22	102.25
353.447	103.25
353.674	111.25
353.901	86.25
354.128	94.25
354.355	104.25
354.583	96.25
354.81	88.25
355.037	95.25
355.264	84.25
355.491	96.25
355.718	82.25
355.945	94.25
356.172	100.25
356.399	70.25
356.626	78.25
356.853	83.25
357.08	80.25
357.307	93.25
357.534	92.25
357.761	84.25
357.988	81.25
358.215	90.25
358.441	96.25
358.668	85.25
358.895	83.25
359.122	82.25
359.349	92.25
359.576	84.25
359.802	103.25
360.029	107.25
360.256	99.25
360.483	93.25
360.709	77.25
360.936	76.25
361.163	90.25
361.39	95.25
361.616	88.25
361.843	93.25
362.07	92.25
362.296	83.25
362.523	96.25
362.749	94.25
362.976	91.25
363.203	94.25
363.429	80.25
363.656	88.25
363.882	90.25
364.109	104.25
364.335	81.25
364.562	78.25
364.788	85.25
365.015	100.25
365.241	91.25
365.468	100.25
365.694	94.25
365.92	93.25
366.147	80.25
366.373	68.25
366.599	95.25
366.826	91.25
367.052	80.25
367.278	96.25
367.505	83.25
367.731	101.25
367.957	77.25
368.184	89.25
368.41	99.25
368.636	120.25
368.862	88.25
369.089	93.25
369.315	84.25
369.541	87.25
369.767	80.25
369.993	84.25
370.219	73.25
370.445	77.25
370.672	78.25
370.898	81.25
371.124	86.25
371.35	85.25
371.576	84.25
371.802	90.25
372.028	91.25
372.254	96.25
372.48	92.25
372.706	86.25
372.932	80.25
373.158	93.25
373.384	96.25
373.61	105.25
373.835	87.25
374.061	93.25
374.287	72.25
374.513	80.25
374.739	99.25
374.965	77.25
375.191	99.25
375.416	80.25
375.642	73.25
375.868	94.25
376.094	73.25
376.319	84.25
376.545	93.25
376.771	75.25
376.997	72.25
377.222	87.25
377.448	88.25
377.674	94.25
377.899	98.25
378.125	78.25
378.35	83.25
378.576	82.25
378.802	95.25
379.027	70.25
379.253	82.25
379.478	92.25
379.704	84.25
379.929	90.25
380.155	98.25
380.38	83.25
380.606	98.25
380.831	96.25
381.057	102.25
381.282	88.25
381.507	88.25
381.733	79.25
381.958	93.25
382.184	91.25
382.409	101.25
382.634	77.25
382.86	96.25
383.085	90.25
383.31	95.25
383.535	90.25
383.761	89.25
383.986	98.25
384.211	90.25
384.436	107.25
384.662	106.25
384.887	95.25
385.112	96.25
385.337	91.25
385.562	99.25
385.787	85.25
386.013	118.25
386.238	115.25
386.463	103.25
386.688	93.25
386.913	88.25
387.138	102.25
387.363	109.25
387.588	100.25
387.813	108.25
388.038	101.25
388.263	100.25
388.488	103.25
388.713	90.25
388.938	96.25
389.163	97.25
389.387	84.25
389.612	91.25
389.837	88.25
390.062	93.25
390.287	85.25
390.512	102.25
390.736	94.25
390.961	80.25
391.186	85.25
391.411	96.25
391.636	100.25
391.86	92.25
392.085	83.25
392.31	80.25
392.534	90.25
392.759	83.25
392.984	83.25
393.208	87.25
393.433	95.25
393.658	82.25
393.882	88.25
394.107	76.25
394.331	88.25
394.556	85.25
394.78	81.25
395.005	82.25
395.229	81.25
395.454	95.25
395.678	81.25
395.903	102.25
396.127	86.25
396.352	88.25
396.576	82.25
396.801	83.25
397.025	86.25
397.249	70.25
397.474	92.25
397.698	82.25
397.922	93.25
398.147	93.25
398.371	85.25
398.595	72.25
398.82	80.25
399.044	82.25
399.268	90.25
399.492	92.25
399.717	94.25
399.941	96.25
400.165	86.25
400.389	80.25
400.613	95.25
400.837	70.25
401.062	80.25
401.286	92.25
401.51	96.25
401.734	86.25
401.958	92.25
402.182	109.25
402.406	135.25
402.63	93.25
402.854	86.25
403.078	70.25
403.302	79.25
403.526	84.25
403.75	84.25
403.974	92.25
404.198	78.25
404.422	87.25
404.645	89.25
404.869	80.25
405.093	86.25
405.317	83.25
405.541	89.25
405.765	82.25
405.988	105.25
406.212	147.25
406.436	190.25
406.66	129.25
406.883	106.25
407.107	99.25
407.331	89.25
407.555	92.25
407.778	104.25
408.002	87.25
408.226	91.25
408.449	83.25
408.673	106.25
408.896	80.25
409.12	103.25
409.344	96.25
409.567	84.25
409.791	92.25
410.014	88.25
410.238	83.25
410.461	82.25
410.685	86.25
410.908	104.25
411.132	100.25
411.355	80.25
411.578	93.25
411.802	80.25
412.025	76.25
412.249	90.25
412.472	83.25
412.695	96.25
412.919	94.25
413.142	76.25
413.365	84.25
413.589	95.25
413.812	95.25
414.035	77.25
414.258	82.25
414.482	81.25
414.705	93.25
414.928	73.25
415.151	93.25
415.374	82.25
415.597	89.25
415.821	77.25
416.044	84.25
416.267	81.25
416.49	75.25
416.713	85.25
416.936	102.25
417.159	93.25
417.382	92.25
417.605	98.25
417.828	99.25
418.051	92.25
418.274	93.25
418.497	75.25
418.72	69.25
418.943	98.25
419.166	84.25
419.389	88.25
419.611	94.25
419.834	79.25
420.057	84.25
420.28	94.25
420.503	86.25
420.726	78.25
420.948	88.25
421.171	85.25
421.394	82.25
421.617	84.25
421.839	89.25
422.062	87.25
422.285	96.25
422.507	87.25
422.73	97.25
422.953	91.25
423.175	97.25
423.398	92.25
423.621	86.25
423.843	89.25
424.066	84.25
424.288	84.25
424.511	94.25
424.733	85.25
424.956	106.25
425.178	107.25
425.401	105.25
425.623	84.25
425.846	88.25
426.068	80.25
426.291	90.25
426.513	80.25
426.735	86.25
426.958	81.25
427.18	102.25
427.402	112.25
427.625	126.25
427.847	128.25
428.069	113.25
428.292	97.25
428.514	82.25
428.736	92.25
428.958	83.25
429.181	81.25
429.403	85.25
429.625	88.25
429.847	78.25
430.069	88.25
430.292	82.25
430.514	91.25
430.736	83.25
430.958	76.25
431.18	92.25
431.402	81.25
431.624	94.25
431.846	78.25
432.068	94.25
432.29	91.25
432.512	90.25
432.734	93.25
432.956	80.25
433.178	108.25
433.4	88.25
433.622	71.25
433.844	85.25
434.066	80.25
434.287	90.25
434.509	94.25
434.731	82.25
434.953	95.25
435.175	91.25
435.397	88.25
435.618	96.25
435.84	106.25
436.062	116.25
436.284	102.25
436.505	116.25
436.727	92.25
436.949	88.25
437.17	78.25
437.392	89.25
437.614	92.25
437.835	92.25
438.057	97.25
438.278	95.25
438.5	111.25
438.721	103.25
438.943	106.25
439.165	97.25
439.386	86.25
439.608	89.25
439.829	99.25
440.05	110.25
440.272	137.25
440.493	114.25
440.715	101.25
440.936	81.25
441.158	89.25
441.379	90.25
441.6	80.25
441.822	95.25
442.043	92.25
442.264	96.25
442.486	87.25
442.707	94.25
442.928	100.25
443.149	122.25
443.371	117.25
443.592	91.25
443.813	100.25
444.034	97.25
444.255	80.25
444.476	92.25
444.698	76.25
444.919	65.25
445.14	122.25
445.361	116.25
445.582	114.25
445.803	122.25
446.024	122.25
446.245	120.25
446.466	102.25
446.687	85.25
446.908	94.25
447.129	81.25
447.35	84.25
447.571	69.25
447.792	85.25
448.013	84.25
448.234	101.25
448.455	92.25
448.675	106.25
448.896	111.25
449.117	100.25
449.338	92.25
449.559	96.25
449.779	116.25
450	91.25
450.221	84.25
450.442	84.25
450.662	80.25
450.883	102.25
451.104	103.25
451.324	82.25
451.545	74.25
451.766	76.25
451.986	63.25
452.207	78.25
452.428	87.25
452.648	92.25
452.869	104.25
453.089	99.25
453.31	102.25
453.53	96.25
453.751	88.25
453.971	95.25
454.192	92.25
454.412	81.25
454.633	84.25
454.853	83.25
455.073	94.25
455.294	85.25
455.514	90.25
455.734	75.25
455.955	83.25
456.175	86.25
456.395	76.25
456.616	71.25
456.836	92.25
457.056	78.25
457.276	80.25
457.497	77.25
457.717	96.25
457.937	87.25
458.157	84.25
458.377	84.25
458.598	98.25
458.818	124.25
459.038	141.25
459.258	110.25
459.478	80.25
459.698	66.25
459.918	89.25
460.138	85.25
460.358	73.25
460.578	93.25
460.798	78.25
461.018	70.25
461.238	80.25
461.458	89.25
461.678	92.25
461.898	100.25
462.118	90.25
462.338	95.25
462.558	88.25
462.777	76.25
462.997	84.25
463.217	88.25
463.437	75.25
463.657	71.25
463.876	86.25
464.096	94.25
464.316	81.25
464.536	91.25
464.755	91.25
464.975	102.25
465.195	145.25
465.414	130.25
465.634	92.25
465.854	77.25
466.073	88.25
466.293	82.25
466.512	76.25
466.732	88.25
466.951	85.25
467.171	96.25
467.391	95.25
467.61	106.25
467.829	114.25
468.049	152.25
468.268	159.25
468.488	93.25
468.707	100.25
468.927	80.25
469.146	73.25
469.365	81.25
469.585	70.25
469.804	99.25
470.023	84.25
470.243	103.25
470.462	105.25
470.681	87.25
470.901	79.25
471.12	83.25
471.339	88.25
471.558	80.25
471.777	95.25
471.997	117.25
472.216	225.25
472.435	369.25
472.654	141.25
472.873	98.25
473.092	92.25
473.311	94.25
473.53	89.25
473.749	95.25
473.968	92.25
474.187	89.25
474.406	84.25
474.625	82.25
474.844	82.25
475.063	78.25
475.282	102.25
475.501	97.25
475.72	84.25
475.939	68.25
476.158	81.25
476.377	78.25
476.596	89.25
476.814	92.25
477.033	86.25
477.252	93.25
477.471	80.25
477.69	84.25
477.908	84.25
478.127	81.25
478.346	89.25
478.564	88.25
478.783	100.25
479.002	83.25
479.22	83.25
479.439	92.25
479.658	104.25
479.876	95.25
480.095	96.25
480.313	70.25
480.532	102.25
480.751	111.25
480.969	227.25
481.188	642.25
481.406	396.25
481.624	118.25
481.843	107.25
482.061	98.25
482.28	92.25
482.498	99.25
482.717	84.25
482.935	102.25
483.153	88.25
483.372	93.25
483.59	100.25
483.808	103.25
484.027	80.25
484.245	84.25
484.463	91.25
484.681	95.25
484.9	87.25
485.118	93.25
485.336	95.25
485.554	90.25
485.772	84.25
485.99	98.25
486.209	86.25
486.427	86.25
486.645	97.25
486.863	105.25
487.081	101.25
487.299	86.25
487.517	88.25
487.735	95.25
487.953	98.25
488.171	81.25
488.389	83.25
488.607	112.25
488.825	84.25
489.043	83.25
489.261	102.25
489.479	86.25
489.696	72.25
489.914	71.25
490.132	88.25
490.35	86.25
490.568	79.25
490.786	92.25
491.003	96.25
491.221	82.25
491.439	71.25
491.657	82.25
491.874	101.25
492.092	78.25
492.31	78.25
492.527	100.25
492.745	79.25
492.963	84.25
493.18	96.25
493.398	96.25
493.615	89.25
493.833	112.25
494.05	97.25
494.268	88.25
494.485	78.25
494.703	68.25
494.92	94.25
495.138	83.25
495.355	73.25
495.573	92.25
495.79	74.25
496.008	88.25
496.225	69.25
496.442	76.25
496.66	100.25
496.877	78.25
497.094	97.25
497.312	88.25
497.529	92.25
497.746	104.25
497.963	89.25
498.181	84.25
498.398	78.25
498.615	88.25
498.832	96.25
499.049	93.25
499.267	90.25
499.484	96.25
499.701	82.25
499.918	84.25
500.135	74.25
500.352	98.25
500.569	98.25
500.786	94.25
501.003	92.25
501.22	93.25
501.437	87.25
501.654	100.25
501.871	105.25
502.088	101.25
502.305	89.25
502.522	93.25
502.739	79.25
502.956	80.25
503.172	82.25
503.389	87.25
503.606	93.25
503.823	96.25
504.04	98.25
504.256	92.25
504.473	93.25
504.69	80.25
504.907	100.25
505.123	87.25
505.34	94.25
505.557	94.25
505.773	74.25
505.99	91.25
506.207	67.25
506.423	88.25
506.64	96.25
506.856	86.25
507.073	82.25
507.289	80.25
507.506	102.25
507.722	109.25
507.939	92.25
508.155	96.25
508.372	94.25
508.588	94.25
508.805	85.25
509.021	89.25
509.238	79.25
509.454	89.25
509.67	88.25
509.887	97.25
510.103	105.25
510.319	195.25
510.536	619.25
510.752	1892.25
510.968	530.25
511.184	126.25
511.401	94.25
511.617	86.25
511.833	107.25
512.049	86.25
512.265	90.25
512.481	89.25
512.698	69.25
512.914	94.25
513.13	89.25
513.346	88.25
513.562	102.25
513.778	86.25
513.994	82.25
514.21	96.25
514.426	113.25
514.642	125.25
514.858	118.25
515.074	134.25
515.29	340.25
515.506	1088.25
515.721	408.25
515.937	123.25
516.153	114.25
516.369	92.25
516.585	105.25
516.801	94.25
517.016	84.25
