Data from Circ_1984_H10_HRD10591_00008.txt Node
Date: Wed Jan 03 12:22:43 EST 2024
User: Yrep
Spectrometer: HR+D1059
Trigger mode: 1
Integration Time (sec): 1.000000E-1
Scans to average: 1
Electric dark correction enabled: true
Nonlinearity correction enabled: false
Boxcar width: 0
XAxis mode: Wavelengths
Number of Pixels in Spectrum: 2048
>>>>>Begin Spectral Data<<<<<
223.165	-22.44
223.4	-22.44
223.635	-22.44
223.869	-19.44
224.104	-8.44
224.338	-15.44
224.573	-19.44
224.808	-18.44
225.042	-7.44
225.277	-0.44
225.511	-12.44
225.746	-2.44
225.98	3.56
226.215	23.56
226.449	15.56
226.683	21.56
226.918	21.56
227.152	40.56
227.387	35.56
227.621	41.56
227.856	56.56
228.09	53.56
228.324	45.56
228.559	50.56
228.793	60.56
229.027	73.56
229.262	64.56
229.496	75.56
229.73	86.56
229.964	90.56
230.199	81.56
230.433	72.56
230.667	75.56
230.901	73.56
231.136	86.56
231.37	90.56
231.604	84.56
231.838	76.56
232.072	98.56
232.306	75.56
232.541	66.56
232.775	76.56
233.009	73.56
233.243	80.56
233.477	61.56
233.711	88.56
233.945	86.56
234.179	79.56
234.413	77.56
234.647	84.56
234.881	83.56
235.115	95.56
235.349	77.56
235.583	78.56
235.817	77.56
236.051	80.56
236.285	84.56
236.519	95.56
236.753	85.56
236.987	81.56
237.221	82.56
237.455	76.56
237.689	87.56
237.922	66.56
238.156	83.56
238.39	76.56
238.624	77.56
238.858	75.56
239.091	88.56
239.325	68.56
239.559	72.56
239.793	78.56
240.027	83.56
240.26	77.56
240.494	75.56
240.728	76.56
240.961	68.56
241.195	77.56
241.429	58.56
241.662	76.56
241.896	93.56
242.13	73.56
242.363	69.56
242.597	86.56
242.83	74.56
243.064	86.56
243.298	92.56
243.531	80.56
243.765	70.56
243.998	80.56
244.232	77.56
244.465	89.56
244.699	67.56
244.932	82.56
245.166	81.56
245.399	75.56
245.633	84.56
245.866	86.56
246.099	92.56
246.333	77.56
246.566	80.56
246.8	76.56
247.033	82.56
247.266	77.56
247.5	88.56
247.733	91.56
247.966	81.56
248.2	82.56
248.433	99.56
248.666	84.56
248.899	77.56
249.133	84.56
249.366	86.56
249.599	98.56
249.832	90.56
250.066	82.56
250.299	73.56
250.532	92.56
250.765	84.56
250.998	88.56
251.231	79.56
251.465	83.56
251.698	73.56
251.931	86.56
252.164	84.56
252.397	82.56
252.63	85.56
252.863	81.56
253.096	81.56
253.329	76.56
253.562	86.56
253.795	73.56
254.028	88.56
254.261	88.56
254.494	82.56
254.727	91.56
254.96	83.56
255.193	75.56
255.426	69.56
255.659	87.56
255.892	83.56
256.124	89.56
256.357	95.56
256.59	67.56
256.823	80.56
257.056	91.56
257.289	73.56
257.521	72.56
257.754	80.56
257.987	80.56
258.22	74.56
258.452	88.56
258.685	89.56
258.918	68.56
259.151	85.56
259.383	91.56
259.616	88.56
259.849	83.56
260.081	72.56
260.314	87.56
260.547	84.56
260.779	81.56
261.012	87.56
261.244	69.56
261.477	82.56
261.71	100.56
261.942	101.56
262.175	111.56
262.407	83.56
262.64	83.56
262.872	74.56
263.105	84.56
263.337	78.56
263.57	70.56
263.802	93.56
264.035	82.56
264.267	88.56
264.499	89.56
264.732	98.56
264.964	82.56
265.197	88.56
265.429	86.56
265.661	72.56
265.894	90.56
266.126	88.56
266.358	64.56
266.591	69.56
266.823	84.56
267.055	97.56
267.287	93.56
267.52	90.56
267.752	94.56
267.984	91.56
268.216	76.56
268.448	84.56
268.681	77.56
268.913	86.56
269.145	98.56
269.377	97.56
269.609	76.56
269.841	85.56
270.073	94.56
270.306	84.56
270.538	97.56
270.77	85.56
271.002	74.56
271.234	80.56
271.466	91.56
271.698	80.56
271.93	97.56
272.162	87.56
272.394	96.56
272.626	105.56
272.858	86.56
273.09	92.56
273.322	80.56
273.553	67.56
273.785	86.56
274.017	82.56
274.249	89.56
274.481	90.56
274.713	90.56
274.945	90.56
275.176	83.56
275.408	93.56
275.64	94.56
275.872	92.56
276.104	88.56
276.335	100.56
276.567	96.56
276.799	109.56
277.031	94.56
277.262	94.56
277.494	91.56
277.726	72.56
277.957	74.56
278.189	93.56
278.421	83.56
278.652	77.56
278.884	86.56
279.115	94.56
279.347	84.56
279.579	95.56
279.81	85.56
280.042	88.56
280.273	84.56
280.505	95.56
280.736	96.56
280.968	89.56
281.199	84.56
281.431	84.56
281.662	96.56
281.894	88.56
282.125	88.56
282.356	101.56
282.588	110.56
282.819	138.56
283.051	92.56
283.282	90.56
283.513	98.56
283.745	90.56
283.976	85.56
284.207	87.56
284.439	78.56
284.67	88.56
284.901	76.56
285.132	97.56
285.364	94.56
285.595	74.56
285.826	76.56
286.057	74.56
286.288	81.56
286.52	77.56
286.751	89.56
286.982	86.56
287.213	90.56
287.444	83.56
287.675	100.56
287.906	83.56
288.138	83.56
288.369	87.56
288.6	92.56
288.831	88.56
289.062	83.56
289.293	75.56
289.524	88.56
289.755	94.56
289.986	101.56
290.217	71.56
290.448	93.56
290.679	79.56
290.91	81.56
291.141	87.56
291.371	92.56
291.602	94.56
291.833	89.56
292.064	89.56
292.295	81.56
292.526	92.56
292.757	92.56
292.987	89.56
293.218	82.56
293.449	98.56
293.68	80.56
293.91	77.56
294.141	85.56
294.372	87.56
294.603	78.56
294.833	96.56
295.064	97.56
295.295	94.56
295.525	86.56
295.756	103.56
295.987	101.56
296.217	114.56
296.448	116.56
296.679	101.56
296.909	98.56
297.14	95.56
297.37	92.56
297.601	102.56
297.831	101.56
298.062	93.56
298.292	90.56
298.523	82.56
298.753	98.56
298.984	76.56
299.214	105.56
299.445	91.56
299.675	89.56
299.905	99.56
300.136	100.56
300.366	100.56
300.597	95.56
300.827	91.56
301.057	92.56
301.288	111.56
301.518	85.56
301.748	85.56
301.979	118.56
302.209	94.56
302.439	86.56
302.669	90.56
302.9	89.56
303.13	93.56
303.36	89.56
303.59	107.56
303.82	95.56
304.051	105.56
304.281	86.56
304.511	92.56
304.741	83.56
304.971	84.56
305.201	99.56
305.431	96.56
305.661	90.56
305.891	83.56
306.121	87.56
306.352	93.56
306.582	108.56
306.812	84.56
307.042	90.56
307.272	101.56
307.502	106.56
307.731	104.56
307.961	82.56
308.191	98.56
308.421	99.56
308.651	90.56
308.881	83.56
309.111	89.56
309.341	97.56
309.571	91.56
309.8	92.56
310.03	96.56
310.26	97.56
310.49	81.56
310.72	88.56
310.949	94.56
311.179	83.56
311.409	75.56
311.639	105.56
311.868	88.56
312.098	89.56
312.328	97.56
312.557	83.56
312.787	95.56
313.017	100.56
313.246	98.56
313.476	87.56
313.706	100.56
313.935	92.56
314.165	97.56
314.394	96.56
314.624	90.56
314.853	103.56
315.083	82.56
315.312	96.56
315.542	93.56
315.771	98.56
316.001	86.56
316.23	89.56
316.46	88.56
316.689	83.56
316.919	98.56
317.148	83.56
317.377	93.56
317.607	98.56
317.836	92.56
318.065	90.56
318.295	93.56
318.524	81.56
318.753	92.56
318.983	92.56
319.212	106.56
319.441	89.56
319.67	96.56
319.9	88.56
320.129	91.56
320.358	96.56
320.587	99.56
320.816	100.56
321.046	90.56
321.275	99.56
321.504	93.56
321.733	98.56
321.962	100.56
322.191	105.56
322.42	94.56
322.649	104.56
322.878	105.56
323.108	117.56
323.337	120.56
323.566	120.56
323.795	123.56
324.024	163.56
324.253	309.56
324.482	634.56
324.71	1273.56
324.939	1668.56
325.168	628.56
325.397	193.56
325.626	115.56
325.855	109.56
326.084	112.56
326.313	123.56
326.542	126.56
326.77	193.56
326.999	367.56
327.228	714.56
327.457	1301.56
327.686	1058.56
327.914	290.56
328.143	182.56
328.372	131.56
328.6	117.56
328.829	116.56
329.058	110.56
329.287	108.56
329.515	109.56
329.744	96.56
329.972	94.56
330.201	118.56
330.43	121.56
330.658	113.56
330.887	125.56
331.115	119.56
331.344	102.56
331.572	102.56
331.801	100.56
332.03	92.56
332.258	85.56
332.486	117.56
332.715	97.56
332.943	96.56
333.172	98.56
333.4	90.56
333.629	105.56
333.857	106.56
334.085	110.56
334.314	126.56
334.542	131.56
334.771	132.56
334.999	105.56
335.227	108.56
335.455	104.56
335.684	116.56
335.912	98.56
336.14	97.56
336.369	94.56
336.597	105.56
336.825	86.56
337.053	75.56
337.281	84.56
337.51	99.56
337.738	85.56
337.966	85.56
338.194	98.56
338.422	90.56
338.65	83.56
338.878	98.56
339.106	97.56
339.334	82.56
339.562	91.56
339.79	98.56
340.018	99.56
340.246	81.56
340.474	99.56
340.702	96.56
340.93	76.56
341.158	85.56
341.386	96.56
341.614	91.56
341.842	85.56
342.07	104.56
342.298	98.56
342.526	102.56
342.754	87.56
342.981	82.56
343.209	91.56
343.437	116.56
343.665	104.56
343.893	97.56
344.12	90.56
344.348	82.56
344.576	85.56
344.804	101.56
345.031	92.56
345.259	91.56
345.487	97.56
345.714	88.56
345.942	96.56
346.17	101.56
346.397	83.56
346.625	95.56
346.853	92.56
347.08	89.56
347.308	84.56
347.535	106.56
347.763	101.56
347.99	97.56
348.218	120.56
348.445	93.56
348.673	85.56
348.9	105.56
349.128	96.56
349.355	93.56
349.583	97.56
349.81	102.56
350.037	99.56
350.265	87.56
350.492	106.56
350.72	98.56
350.947	93.56
351.174	110.56
351.402	101.56
351.629	109.56
351.856	98.56
352.083	118.56
352.311	97.56
352.538	111.56
352.765	93.56
352.992	110.56
353.22	103.56
353.447	99.56
353.674	97.56
353.901	102.56
354.128	104.56
354.355	96.56
354.583	108.56
354.81	85.56
355.037	91.56
355.264	100.56
355.491	90.56
355.718	92.56
355.945	92.56
356.172	103.56
356.399	98.56
356.626	97.56
356.853	90.56
357.08	94.56
357.307	89.56
357.534	101.56
357.761	109.56
357.988	86.56
358.215	100.56
358.441	94.56
358.668	94.56
358.895	98.56
359.122	99.56
359.349	87.56
359.576	86.56
359.802	105.56
360.029	105.56
360.256	102.56
360.483	97.56
360.709	81.56
360.936	99.56
361.163	84.56
361.39	107.56
361.616	91.56
361.843	83.56
362.07	97.56
362.296	72.56
362.523	90.56
362.749	89.56
362.976	89.56
363.203	102.56
363.429	93.56
363.656	93.56
363.882	76.56
364.109	98.56
364.335	114.56
364.562	82.56
364.788	84.56
365.015	86.56
365.241	86.56
365.468	110.56
365.694	105.56
365.92	82.56
366.147	87.56
366.373	97.56
366.599	92.56
366.826	101.56
367.052	85.56
367.278	78.56
367.505	106.56
367.731	94.56
367.957	98.56
368.184	101.56
368.41	108.56
368.636	110.56
368.862	108.56
369.089	105.56
369.315	99.56
369.541	90.56
369.767	98.56
369.993	98.56
370.219	97.56
370.445	86.56
370.672	75.56
370.898	98.56
371.124	88.56
371.35	93.56
371.576	88.56
371.802	86.56
372.028	102.56
372.254	89.56
372.48	95.56
372.706	88.56
372.932	82.56
373.158	85.56
373.384	101.56
373.61	88.56
373.835	97.56
374.061	78.56
374.287	96.56
374.513	95.56
374.739	83.56
374.965	90.56
375.191	92.56
375.416	83.56
375.642	106.56
375.868	110.56
376.094	81.56
376.319	94.56
376.545	86.56
376.771	84.56
376.997	100.56
377.222	100.56
377.448	95.56
377.674	89.56
377.899	82.56
378.125	99.56
378.35	92.56
378.576	101.56
378.802	90.56
379.027	84.56
379.253	96.56
379.478	90.56
379.704	82.56
379.929	99.56
380.155	96.56
380.38	104.56
380.606	109.56
380.831	92.56
381.057	116.56
381.282	97.56
381.507	98.56
381.733	112.56
381.958	101.56
382.184	100.56
382.409	107.56
382.634	109.56
382.86	112.56
383.085	105.56
383.31	106.56
383.535	113.56
383.761	109.56
383.986	109.56
384.211	91.56
384.436	101.56
384.662	103.56
384.887	114.56
385.112	121.56
385.337	122.56
385.562	115.56
385.787	122.56
386.013	112.56
386.238	113.56
386.463	117.56
386.688	119.56
386.913	116.56
387.138	122.56
387.363	129.56
387.588	91.56
387.813	96.56
388.038	121.56
388.263	128.56
388.488	105.56
388.713	105.56
388.938	88.56
389.163	86.56
389.387	96.56
389.612	96.56
389.837	93.56
390.062	90.56
390.287	99.56
390.512	90.56
390.736	84.56
390.961	80.56
391.186	97.56
391.411	90.56
391.636	85.56
391.86	98.56
392.085	105.56
392.31	82.56
392.534	74.56
392.759	84.56
392.984	96.56
393.208	81.56
393.433	113.56
393.658	90.56
393.882	77.56
394.107	90.56
394.331	79.56
394.556	96.56
394.78	92.56
395.005	92.56
395.229	81.56
395.454	101.56
395.678	82.56
395.903	96.56
396.127	87.56
396.352	90.56
396.576	81.56
396.801	93.56
397.025	104.56
397.249	102.56
397.474	90.56
397.698	82.56
397.922	103.56
398.147	99.56
398.371	89.56
398.595	77.56
398.82	84.56
399.044	73.56
399.268	77.56
399.492	83.56
399.717	102.56
399.941	95.56
400.165	101.56
400.389	83.56
400.613	80.56
400.837	85.56
401.062	86.56
401.286	84.56
401.51	84.56
401.734	79.56
401.958	93.56
402.182	117.56
402.406	112.56
402.63	102.56
402.854	100.56
403.078	85.56
403.302	81.56
403.526	82.56
403.75	86.56
403.974	84.56
404.198	96.56
404.422	92.56
404.645	84.56
404.869	81.56
405.093	100.56
405.317	101.56
405.541	100.56
405.765	101.56
405.988	108.56
406.212	132.56
406.436	163.56
406.66	116.56
406.883	88.56
407.107	92.56
407.331	96.56
407.555	88.56
407.778	100.56
408.002	85.56
408.226	86.56
408.449	94.56
408.673	95.56
408.896	95.56
409.12	86.56
409.344	98.56
409.567	93.56
409.791	90.56
410.014	89.56
410.238	107.56
410.461	96.56
410.685	91.56
410.908	99.56
411.132	117.56
411.355	85.56
411.578	93.56
411.802	97.56
412.025	91.56
412.249	81.56
412.472	88.56
412.695	107.56
412.919	96.56
413.142	117.56
413.365	75.56
413.589	97.56
413.812	73.56
414.035	83.56
414.258	71.56
414.482	90.56
414.705	94.56
414.928	86.56
415.151	84.56
415.374	93.56
415.597	95.56
415.821	94.56
416.044	93.56
416.267	80.56
416.49	108.56
416.713	97.56
416.936	88.56
417.159	99.56
417.382	88.56
417.605	101.56
417.828	90.56
418.051	81.56
418.274	85.56
418.497	77.56
418.72	93.56
418.943	89.56
419.166	71.56
419.389	98.56
419.611	82.56
419.834	97.56
420.057	102.56
420.28	94.56
420.503	87.56
420.726	78.56
420.948	93.56
421.171	80.56
421.394	90.56
421.617	89.56
421.839	88.56
422.062	88.56
422.285	96.56
422.507	90.56
422.73	100.56
422.953	101.56
423.175	90.56
423.398	100.56
423.621	94.56
423.843	101.56
424.066	95.56
424.288	93.56
424.511	86.56
424.733	90.56
424.956	96.56
425.178	82.56
425.401	96.56
425.623	97.56
425.846	85.56
426.068	79.56
426.291	96.56
426.513	103.56
426.735	84.56
426.958	89.56
427.18	101.56
427.402	115.56
427.625	128.56
427.847	114.56
428.069	112.56
428.292	94.56
428.514	99.56
428.736	94.56
428.958	86.56
429.181	82.56
429.403	85.56
429.625	84.56
429.847	92.56
430.069	91.56
430.292	79.56
430.514	91.56
430.736	88.56
430.958	100.56
431.18	84.56
431.402	100.56
431.624	93.56
431.846	82.56
432.068	75.56
432.29	92.56
432.512	92.56
432.734	77.56
432.956	87.56
433.178	91.56
433.4	97.56
433.622	73.56
433.844	92.56
434.066	100.56
434.287	102.56
434.509	96.56
434.731	93.56
434.953	83.56
435.175	101.56
435.397	91.56
435.618	90.56
435.84	90.56
436.062	107.56
436.284	96.56
436.505	93.56
436.727	92.56
436.949	100.56
437.17	105.56
437.392	94.56
437.614	92.56
437.835	100.56
438.057	103.56
438.278	91.56
438.5	107.56
438.721	100.56
438.943	94.56
439.165	97.56
439.386	99.56
439.608	88.56
439.829	86.56
440.05	107.56
440.272	128.56
440.493	111.56
440.715	83.56
440.936	95.56
441.158	86.56
441.379	92.56
441.6	86.56
441.822	87.56
442.043	93.56
442.264	105.56
442.486	89.56
442.707	91.56
442.928	99.56
443.149	120.56
443.371	114.56
443.592	99.56
443.813	99.56
444.034	91.56
444.255	89.56
444.476	80.56
444.698	82.56
444.919	97.56
445.14	130.56
445.361	123.56
445.582	105.56
445.803	125.56
446.024	128.56
446.245	139.56
446.466	106.56
446.687	93.56
446.908	91.56
447.129	93.56
447.35	86.56
447.571	87.56
447.792	96.56
448.013	97.56
448.234	88.56
448.455	102.56
448.675	102.56
448.896	110.56
449.117	97.56
449.338	104.56
449.559	112.56
449.779	115.56
450	85.56
450.221	76.56
450.442	92.56
450.662	88.56
450.883	107.56
451.104	104.56
451.324	87.56
451.545	83.56
451.766	98.56
451.986	77.56
452.207	82.56
452.428	98.56
452.648	104.56
452.869	96.56
453.089	109.56
453.31	107.56
453.53	88.56
453.751	90.56
453.971	96.56
454.192	98.56
454.412	93.56
454.633	97.56
454.853	88.56
455.073	88.56
455.294	89.56
455.514	90.56
455.734	98.56
455.955	93.56
456.175	84.56
456.395	92.56
456.616	87.56
456.836	99.56
457.056	100.56
457.276	95.56
457.497	104.56
457.717	88.56
457.937	93.56
458.157	77.56
458.377	97.56
458.598	98.56
458.818	126.56
459.038	129.56
459.258	96.56
459.478	91.56
459.698	84.56
459.918	86.56
460.138	94.56
460.358	85.56
460.578	82.56
460.798	94.56
461.018	87.56
461.238	94.56
461.458	77.56
461.678	80.56
461.898	76.56
462.118	92.56
462.338	84.56
462.558	78.56
462.777	78.56
462.997	83.56
463.217	86.56
463.437	93.56
463.657	100.56
463.876	91.56
464.096	86.56
464.316	89.56
464.536	98.56
464.755	81.56
464.975	101.56
465.195	136.56
465.414	133.56
465.634	93.56
465.854	98.56
466.073	95.56
466.293	87.56
466.512	91.56
466.732	81.56
466.951	84.56
467.171	94.56
467.391	83.56
467.61	106.56
467.829	98.56
468.049	110.56
468.268	101.56
468.488	88.56
468.707	76.56
468.927	87.56
469.146	86.56
469.365	80.56
469.585	82.56
469.804	106.56
470.023	101.56
470.243	91.56
470.462	93.56
470.681	92.56
470.901	87.56
471.12	72.56
471.339	74.56
471.558	93.56
471.777	94.56
471.997	84.56
472.216	109.56
472.435	171.56
472.654	107.56
472.873	104.56
473.092	90.56
473.311	73.56
473.53	85.56
473.749	89.56
473.968	83.56
474.187	97.56
474.406	91.56
474.625	86.56
474.844	94.56
475.063	92.56
475.282	91.56
475.501	86.56
475.72	77.56
475.939	67.56
476.158	80.56
476.377	91.56
476.596	73.56
476.814	96.56
477.033	101.56
477.252	101.56
477.471	88.56
477.69	84.56
477.908	77.56
478.127	89.56
478.346	84.56
478.564	91.56
478.783	99.56
479.002	98.56
479.22	102.56
479.439	95.56
479.658	93.56
479.876	86.56
480.095	102.56
480.313	102.56
480.532	85.56
480.751	83.56
480.969	112.56
481.188	213.56
481.406	148.56
481.624	106.56
481.843	92.56
482.061	85.56
482.28	91.56
482.498	102.56
482.717	83.56
482.935	84.56
483.153	85.56
483.372	89.56
483.59	93.56
483.808	87.56
484.027	99.56
484.245	90.56
484.463	95.56
484.681	91.56
484.9	100.56
485.118	102.56
485.336	94.56
485.554	108.56
485.772	97.56
485.99	97.56
486.209	110.56
486.427	94.56
486.645	106.56
486.863	110.56
487.081	108.56
487.299	102.56
487.517	103.56
487.735	84.56
487.953	91.56
488.171	93.56
488.389	89.56
488.607	91.56
488.825	76.56
489.043	90.56
489.261	101.56
489.479	80.56
489.696	103.56
489.914	98.56
490.132	91.56
490.35	93.56
490.568	93.56
490.786	83.56
491.003	87.56
491.221	86.56
491.439	97.56
491.657	97.56
491.874	88.56
492.092	82.56
492.31	85.56
492.527	99.56
492.745	99.56
492.963	92.56
493.18	88.56
493.398	78.56
493.615	101.56
493.833	104.56
494.05	86.56
494.268	98.56
494.485	88.56
494.703	95.56
494.92	77.56
495.138	73.56
495.355	100.56
495.573	104.56
495.79	106.56
496.008	101.56
496.225	87.56
496.442	84.56
496.66	90.56
496.877	101.56
497.094	90.56
497.312	94.56
497.529	84.56
497.746	82.56
497.963	81.56
498.181	92.56
498.398	79.56
498.615	114.56
498.832	105.56
499.049	103.56
499.267	108.56
499.484	81.56
499.701	98.56
499.918	86.56
500.135	88.56
500.352	88.56
500.569	80.56
500.786	84.56
501.003	99.56
501.22	90.56
501.437	98.56
501.654	91.56
501.871	99.56
502.088	91.56
502.305	82.56
502.522	101.56
502.739	83.56
502.956	92.56
503.172	87.56
503.389	98.56
503.606	96.56
503.823	101.56
504.04	109.56
504.256	94.56
504.473	83.56
504.69	105.56
504.907	101.56
505.123	84.56
505.34	86.56
505.557	88.56
505.773	98.56
505.99	81.56
506.207	81.56
506.423	105.56
506.64	97.56
506.856	105.56
507.073	92.56
507.289	95.56
507.506	94.56
507.722	106.56
507.939	93.56
508.155	91.56
508.372	88.56
508.588	96.56
508.805	90.56
509.021	87.56
509.238	97.56
509.454	82.56
509.67	104.56
509.887	106.56
510.103	106.56
510.319	188.56
510.536	582.56
510.752	1766.56
510.968	496.56
511.184	133.56
511.401	104.56
511.617	90.56
511.833	101.56
512.049	87.56
512.265	90.56
512.481	106.56
512.698	100.56
512.914	103.56
513.13	94.56
513.346	85.56
513.562	86.56
513.778	96.56
513.994	89.56
514.21	90.56
514.426	107.56
514.642	111.56
514.858	120.56
515.074	138.56
515.29	317.56
515.506	1037.56
