Data from Circ_1984_H10_HRD10591_00084.txt Node
Date: Wed Jan 03 12:22:58 EST 2024
User: Yrep
Spectrometer: HR+D1059
Trigger mode: 1
Integration Time (sec): 1.000000E-1
Scans to average: 1
Electric dark correction enabled: true
Nonlinearity correction enabled: false
Boxcar width: 0
XAxis mode: Wavelengths
Number of Pixels in Spectrum: 2048
>>>>>Begin Spectral Data<<<<<
223.165	-22.12
223.4	-22.12
223.635	-22.12
223.869	-21.12
224.104	-16.12
224.338	-12.12
224.573	-28.12
224.808	-22.12
225.042	-2.12
225.277	2.88
225.511	-2.12
225.746	17.88
225.98	-11.12
226.215	20.88
226.449	20.88
226.683	12.88
226.918	25.88
227.152	35.88
227.387	33.88
227.621	28.88
227.856	41.88
228.09	42.88
228.324	62.88
228.559	54.88
228.793	63.88
229.027	59.88
229.262	58.88
229.496	76.88
229.73	78.88
229.964	72.88
230.199	59.88
230.433	62.88
230.667	62.88
230.901	78.88
231.136	82.88
231.37	77.88
231.604	79.88
231.838	76.88
232.072	80.88
232.306	88.88
232.541	80.88
232.775	68.88
233.009	76.88
233.243	89.88
233.477	76.88
233.711	80.88
233.945	92.88
234.179	72.88
234.413	82.88
234.647	60.88
234.881	86.88
235.115	79.88
235.349	72.88
235.583	69.88
235.817	79.88
236.051	84.88
236.285	74.88
236.519	69.88
236.753	73.88
236.987	80.88
237.221	85.88
237.455	76.88
237.689	80.88
237.922	70.88
238.156	78.88
238.39	91.88
238.624	85.88
238.858	74.88
239.091	61.88
239.325	87.88
239.559	84.88
239.793	77.88
240.027	88.88
240.26	69.88
240.494	74.88
240.728	82.88
240.961	86.88
241.195	79.88
241.429	94.88
241.662	81.88
241.896	85.88
242.13	80.88
242.363	68.88
242.597	72.88
242.83	82.88
243.064	71.88
243.298	70.88
243.531	80.88
243.765	84.88
243.998	84.88
244.232	80.88
244.465	77.88
244.699	77.88
244.932	82.88
245.166	75.88
245.399	72.88
245.633	91.88
245.866	76.88
246.099	76.88
246.333	92.88
246.566	91.88
246.8	79.88
247.033	74.88
247.266	76.88
247.5	77.88
247.733	83.88
247.966	85.88
248.2	72.88
248.433	73.88
248.666	80.88
248.899	87.88
249.133	81.88
249.366	90.88
249.599	86.88
249.832	80.88
250.066	74.88
250.299	52.88
250.532	85.88
250.765	64.88
250.998	76.88
251.231	62.88
251.465	88.88
251.698	73.88
251.931	69.88
252.164	63.88
252.397	78.88
252.63	78.88
252.863	86.88
253.096	59.88
253.329	74.88
253.562	77.88
253.795	73.88
254.028	80.88
254.261	76.88
254.494	73.88
254.727	81.88
254.96	73.88
255.193	69.88
255.426	67.88
255.659	77.88
255.892	90.88
256.124	80.88
256.357	80.88
256.59	69.88
256.823	85.88
257.056	79.88
257.289	77.88
257.521	83.88
257.754	80.88
257.987	70.88
258.22	82.88
258.452	88.88
258.685	85.88
258.918	83.88
259.151	91.88
259.383	72.88
259.616	80.88
259.849	81.88
260.081	85.88
260.314	84.88
260.547	83.88
260.779	83.88
261.012	70.88
261.244	92.88
261.477	84.88
261.71	89.88
261.942	101.88
262.175	103.88
262.407	86.88
262.64	82.88
262.872	87.88
263.105	76.88
263.337	79.88
263.57	87.88
263.802	86.88
264.035	98.88
264.267	95.88
264.499	71.88
264.732	88.88
264.964	95.88
265.197	71.88
265.429	81.88
265.661	82.88
265.894	87.88
266.126	85.88
266.358	87.88
266.591	85.88
266.823	73.88
267.055	77.88
267.287	68.88
267.52	85.88
267.752	69.88
267.984	71.88
268.216	84.88
268.448	92.88
268.681	82.88
268.913	72.88
269.145	74.88
269.377	90.88
269.609	71.88
269.841	81.88
270.073	82.88
270.306	85.88
270.538	81.88
270.77	79.88
271.002	85.88
271.234	79.88
271.466	63.88
271.698	81.88
271.93	68.88
272.162	104.88
272.394	89.88
272.626	84.88
272.858	80.88
273.09	75.88
273.322	74.88
273.553	80.88
273.785	84.88
274.017	87.88
274.249	79.88
274.481	80.88
274.713	84.88
274.945	88.88
275.176	85.88
275.408	79.88
275.64	92.88
275.872	92.88
276.104	73.88
276.335	102.88
276.567	98.88
276.799	102.88
277.031	104.88
277.262	92.88
277.494	95.88
277.726	79.88
277.957	81.88
278.189	90.88
278.421	97.88
278.652	76.88
278.884	81.88
279.115	82.88
279.347	88.88
279.579	92.88
279.81	80.88
280.042	94.88
280.273	110.88
280.505	87.88
280.736	83.88
280.968	84.88
281.199	84.88
281.431	85.88
281.662	80.88
281.894	86.88
282.125	92.88
282.356	101.88
282.588	128.88
282.819	96.88
283.051	94.88
283.282	83.88
283.513	87.88
283.745	78.88
283.976	87.88
284.207	90.88
284.439	86.88
284.67	86.88
284.901	85.88
285.132	89.88
285.364	89.88
285.595	76.88
285.826	84.88
286.057	88.88
286.288	82.88
286.52	89.88
286.751	76.88
286.982	78.88
287.213	86.88
287.444	84.88
287.675	81.88
287.906	89.88
288.138	98.88
288.369	94.88
288.6	89.88
288.831	81.88
289.062	92.88
289.293	91.88
289.524	69.88
289.755	93.88
289.986	79.88
290.217	97.88
290.448	76.88
290.679	89.88
290.91	92.88
291.141	84.88
291.371	97.88
291.602	92.88
291.833	95.88
292.064	66.88
292.295	79.88
292.526	74.88
292.757	95.88
292.987	95.88
293.218	97.88
293.449	82.88
293.68	97.88
293.91	84.88
294.141	96.88
294.372	78.88
294.603	93.88
294.833	69.88
295.064	88.88
295.295	87.88
295.525	73.88
295.756	95.88
295.987	98.88
296.217	124.88
296.448	111.88
296.679	87.88
296.909	90.88
297.14	82.88
297.37	93.88
297.601	78.88
297.831	96.88
298.062	84.88
298.292	87.88
298.523	79.88
298.753	93.88
298.984	100.88
299.214	88.88
299.445	63.88
299.675	91.88
299.905	90.88
300.136	91.88
300.366	71.88
300.597	80.88
300.827	80.88
301.057	86.88
301.288	79.88
301.518	95.88
301.748	80.88
301.979	88.88
302.209	78.88
302.439	80.88
302.669	84.88
302.9	92.88
303.13	91.88
303.36	90.88
303.59	107.88
303.82	94.88
304.051	90.88
304.281	78.88
304.511	74.88
304.741	95.88
304.971	91.88
305.201	88.88
305.431	92.88
305.661	87.88
305.891	86.88
306.121	74.88
306.352	103.88
306.582	119.88
306.812	96.88
307.042	87.88
307.272	96.88
307.502	106.88
307.731	94.88
307.961	99.88
308.191	87.88
308.421	86.88
308.651	91.88
308.881	112.88
309.111	88.88
309.341	90.88
309.571	106.88
309.8	90.88
310.03	89.88
310.26	81.88
310.49	106.88
310.72	89.88
310.949	102.88
311.179	92.88
311.409	88.88
311.639	78.88
311.868	85.88
312.098	89.88
312.328	105.88
312.557	110.88
312.787	94.88
313.017	93.88
313.246	89.88
313.476	77.88
313.706	96.88
313.935	92.88
314.165	85.88
314.394	94.88
314.624	67.88
314.853	94.88
315.083	99.88
315.312	82.88
315.542	83.88
315.771	89.88
316.001	88.88
316.23	87.88
316.46	82.88
316.689	87.88
316.919	86.88
317.148	82.88
317.377	89.88
317.607	78.88
317.836	86.88
318.065	84.88
318.295	83.88
318.524	88.88
318.753	97.88
318.983	78.88
319.212	88.88
319.441	99.88
319.67	111.88
319.9	108.88
320.129	105.88
320.358	92.88
320.587	83.88
320.816	85.88
321.046	101.88
321.275	101.88
321.504	97.88
321.733	92.88
321.962	106.88
322.191	114.88
322.42	102.88
322.649	90.88
322.878	107.88
323.108	100.88
323.337	102.88
323.566	124.88
323.795	125.88
324.024	176.88
324.253	321.88
324.482	715.88
324.71	1441.88
324.939	1905.88
325.168	713.88
325.397	232.88
325.626	130.88
325.855	113.88
326.084	113.88
326.313	120.88
326.542	132.88
326.77	205.88
326.999	390.88
327.228	820.88
327.457	1513.88
327.686	1197.88
327.914	344.88
328.143	206.88
328.372	197.88
328.6	155.88
328.829	104.88
329.058	118.88
329.287	124.88
329.515	107.88
329.744	128.88
329.972	156.88
330.201	234.88
330.43	289.88
330.658	182.88
330.887	130.88
331.115	120.88
331.344	106.88
331.572	106.88
331.801	96.88
332.03	97.88
332.258	97.88
332.486	97.88
332.715	69.88
332.943	74.88
333.172	93.88
333.4	100.88
333.629	110.88
333.857	132.88
334.085	164.88
334.314	232.88
334.542	365.88
334.771	347.88
334.999	150.88
335.227	108.88
335.455	85.88
335.684	105.88
335.912	105.88
336.14	106.88
336.369	101.88
336.597	88.88
336.825	98.88
337.053	81.88
337.281	93.88
337.51	94.88
337.738	92.88
337.966	90.88
338.194	97.88
338.422	80.88
338.65	82.88
338.878	101.88
339.106	88.88
339.334	99.88
339.562	97.88
339.79	85.88
340.018	90.88
340.246	86.88
340.474	86.88
340.702	87.88
340.93	96.88
341.158	92.88
341.386	88.88
341.614	94.88
341.842	94.88
342.07	83.88
342.298	84.88
342.526	102.88
342.754	99.88
342.981	73.88
343.209	81.88
343.437	92.88
343.665	97.88
343.893	93.88
344.12	92.88
344.348	77.88
344.576	96.88
344.804	85.88
345.031	88.88
345.259	82.88
345.487	81.88
345.714	81.88
345.942	103.88
346.17	90.88
346.397	82.88
346.625	95.88
346.853	77.88
347.08	81.88
347.308	95.88
347.535	73.88
347.763	78.88
347.99	80.88
348.218	102.88
348.445	93.88
348.673	97.88
348.9	87.88
349.128	105.88
349.355	80.88
349.583	96.88
349.81	89.88
350.037	103.88
350.265	97.88
350.492	101.88
350.72	88.88
350.947	82.88
351.174	106.88
351.402	100.88
351.629	95.88
351.856	95.88
352.083	102.88
352.311	88.88
352.538	105.88
352.765	104.88
352.992	99.88
353.22	117.88
353.447	102.88
353.674	105.88
353.901	93.88
354.128	84.88
354.355	83.88
354.583	86.88
354.81	84.88
355.037	95.88
355.264	96.88
355.491	98.88
355.718	100.88
355.945	97.88
356.172	81.88
356.399	81.88
356.626	96.88
356.853	89.88
357.08	85.88
357.307	88.88
357.534	87.88
357.761	94.88
357.988	82.88
358.215	104.88
358.441	81.88
358.668	77.88
358.895	92.88
359.122	82.88
359.349	89.88
359.576	60.88
359.802	87.88
360.029	91.88
360.256	103.88
360.483	87.88
360.709	77.88
360.936	81.88
361.163	81.88
361.39	86.88
361.616	95.88
361.843	84.88
362.07	88.88
362.296	89.88
362.523	82.88
362.749	96.88
362.976	100.88
363.203	83.88
363.429	70.88
363.656	74.88
363.882	82.88
364.109	87.88
364.335	98.88
364.562	93.88
364.788	85.88
365.015	86.88
365.241	100.88
365.468	112.88
365.694	100.88
365.92	102.88
366.147	98.88
366.373	86.88
366.599	78.88
366.826	90.88
367.052	90.88
367.278	96.88
367.505	86.88
367.731	81.88
367.957	88.88
368.184	78.88
368.41	89.88
368.636	102.88
368.862	108.88
369.089	93.88
369.315	95.88
369.541	88.88
369.767	88.88
369.993	74.88
370.219	88.88
370.445	80.88
370.672	79.88
370.898	85.88
371.124	82.88
371.35	92.88
371.576	83.88
371.802	90.88
372.028	81.88
372.254	84.88
372.48	77.88
372.706	93.88
372.932	80.88
373.158	82.88
373.384	89.88
373.61	94.88
373.835	95.88
374.061	82.88
374.287	103.88
374.513	95.88
374.739	81.88
374.965	85.88
375.191	93.88
375.416	96.88
375.642	79.88
375.868	92.88
376.094	86.88
376.319	81.88
376.545	86.88
376.771	83.88
376.997	78.88
377.222	90.88
377.448	105.88
377.674	81.88
377.899	87.88
378.125	88.88
378.35	71.88
378.576	82.88
378.802	78.88
379.027	106.88
379.253	92.88
379.478	84.88
379.704	80.88
379.929	88.88
380.155	89.88
380.38	93.88
380.606	87.88
380.831	79.88
381.057	106.88
381.282	92.88
381.507	93.88
381.733	93.88
381.958	94.88
382.184	81.88
382.409	78.88
382.634	91.88
382.86	87.88
383.085	89.88
383.31	90.88
383.535	106.88
383.761	97.88
383.986	90.88
384.211	94.88
384.436	92.88
384.662	88.88
384.887	88.88
385.112	109.88
385.337	85.88
385.562	95.88
385.787	89.88
386.013	91.88
386.238	102.88
386.463	85.88
386.688	101.88
386.913	86.88
387.138	92.88
387.363	86.88
387.588	93.88
387.813	90.88
388.038	92.88
388.263	96.88
388.488	100.88
388.713	96.88
388.938	88.88
389.163	93.88
389.387	96.88
389.612	93.88
389.837	95.88
390.062	75.88
390.287	89.88
390.512	87.88
390.736	86.88
390.961	85.88
391.186	97.88
391.411	82.88
391.636	100.88
391.86	69.88
392.085	70.88
392.31	84.88
392.534	69.88
392.759	89.88
392.984	85.88
393.208	99.88
393.433	92.88
393.658	98.88
393.882	82.88
394.107	80.88
394.331	86.88
394.556	76.88
394.78	74.88
395.005	92.88
395.229	65.88
395.454	85.88
395.678	80.88
395.903	74.88
396.127	98.88
396.352	89.88
396.576	97.88
396.801	81.88
397.025	88.88
397.249	88.88
397.474	82.88
397.698	76.88
397.922	79.88
398.147	88.88
398.371	76.88
398.595	86.88
398.82	88.88
399.044	90.88
399.268	81.88
399.492	86.88
399.717	93.88
399.941	77.88
400.165	82.88
400.389	76.88
400.613	95.88
400.837	87.88
401.062	74.88
401.286	90.88
401.51	89.88
401.734	86.88
401.958	88.88
402.182	117.88
402.406	142.88
402.63	117.88
402.854	89.88
403.078	90.88
403.302	81.88
403.526	76.88
403.75	85.88
403.974	83.88
404.198	59.88
404.422	84.88
404.645	81.88
404.869	90.88
405.093	98.88
405.317	98.88
405.541	97.88
405.765	89.88
405.988	121.88
406.212	150.88
406.436	192.88
406.66	135.88
406.883	93.88
407.107	96.88
407.331	90.88
407.555	93.88
407.778	91.88
408.002	95.88
408.226	83.88
408.449	80.88
408.673	81.88
408.896	83.88
409.12	98.88
409.344	83.88
409.567	74.88
409.791	92.88
410.014	86.88
410.238	89.88
410.461	93.88
410.685	82.88
410.908	93.88
411.132	89.88
411.355	84.88
411.578	80.88
411.802	89.88
412.025	79.88
412.249	84.88
412.472	100.88
412.695	85.88
412.919	78.88
413.142	87.88
413.365	102.88
413.589	86.88
413.812	78.88
414.035	87.88
414.258	83.88
414.482	96.88
414.705	82.88
414.928	97.88
415.151	83.88
415.374	87.88
415.597	93.88
415.821	79.88
416.044	86.88
416.267	90.88
416.49	76.88
416.713	97.88
416.936	89.88
417.159	90.88
417.382	68.88
417.605	80.88
417.828	86.88
418.051	93.88
418.274	78.88
418.497	82.88
418.72	89.88
418.943	85.88
419.166	92.88
419.389	102.88
419.611	85.88
419.834	92.88
420.057	86.88
420.28	86.88
420.503	89.88
420.726	84.88
420.948	68.88
421.171	84.88
421.394	105.88
421.617	95.88
421.839	58.88
422.062	71.88
422.285	80.88
422.507	96.88
422.73	92.88
422.953	75.88
423.175	79.88
423.398	91.88
423.621	74.88
423.843	78.88
424.066	80.88
424.288	79.88
424.511	94.88
424.733	94.88
424.956	104.88
425.178	100.88
425.401	93.88
425.623	92.88
425.846	77.88
426.068	95.88
426.291	94.88
426.513	83.88
426.735	98.88
426.958	86.88
427.18	108.88
427.402	126.88
427.625	146.88
427.847	123.88
428.069	110.88
428.292	80.88
428.514	82.88
428.736	75.88
428.958	88.88
429.181	95.88
429.403	85.88
429.625	80.88
429.847	93.88
430.069	97.88
430.292	99.88
430.514	71.88
430.736	87.88
430.958	87.88
431.18	81.88
431.402	87.88
431.624	84.88
431.846	78.88
432.068	82.88
432.29	89.88
432.512	79.88
432.734	74.88
432.956	100.88
433.178	86.88
433.4	94.88
433.622	83.88
433.844	88.88
434.066	84.88
434.287	89.88
434.509	87.88
434.731	82.88
434.953	80.88
435.175	95.88
435.397	74.88
435.618	86.88
435.84	94.88
436.062	116.88
436.284	108.88
436.505	98.88
436.727	97.88
436.949	96.88
437.17	91.88
437.392	81.88
437.614	88.88
437.835	103.88
438.057	114.88
438.278	110.88
438.5	99.88
438.721	105.88
438.943	90.88
439.165	94.88
439.386	77.88
439.608	82.88
439.829	97.88
440.05	108.88
440.272	136.88
440.493	81.88
440.715	86.88
440.936	94.88
441.158	92.88
441.379	82.88
441.6	83.88
441.822	98.88
442.043	85.88
442.264	91.88
442.486	83.88
442.707	86.88
442.928	106.88
443.149	125.88
443.371	104.88
443.592	94.88
443.813	94.88
444.034	111.88
444.255	100.88
444.476	81.88
444.698	66.88
444.919	92.88
445.14	134.88
445.361	122.88
445.582	107.88
445.803	134.88
446.024	117.88
446.245	121.88
446.466	101.88
446.687	93.88
446.908	84.88
447.129	91.88
447.35	90.88
447.571	104.88
447.792	92.88
448.013	97.88
448.234	98.88
448.455	84.88
448.675	112.88
448.896	128.88
449.117	93.88
449.338	88.88
449.559	117.88
449.779	127.88
450	96.88
450.221	82.88
450.442	68.88
450.662	105.88
450.883	97.88
451.104	98.88
451.324	108.88
451.545	81.88
451.766	80.88
451.986	71.88
452.207	76.88
452.428	84.88
452.648	90.88
452.869	102.88
453.089	81.88
453.31	101.88
453.53	93.88
453.751	89.88
453.971	86.88
454.192	100.88
454.412	101.88
454.633	92.88
454.853	69.88
455.073	82.88
455.294	87.88
455.514	91.88
455.734	93.88
455.955	80.88
456.175	85.88
456.395	100.88
456.616	85.88
456.836	81.88
457.056	78.88
457.276	90.88
457.497	96.88
457.717	73.88
457.937	88.88
458.157	76.88
458.377	91.88
458.598	87.88
458.818	128.88
459.038	136.88
459.258	108.88
459.478	81.88
459.698	85.88
459.918	80.88
460.138	82.88
460.358	83.88
460.578	80.88
460.798	87.88
461.018	83.88
461.238	69.88
461.458	81.88
461.678	81.88
461.898	71.88
462.118	85.88
462.338	71.88
462.558	75.88
462.777	82.88
462.997	88.88
463.217	92.88
463.437	72.88
463.657	65.88
463.876	92.88
464.096	100.88
464.316	98.88
464.536	82.88
464.755	80.88
464.975	91.88
465.195	142.88
465.414	148.88
465.634	78.88
465.854	97.88
466.073	85.88
466.293	78.88
466.512	85.88
466.732	85.88
466.951	78.88
467.171	75.88
467.391	96.88
467.61	100.88
467.829	98.88
468.049	164.88
468.268	210.88
468.488	116.88
468.707	92.88
468.927	89.88
469.146	77.88
469.365	90.88
469.585	88.88
469.804	94.88
470.023	92.88
470.243	83.88
470.462	107.88
470.681	103.88
470.901	95.88
471.12	92.88
471.339	90.88
471.558	85.88
471.777	93.88
471.997	126.88
472.216	261.88
472.435	493.88
472.654	183.88
472.873	108.88
473.092	105.88
473.311	70.88
473.53	80.88
473.749	93.88
473.968	92.88
474.187	98.88
474.406	96.88
474.625	82.88
474.844	89.88
475.063	94.88
475.282	85.88
475.501	85.88
475.72	93.88
475.939	85.88
476.158	88.88
476.377	84.88
476.596	77.88
476.814	90.88
477.033	95.88
477.252	90.88
477.471	78.88
477.69	98.88
477.908	94.88
478.127	82.88
478.346	60.88
478.564	91.88
478.783	103.88
479.002	96.88
479.22	99.88
479.439	88.88
479.658	100.88
479.876	80.88
480.095	99.88
480.313	93.88
480.532	99.88
480.751	98.88
480.969	258.88
481.188	854.88
481.406	509.88
481.624	121.88
481.843	101.88
482.061	85.88
482.28	90.88
482.498	74.88
482.717	81.88
482.935	78.88
483.153	87.88
483.372	58.88
483.59	92.88
483.808	90.88
484.027	91.88
484.245	99.88
484.463	85.88
484.681	96.88
484.9	85.88
485.118	87.88
485.336	88.88
485.554	89.88
485.772	93.88
485.99	90.88
486.209	104.88
486.427	81.88
486.645	91.88
486.863	103.88
487.081	94.88
487.299	81.88
487.517	96.88
487.735	100.88
487.953	87.88
488.171	86.88
488.389	93.88
488.607	98.88
488.825	94.88
489.043	81.88
489.261	79.88
489.479	88.88
489.696	100.88
489.914	79.88
490.132	76.88
490.35	81.88
490.568	87.88
490.786	102.88
491.003	79.88
491.221	96.88
491.439	88.88
491.657	85.88
491.874	94.88
492.092	93.88
492.31	73.88
492.527	94.88
492.745	87.88
492.963	80.88
493.18	88.88
493.398	101.88
493.615	94.88
493.833	80.88
494.05	76.88
494.268	76.88
494.485	86.88
494.703	89.88
494.92	83.88
495.138	86.88
495.355	80.88
495.573	84.88
495.79	82.88
496.008	83.88
496.225	86.88
496.442	88.88
496.66	86.88
496.877	71.88
497.094	72.88
497.312	78.88
497.529	90.88
497.746	96.88
497.963	79.88
498.181	87.88
498.398	88.88
498.615	95.88
498.832	111.88
499.049	96.88
499.267	84.88
499.484	79.88
499.701	78.88
499.918	97.88
500.135	94.88
500.352	88.88
500.569	69.88
500.786	100.88
501.003	85.88
501.22	90.88
501.437	96.88
501.654	96.88
501.871	86.88
502.088	70.88
502.305	100.88
502.522	92.88
502.739	85.88
502.956	79.88
503.172	69.88
503.389	82.88
503.606	95.88
503.823	100.88
504.04	87.88
504.256	87.88
504.473	84.88
504.69	91.88
504.907	80.88
505.123	88.88
505.34	89.88
505.557	102.88
505.773	81.88
505.99	84.88
506.207	84.88
506.423	86.88
506.64	76.88
506.856	78.88
507.073	54.88
507.289	98.88
507.506	105.88
507.722	117.88
507.939	104.88
508.155	88.88
508.372	84.88
508.588	96.88
508.805	82.88
509.021	86.88
509.238	97.88
509.454	98.88
509.67	94.88
509.887	110.88
510.103	110.88
510.319	186.88
510.536	576.88
510.752	1905.88
510.968	536.88
511.184	129.88
511.401	105.88
511.617	94.88
511.833	101.88
512.049	86.88
512.265	88.88
512.481	93.88
512.698	87.88
512.914	79.88
513.13	95.88
513.346	83.88
513.562	72.88
513.778	85.88
513.994	95.88
514.21	101.88
514.426	104.88
514.642	115.88
514.858	105.88
515.074	140.88
515.29	340.88
515.506	1122.88
515.721	419.88
515.937	123.88
516.153	108.88
516.369	86.88
516.585	88.88
516.801	88.88
