Data from Circ_1984_H10_HRD10591_00048.txt Node
Date: Wed Jan 03 12:22:51 EST 2024
User: Yrep
Spectrometer: HR+D1059
Trigger mode: 1
Integration Time (sec): 1.000000E-1
Scans to average: 1
Electric dark correction enabled: true
Nonlinearity correction enabled: false
Boxcar width: 0
XAxis mode: Wavelengths
Number of Pixels in Spectrum: 2048
>>>>>Begin Spectral Data<<<<<
223.165	-30.12
223.4	-30.12
223.635	-30.12
223.869	-27.12
224.104	-11.12
224.338	-40.12
224.573	-15.12
224.808	-12.12
225.042	-11.12
225.277	8.88
225.511	-8.12
225.746	2.88
225.98	15.88
226.215	11.88
226.449	16.88
226.683	29.88
226.918	29.88
227.152	38.88
227.387	33.88
227.621	31.88
227.856	46.88
228.09	60.88
228.324	41.88
228.559	54.88
228.793	59.88
229.027	59.88
229.262	70.88
229.496	58.88
229.73	62.88
229.964	90.88
230.199	69.88
230.433	69.88
230.667	76.88
230.901	75.88
231.136	87.88
231.37	78.88
231.604	67.88
231.838	64.88
232.072	72.88
232.306	64.88
232.541	83.88
232.775	84.88
233.009	95.88
233.243	68.88
233.477	71.88
233.711	74.88
233.945	71.88
234.179	58.88
234.413	76.88
234.647	68.88
234.881	70.88
235.115	76.88
235.349	83.88
235.583	79.88
235.817	79.88
236.051	62.88
236.285	60.88
236.519	73.88
236.753	71.88
236.987	82.88
237.221	88.88
237.455	91.88
237.689	71.88
237.922	79.88
238.156	69.88
238.39	63.88
238.624	71.88
238.858	57.88
239.091	65.88
239.325	82.88
239.559	89.88
239.793	65.88
240.027	83.88
240.26	75.88
240.494	61.88
240.728	86.88
240.961	77.88
241.195	68.88
241.429	66.88
241.662	79.88
241.896	66.88
242.13	71.88
242.363	82.88
242.597	59.88
242.83	72.88
243.064	59.88
243.298	75.88
243.531	84.88
243.765	80.88
243.998	69.88
244.232	82.88
244.465	72.88
244.699	63.88
244.932	79.88
245.166	69.88
245.399	72.88
245.633	65.88
245.866	87.88
246.099	75.88
246.333	68.88
246.566	67.88
246.8	71.88
247.033	68.88
247.266	67.88
247.5	70.88
247.733	84.88
247.966	89.88
248.2	80.88
248.433	82.88
248.666	57.88
248.899	83.88
249.133	56.88
249.366	91.88
249.599	81.88
249.832	82.88
250.066	72.88
250.299	86.88
250.532	76.88
250.765	79.88
250.998	67.88
251.231	77.88
251.465	78.88
251.698	68.88
251.931	77.88
252.164	75.88
252.397	76.88
252.63	73.88
252.863	70.88
253.096	81.88
253.329	78.88
253.562	88.88
253.795	72.88
254.028	82.88
254.261	77.88
254.494	84.88
254.727	76.88
254.96	84.88
255.193	81.88
255.426	85.88
255.659	84.88
255.892	93.88
256.124	89.88
256.357	84.88
256.59	72.88
256.823	69.88
257.056	74.88
257.289	77.88
257.521	70.88
257.754	73.88
257.987	80.88
258.22	92.88
258.452	88.88
258.685	78.88
258.918	84.88
259.151	89.88
259.383	77.88
259.616	81.88
259.849	84.88
260.081	78.88
260.314	85.88
260.547	86.88
260.779	75.88
261.012	75.88
261.244	85.88
261.477	79.88
261.71	80.88
261.942	103.88
262.175	110.88
262.407	87.88
262.64	75.88
262.872	85.88
263.105	71.88
263.337	81.88
263.57	71.88
263.802	81.88
264.035	82.88
264.267	90.88
264.499	79.88
264.732	84.88
264.964	71.88
265.197	79.88
265.429	69.88
265.661	77.88
265.894	79.88
266.126	75.88
266.358	88.88
266.591	82.88
266.823	79.88
267.055	78.88
267.287	69.88
267.52	92.88
267.752	79.88
267.984	75.88
268.216	78.88
268.448	86.88
268.681	85.88
268.913	70.88
269.145	72.88
269.377	75.88
269.609	77.88
269.841	79.88
270.073	80.88
270.306	82.88
270.538	83.88
270.77	84.88
271.002	69.88
271.234	77.88
271.466	87.88
271.698	85.88
271.93	89.88
272.162	84.88
272.394	72.88
272.626	73.88
272.858	73.88
273.09	87.88
273.322	83.88
273.553	80.88
273.785	90.88
274.017	86.88
274.249	83.88
274.481	95.88
274.713	85.88
274.945	95.88
275.176	88.88
275.408	86.88
275.64	82.88
275.872	84.88
276.104	88.88
276.335	88.88
276.567	87.88
276.799	96.88
277.031	90.88
277.262	96.88
277.494	95.88
277.726	89.88
277.957	84.88
278.189	73.88
278.421	83.88
278.652	99.88
278.884	77.88
279.115	89.88
279.347	80.88
279.579	84.88
279.81	77.88
280.042	97.88
280.273	85.88
280.505	89.88
280.736	79.88
280.968	89.88
281.199	91.88
281.431	79.88
281.662	87.88
281.894	78.88
282.125	86.88
282.356	103.88
282.588	131.88
282.819	109.88
283.051	83.88
283.282	83.88
283.513	64.88
283.745	72.88
283.976	70.88
284.207	70.88
284.439	81.88
284.67	102.88
284.901	92.88
285.132	89.88
285.364	88.88
285.595	79.88
285.826	73.88
286.057	81.88
286.288	81.88
286.52	82.88
286.751	92.88
286.982	84.88
287.213	79.88
287.444	95.88
287.675	62.88
287.906	81.88
288.138	65.88
288.369	88.88
288.6	96.88
288.831	93.88
289.062	101.88
289.293	88.88
289.524	87.88
289.755	93.88
289.986	84.88
290.217	76.88
290.448	79.88
290.679	86.88
290.91	99.88
291.141	81.88
291.371	75.88
291.602	81.88
291.833	90.88
292.064	91.88
292.295	86.88
292.526	79.88
292.757	85.88
292.987	83.88
293.218	70.88
293.449	76.88
293.68	83.88
293.91	91.88
294.141	84.88
294.372	80.88
294.603	83.88
294.833	83.88
295.064	87.88
295.295	105.88
295.525	86.88
295.756	102.88
295.987	91.88
296.217	119.88
296.448	126.88
296.679	94.88
296.909	82.88
297.14	87.88
297.37	79.88
297.601	79.88
297.831	81.88
298.062	85.88
298.292	78.88
298.523	86.88
298.753	91.88
298.984	75.88
299.214	95.88
299.445	99.88
299.675	82.88
299.905	88.88
300.136	85.88
300.366	89.88
300.597	78.88
300.827	87.88
301.057	105.88
301.288	107.88
301.518	98.88
301.748	91.88
301.979	98.88
302.209	75.88
302.439	72.88
302.669	79.88
302.9	95.88
303.13	84.88
303.36	84.88
303.59	85.88
303.82	101.88
304.051	88.88
304.281	89.88
304.511	90.88
304.741	89.88
304.971	99.88
305.201	102.88
305.431	75.88
305.661	94.88
305.891	86.88
306.121	94.88
306.352	86.88
306.582	102.88
306.812	92.88
307.042	82.88
307.272	88.88
307.502	86.88
307.731	115.88
307.961	79.88
308.191	100.88
308.421	83.88
308.651	88.88
308.881	81.88
309.111	97.88
309.341	83.88
309.571	91.88
309.8	96.88
310.03	90.88
310.26	84.88
310.49	91.88
310.72	93.88
310.949	85.88
311.179	98.88
311.409	84.88
311.639	97.88
311.868	95.88
312.098	87.88
312.328	79.88
312.557	113.88
312.787	108.88
313.017	105.88
313.246	81.88
313.476	91.88
313.706	102.88
313.935	83.88
314.165	99.88
314.394	103.88
314.624	105.88
314.853	97.88
315.083	97.88
315.312	81.88
315.542	89.88
315.771	81.88
316.001	87.88
316.23	74.88
316.46	77.88
316.689	81.88
316.919	75.88
317.148	84.88
317.377	97.88
317.607	95.88
317.836	93.88
318.065	95.88
318.295	80.88
318.524	78.88
318.753	92.88
318.983	98.88
319.212	96.88
319.441	91.88
319.67	94.88
319.9	110.88
320.129	84.88
320.358	100.88
320.587	82.88
320.816	91.88
321.046	95.88
321.275	92.88
321.504	88.88
321.733	106.88
321.962	95.88
322.191	97.88
322.42	89.88
322.649	108.88
322.878	114.88
323.108	101.88
323.337	123.88
323.566	122.88
323.795	156.88
324.024	175.88
324.253	315.88
324.482	696.88
324.71	1405.88
324.939	1867.88
325.168	699.88
325.397	218.88
325.626	139.88
325.855	117.88
326.084	111.88
326.313	124.88
326.542	152.88
326.77	206.88
326.999	376.88
327.228	788.88
327.457	1428.88
327.686	1159.88
327.914	339.88
328.143	191.88
328.372	187.88
328.6	147.88
328.829	110.88
329.058	131.88
329.287	124.88
329.515	114.88
329.744	104.88
329.972	155.88
330.201	207.88
330.43	267.88
330.658	165.88
330.887	147.88
331.115	112.88
331.344	101.88
331.572	94.88
331.801	83.88
332.03	89.88
332.258	90.88
332.486	84.88
332.715	94.88
332.943	87.88
333.172	103.88
333.4	79.88
333.629	100.88
333.857	130.88
334.085	122.88
334.314	195.88
334.542	294.88
334.771	289.88
334.999	118.88
335.227	101.88
335.455	95.88
335.684	111.88
335.912	90.88
336.14	92.88
336.369	92.88
336.597	90.88
336.825	94.88
337.053	85.88
337.281	80.88
337.51	85.88
337.738	102.88
337.966	88.88
338.194	91.88
338.422	91.88
338.65	76.88
338.878	96.88
339.106	87.88
339.334	93.88
339.562	85.88
339.79	84.88
340.018	78.88
340.246	105.88
340.474	102.88
340.702	97.88
340.93	104.88
341.158	96.88
341.386	92.88
341.614	98.88
341.842	90.88
342.07	81.88
342.298	83.88
342.526	103.88
342.754	90.88
342.981	83.88
343.209	82.88
343.437	86.88
343.665	81.88
343.893	79.88
344.12	83.88
344.348	90.88
344.576	90.88
344.804	98.88
345.031	82.88
345.259	87.88
345.487	89.88
345.714	101.88
345.942	77.88
346.17	81.88
346.397	85.88
346.625	99.88
346.853	100.88
347.08	87.88
347.308	87.88
347.535	86.88
347.763	98.88
347.99	83.88
348.218	86.88
348.445	113.88
348.673	99.88
348.9	92.88
349.128	94.88
349.355	98.88
349.583	100.88
349.81	98.88
350.037	96.88
350.265	85.88
350.492	84.88
350.72	84.88
350.947	85.88
351.174	104.88
351.402	100.88
351.629	85.88
351.856	87.88
352.083	100.88
352.311	97.88
352.538	122.88
352.765	92.88
352.992	120.88
353.22	99.88
353.447	107.88
353.674	98.88
353.901	88.88
354.128	80.88
354.355	88.88
354.583	79.88
354.81	94.88
355.037	107.88
355.264	97.88
355.491	94.88
355.718	83.88
355.945	96.88
356.172	82.88
356.399	87.88
356.626	91.88
356.853	99.88
357.08	88.88
357.307	84.88
357.534	89.88
357.761	88.88
357.988	75.88
358.215	94.88
358.441	81.88
358.668	93.88
358.895	78.88
359.122	77.88
359.349	92.88
359.576	81.88
359.802	91.88
360.029	109.88
360.256	97.88
360.483	76.88
360.709	105.88
360.936	107.88
361.163	93.88
361.39	82.88
361.616	94.88
361.843	98.88
362.07	88.88
362.296	79.88
362.523	86.88
362.749	75.88
362.976	84.88
363.203	80.88
363.429	93.88
363.656	90.88
363.882	90.88
364.109	87.88
364.335	85.88
364.562	91.88
364.788	89.88
365.015	93.88
365.241	87.88
365.468	98.88
365.694	100.88
365.92	87.88
366.147	88.88
366.373	83.88
366.599	89.88
366.826	81.88
367.052	84.88
367.278	89.88
367.505	75.88
367.731	104.88
367.957	71.88
368.184	79.88
368.41	94.88
368.636	101.88
368.862	108.88
369.089	107.88
369.315	77.88
369.541	79.88
369.767	97.88
369.993	86.88
370.219	87.88
370.445	77.88
370.672	87.88
370.898	85.88
371.124	76.88
371.35	95.88
371.576	93.88
371.802	75.88
372.028	95.88
372.254	69.88
372.48	85.88
372.706	87.88
372.932	83.88
373.158	78.88
373.384	95.88
373.61	92.88
373.835	84.88
374.061	88.88
374.287	81.88
374.513	79.88
374.739	96.88
374.965	80.88
375.191	70.88
375.416	82.88
375.642	89.88
375.868	82.88
376.094	85.88
376.319	70.88
376.545	85.88
376.771	87.88
376.997	82.88
377.222	81.88
377.448	77.88
377.674	72.88
377.899	83.88
378.125	95.88
378.35	88.88
378.576	85.88
378.802	93.88
379.027	91.88
379.253	73.88
379.478	89.88
379.704	98.88
379.929	88.88
380.155	95.88
380.38	89.88
380.606	83.88
380.831	90.88
381.057	93.88
381.282	96.88
381.507	95.88
381.733	102.88
381.958	91.88
382.184	91.88
382.409	104.88
382.634	99.88
382.86	95.88
383.085	84.88
383.31	91.88
383.535	101.88
383.761	95.88
383.986	104.88
384.211	108.88
384.436	103.88
384.662	87.88
384.887	101.88
385.112	76.88
385.337	109.88
385.562	108.88
385.787	97.88
386.013	107.88
386.238	99.88
386.463	99.88
386.688	96.88
386.913	105.88
387.138	99.88
387.363	100.88
387.588	95.88
387.813	97.88
388.038	110.88
388.263	105.88
388.488	109.88
388.713	88.88
388.938	95.88
389.163	85.88
389.387	79.88
389.612	92.88
389.837	96.88
390.062	97.88
390.287	87.88
390.512	94.88
390.736	68.88
390.961	100.88
391.186	103.88
391.411	91.88
391.636	89.88
391.86	83.88
392.085	84.88
392.31	82.88
392.534	91.88
392.759	86.88
392.984	85.88
393.208	80.88
393.433	95.88
393.658	85.88
393.882	93.88
394.107	79.88
394.331	86.88
394.556	84.88
394.78	94.88
395.005	89.88
395.229	77.88
395.454	70.88
395.678	79.88
395.903	84.88
396.127	88.88
396.352	88.88
396.576	96.88
396.801	86.88
397.025	79.88
397.249	81.88
397.474	81.88
397.698	75.88
397.922	78.88
398.147	89.88
398.371	72.88
398.595	80.88
398.82	72.88
399.044	87.88
399.268	90.88
399.492	93.88
399.717	89.88
399.941	101.88
400.165	80.88
400.389	92.88
400.613	84.88
400.837	102.88
401.062	75.88
401.286	78.88
401.51	91.88
401.734	83.88
401.958	105.88
402.182	107.88
402.406	143.88
402.63	96.88
402.854	83.88
403.078	83.88
403.302	92.88
403.526	87.88
403.75	81.88
403.974	78.88
404.198	87.88
404.422	93.88
404.645	84.88
404.869	92.88
405.093	93.88
405.317	103.88
405.541	95.88
405.765	100.88
405.988	96.88
406.212	163.88
406.436	203.88
406.66	139.88
406.883	85.88
407.107	94.88
407.331	86.88
407.555	93.88
407.778	95.88
408.002	89.88
408.226	85.88
408.449	87.88
408.673	94.88
408.896	95.88
409.12	80.88
409.344	75.88
409.567	91.88
409.791	84.88
410.014	87.88
410.238	92.88
410.461	88.88
410.685	80.88
410.908	85.88
411.132	82.88
411.355	93.88
411.578	84.88
411.802	85.88
412.025	85.88
412.249	92.88
412.472	87.88
412.695	102.88
412.919	97.88
413.142	84.88
413.365	99.88
413.589	98.88
413.812	81.88
414.035	85.88
414.258	85.88
414.482	72.88
414.705	86.88
414.928	91.88
415.151	111.88
415.374	81.88
415.597	95.88
415.821	84.88
416.044	89.88
416.267	92.88
416.49	91.88
416.713	88.88
416.936	94.88
417.159	81.88
417.382	95.88
417.605	86.88
417.828	87.88
418.051	84.88
418.274	89.88
418.497	68.88
418.72	81.88
418.943	82.88
419.166	94.88
419.389	84.88
419.611	85.88
419.834	86.88
420.057	91.88
420.28	68.88
420.503	77.88
420.726	93.88
420.948	81.88
421.171	93.88
421.394	94.88
421.617	88.88
421.839	80.88
422.062	82.88
422.285	89.88
422.507	91.88
422.73	98.88
422.953	88.88
423.175	89.88
423.398	72.88
423.621	76.88
423.843	95.88
424.066	83.88
424.288	81.88
424.511	90.88
424.733	93.88
424.956	104.88
425.178	91.88
425.401	108.88
425.623	100.88
425.846	84.88
426.068	88.88
426.291	95.88
426.513	80.88
426.735	80.88
426.958	85.88
427.18	98.88
427.402	120.88
427.625	146.88
427.847	127.88
428.069	116.88
428.292	105.88
428.514	79.88
428.736	94.88
428.958	72.88
429.181	83.88
429.403	82.88
429.625	76.88
429.847	96.88
430.069	92.88
430.292	89.88
430.514	77.88
430.736	81.88
430.958	81.88
431.18	91.88
431.402	95.88
431.624	85.88
431.846	86.88
432.068	57.88
432.29	83.88
432.512	91.88
432.734	93.88
432.956	85.88
433.178	88.88
433.4	74.88
433.622	75.88
433.844	91.88
434.066	91.88
434.287	72.88
434.509	89.88
434.731	76.88
434.953	87.88
435.175	89.88
435.397	96.88
435.618	86.88
435.84	91.88
436.062	103.88
436.284	101.88
436.505	92.88
436.727	89.88
436.949	86.88
437.17	103.88
437.392	85.88
437.614	92.88
437.835	87.88
438.057	101.88
438.278	116.88
438.5	98.88
438.721	116.88
438.943	98.88
439.165	75.88
439.386	93.88
439.608	99.88
439.829	95.88
440.05	103.88
440.272	123.88
440.493	95.88
440.715	87.88
440.936	73.88
441.158	67.88
441.379	76.88
441.6	88.88
441.822	88.88
442.043	88.88
442.264	102.88
442.486	88.88
442.707	87.88
442.928	95.88
443.149	114.88
443.371	134.88
443.592	112.88
443.813	112.88
444.034	116.88
444.255	87.88
444.476	84.88
444.698	77.88
444.919	75.88
445.14	133.88
445.361	116.88
445.582	103.88
445.803	118.88
446.024	127.88
446.245	119.88
446.466	106.88
446.687	89.88
446.908	80.88
447.129	80.88
447.35	80.88
447.571	93.88
447.792	101.88
448.013	90.88
448.234	93.88
448.455	106.88
448.675	100.88
448.896	105.88
449.117	92.88
449.338	104.88
449.559	116.88
449.779	122.88
450	99.88
450.221	82.88
450.442	88.88
450.662	85.88
450.883	109.88
451.104	100.88
451.324	87.88
451.545	84.88
451.766	84.88
451.986	88.88
452.207	84.88
452.428	91.88
452.648	88.88
452.869	86.88
453.089	95.88
453.31	109.88
453.53	97.88
453.751	91.88
453.971	96.88
454.192	91.88
454.412	78.88
454.633	92.88
454.853	77.88
455.073	77.88
455.294	90.88
455.514	98.88
455.734	97.88
455.955	98.88
456.175	79.88
456.395	87.88
456.616	83.88
456.836	95.88
457.056	80.88
457.276	77.88
457.497	79.88
457.717	87.88
457.937	77.88
458.157	77.88
458.377	91.88
458.598	104.88
458.818	148.88
459.038	150.88
459.258	96.88
459.478	87.88
459.698	99.88
459.918	94.88
460.138	91.88
460.358	84.88
460.578	94.88
460.798	81.88
461.018	70.88
461.238	77.88
461.458	83.88
461.678	87.88
461.898	79.88
462.118	87.88
462.338	88.88
462.558	81.88
462.777	71.88
462.997	95.88
463.217	89.88
463.437	65.88
463.657	73.88
463.876	100.88
464.096	77.88
464.316	83.88
464.536	96.88
464.755	91.88
464.975	102.88
465.195	161.88
465.414	148.88
465.634	84.88
465.854	83.88
466.073	86.88
466.293	78.88
466.512	98.88
466.732	85.88
466.951	81.88
467.171	87.88
467.391	94.88
467.61	96.88
467.829	106.88
468.049	139.88
468.268	176.88
468.488	99.88
468.707	90.88
468.927	88.88
469.146	79.88
469.365	93.88
469.585	88.88
469.804	94.88
470.023	91.88
470.243	91.88
470.462	101.88
470.681	83.88
470.901	86.88
471.12	89.88
471.339	88.88
471.558	83.88
471.777	96.88
471.997	110.88
472.216	207.88
472.435	388.88
472.654	150.88
472.873	89.88
473.092	88.88
473.311	85.88
473.53	71.88
473.749	86.88
473.968	96.88
474.187	107.88
474.406	94.88
474.625	84.88
474.844	83.88
475.063	89.88
475.282	82.88
475.501	76.88
475.72	87.88
475.939	83.88
476.158	69.88
476.377	75.88
476.596	75.88
476.814	76.88
477.033	82.88
477.252	82.88
477.471	77.88
477.69	87.88
477.908	70.88
478.127	86.88
478.346	84.88
478.564	98.88
478.783	99.88
479.002	77.88
479.22	93.88
479.439	95.88
479.658	97.88
479.876	83.88
480.095	105.88
480.313	96.88
480.532	89.88
480.751	119.88
480.969	203.88
481.188	706.88
481.406	414.88
481.624	115.88
481.843	95.88
482.061	94.88
482.28	84.88
482.498	88.88
482.717	102.88
482.935	88.88
483.153	100.88
483.372	80.88
483.59	77.88
483.808	89.88
484.027	83.88
484.245	84.88
484.463	84.88
484.681	97.88
484.9	96.88
485.118	76.88
485.336	100.88
485.554	99.88
485.772	96.88
485.99	92.88
486.209	105.88
486.427	96.88
486.645	111.88
486.863	110.88
487.081	104.88
487.299	91.88
487.517	91.88
487.735	93.88
487.953	84.88
488.171	93.88
488.389	111.88
488.607	100.88
488.825	98.88
489.043	81.88
489.261	87.88
489.479	84.88
489.696	70.88
489.914	79.88
490.132	91.88
490.35	83.88
490.568	85.88
490.786	89.88
491.003	84.88
491.221	89.88
491.439	83.88
491.657	93.88
491.874	84.88
492.092	95.88
492.31	91.88
492.527	86.88
492.745	94.88
492.963	110.88
493.18	82.88
493.398	80.88
493.615	93.88
493.833	87.88
494.05	79.88
494.268	85.88
494.485	83.88
494.703	85.88
494.92	91.88
495.138	83.88
495.355	80.88
495.573	87.88
495.79	98.88
496.008	87.88
496.225	81.88
496.442	79.88
496.66	89.88
496.877	84.88
497.094	90.88
497.312	76.88
497.529	97.88
497.746	87.88
497.963	87.88
498.181	98.88
498.398	96.88
498.615	104.88
498.832	100.88
499.049	79.88
499.267	82.88
499.484	89.88
499.701	88.88
499.918	81.88
500.135	89.88
500.352	84.88
500.569	73.88
500.786	92.88
501.003	85.88
501.22	83.88
501.437	96.88
501.654	72.88
501.871	94.88
502.088	78.88
502.305	89.88
502.522	87.88
502.739	94.88
502.956	80.88
503.172	78.88
503.389	111.88
503.606	106.88
503.823	94.88
504.04	91.88
504.256	91.88
504.473	89.88
504.69	88.88
504.907	103.88
505.123	65.88
505.34	83.88
505.557	95.88
505.773	84.88
505.99	89.88
506.207	86.88
506.423	82.88
506.64	81.88
506.856	79.88
507.073	78.88
507.289	102.88
507.506	88.88
507.722	106.88
507.939	123.88
508.155	95.88
508.372	91.88
508.588	90.88
508.805	81.88
509.021	91.88
509.238	85.88
509.454	101.88
509.67	93.88
509.887	112.88
510.103	110.88
510.319	198.88
510.536	670.88
510.752	2232.88
510.968	599.88
511.184	131.88
511.401	111.88
511.617	104.88
511.833	91.88
512.049	96.88
512.265	83.88
512.481	99.88
512.698	93.88
512.914	78.88
513.13	87.88
513.346	97.88
513.562	92.88
513.778	77.88
513.994	97.88
514.21	100.88
514.426	124.88
514.642	110.88
514.858	116.88
515.074	148.88
515.29	417.88
515.506	1357.88
515.721	505.88
515.937	150.88
516.153	89.88
516.369	94.88
516.585	89.88
516.801	82.88
