Data from Circ_1984_H10_HRD10591_00070.txt Node
Date: Wed Jan 03 12:22:56 EST 2024
User: Yrep
Spectrometer: HR+D1059
Trigger mode: 1
Integration Time (sec): 1.000000E-1
Scans to average: 1
Electric dark correction enabled: true
Nonlinearity correction enabled: false
Boxcar width: 0
XAxis mode: Wavelengths
Number of Pixels in Spectrum: 2048
>>>>>Begin Spectral Data<<<<<
223.165	-14.62
223.4	-14.62
223.635	-14.62
223.869	-11.62
224.104	-18.62
224.338	-19.62
224.573	-11.62
224.808	-12.62
225.042	-8.62
225.277	-10.62
225.511	-1.62
225.746	-5.62
225.98	5.38
226.215	1.38
226.449	14.38
226.683	20.38
226.918	35.38
227.152	38.38
227.387	39.38
227.621	46.38
227.856	49.38
228.09	57.38
228.324	60.38
228.559	58.38
228.793	59.38
229.027	59.38
229.262	68.38
229.496	81.38
229.73	90.38
229.964	94.38
230.199	69.38
230.433	71.38
230.667	73.38
230.901	91.38
231.136	79.38
231.37	78.38
231.604	87.38
231.838	81.38
232.072	80.38
232.306	77.38
232.541	75.38
232.775	63.38
233.009	86.38
233.243	87.38
233.477	77.38
233.711	84.38
233.945	92.38
234.179	85.38
234.413	83.38
234.647	102.38
234.881	78.38
235.115	88.38
235.349	92.38
235.583	90.38
235.817	79.38
236.051	84.38
236.285	81.38
236.519	85.38
236.753	90.38
236.987	81.38
237.221	74.38
237.455	71.38
237.689	80.38
237.922	89.38
238.156	91.38
238.39	82.38
238.624	72.38
238.858	68.38
239.091	73.38
239.325	88.38
239.559	89.38
239.793	73.38
240.027	77.38
240.26	78.38
240.494	82.38
240.728	88.38
240.961	63.38
241.195	66.38
241.429	77.38
241.662	69.38
241.896	79.38
242.13	85.38
242.363	81.38
242.597	94.38
242.83	78.38
243.064	84.38
243.298	76.38
243.531	79.38
243.765	75.38
243.998	75.38
244.232	90.38
244.465	95.38
244.699	78.38
244.932	84.38
245.166	85.38
245.399	77.38
245.633	88.38
245.866	88.38
246.099	75.38
246.333	74.38
246.566	73.38
246.8	83.38
247.033	93.38
247.266	83.38
247.5	88.38
247.733	65.38
247.966	89.38
248.2	87.38
248.433	91.38
248.666	74.38
248.899	85.38
249.133	95.38
249.366	98.38
249.599	99.38
249.832	94.38
250.066	74.38
250.299	73.38
250.532	70.38
250.765	93.38
250.998	82.38
251.231	99.38
251.465	89.38
251.698	77.38
251.931	82.38
252.164	75.38
252.397	75.38
252.63	93.38
252.863	92.38
253.096	86.38
253.329	70.38
253.562	75.38
253.795	75.38
254.028	91.38
254.261	88.38
254.494	99.38
254.727	101.38
254.96	85.38
255.193	85.38
255.426	85.38
255.659	91.38
255.892	103.38
256.124	81.38
256.357	87.38
256.59	108.38
256.823	95.38
257.056	84.38
257.289	87.38
257.521	93.38
257.754	82.38
257.987	86.38
258.22	86.38
258.452	82.38
258.685	82.38
258.918	76.38
259.151	83.38
259.383	84.38
259.616	70.38
259.849	93.38
260.081	78.38
260.314	72.38
260.547	79.38
260.779	93.38
261.012	95.38
261.244	90.38
261.477	92.38
261.71	96.38
261.942	99.38
262.175	111.38
262.407	90.38
262.64	101.38
262.872	87.38
263.105	101.38
263.337	91.38
263.57	94.38
263.802	86.38
264.035	86.38
264.267	85.38
264.499	101.38
264.732	85.38
264.964	88.38
265.197	80.38
265.429	84.38
265.661	86.38
265.894	83.38
266.126	73.38
266.358	89.38
266.591	87.38
266.823	85.38
267.055	87.38
267.287	90.38
267.52	92.38
267.752	97.38
267.984	98.38
268.216	83.38
268.448	98.38
268.681	90.38
268.913	85.38
269.145	76.38
269.377	83.38
269.609	81.38
269.841	80.38
270.073	86.38
270.306	73.38
270.538	78.38
270.77	83.38
271.002	93.38
271.234	91.38
271.466	93.38
271.698	94.38
271.93	92.38
272.162	95.38
272.394	88.38
272.626	94.38
272.858	82.38
273.09	82.38
273.322	91.38
273.553	84.38
273.785	76.38
274.017	92.38
274.249	81.38
274.481	89.38
274.713	70.38
274.945	87.38
275.176	90.38
275.408	97.38
275.64	98.38
275.872	83.38
276.104	93.38
276.335	103.38
276.567	81.38
276.799	115.38
277.031	114.38
277.262	104.38
277.494	95.38
277.726	91.38
277.957	102.38
278.189	92.38
278.421	91.38
278.652	95.38
278.884	99.38
279.115	98.38
279.347	83.38
279.579	99.38
279.81	100.38
280.042	108.38
280.273	118.38
280.505	111.38
280.736	94.38
280.968	97.38
281.199	101.38
281.431	86.38
281.662	107.38
281.894	106.38
282.125	110.38
282.356	117.38
282.588	147.38
282.819	111.38
283.051	98.38
283.282	91.38
283.513	100.38
283.745	89.38
283.976	95.38
284.207	85.38
284.439	89.38
284.67	92.38
284.901	81.38
285.132	91.38
285.364	102.38
285.595	82.38
285.826	77.38
286.057	93.38
286.288	100.38
286.52	90.38
286.751	98.38
286.982	92.38
287.213	76.38
287.444	88.38
287.675	87.38
287.906	95.38
288.138	100.38
288.369	98.38
288.6	94.38
288.831	86.38
289.062	90.38
289.293	92.38
289.524	91.38
289.755	92.38
289.986	82.38
290.217	83.38
290.448	94.38
290.679	90.38
290.91	87.38
291.141	101.38
291.371	87.38
291.602	96.38
291.833	88.38
292.064	90.38
292.295	94.38
292.526	91.38
292.757	86.38
292.987	98.38
293.218	101.38
293.449	95.38
293.68	91.38
293.91	100.38
294.141	92.38
294.372	92.38
294.603	103.38
294.833	88.38
295.064	95.38
295.295	90.38
295.525	97.38
295.756	95.38
295.987	118.38
296.217	124.38
296.448	114.38
296.679	95.38
296.909	87.38
297.14	91.38
297.37	99.38
297.601	93.38
297.831	98.38
298.062	103.38
298.292	95.38
298.523	91.38
298.753	97.38
298.984	94.38
299.214	84.38
299.445	90.38
299.675	87.38
299.905	102.38
300.136	101.38
300.366	90.38
300.597	84.38
300.827	90.38
301.057	90.38
301.288	93.38
301.518	90.38
301.748	97.38
301.979	103.38
302.209	101.38
302.439	88.38
302.669	86.38
302.9	99.38
303.13	103.38
303.36	101.38
303.59	103.38
303.82	100.38
304.051	84.38
304.281	106.38
304.511	91.38
304.741	89.38
304.971	78.38
305.201	105.38
305.431	99.38
305.661	84.38
305.891	105.38
306.121	106.38
306.352	113.38
306.582	99.38
306.812	88.38
307.042	87.38
307.272	109.38
307.502	117.38
307.731	102.38
307.961	102.38
308.191	93.38
308.421	102.38
308.651	101.38
308.881	101.38
309.111	97.38
309.341	95.38
309.571	78.38
309.8	86.38
310.03	94.38
310.26	96.38
310.49	91.38
310.72	103.38
310.949	92.38
311.179	98.38
311.409	95.38
311.639	100.38
311.868	93.38
312.098	107.38
312.328	100.38
312.557	108.38
312.787	105.38
313.017	109.38
313.246	97.38
313.476	112.38
313.706	105.38
313.935	87.38
314.165	117.38
314.394	95.38
314.624	99.38
314.853	90.38
315.083	93.38
315.312	99.38
315.542	78.38
315.771	90.38
316.001	100.38
316.23	116.38
316.46	94.38
316.689	96.38
316.919	94.38
317.148	89.38
317.377	89.38
317.607	98.38
317.836	98.38
318.065	99.38
318.295	87.38
318.524	79.38
318.753	101.38
318.983	97.38
319.212	101.38
319.441	93.38
319.67	114.38
319.9	93.38
320.129	96.38
320.358	111.38
320.587	89.38
320.816	90.38
321.046	99.38
321.275	92.38
321.504	104.38
321.733	100.38
321.962	117.38
322.191	102.38
322.42	105.38
322.649	94.38
322.878	106.38
323.108	130.38
323.337	118.38
323.566	127.38
323.795	147.38
324.024	190.38
324.253	339.38
324.482	704.38
324.71	1420.38
324.939	1882.38
325.168	713.38
325.397	216.38
325.626	145.38
325.855	132.38
326.084	116.38
326.313	128.38
326.542	152.38
326.77	210.38
326.999	394.38
327.228	822.38
327.457	1457.38
327.686	1141.38
327.914	359.38
328.143	215.38
328.372	217.38
328.6	147.38
328.829	123.38
329.058	119.38
329.287	123.38
329.515	108.38
329.744	138.38
329.972	168.38
330.201	242.38
330.43	279.38
330.658	177.38
330.887	137.38
331.115	117.38
331.344	107.38
331.572	102.38
331.801	115.38
332.03	92.38
332.258	111.38
332.486	99.38
332.715	94.38
332.943	111.38
333.172	101.38
333.4	102.38
333.629	107.38
333.857	127.38
334.085	162.38
334.314	251.38
334.542	380.38
334.771	350.38
334.999	153.38
335.227	130.38
335.455	105.38
335.684	106.38
335.912	110.38
336.14	99.38
336.369	104.38
336.597	99.38
336.825	100.38
337.053	94.38
337.281	92.38
337.51	90.38
337.738	104.38
337.966	82.38
338.194	93.38
338.422	102.38
338.65	95.38
338.878	100.38
339.106	108.38
339.334	81.38
339.562	105.38
339.79	95.38
340.018	100.38
340.246	103.38
340.474	105.38
340.702	93.38
340.93	97.38
341.158	85.38
341.386	93.38
341.614	100.38
341.842	94.38
342.07	99.38
342.298	101.38
342.526	99.38
342.754	83.38
342.981	96.38
343.209	98.38
343.437	108.38
343.665	92.38
343.893	102.38
344.12	108.38
344.348	93.38
344.576	107.38
344.804	109.38
345.031	97.38
345.259	92.38
345.487	87.38
345.714	102.38
345.942	104.38
346.17	105.38
346.397	107.38
346.625	97.38
346.853	102.38
347.08	87.38
347.308	94.38
347.535	105.38
347.763	108.38
347.99	99.38
348.218	108.38
348.445	114.38
348.673	95.38
348.9	101.38
349.128	98.38
349.355	106.38
349.583	98.38
349.81	95.38
350.037	96.38
350.265	104.38
350.492	83.38
350.72	105.38
350.947	107.38
351.174	107.38
351.402	107.38
351.629	97.38
351.856	94.38
352.083	106.38
352.311	94.38
352.538	108.38
352.765	103.38
352.992	115.38
353.22	113.38
353.447	106.38
353.674	104.38
353.901	93.38
354.128	104.38
354.355	109.38
354.583	90.38
354.81	99.38
355.037	108.38
355.264	89.38
355.491	97.38
355.718	92.38
355.945	95.38
356.172	101.38
356.399	101.38
356.626	97.38
356.853	104.38
357.08	91.38
357.307	73.38
357.534	99.38
357.761	101.38
357.988	89.38
358.215	101.38
358.441	108.38
358.668	107.38
358.895	78.38
359.122	100.38
359.349	89.38
359.576	99.38
359.802	117.38
360.029	110.38
360.256	102.38
360.483	107.38
360.709	90.38
360.936	103.38
361.163	109.38
361.39	93.38
361.616	97.38
361.843	86.38
362.07	99.38
362.296	89.38
362.523	97.38
362.749	92.38
362.976	85.38
363.203	97.38
363.429	102.38
363.656	98.38
363.882	88.38
364.109	91.38
364.335	104.38
364.562	90.38
364.788	84.38
365.015	100.38
365.241	106.38
365.468	106.38
365.694	103.38
365.92	98.38
366.147	97.38
366.373	77.38
366.599	97.38
366.826	102.38
367.052	97.38
367.278	87.38
367.505	88.38
367.731	108.38
367.957	88.38
368.184	107.38
368.41	100.38
368.636	116.38
368.862	108.38
369.089	105.38
369.315	96.38
369.541	89.38
369.767	87.38
369.993	93.38
370.219	88.38
370.445	81.38
370.672	93.38
370.898	97.38
371.124	91.38
371.35	83.38
371.576	96.38
371.802	93.38
372.028	97.38
372.254	97.38
372.48	79.38
372.706	96.38
372.932	105.38
373.158	87.38
373.384	94.38
373.61	90.38
373.835	84.38
374.061	99.38
374.287	106.38
374.513	85.38
374.739	85.38
374.965	99.38
375.191	77.38
375.416	92.38
375.642	97.38
375.868	96.38
376.094	90.38
376.319	81.38
376.545	101.38
376.771	97.38
376.997	83.38
377.222	77.38
377.448	80.38
377.674	100.38
377.899	89.38
378.125	87.38
378.35	85.38
378.576	71.38
378.802	88.38
379.027	90.38
379.253	103.38
379.478	91.38
379.704	88.38
379.929	100.38
380.155	95.38
380.38	103.38
380.606	101.38
380.831	99.38
381.057	106.38
381.282	92.38
381.507	95.38
381.733	95.38
381.958	107.38
382.184	101.38
382.409	111.38
382.634	108.38
382.86	117.38
383.085	105.38
383.31	111.38
383.535	82.38
383.761	105.38
383.986	101.38
384.211	90.38
384.436	112.38
384.662	98.38
384.887	115.38
385.112	98.38
385.337	92.38
385.562	100.38
385.787	109.38
386.013	117.38
386.238	115.38
386.463	97.38
386.688	109.38
386.913	94.38
387.138	94.38
387.363	110.38
387.588	104.38
387.813	100.38
388.038	107.38
388.263	92.38
388.488	102.38
388.713	104.38
388.938	103.38
389.163	101.38
389.387	100.38
389.612	94.38
389.837	99.38
390.062	98.38
390.287	96.38
390.512	103.38
390.736	91.38
390.961	94.38
391.186	94.38
391.411	100.38
391.636	97.38
391.86	85.38
392.085	96.38
392.31	83.38
392.534	87.38
392.759	91.38
392.984	95.38
393.208	94.38
393.433	97.38
393.658	81.38
393.882	95.38
394.107	97.38
394.331	90.38
394.556	91.38
394.78	99.38
395.005	82.38
395.229	81.38
395.454	94.38
395.678	85.38
395.903	93.38
396.127	82.38
396.352	75.38
396.576	93.38
396.801	76.38
397.025	79.38
397.249	90.38
397.474	78.38
397.698	92.38
397.922	91.38
398.147	87.38
398.371	74.38
398.595	91.38
398.82	101.38
399.044	69.38
399.268	90.38
399.492	86.38
399.717	106.38
399.941	97.38
400.165	108.38
400.389	108.38
400.613	89.38
400.837	81.38
401.062	88.38
401.286	101.38
401.51	97.38
401.734	101.38
401.958	96.38
402.182	126.38
402.406	140.38
402.63	107.38
402.854	87.38
403.078	95.38
403.302	98.38
403.526	85.38
403.75	91.38
403.974	82.38
404.198	89.38
404.422	88.38
404.645	83.38
404.869	95.38
405.093	93.38
405.317	113.38
405.541	105.38
405.765	103.38
405.988	108.38
406.212	165.38
406.436	194.38
406.66	140.38
406.883	113.38
407.107	95.38
407.331	93.38
407.555	97.38
407.778	103.38
408.002	83.38
408.226	89.38
408.449	83.38
408.673	82.38
408.896	95.38
409.12	100.38
409.344	89.38
409.567	82.38
409.791	101.38
410.014	99.38
410.238	105.38
410.461	87.38
410.685	93.38
410.908	98.38
411.132	111.38
411.355	87.38
411.578	97.38
411.802	91.38
412.025	91.38
412.249	96.38
412.472	106.38
412.695	110.38
412.919	101.38
413.142	76.38
413.365	81.38
413.589	94.38
413.812	81.38
414.035	107.38
414.258	92.38
414.482	75.38
414.705	101.38
414.928	92.38
415.151	88.38
415.374	99.38
415.597	93.38
415.821	83.38
416.044	102.38
416.267	86.38
416.49	111.38
416.713	93.38
416.936	96.38
417.159	107.38
417.382	101.38
417.605	103.38
417.828	105.38
418.051	87.38
418.274	98.38
418.497	74.38
418.72	73.38
418.943	86.38
419.166	83.38
419.389	98.38
419.611	86.38
419.834	85.38
420.057	92.38
420.28	95.38
420.503	92.38
420.726	71.38
420.948	96.38
421.171	100.38
421.394	107.38
421.617	85.38
421.839	87.38
422.062	95.38
422.285	95.38
422.507	91.38
422.73	110.38
422.953	97.38
423.175	102.38
423.398	99.38
423.621	90.38
423.843	97.38
424.066	81.38
424.288	82.38
424.511	102.38
424.733	97.38
424.956	104.38
425.178	85.38
425.401	95.38
425.623	105.38
425.846	91.38
426.068	90.38
426.291	90.38
426.513	97.38
426.735	89.38
426.958	92.38
427.18	105.38
427.402	147.38
427.625	153.38
427.847	132.38
428.069	131.38
428.292	93.38
428.514	74.38
428.736	93.38
428.958	85.38
429.181	92.38
429.403	81.38
429.625	100.38
429.847	93.38
430.069	96.38
430.292	109.38
430.514	94.38
430.736	81.38
430.958	97.38
431.18	83.38
431.402	89.38
431.624	90.38
431.846	83.38
432.068	84.38
432.29	94.38
432.512	87.38
432.734	89.38
432.956	98.38
433.178	115.38
433.4	100.38
433.622	106.38
433.844	98.38
434.066	77.38
434.287	101.38
434.509	85.38
434.731	94.38
434.953	85.38
435.175	89.38
435.397	86.38
435.618	81.38
435.84	96.38
436.062	109.38
436.284	109.38
436.505	101.38
436.727	114.38
436.949	93.38
437.17	102.38
437.392	91.38
437.614	100.38
437.835	109.38
438.057	101.38
438.278	110.38
438.5	108.38
438.721	118.38
438.943	101.38
439.165	87.38
439.386	87.38
439.608	102.38
439.829	105.38
440.05	129.38
440.272	124.38
440.493	99.38
440.715	85.38
440.936	89.38
441.158	97.38
441.379	103.38
441.6	92.38
441.822	103.38
442.043	105.38
442.264	90.38
442.486	97.38
442.707	91.38
442.928	108.38
443.149	116.38
443.371	117.38
443.592	114.38
443.813	109.38
444.034	115.38
444.255	94.38
444.476	89.38
444.698	97.38
444.919	78.38
445.14	123.38
445.361	129.38
445.582	102.38
445.803	145.38
446.024	123.38
446.245	139.38
446.466	106.38
446.687	93.38
446.908	82.38
447.129	89.38
447.35	94.38
447.571	90.38
447.792	106.38
448.013	100.38
448.234	99.38
448.455	106.38
448.675	122.38
448.896	110.38
449.117	102.38
449.338	94.38
449.559	109.38
449.779	125.38
450	100.38
450.221	82.38
450.442	85.38
450.662	81.38
450.883	106.38
451.104	113.38
451.324	108.38
451.545	89.38
451.766	86.38
451.986	96.38
452.207	82.38
452.428	88.38
452.648	102.38
452.869	113.38
453.089	117.38
453.31	122.38
453.53	120.38
453.751	95.38
453.971	105.38
454.192	113.38
454.412	89.38
454.633	91.38
454.853	94.38
455.073	90.38
455.294	98.38
455.514	112.38
455.734	91.38
455.955	74.38
456.175	81.38
456.395	74.38
456.616	97.38
456.836	97.38
457.056	86.38
457.276	81.38
457.497	84.38
457.717	93.38
457.937	90.38
458.157	77.38
458.377	93.38
458.598	103.38
458.818	137.38
459.038	142.38
459.258	108.38
459.478	94.38
459.698	70.38
459.918	81.38
460.138	89.38
460.358	87.38
460.578	99.38
460.798	96.38
461.018	95.38
461.238	71.38
461.458	87.38
461.678	97.38
461.898	83.38
462.118	74.38
462.338	96.38
462.558	91.38
462.777	94.38
462.997	95.38
463.217	93.38
463.437	84.38
463.657	97.38
463.876	85.38
464.096	88.38
464.316	98.38
464.536	88.38
464.755	91.38
464.975	118.38
465.195	139.38
465.414	153.38
465.634	93.38
465.854	89.38
466.073	90.38
466.293	98.38
466.512	76.38
466.732	92.38
466.951	95.38
467.171	94.38
467.391	92.38
467.61	115.38
467.829	106.38
468.049	172.38
468.268	191.38
468.488	107.38
468.707	92.38
468.927	94.38
469.146	101.38
469.365	83.38
469.585	99.38
469.804	101.38
470.023	103.38
470.243	98.38
470.462	96.38
470.681	105.38
470.901	89.38
471.12	98.38
471.339	91.38
471.558	85.38
471.777	101.38
471.997	139.38
472.216	273.38
472.435	495.38
472.654	179.38
472.873	100.38
473.092	87.38
473.311	105.38
473.53	85.38
473.749	92.38
473.968	103.38
474.187	104.38
474.406	85.38
474.625	97.38
474.844	90.38
475.063	88.38
475.282	82.38
475.501	86.38
475.72	95.38
475.939	90.38
476.158	95.38
476.377	93.38
476.596	97.38
476.814	92.38
477.033	97.38
477.252	87.38
477.471	78.38
477.69	90.38
477.908	99.38
478.127	102.38
478.346	91.38
478.564	90.38
478.783	95.38
479.002	91.38
479.22	94.38
479.439	114.38
479.658	111.38
479.876	109.38
480.095	102.38
480.313	99.38
480.532	106.38
480.751	100.38
480.969	241.38
481.188	781.38
481.406	475.38
481.624	127.38
481.843	92.38
482.061	98.38
482.28	95.38
482.498	94.38
482.717	90.38
482.935	101.38
483.153	91.38
483.372	97.38
483.59	77.38
483.808	98.38
484.027	96.38
484.245	99.38
484.463	91.38
484.681	102.38
484.9	104.38
485.118	113.38
485.336	110.38
485.554	108.38
485.772	101.38
485.99	110.38
486.209	95.38
486.427	115.38
486.645	119.38
486.863	119.38
487.081	96.38
487.299	108.38
487.517	98.38
487.735	105.38
487.953	92.38
488.171	104.38
488.389	103.38
488.607	116.38
488.825	96.38
489.043	99.38
489.261	96.38
489.479	86.38
489.696	89.38
489.914	88.38
490.132	88.38
490.35	101.38
490.568	74.38
490.786	97.38
491.003	90.38
491.221	99.38
491.439	95.38
491.657	91.38
491.874	101.38
492.092	93.38
492.31	96.38
492.527	98.38
492.745	87.38
492.963	101.38
493.18	86.38
493.398	82.38
493.615	87.38
493.833	88.38
494.05	100.38
494.268	73.38
494.485	102.38
494.703	83.38
494.92	92.38
495.138	91.38
495.355	92.38
495.573	83.38
495.79	94.38
496.008	92.38
496.225	91.38
496.442	92.38
496.66	94.38
496.877	79.38
497.094	79.38
497.312	86.38
497.529	85.38
497.746	97.38
497.963	96.38
498.181	76.38
498.398	100.38
498.615	104.38
498.832	91.38
499.049	79.38
499.267	101.38
499.484	105.38
499.701	105.38
499.918	86.38
500.135	102.38
500.352	91.38
500.569	92.38
500.786	98.38
501.003	105.38
501.22	92.38
501.437	93.38
501.654	99.38
501.871	86.38
502.088	81.38
502.305	95.38
502.522	98.38
502.739	94.38
502.956	98.38
503.172	90.38
503.389	99.38
503.606	87.38
503.823	88.38
504.04	84.38
504.256	96.38
504.473	94.38
504.69	92.38
504.907	109.38
505.123	103.38
505.34	86.38
505.557	89.38
505.773	99.38
505.99	93.38
506.207	90.38
506.423	102.38
506.64	82.38
506.856	83.38
507.073	99.38
507.289	99.38
507.506	97.38
507.722	104.38
507.939	113.38
508.155	96.38
508.372	86.38
508.588	108.38
508.805	100.38
509.021	103.38
509.238	98.38
509.454	97.38
509.67	101.38
509.887	98.38
510.103	131.38
510.319	204.38
510.536	664.38
510.752	2129.38
510.968	597.38
511.184	148.38
511.401	125.38
511.617	101.38
511.833	101.38
512.049	89.38
512.265	81.38
512.481	89.38
512.698	107.38
512.914	90.38
513.13	95.38
513.346	100.38
513.562	94.38
513.778	94.38
513.994	94.38
