Data from Circ_1984_H10_HRD10591_00039.txt Node
Date: Wed Jan 03 12:22:49 EST 2024
User: Yrep
Spectrometer: HR+D1059
Trigger mode: 1
Integration Time (sec): 1.000000E-1
Scans to average: 1
Electric dark correction enabled: true
Nonlinearity correction enabled: false
Boxcar width: 0
XAxis mode: Wavelengths
Number of Pixels in Spectrum: 2048
>>>>>Begin Spectral Data<<<<<
223.165	-13.38
223.4	-13.38
223.635	-13.38
223.869	-23.38
224.104	-29.38
224.338	-29.38
224.573	-14.38
224.808	-17.38
225.042	-8.38
225.277	-4.38
225.511	-0.38
225.746	19.62
225.98	-14.38
226.215	11.62
226.449	26.62
226.683	17.62
226.918	31.62
227.152	47.62
227.387	35.62
227.621	50.62
227.856	43.62
228.09	45.62
228.324	63.62
228.559	57.62
228.793	51.62
229.027	68.62
229.262	61.62
229.496	71.62
229.73	82.62
229.964	84.62
230.199	82.62
230.433	73.62
230.667	76.62
230.901	80.62
231.136	90.62
231.37	66.62
231.604	78.62
231.838	79.62
232.072	75.62
232.306	74.62
232.541	58.62
232.775	68.62
233.009	70.62
233.243	50.62
233.477	67.62
233.711	73.62
233.945	91.62
234.179	71.62
234.413	72.62
234.647	88.62
234.881	72.62
235.115	82.62
235.349	72.62
235.583	77.62
235.817	80.62
236.051	80.62
236.285	63.62
236.519	79.62
236.753	70.62
236.987	95.62
237.221	71.62
237.455	82.62
237.689	85.62
237.922	66.62
238.156	69.62
238.39	85.62
238.624	66.62
238.858	87.62
239.091	67.62
239.325	83.62
239.559	78.62
239.793	73.62
240.027	79.62
240.26	89.62
240.494	82.62
240.728	90.62
240.961	68.62
241.195	75.62
241.429	78.62
241.662	67.62
241.896	75.62
242.13	71.62
242.363	73.62
242.597	67.62
242.83	80.62
243.064	91.62
243.298	83.62
243.531	79.62
243.765	67.62
243.998	78.62
244.232	69.62
244.465	74.62
244.699	79.62
244.932	70.62
245.166	77.62
245.399	79.62
245.633	65.62
245.866	74.62
246.099	78.62
246.333	72.62
246.566	83.62
246.8	81.62
247.033	92.62
247.266	80.62
247.5	66.62
247.733	78.62
247.966	82.62
248.2	90.62
248.433	69.62
248.666	76.62
248.899	91.62
249.133	79.62
249.366	87.62
249.599	86.62
249.832	70.62
250.066	78.62
250.299	88.62
250.532	68.62
250.765	57.62
250.998	99.62
251.231	65.62
251.465	90.62
251.698	79.62
251.931	87.62
252.164	85.62
252.397	72.62
252.63	82.62
252.863	77.62
253.096	90.62
253.329	95.62
253.562	80.62
253.795	73.62
254.028	69.62
254.261	82.62
254.494	64.62
254.727	86.62
254.96	86.62
255.193	80.62
255.426	75.62
255.659	85.62
255.892	91.62
256.124	64.62
256.357	84.62
256.59	86.62
256.823	75.62
257.056	84.62
257.289	77.62
257.521	79.62
257.754	82.62
257.987	75.62
258.22	81.62
258.452	82.62
258.685	86.62
258.918	78.62
259.151	94.62
259.383	64.62
259.616	81.62
259.849	87.62
260.081	68.62
260.314	58.62
260.547	69.62
260.779	73.62
261.012	93.62
261.244	83.62
261.477	93.62
261.71	95.62
261.942	99.62
262.175	92.62
262.407	84.62
262.64	82.62
262.872	92.62
263.105	68.62
263.337	78.62
263.57	77.62
263.802	82.62
264.035	84.62
264.267	75.62
264.499	74.62
264.732	84.62
264.964	99.62
265.197	77.62
265.429	81.62
265.661	79.62
265.894	71.62
266.126	79.62
266.358	90.62
266.591	62.62
266.823	68.62
267.055	78.62
267.287	86.62
267.52	67.62
267.752	73.62
267.984	80.62
268.216	93.62
268.448	79.62
268.681	82.62
268.913	83.62
269.145	92.62
269.377	77.62
269.609	95.62
269.841	82.62
270.073	78.62
270.306	86.62
270.538	84.62
270.77	70.62
271.002	83.62
271.234	71.62
271.466	77.62
271.698	81.62
271.93	71.62
272.162	71.62
272.394	85.62
272.626	79.62
272.858	82.62
273.09	75.62
273.322	90.62
273.553	84.62
273.785	74.62
274.017	74.62
274.249	83.62
274.481	74.62
274.713	69.62
274.945	84.62
275.176	80.62
275.408	80.62
275.64	83.62
275.872	84.62
276.104	84.62
276.335	80.62
276.567	89.62
276.799	109.62
277.031	82.62
277.262	102.62
277.494	91.62
277.726	88.62
277.957	82.62
278.189	83.62
278.421	72.62
278.652	61.62
278.884	66.62
279.115	85.62
279.347	77.62
279.579	78.62
279.81	94.62
280.042	100.62
280.273	103.62
280.505	90.62
280.736	83.62
280.968	74.62
281.199	82.62
281.431	86.62
281.662	75.62
281.894	83.62
282.125	75.62
282.356	114.62
282.588	110.62
282.819	104.62
283.051	89.62
283.282	73.62
283.513	86.62
283.745	91.62
283.976	87.62
284.207	83.62
284.439	102.62
284.67	90.62
284.901	80.62
285.132	75.62
285.364	89.62
285.595	88.62
285.826	87.62
286.057	92.62
286.288	92.62
286.52	84.62
286.751	80.62
286.982	80.62
287.213	81.62
287.444	116.62
287.675	88.62
287.906	97.62
288.138	98.62
288.369	97.62
288.6	85.62
288.831	97.62
289.062	93.62
289.293	72.62
289.524	74.62
289.755	88.62
289.986	71.62
290.217	86.62
290.448	97.62
290.679	81.62
290.91	83.62
291.141	94.62
291.371	86.62
291.602	90.62
291.833	77.62
292.064	73.62
292.295	93.62
292.526	91.62
292.757	87.62
292.987	72.62
293.218	88.62
293.449	94.62
293.68	81.62
293.91	93.62
294.141	91.62
294.372	73.62
294.603	94.62
294.833	85.62
295.064	93.62
295.295	82.62
295.525	88.62
295.756	105.62
295.987	120.62
296.217	119.62
296.448	118.62
296.679	96.62
296.909	81.62
297.14	97.62
297.37	87.62
297.601	83.62
297.831	86.62
298.062	99.62
298.292	85.62
298.523	88.62
298.753	89.62
298.984	84.62
299.214	90.62
299.445	95.62
299.675	82.62
299.905	99.62
300.136	95.62
300.366	85.62
300.597	79.62
300.827	80.62
301.057	94.62
301.288	106.62
301.518	94.62
301.748	86.62
301.979	96.62
302.209	84.62
302.439	97.62
302.669	81.62
302.9	104.62
303.13	90.62
303.36	93.62
303.59	85.62
303.82	95.62
304.051	94.62
304.281	88.62
304.511	98.62
304.741	77.62
304.971	82.62
305.201	82.62
305.431	94.62
305.661	90.62
305.891	80.62
306.121	93.62
306.352	105.62
306.582	86.62
306.812	89.62
307.042	87.62
307.272	106.62
307.502	93.62
307.731	81.62
307.961	112.62
308.191	96.62
308.421	91.62
308.651	91.62
308.881	90.62
309.111	98.62
309.341	87.62
309.571	98.62
309.8	97.62
310.03	101.62
310.26	87.62
310.49	94.62
310.72	89.62
310.949	88.62
311.179	94.62
311.409	100.62
311.639	96.62
311.868	94.62
312.098	87.62
312.328	99.62
312.557	104.62
312.787	103.62
313.017	87.62
313.246	87.62
313.476	86.62
313.706	96.62
313.935	87.62
314.165	110.62
314.394	97.62
314.624	98.62
314.853	99.62
315.083	91.62
315.312	93.62
315.542	87.62
315.771	83.62
316.001	90.62
316.23	85.62
316.46	91.62
316.689	98.62
316.919	93.62
317.148	103.62
317.377	95.62
317.607	85.62
317.836	86.62
318.065	88.62
318.295	83.62
318.524	90.62
318.753	83.62
318.983	88.62
319.212	95.62
319.441	93.62
319.67	90.62
319.9	74.62
320.129	103.62
320.358	86.62
320.587	82.62
320.816	92.62
321.046	104.62
321.275	104.62
321.504	96.62
321.733	87.62
321.962	98.62
322.191	97.62
322.42	106.62
322.649	106.62
322.878	111.62
323.108	115.62
323.337	120.62
323.566	108.62
323.795	133.62
324.024	174.62
324.253	324.62
324.482	660.62
324.71	1356.62
324.939	1785.62
325.168	673.62
325.397	220.62
325.626	127.62
325.855	112.62
326.084	122.62
326.313	119.62
326.542	120.62
326.77	199.62
326.999	378.62
327.228	754.62
327.457	1373.62
327.686	1095.62
327.914	312.62
328.143	183.62
328.372	178.62
328.6	134.62
328.829	127.62
329.058	115.62
329.287	118.62
329.515	113.62
329.744	110.62
329.972	141.62
330.201	189.62
330.43	223.62
330.658	157.62
330.887	151.62
331.115	120.62
331.344	92.62
331.572	106.62
331.801	98.62
332.03	101.62
332.258	87.62
332.486	100.62
332.715	90.62
332.943	97.62
333.172	83.62
333.4	85.62
333.629	108.62
333.857	113.62
334.085	136.62
334.314	183.62
334.542	262.62
334.771	240.62
334.999	129.62
335.227	90.62
335.455	95.62
335.684	89.62
335.912	102.62
336.14	95.62
336.369	88.62
336.597	92.62
336.825	98.62
337.053	99.62
337.281	82.62
337.51	94.62
337.738	96.62
337.966	89.62
338.194	107.62
338.422	85.62
338.65	85.62
338.878	100.62
339.106	86.62
339.334	85.62
339.562	80.62
339.79	89.62
340.018	93.62
340.246	81.62
340.474	93.62
340.702	98.62
340.93	87.62
341.158	93.62
341.386	86.62
341.614	88.62
341.842	97.62
342.07	79.62
342.298	89.62
342.526	96.62
342.754	80.62
342.981	86.62
343.209	103.62
343.437	97.62
343.665	88.62
343.893	85.62
344.12	99.62
344.348	92.62
344.576	78.62
344.804	89.62
345.031	86.62
345.259	81.62
345.487	85.62
345.714	88.62
345.942	74.62
346.17	90.62
346.397	93.62
346.625	83.62
346.853	103.62
347.08	92.62
347.308	88.62
347.535	102.62
347.763	73.62
347.99	93.62
348.218	86.62
348.445	105.62
348.673	94.62
348.9	93.62
349.128	91.62
349.355	87.62
349.583	90.62
349.81	98.62
350.037	83.62
350.265	97.62
350.492	98.62
350.72	82.62
350.947	90.62
351.174	95.62
351.402	125.62
351.629	96.62
351.856	89.62
352.083	95.62
352.311	105.62
352.538	103.62
352.765	100.62
352.992	100.62
353.22	108.62
353.447	98.62
353.674	91.62
353.901	105.62
354.128	83.62
354.355	98.62
354.583	95.62
354.81	107.62
355.037	106.62
355.264	108.62
355.491	84.62
355.718	99.62
355.945	110.62
356.172	82.62
356.399	80.62
356.626	97.62
356.853	88.62
357.08	98.62
357.307	91.62
357.534	73.62
357.761	79.62
357.988	103.62
358.215	103.62
358.441	99.62
358.668	99.62
358.895	87.62
359.122	101.62
359.349	72.62
359.576	85.62
359.802	87.62
360.029	115.62
360.256	105.62
360.483	93.62
360.709	78.62
360.936	98.62
361.163	98.62
361.39	84.62
361.616	98.62
361.843	97.62
362.07	85.62
362.296	96.62
362.523	94.62
362.749	88.62
362.976	96.62
363.203	104.62
363.429	91.62
363.656	62.62
363.882	84.62
364.109	79.62
364.335	93.62
364.562	83.62
364.788	98.62
365.015	88.62
365.241	93.62
365.468	99.62
365.694	101.62
365.92	101.62
366.147	74.62
366.373	78.62
366.599	100.62
366.826	87.62
367.052	94.62
367.278	89.62
367.505	93.62
367.731	99.62
367.957	86.62
368.184	88.62
368.41	91.62
368.636	107.62
368.862	106.62
369.089	113.62
369.315	96.62
369.541	86.62
369.767	75.62
369.993	85.62
370.219	71.62
370.445	85.62
370.672	96.62
370.898	90.62
371.124	90.62
371.35	93.62
371.576	89.62
371.802	85.62
372.028	93.62
372.254	84.62
372.48	80.62
372.706	76.62
372.932	95.62
373.158	94.62
373.384	85.62
373.61	93.62
373.835	75.62
374.061	82.62
374.287	87.62
374.513	91.62
374.739	91.62
374.965	88.62
375.191	102.62
375.416	90.62
375.642	105.62
375.868	98.62
376.094	82.62
376.319	75.62
376.545	81.62
376.771	85.62
376.997	98.62
377.222	95.62
377.448	84.62
377.674	87.62
377.899	96.62
378.125	89.62
378.35	93.62
378.576	97.62
378.802	85.62
379.027	97.62
379.253	94.62
379.478	83.62
379.704	89.62
379.929	86.62
380.155	103.62
380.38	89.62
380.606	89.62
380.831	98.62
381.057	95.62
381.282	92.62
381.507	77.62
381.733	114.62
381.958	103.62
382.184	100.62
382.409	95.62
382.634	93.62
382.86	107.62
383.085	113.62
383.31	104.62
383.535	105.62
383.761	105.62
383.986	94.62
384.211	95.62
384.436	106.62
384.662	100.62
384.887	105.62
385.112	97.62
385.337	95.62
385.562	95.62
385.787	97.62
386.013	94.62
386.238	104.62
386.463	109.62
386.688	103.62
386.913	79.62
387.138	87.62
387.363	97.62
387.588	104.62
387.813	93.62
388.038	97.62
388.263	113.62
388.488	104.62
388.713	86.62
388.938	83.62
389.163	86.62
389.387	99.62
389.612	102.62
389.837	95.62
390.062	96.62
390.287	87.62
390.512	100.62
390.736	85.62
390.961	94.62
391.186	101.62
391.411	102.62
391.636	90.62
391.86	91.62
392.085	78.62
392.31	85.62
392.534	88.62
392.759	93.62
392.984	77.62
393.208	99.62
393.433	103.62
393.658	93.62
393.882	92.62
394.107	90.62
394.331	83.62
394.556	97.62
394.78	96.62
395.005	84.62
395.229	89.62
395.454	81.62
395.678	75.62
395.903	77.62
396.127	81.62
396.352	82.62
396.576	77.62
396.801	83.62
397.025	87.62
397.249	84.62
397.474	92.62
397.698	79.62
397.922	79.62
398.147	84.62
398.371	81.62
398.595	84.62
398.82	79.62
399.044	73.62
399.268	69.62
399.492	72.62
399.717	87.62
399.941	81.62
400.165	99.62
400.389	93.62
400.613	87.62
400.837	91.62
401.062	86.62
401.286	94.62
401.51	82.62
401.734	98.62
401.958	96.62
402.182	119.62
402.406	136.62
402.63	117.62
402.854	96.62
403.078	86.62
403.302	93.62
403.526	75.62
403.75	79.62
403.974	89.62
404.198	89.62
404.422	82.62
404.645	86.62
404.869	95.62
405.093	91.62
405.317	102.62
405.541	110.62
405.765	110.62
405.988	113.62
406.212	151.62
406.436	201.62
406.66	123.62
406.883	108.62
407.107	92.62
407.331	87.62
407.555	101.62
407.778	100.62
408.002	92.62
408.226	94.62
408.449	90.62
408.673	87.62
408.896	94.62
409.12	114.62
409.344	104.62
409.567	83.62
409.791	99.62
410.014	85.62
410.238	84.62
410.461	91.62
410.685	89.62
410.908	103.62
411.132	96.62
411.355	81.62
411.578	87.62
411.802	98.62
412.025	80.62
412.249	89.62
412.472	97.62
412.695	105.62
412.919	87.62
413.142	89.62
413.365	90.62
413.589	83.62
413.812	77.62
414.035	97.62
414.258	78.62
414.482	89.62
414.705	92.62
414.928	91.62
415.151	89.62
415.374	84.62
415.597	90.62
415.821	85.62
416.044	80.62
416.267	87.62
416.49	86.62
416.713	91.62
416.936	88.62
417.159	91.62
417.382	72.62
417.605	87.62
417.828	82.62
418.051	81.62
418.274	92.62
418.497	85.62
418.72	74.62
418.943	93.62
419.166	102.62
419.389	83.62
419.611	91.62
419.834	88.62
420.057	89.62
420.28	82.62
420.503	88.62
420.726	79.62
420.948	88.62
421.171	94.62
421.394	85.62
421.617	94.62
421.839	99.62
422.062	90.62
422.285	85.62
422.507	91.62
422.73	95.62
422.953	94.62
423.175	89.62
423.398	84.62
423.621	77.62
423.843	106.62
424.066	91.62
424.288	90.62
424.511	89.62
424.733	98.62
424.956	103.62
425.178	104.62
425.401	106.62
425.623	88.62
425.846	98.62
426.068	95.62
426.291	75.62
426.513	85.62
426.735	93.62
426.958	96.62
427.18	88.62
427.402	115.62
427.625	145.62
427.847	132.62
428.069	122.62
428.292	101.62
428.514	84.62
428.736	86.62
428.958	78.62
429.181	83.62
429.403	98.62
429.625	98.62
429.847	98.62
430.069	102.62
430.292	96.62
430.514	70.62
430.736	90.62
430.958	86.62
431.18	87.62
431.402	81.62
431.624	87.62
431.846	81.62
432.068	89.62
432.29	81.62
432.512	90.62
432.734	89.62
432.956	82.62
433.178	81.62
433.4	85.62
433.622	81.62
433.844	89.62
434.066	94.62
434.287	82.62
434.509	85.62
434.731	89.62
434.953	83.62
435.175	102.62
435.397	85.62
435.618	79.62
435.84	101.62
436.062	118.62
436.284	107.62
436.505	101.62
436.727	92.62
436.949	95.62
437.17	97.62
437.392	85.62
437.614	90.62
437.835	97.62
438.057	114.62
438.278	105.62
438.5	90.62
438.721	116.62
438.943	106.62
439.165	92.62
439.386	85.62
439.608	98.62
439.829	89.62
440.05	117.62
440.272	129.62
440.493	86.62
440.715	96.62
440.936	94.62
441.158	69.62
441.379	94.62
441.6	85.62
441.822	82.62
442.043	89.62
442.264	105.62
442.486	97.62
442.707	78.62
442.928	98.62
443.149	127.62
443.371	118.62
443.592	111.62
443.813	111.62
444.034	108.62
444.255	97.62
444.476	94.62
444.698	73.62
444.919	85.62
445.14	122.62
445.361	116.62
445.582	97.62
445.803	125.62
446.024	118.62
446.245	123.62
446.466	92.62
446.687	75.62
446.908	79.62
447.129	77.62
447.35	91.62
447.571	81.62
447.792	84.62
448.013	104.62
448.234	101.62
448.455	104.62
448.675	107.62
448.896	106.62
449.117	95.62
449.338	98.62
449.559	123.62
449.779	127.62
450	96.62
450.221	85.62
450.442	65.62
450.662	93.62
450.883	97.62
451.104	106.62
451.324	89.62
451.545	83.62
451.766	85.62
451.986	78.62
452.207	97.62
452.428	95.62
452.648	99.62
452.869	100.62
453.089	102.62
453.31	110.62
453.53	85.62
453.751	89.62
453.971	99.62
454.192	101.62
454.412	83.62
454.633	83.62
454.853	78.62
455.073	90.62
455.294	89.62
455.514	100.62
455.734	94.62
455.955	87.62
456.175	84.62
456.395	85.62
456.616	83.62
456.836	96.62
457.056	92.62
457.276	90.62
457.497	82.62
457.717	79.62
457.937	89.62
458.157	93.62
458.377	94.62
458.598	99.62
458.818	124.62
459.038	148.62
459.258	101.62
459.478	78.62
459.698	80.62
459.918	96.62
460.138	88.62
460.358	71.62
460.578	85.62
460.798	89.62
461.018	86.62
461.238	82.62
461.458	81.62
461.678	75.62
461.898	93.62
462.118	79.62
462.338	92.62
462.558	87.62
462.777	78.62
462.997	94.62
463.217	87.62
463.437	89.62
463.657	83.62
463.876	78.62
464.096	84.62
464.316	93.62
464.536	81.62
464.755	80.62
464.975	111.62
465.195	141.62
465.414	152.62
465.634	94.62
465.854	77.62
466.073	81.62
466.293	82.62
466.512	81.62
466.732	86.62
466.951	95.62
467.171	95.62
467.391	85.62
467.61	103.62
467.829	89.62
468.049	126.62
468.268	148.62
468.488	98.62
468.707	95.62
468.927	88.62
469.146	67.62
469.365	89.62
469.585	79.62
469.804	103.62
470.023	88.62
470.243	92.62
470.462	87.62
470.681	107.62
470.901	102.62
471.12	78.62
471.339	88.62
471.558	66.62
471.777	81.62
471.997	107.62
472.216	196.62
472.435	334.62
472.654	133.62
472.873	102.62
473.092	75.62
473.311	88.62
473.53	79.62
473.749	78.62
473.968	90.62
474.187	110.62
474.406	103.62
474.625	89.62
474.844	77.62
475.063	94.62
475.282	94.62
475.501	89.62
475.72	89.62
475.939	89.62
476.158	99.62
476.377	82.62
476.596	92.62
476.814	104.62
477.033	93.62
477.252	85.62
477.471	74.62
477.69	85.62
477.908	81.62
478.127	95.62
478.346	85.62
478.564	101.62
478.783	104.62
479.002	102.62
479.22	94.62
479.439	99.62
479.658	97.62
479.876	95.62
480.095	91.62
480.313	89.62
480.532	111.62
480.751	112.62
480.969	189.62
481.188	531.62
481.406	323.62
481.624	104.62
481.843	97.62
482.061	79.62
482.28	96.62
482.498	83.62
482.717	102.62
482.935	81.62
483.153	89.62
483.372	97.62
483.59	103.62
483.808	96.62
484.027	90.62
484.245	97.62
484.463	97.62
484.681	97.62
484.9	100.62
485.118	83.62
485.336	87.62
485.554	89.62
485.772	100.62
485.99	118.62
486.209	116.62
486.427	105.62
486.645	113.62
486.863	123.62
487.081	101.62
487.299	101.62
487.517	105.62
487.735	85.62
487.953	95.62
488.171	90.62
488.389	85.62
488.607	89.62
488.825	83.62
489.043	83.62
489.261	85.62
489.479	78.62
489.696	72.62
489.914	88.62
490.132	83.62
490.35	98.62
490.568	95.62
490.786	87.62
491.003	80.62
491.221	92.62
491.439	81.62
491.657	93.62
491.874	81.62
492.092	75.62
492.31	77.62
492.527	72.62
492.745	84.62
492.963	85.62
493.18	94.62
493.398	95.62
493.615	98.62
493.833	102.62
494.05	72.62
494.268	94.62
494.485	84.62
494.703	94.62
494.92	88.62
495.138	81.62
495.355	102.62
495.573	97.62
495.79	88.62
496.008	91.62
496.225	89.62
496.442	86.62
496.66	72.62
496.877	83.62
497.094	77.62
497.312	77.62
497.529	94.62
497.746	86.62
497.963	101.62
498.181	85.62
498.398	79.62
498.615	103.62
498.832	87.62
499.049	83.62
499.267	78.62
499.484	92.62
499.701	96.62
499.918	86.62
500.135	87.62
500.352	89.62
500.569	83.62
500.786	93.62
501.003	88.62
501.22	82.62
501.437	89.62
501.654	92.62
501.871	106.62
502.088	86.62
502.305	84.62
502.522	72.62
502.739	82.62
502.956	94.62
503.172	87.62
503.389	91.62
503.606	94.62
503.823	91.62
504.04	96.62
504.256	90.62
504.473	105.62
504.69	79.62
504.907	86.62
505.123	97.62
505.34	88.62
505.557	75.62
505.773	86.62
505.99	88.62
506.207	79.62
506.423	86.62
506.64	73.62
506.856	84.62
507.073	88.62
507.289	85.62
507.506	88.62
507.722	98.62
507.939	106.62
508.155	87.62
508.372	81.62
508.588	87.62
508.805	82.62
509.021	93.62
509.238	93.62
509.454	97.62
509.67	99.62
509.887	106.62
510.103	105.62
510.319	186.62
510.536	605.62
510.752	1898.62
510.968	541.62
511.184	152.62
511.401	96.62
511.617	101.62
511.833	98.62
512.049	92.62
512.265	89.62
512.481	79.62
512.698	102.62
512.914	79.62
513.13	88.62
513.346	93.62
513.562	67.62
513.778	90.62
513.994	79.62
514.21	105.62
514.426	101.62
514.642	140.62
514.858	114.62
515.074	150.62
515.29	356.62
515.506	1159.62
515.721	433.62
515.937	125.62
516.153	101.62
516.369	88.62
