Data from Circ_1984_H10_HRD10591_00002.txt Node
Date: Wed Jan 03 12:22:42 EST 2024
User: Yrep
Spectrometer: HR+D1059
Trigger mode: 1
Integration Time (sec): 1.000000E-1
Scans to average: 1
Electric dark correction enabled: true
Nonlinearity correction enabled: false
Boxcar width: 0
XAxis mode: Wavelengths
Number of Pixels in Spectrum: 2048
>>>>>Begin Spectral Data<<<<<
223.165	-14.69
223.4	-14.69
223.635	-14.69
223.869	-31.69
224.104	-14.69
224.338	-12.69
224.573	-14.69
224.808	-6.69
225.042	-7.69
225.277	-28.69
225.511	-10.69
225.746	3.31
225.98	9.31
226.215	11.31
226.449	26.31
226.683	23.31
226.918	31.31
227.152	37.31
227.387	35.31
227.621	39.31
227.856	44.31
228.09	42.31
228.324	48.31
228.559	57.31
228.793	64.31
229.027	63.31
229.262	60.31
229.496	60.31
229.73	73.31
229.964	85.31
230.199	73.31
230.433	82.31
230.667	80.31
230.901	68.31
231.136	77.31
231.37	76.31
231.604	85.31
231.838	85.31
232.072	89.31
232.306	86.31
232.541	71.31
232.775	104.31
233.009	87.31
233.243	97.31
233.477	89.31
233.711	68.31
233.945	64.31
234.179	85.31
234.413	75.31
234.647	73.31
234.881	69.31
235.115	82.31
235.349	78.31
235.583	66.31
235.817	83.31
236.051	64.31
236.285	80.31
236.519	72.31
236.753	89.31
236.987	85.31
237.221	86.31
237.455	79.31
237.689	81.31
237.922	79.31
238.156	73.31
238.39	85.31
238.624	91.31
238.858	72.31
239.091	71.31
239.325	88.31
239.559	95.31
239.793	89.31
240.027	70.31
240.26	70.31
240.494	72.31
240.728	66.31
240.961	81.31
241.195	82.31
241.429	76.31
241.662	70.31
241.896	81.31
242.13	77.31
242.363	73.31
242.597	79.31
242.83	74.31
243.064	65.31
243.298	89.31
243.531	90.31
243.765	86.31
243.998	90.31
244.232	80.31
244.465	81.31
244.699	84.31
244.932	80.31
245.166	83.31
245.399	90.31
245.633	67.31
245.866	79.31
246.099	70.31
246.333	67.31
246.566	68.31
246.8	99.31
247.033	75.31
247.266	95.31
247.5	93.31
247.733	83.31
247.966	85.31
248.2	105.31
248.433	80.31
248.666	76.31
248.899	91.31
249.133	99.31
249.366	94.31
249.599	87.31
249.832	87.31
250.066	80.31
250.299	84.31
250.532	87.31
250.765	91.31
250.998	74.31
251.231	86.31
251.465	79.31
251.698	62.31
251.931	76.31
252.164	81.31
252.397	88.31
252.63	81.31
252.863	87.31
253.096	83.31
253.329	84.31
253.562	79.31
253.795	91.31
254.028	89.31
254.261	87.31
254.494	77.31
254.727	90.31
254.96	77.31
255.193	69.31
255.426	89.31
255.659	96.31
255.892	73.31
256.124	80.31
256.357	75.31
256.59	81.31
256.823	86.31
257.056	84.31
257.289	94.31
257.521	89.31
257.754	82.31
257.987	77.31
258.22	87.31
258.452	80.31
258.685	76.31
258.918	88.31
259.151	73.31
259.383	79.31
259.616	84.31
259.849	94.31
260.081	84.31
260.314	79.31
260.547	79.31
260.779	60.31
261.012	92.31
261.244	80.31
261.477	85.31
261.71	97.31
261.942	109.31
262.175	107.31
262.407	91.31
262.64	70.31
262.872	87.31
263.105	74.31
263.337	76.31
263.57	81.31
263.802	78.31
264.035	76.31
264.267	77.31
264.499	68.31
264.732	75.31
264.964	92.31
265.197	85.31
265.429	77.31
265.661	78.31
265.894	91.31
266.126	100.31
266.358	92.31
266.591	84.31
266.823	63.31
267.055	71.31
267.287	74.31
267.52	86.31
267.752	71.31
267.984	97.31
268.216	71.31
268.448	69.31
268.681	78.31
268.913	83.31
269.145	96.31
269.377	76.31
269.609	74.31
269.841	85.31
270.073	88.31
270.306	77.31
270.538	104.31
270.77	86.31
271.002	98.31
271.234	88.31
271.466	89.31
271.698	94.31
271.93	86.31
272.162	88.31
272.394	79.31
272.626	91.31
272.858	89.31
273.09	73.31
273.322	91.31
273.553	76.31
273.785	84.31
274.017	81.31
274.249	100.31
274.481	91.31
274.713	82.31
274.945	74.31
275.176	89.31
275.408	88.31
275.64	89.31
275.872	79.31
276.104	80.31
276.335	101.31
276.567	92.31
276.799	99.31
277.031	92.31
277.262	79.31
277.494	83.31
277.726	88.31
277.957	83.31
278.189	81.31
278.421	93.31
278.652	80.31
278.884	105.31
279.115	95.31
279.347	94.31
279.579	82.31
279.81	79.31
280.042	79.31
280.273	91.31
280.505	73.31
280.736	85.31
280.968	83.31
281.199	95.31
281.431	96.31
281.662	89.31
281.894	88.31
282.125	99.31
282.356	106.31
282.588	117.31
282.819	105.31
283.051	80.31
283.282	95.31
283.513	91.31
283.745	89.31
283.976	88.31
284.207	98.31
284.439	86.31
284.67	88.31
284.901	106.31
285.132	89.31
285.364	82.31
285.595	73.31
285.826	84.31
286.057	81.31
286.288	96.31
286.52	82.31
286.751	79.31
286.982	80.31
287.213	101.31
287.444	96.31
287.675	99.31
287.906	81.31
288.138	87.31
288.369	101.31
288.6	97.31
288.831	82.31
289.062	97.31
289.293	81.31
289.524	97.31
289.755	81.31
289.986	86.31
290.217	92.31
290.448	81.31
290.679	93.31
290.91	85.31
291.141	85.31
291.371	97.31
291.602	85.31
291.833	90.31
292.064	97.31
292.295	103.31
292.526	82.31
292.757	88.31
292.987	95.31
293.218	92.31
293.449	98.31
293.68	91.31
293.91	105.31
294.141	84.31
294.372	73.31
294.603	88.31
294.833	90.31
295.064	88.31
295.295	96.31
295.525	88.31
295.756	99.31
295.987	97.31
296.217	120.31
296.448	115.31
296.679	92.31
296.909	93.31
297.14	77.31
297.37	95.31
297.601	87.31
297.831	91.31
298.062	95.31
298.292	83.31
298.523	98.31
298.753	101.31
298.984	76.31
299.214	88.31
299.445	92.31
299.675	96.31
299.905	87.31
300.136	84.31
300.366	80.31
300.597	86.31
300.827	97.31
301.057	99.31
301.288	103.31
301.518	87.31
301.748	95.31
301.979	89.31
302.209	98.31
302.439	106.31
302.669	101.31
302.9	73.31
303.13	93.31
303.36	89.31
303.59	111.31
303.82	95.31
304.051	94.31
304.281	99.31
304.511	98.31
304.741	99.31
304.971	94.31
305.201	94.31
305.431	93.31
305.661	84.31
305.891	105.31
306.121	67.31
306.352	105.31
306.582	104.31
306.812	81.31
307.042	95.31
307.272	92.31
307.502	88.31
307.731	109.31
307.961	101.31
308.191	79.31
308.421	99.31
308.651	87.31
308.881	82.31
309.111	109.31
309.341	103.31
309.571	108.31
309.8	83.31
310.03	91.31
310.26	96.31
310.49	83.31
310.72	87.31
310.949	98.31
311.179	110.31
311.409	99.31
311.639	87.31
311.868	96.31
312.098	91.31
312.328	98.31
312.557	105.31
312.787	113.31
313.017	104.31
313.246	100.31
313.476	99.31
313.706	97.31
313.935	88.31
314.165	108.31
314.394	101.31
314.624	87.31
314.853	100.31
315.083	92.31
315.312	87.31
315.542	89.31
315.771	88.31
316.001	88.31
316.23	112.31
316.46	77.31
316.689	97.31
316.919	72.31
317.148	84.31
317.377	109.31
317.607	103.31
317.836	93.31
318.065	93.31
318.295	101.31
318.524	76.31
318.753	85.31
318.983	120.31
319.212	96.31
319.441	97.31
319.67	98.31
319.9	96.31
320.129	81.31
320.358	106.31
320.587	88.31
320.816	101.31
321.046	95.31
321.275	98.31
321.504	88.31
321.733	93.31
321.962	90.31
322.191	89.31
322.42	103.31
322.649	109.31
322.878	95.31
323.108	99.31
323.337	124.31
323.566	115.31
323.795	132.31
324.024	194.31
324.253	340.31
324.482	691.31
324.71	1431.31
324.939	1880.31
325.168	686.31
325.397	217.31
325.626	130.31
325.855	134.31
326.084	108.31
326.313	124.31
326.542	135.31
326.77	187.31
326.999	400.31
327.228	779.31
327.457	1455.31
327.686	1147.31
327.914	307.31
328.143	171.31
328.372	135.31
328.6	107.31
328.829	120.31
329.058	119.31
329.287	120.31
329.515	109.31
329.744	105.31
329.972	108.31
330.201	112.31
330.43	146.31
330.658	127.31
330.887	133.31
331.115	116.31
331.344	99.31
331.572	85.31
331.801	119.31
332.03	87.31
332.258	99.31
332.486	85.31
332.715	87.31
332.943	84.31
333.172	92.31
333.4	109.31
333.629	112.31
333.857	108.31
334.085	114.31
334.314	108.31
334.542	135.31
334.771	144.31
334.999	103.31
335.227	106.31
335.455	100.31
335.684	98.31
335.912	94.31
336.14	97.31
336.369	97.31
336.597	90.31
336.825	84.31
337.053	104.31
337.281	83.31
337.51	99.31
337.738	92.31
337.966	94.31
338.194	88.31
338.422	98.31
338.65	100.31
338.878	92.31
339.106	107.31
339.334	103.31
339.562	87.31
339.79	96.31
340.018	103.31
340.246	83.31
340.474	101.31
340.702	96.31
340.93	83.31
341.158	92.31
341.386	97.31
341.614	87.31
341.842	85.31
342.07	83.31
342.298	94.31
342.526	90.31
342.754	86.31
342.981	92.31
343.209	89.31
343.437	103.31
343.665	88.31
343.893	92.31
344.12	99.31
344.348	83.31
344.576	74.31
344.804	95.31
345.031	80.31
345.259	93.31
345.487	96.31
345.714	89.31
345.942	104.31
346.17	91.31
346.397	101.31
346.625	98.31
346.853	104.31
347.08	106.31
347.308	92.31
347.535	105.31
347.763	92.31
347.99	96.31
348.218	94.31
348.445	92.31
348.673	96.31
348.9	93.31
349.128	99.31
349.355	101.31
349.583	95.31
349.81	82.31
350.037	81.31
350.265	88.31
350.492	98.31
350.72	98.31
350.947	109.31
351.174	107.31
351.402	120.31
351.629	92.31
351.856	100.31
352.083	99.31
352.311	104.31
352.538	98.31
352.765	124.31
352.992	117.31
353.22	131.31
353.447	95.31
353.674	106.31
353.901	101.31
354.128	108.31
354.355	101.31
354.583	95.31
354.81	95.31
355.037	108.31
355.264	102.31
355.491	84.31
355.718	89.31
355.945	103.31
356.172	102.31
356.399	99.31
356.626	101.31
356.853	104.31
357.08	97.31
357.307	103.31
357.534	83.31
357.761	95.31
357.988	89.31
358.215	104.31
358.441	101.31
358.668	100.31
358.895	101.31
359.122	97.31
359.349	75.31
359.576	90.31
359.802	104.31
360.029	100.31
360.256	105.31
360.483	93.31
360.709	101.31
360.936	93.31
361.163	88.31
361.39	81.31
361.616	79.31
361.843	98.31
362.07	89.31
362.296	98.31
362.523	90.31
362.749	89.31
362.976	88.31
363.203	91.31
363.429	94.31
363.656	115.31
363.882	98.31
364.109	98.31
364.335	84.31
364.562	69.31
364.788	87.31
365.015	85.31
365.241	109.31
365.468	103.31
365.694	85.31
365.92	95.31
366.147	84.31
366.373	98.31
366.599	93.31
366.826	90.31
367.052	94.31
367.278	107.31
367.505	87.31
367.731	96.31
367.957	82.31
368.184	87.31
368.41	97.31
368.636	88.31
368.862	111.31
369.089	105.31
369.315	101.31
369.541	99.31
369.767	87.31
369.993	93.31
370.219	97.31
370.445	87.31
370.672	95.31
370.898	94.31
371.124	84.31
371.35	89.31
371.576	71.31
371.802	85.31
372.028	67.31
372.254	84.31
372.48	93.31
372.706	97.31
372.932	85.31
373.158	91.31
373.384	71.31
373.61	68.31
373.835	87.31
374.061	91.31
374.287	91.31
374.513	83.31
374.739	81.31
374.965	75.31
375.191	71.31
375.416	93.31
375.642	94.31
375.868	84.31
376.094	93.31
376.319	92.31
376.545	99.31
376.771	89.31
376.997	92.31
377.222	89.31
377.448	88.31
377.674	97.31
377.899	91.31
378.125	74.31
378.35	99.31
378.576	94.31
378.802	101.31
379.027	99.31
379.253	92.31
379.478	93.31
379.704	97.31
379.929	97.31
380.155	84.31
380.38	107.31
380.606	109.31
380.831	114.31
381.057	108.31
381.282	85.31
381.507	95.31
381.733	104.31
381.958	114.31
382.184	105.31
382.409	109.31
382.634	109.31
382.86	103.31
383.085	107.31
383.31	113.31
383.535	110.31
383.761	112.31
383.986	97.31
384.211	116.31
384.436	120.31
384.662	123.31
384.887	116.31
385.112	132.31
385.337	108.31
385.562	111.31
385.787	119.31
386.013	131.31
386.238	130.31
386.463	114.31
386.688	118.31
386.913	139.31
387.138	132.31
387.363	114.31
387.588	100.31
387.813	104.31
388.038	114.31
388.263	146.31
388.488	136.31
388.713	92.31
388.938	96.31
389.163	96.31
389.387	97.31
389.612	103.31
389.837	92.31
390.062	107.31
390.287	94.31
390.512	101.31
390.736	84.31
390.961	77.31
391.186	90.31
391.411	88.31
391.636	83.31
391.86	92.31
392.085	74.31
392.31	89.31
392.534	92.31
392.759	101.31
392.984	98.31
393.208	113.31
393.433	125.31
393.658	106.31
393.882	89.31
394.107	91.31
394.331	80.31
394.556	93.31
394.78	80.31
395.005	96.31
395.229	83.31
395.454	86.31
395.678	88.31
395.903	92.31
396.127	100.31
396.352	93.31
396.576	96.31
396.801	95.31
397.025	102.31
397.249	104.31
397.474	87.31
397.698	96.31
397.922	93.31
398.147	83.31
398.371	71.31
398.595	90.31
398.82	94.31
399.044	76.31
399.268	77.31
399.492	99.31
399.717	86.31
399.941	95.31
400.165	70.31
400.389	87.31
400.613	83.31
400.837	87.31
401.062	80.31
401.286	86.31
401.51	91.31
401.734	99.31
401.958	99.31
402.182	110.31
402.406	133.31
402.63	98.31
402.854	98.31
403.078	88.31
403.302	83.31
403.526	95.31
403.75	89.31
403.974	86.31
404.198	92.31
404.422	92.31
404.645	82.31
404.869	101.31
405.093	87.31
405.317	90.31
405.541	105.31
405.765	100.31
405.988	100.31
406.212	141.31
406.436	207.31
406.66	130.31
406.883	91.31
407.107	94.31
407.331	89.31
407.555	84.31
407.778	92.31
408.002	89.31
408.226	93.31
408.449	99.31
408.673	91.31
408.896	82.31
409.12	101.31
409.344	92.31
409.567	98.31
409.791	101.31
410.014	96.31
410.238	95.31
410.461	95.31
410.685	114.31
410.908	111.31
411.132	111.31
411.355	96.31
411.578	103.31
411.802	114.31
412.025	93.31
412.249	101.31
412.472	116.31
412.695	95.31
412.919	87.31
413.142	96.31
413.365	94.31
413.589	83.31
413.812	87.31
414.035	103.31
414.258	87.31
414.482	93.31
414.705	95.31
414.928	98.31
415.151	97.31
415.374	93.31
415.597	94.31
415.821	95.31
416.044	71.31
416.267	88.31
416.49	79.31
416.713	95.31
416.936	82.31
417.159	75.31
417.382	85.31
417.605	90.31
417.828	101.31
418.051	90.31
418.274	96.31
418.497	88.31
418.72	75.31
418.943	90.31
419.166	105.31
419.389	102.31
419.611	106.31
419.834	92.31
420.057	91.31
420.28	92.31
420.503	95.31
420.726	91.31
420.948	74.31
421.171	101.31
421.394	90.31
421.617	87.31
421.839	84.31
422.062	84.31
422.285	101.31
422.507	112.31
422.73	109.31
422.953	95.31
423.175	99.31
423.398	87.31
423.621	94.31
423.843	90.31
424.066	88.31
424.288	94.31
424.511	87.31
424.733	103.31
424.956	101.31
425.178	96.31
425.401	101.31
425.623	101.31
425.846	93.31
426.068	90.31
426.291	97.31
426.513	83.31
426.735	85.31
426.958	87.31
427.18	106.31
427.402	138.31
427.625	151.31
427.847	138.31
428.069	119.31
428.292	109.31
428.514	92.31
428.736	88.31
428.958	73.31
429.181	87.31
429.403	102.31
429.625	84.31
429.847	83.31
430.069	85.31
430.292	96.31
430.514	86.31
430.736	90.31
430.958	79.31
431.18	83.31
431.402	80.31
431.624	82.31
431.846	86.31
432.068	97.31
432.29	87.31
432.512	83.31
432.734	92.31
432.956	81.31
433.178	85.31
433.4	89.31
433.622	95.31
433.844	83.31
434.066	97.31
434.287	87.31
434.509	81.31
434.731	87.31
434.953	79.31
435.175	89.31
435.397	81.31
435.618	89.31
435.84	95.31
436.062	107.31
436.284	108.31
436.505	117.31
436.727	97.31
436.949	113.31
437.17	80.31
437.392	84.31
437.614	111.31
437.835	107.31
438.057	106.31
438.278	93.31
438.5	90.31
438.721	115.31
438.943	91.31
439.165	77.31
439.386	91.31
439.608	99.31
439.829	104.31
440.05	124.31
440.272	123.31
440.493	84.31
440.715	85.31
440.936	96.31
441.158	83.31
441.379	88.31
441.6	91.31
441.822	99.31
442.043	98.31
442.264	114.31
442.486	103.31
442.707	102.31
442.928	96.31
443.149	117.31
443.371	109.31
443.592	100.31
443.813	102.31
444.034	101.31
444.255	96.31
444.476	87.31
444.698	90.31
444.919	79.31
445.14	138.31
445.361	123.31
445.582	107.31
445.803	127.31
446.024	136.31
446.245	119.31
446.466	106.31
446.687	90.31
446.908	78.31
447.129	83.31
447.35	96.31
447.571	101.31
447.792	96.31
448.013	97.31
448.234	115.31
448.455	94.31
448.675	102.31
448.896	108.31
449.117	91.31
449.338	99.31
449.559	119.31
449.779	119.31
450	103.31
450.221	83.31
450.442	79.31
450.662	80.31
450.883	102.31
451.104	99.31
451.324	92.31
451.545	91.31
451.766	88.31
451.986	86.31
452.207	83.31
452.428	79.31
452.648	102.31
452.869	93.31
453.089	116.31
453.31	107.31
453.53	92.31
453.751	99.31
453.971	91.31
454.192	108.31
454.412	108.31
454.633	90.31
454.853	88.31
455.073	90.31
455.294	97.31
455.514	92.31
455.734	94.31
455.955	75.31
456.175	79.31
456.395	77.31
456.616	77.31
456.836	77.31
457.056	85.31
457.276	77.31
457.497	78.31
457.717	93.31
457.937	89.31
458.157	79.31
458.377	95.31
458.598	88.31
458.818	128.31
459.038	145.31
459.258	114.31
459.478	90.31
459.698	88.31
459.918	91.31
460.138	79.31
460.358	75.31
460.578	73.31
460.798	85.31
461.018	79.31
461.238	78.31
461.458	82.31
461.678	79.31
461.898	87.31
462.118	99.31
462.338	76.31
462.558	93.31
462.777	88.31
462.997	94.31
463.217	96.31
463.437	92.31
463.657	88.31
463.876	87.31
464.096	77.31
464.316	89.31
464.536	93.31
464.755	98.31
464.975	90.31
465.195	152.31
465.414	143.31
465.634	93.31
465.854	82.31
466.073	86.31
466.293	89.31
466.512	85.31
466.732	81.31
466.951	95.31
467.171	97.31
467.391	101.31
467.61	92.31
467.829	99.31
468.049	101.31
468.268	103.31
468.488	93.31
468.707	88.31
468.927	84.31
469.146	101.31
469.365	81.31
469.585	87.31
469.804	87.31
470.023	91.31
470.243	85.31
470.462	87.31
470.681	95.31
470.901	97.31
471.12	83.31
471.339	85.31
471.558	77.31
471.777	82.31
471.997	98.31
472.216	110.31
472.435	130.31
472.654	106.31
472.873	101.31
473.092	88.31
473.311	96.31
473.53	86.31
473.749	68.31
473.968	91.31
474.187	96.31
474.406	85.31
474.625	81.31
474.844	80.31
475.063	87.31
475.282	97.31
475.501	95.31
475.72	84.31
475.939	88.31
476.158	96.31
476.377	80.31
476.596	87.31
476.814	99.31
477.033	93.31
477.252	64.31
477.471	95.31
477.69	87.31
477.908	85.31
478.127	82.31
478.346	85.31
478.564	97.31
478.783	91.31
479.002	80.31
479.22	80.31
479.439	100.31
479.658	80.31
479.876	92.31
480.095	86.31
480.313	84.31
480.532	105.31
480.751	111.31
480.969	112.31
481.188	208.31
481.406	147.31
481.624	80.31
481.843	81.31
482.061	85.31
482.28	84.31
482.498	97.31
482.717	80.31
482.935	85.31
483.153	94.31
483.372	104.31
483.59	88.31
483.808	87.31
484.027	104.31
484.245	89.31
484.463	94.31
484.681	94.31
484.9	92.31
485.118	112.31
485.336	97.31
485.554	109.31
485.772	97.31
485.99	109.31
486.209	120.31
486.427	113.31
486.645	117.31
486.863	119.31
487.081	85.31
487.299	95.31
487.517	81.31
487.735	96.31
487.953	101.31
488.171	105.31
488.389	104.31
488.607	107.31
488.825	87.31
489.043	93.31
489.261	97.31
489.479	102.31
489.696	84.31
489.914	81.31
490.132	97.31
490.35	96.31
490.568	95.31
490.786	85.31
491.003	75.31
491.221	79.31
491.439	96.31
491.657	99.31
491.874	100.31
492.092	100.31
492.31	92.31
492.527	92.31
492.745	93.31
492.963	89.31
493.18	84.31
493.398	102.31
493.615	96.31
493.833	90.31
494.05	86.31
494.268	101.31
494.485	88.31
494.703	95.31
494.92	80.31
495.138	100.31
495.355	96.31
495.573	98.31
495.79	90.31
496.008	98.31
496.225	87.31
496.442	87.31
496.66	90.31
496.877	106.31
497.094	94.31
497.312	88.31
497.529	84.31
497.746	106.31
497.963	98.31
498.181	86.31
498.398	88.31
498.615	101.31
498.832	98.31
499.049	92.31
499.267	95.31
499.484	85.31
499.701	105.31
499.918	103.31
500.135	96.31
500.352	80.31
500.569	99.31
500.786	91.31
501.003	100.31
501.22	93.31
501.437	78.31
501.654	93.31
501.871	97.31
502.088	73.31
502.305	80.31
502.522	89.31
502.739	95.31
502.956	106.31
503.172	93.31
503.389	102.31
503.606	108.31
503.823	104.31
504.04	85.31
504.256	89.31
504.473	93.31
504.69	95.31
504.907	102.31
505.123	106.31
505.34	95.31
505.557	92.31
505.773	99.31
505.99	95.31
506.207	88.31
506.423	85.31
506.64	84.31
506.856	87.31
507.073	102.31
507.289	91.31
507.506	80.31
507.722	101.31
507.939	116.31
508.155	91.31
508.372	93.31
508.588	102.31
508.805	87.31
509.021	87.31
509.238	83.31
509.454	100.31
509.67	94.31
509.887	116.31
510.103	116.31
510.319	207.31
510.536	639.31
510.752	2019.31
510.968	578.31
511.184	153.31
511.401	111.31
511.617	99.31
511.833	88.31
512.049	97.31
512.265	85.31
512.481	99.31
512.698	90.31
512.914	96.31
513.13	84.31
513.346	87.31
513.562	90.31
513.778	105.31
513.994	98.31
514.21	105.31
514.426	109.31
514.642	118.31
514.858	119.31
515.074	153.31
515.29	356.31
