Data from Circ_1984_H10_HRD10591_00083.txt Node
Date: Wed Jan 03 12:22:58 EST 2024
User: Yrep
Spectrometer: HR+D1059
Trigger mode: 1
Integration Time (sec): 1.000000E-1
Scans to average: 1
Electric dark correction enabled: true
Nonlinearity correction enabled: false
Boxcar width: 0
XAxis mode: Wavelengths
Number of Pixels in Spectrum: 2048
>>>>>Begin Spectral Data<<<<<
223.165	-12.94
223.4	-12.94
223.635	-12.94
223.869	-32.94
224.104	-13.94
224.338	-11.94
224.573	-16.94
224.808	-5.94
225.042	4.06
225.277	-10.94
225.511	-12.94
225.746	-5.94
225.98	8.06
226.215	11.06
226.449	21.06
226.683	20.06
226.918	28.06
227.152	32.06
227.387	31.06
227.621	41.06
227.856	40.06
228.09	50.06
228.324	62.06
228.559	55.06
228.793	158.06
229.027	422.06
229.262	504.06
229.496	576.06
229.73	761.06
229.964	766.06
230.199	520.06
230.433	478.06
230.667	473.06
230.901	456.06
231.136	428.06
231.37	438.06
231.604	442.06
231.838	459.06
232.072	456.06
232.306	476.06
232.541	447.06
232.775	485.06
233.009	484.06
233.243	469.06
233.477	482.06
233.711	500.06
233.945	514.06
234.179	510.06
234.413	501.06
234.647	517.06
234.881	546.06
235.115	534.06
235.349	538.06
235.583	570.06
235.817	593.06
236.051	627.06
236.285	620.06
236.519	624.06
236.753	706.06
236.987	897.06
237.221	1302.06
237.455	1410.06
237.689	853.06
237.922	715.06
238.156	700.06
238.39	651.06
238.624	638.06
238.858	638.06
239.091	655.06
239.325	678.06
239.559	678.06
239.793	695.06
240.027	754.06
240.26	886.06
240.494	939.06
240.728	915.06
240.961	865.06
241.195	794.06
241.429	799.06
241.662	782.06
241.896	792.06
242.13	815.06
242.363	800.06
242.597	815.06
242.83	862.06
243.064	823.06
243.298	868.06
243.531	872.06
243.765	855.06
243.998	893.06
244.232	881.06
244.465	904.06
244.699	913.06
244.932	928.06
245.166	907.06
245.399	921.06
245.633	936.06
245.866	954.06
246.099	954.06
246.333	960.06
246.566	1004.06
246.8	1008.06
247.033	1027.06
247.266	1085.06
247.5	1141.06
247.733	1142.06
247.966	1151.06
248.2	1138.06
248.433	1176.06
248.666	1218.06
248.899	1350.06
249.133	1444.06
249.366	1448.06
249.599	1383.06
249.832	1319.06
250.066	1445.06
250.299	1672.06
250.532	2014.06
250.765	2087.06
250.998	1970.06
251.231	1774.06
251.465	1556.06
251.698	1496.06
251.931	1496.06
252.164	1446.06
252.397	1448.06
252.63	1505.06
252.863	1580.06
253.096	1681.06
253.329	1700.06
253.562	1632.06
253.795	1562.06
254.028	1563.06
254.261	1644.06
254.494	1848.06
254.727	2106.06
254.96	2193.06
255.193	2002.06
255.426	1947.06
255.659	2100.06
255.892	2586.06
256.124	3197.06
256.357	2900.06
256.59	2308.06
256.823	1984.06
257.056	1832.06
257.289	1773.06
257.521	1739.06
257.754	1710.06
257.987	1659.06
258.22	1668.06
258.452	1615.06
258.685	1620.06
258.918	1651.06
259.151	1683.06
259.383	1703.06
259.616	1724.06
259.849	1787.06
260.081	1925.06
260.314	2020.06
260.547	1981.06
260.779	1807.06
261.012	1776.06
261.244	1742.06
261.477	1716.06
261.71	1727.06
261.942	1794.06
262.175	1764.06
262.407	1704.06
262.64	1662.06
262.872	1682.06
263.105	1674.06
263.337	1646.06
263.57	1667.06
263.802	1685.06
264.035	1722.06
264.267	1707.06
264.499	1705.06
264.732	1719.06
264.964	1706.06
265.197	1746.06
265.429	1754.06
265.661	1716.06
265.894	1798.06
266.126	1788.06
266.358	1777.06
266.591	1834.06
266.823	1906.06
267.055	1907.06
267.287	1885.06
267.52	1859.06
267.752	1885.06
267.984	1887.06
268.216	1916.06
268.448	1954.06
268.681	2005.06
268.913	2068.06
269.145	2262.06
269.377	2330.06
269.609	2255.06
269.841	2216.06
270.073	2342.06
270.306	2564.06
270.538	2667.06
270.77	2507.06
271.002	2433.06
271.234	2428.06
271.466	2563.06
271.698	2687.06
271.93	2640.06
272.162	2655.06
272.394	2625.06
272.626	2446.06
272.858	2343.06
273.09	2299.06
273.322	2256.06
273.553	2235.06
273.785	2257.06
274.017	2252.06
274.249	2293.06
274.481	2250.06
274.713	2328.06
274.945	2288.06
275.176	2314.06
275.408	2313.06
275.64	2351.06
275.872	2364.06
276.104	2369.06
276.335	2368.06
276.567	2505.06
276.799	2658.06
277.031	2910.06
277.262	2986.06
277.494	2859.06
277.726	2658.06
277.957	2619.06
278.189	2507.06
278.421	2490.06
278.652	2499.06
278.884	2451.06
279.115	2447.06
279.347	2447.06
279.579	2498.06
279.81	2518.06
280.042	2566.06
280.273	2648.06
280.505	2586.06
280.736	2550.06
280.968	2493.06
281.199	2530.06
281.431	2522.06
281.662	2516.06
281.894	2546.06
282.125	2632.06
282.356	2788.06
282.588	2838.06
282.819	2718.06
283.051	2624.06
283.282	2612.06
283.513	2647.06
283.745	2626.06
283.976	2688.06
284.207	2715.06
284.439	2675.06
284.67	2689.06
284.901	2657.06
285.132	2691.06
285.364	2707.06
285.595	2710.06
285.826	2728.06
286.057	2706.06
286.288	2709.06
286.52	2716.06
286.751	2742.06
286.982	2728.06
287.213	2762.06
287.444	2819.06
287.675	2865.06
287.906	2900.06
288.138	2988.06
288.369	2918.06
288.6	2927.06
288.831	2930.06
289.062	2882.06
289.293	2872.06
289.524	2881.06
289.755	2854.06
289.986	2890.06
290.217	2850.06
290.448	2849.06
290.679	2832.06
290.91	2826.06
291.141	2822.06
291.371	2850.06
291.602	2873.06
291.833	2867.06
292.064	2868.06
292.295	2808.06
292.526	2889.06
292.757	2852.06
292.987	2820.06
293.218	2774.06
293.449	2890.06
293.68	2858.06
293.91	2859.06
294.141	2868.06
294.372	2830.06
294.603	2857.06
294.833	2918.06
295.064	2910.06
295.295	2933.06
295.525	2879.06
295.756	3021.06
295.987	3060.06
296.217	3219.06
296.448	3131.06
296.679	3020.06
296.909	2969.06
297.14	3035.06
297.37	3052.06
297.601	3056.06
297.831	3055.06
298.062	3068.06
298.292	3107.06
298.523	3142.06
298.753	3123.06
298.984	3067.06
299.214	3099.06
299.445	3145.06
299.675	3123.06
299.905	3178.06
300.136	3222.06
300.366	3205.06
300.597	3222.06
300.827	3266.06
301.057	3344.06
301.288	3418.06
301.518	3348.06
301.748	3336.06
301.979	3472.06
302.209	3428.06
302.439	3412.06
302.669	3402.06
302.9	3368.06
303.13	3330.06
303.36	3390.06
303.59	3490.06
303.82	3429.06
304.051	3462.06
304.281	3384.06
304.511	3342.06
304.741	3327.06
304.971	3373.06
305.201	3307.06
305.431	3291.06
305.661	3295.06
305.891	3270.06
306.121	3306.06
306.352	3379.06
306.582	3354.06
306.812	3272.06
307.042	3323.06
307.272	3331.06
307.502	3361.06
307.731	3393.06
307.961	3356.06
308.191	3334.06
308.421	3305.06
308.651	3311.06
308.881	3364.06
309.111	3319.06
309.341	3414.06
309.571	3429.06
309.8	3529.06
310.03	3602.06
310.26	3633.06
310.49	3552.06
310.72	3779.06
310.949	3813.06
311.179	3754.06
311.409	3626.06
311.639	3634.06
311.868	3662.06
312.098	3707.06
312.328	3786.06
312.557	3884.06
312.787	4009.06
313.017	3891.06
313.246	3808.06
313.476	3690.06
313.706	3750.06
313.935	3847.06
314.165	3890.06
314.394	3977.06
314.624	3903.06
314.853	3879.06
315.083	3801.06
315.312	3779.06
315.542	3746.06
315.771	3799.06
316.001	3690.06
316.23	3653.06
316.46	3711.06
316.689	3755.06
316.919	3776.06
317.148	3795.06
317.377	3784.06
317.607	3744.06
317.836	3719.06
318.065	3766.06
318.295	3696.06
318.524	3803.06
318.753	3721.06
318.983	3667.06
319.212	3723.06
319.441	3794.06
319.67	3760.06
319.9	3780.06
320.129	3754.06
320.358	3727.06
320.587	3745.06
320.816	3835.06
321.046	3852.06
321.275	3900.06
321.504	3916.06
321.733	3987.06
321.962	3998.06
322.191	4009.06
322.42	4139.06
322.649	4217.06
322.878	4280.06
323.108	4404.06
323.337	4666.06
323.566	4791.06
323.795	5022.06
324.024	5593.06
324.253	7198.06
324.482	10840.06
324.71	15102.06
324.939	15628.06
325.168	12440.06
325.397	6499.06
325.626	5246.06
325.855	4980.06
326.084	4824.06
326.313	4875.06
326.542	5080.06
326.77	5673.06
326.999	7147.06
327.228	10312.06
327.457	14287.06
327.686	13474.06
327.914	7794.06
328.143	6824.06
328.372	6752.06
328.6	6131.06
328.829	5725.06
329.058	5808.06
329.287	5885.06
329.515	5717.06
329.744	5947.06
329.972	6810.06
330.201	7948.06
330.43	8604.06
330.658	7239.06
330.887	6626.06
331.115	5950.06
331.344	5404.06
331.572	5242.06
331.801	5430.06
332.03	5332.06
332.258	5317.06
332.486	5362.06
332.715	5438.06
332.943	5674.06
333.172	5961.06
333.4	6144.06
333.629	6551.06
333.857	7072.06
334.085	7906.06
334.314	9309.06
334.542	10777.06
334.771	10060.06
334.999	7256.06
335.227	6342.06
335.455	5866.06
335.684	5651.06
335.912	5407.06
336.14	5309.06
336.369	5184.06
336.597	5272.06
336.825	5149.06
337.053	5123.06
337.281	4952.06
337.51	4907.06
337.738	4815.06
337.966	4808.06
338.194	4792.06
338.422	4751.06
338.65	4631.06
338.878	4614.06
339.106	4639.06
339.334	4550.06
339.562	4529.06
339.79	4459.06
340.018	4488.06
340.246	4500.06
340.474	4516.06
340.702	4478.06
340.93	4396.06
341.158	4428.06
341.386	4440.06
341.614	4434.06
341.842	4423.06
342.07	4369.06
342.298	4382.06
342.526	4351.06
342.754	4319.06
342.981	4270.06
343.209	4403.06
343.437	4656.06
343.665	4903.06
343.893	5112.06
344.12	5165.06
344.348	4923.06
344.576	4758.06
344.804	4773.06
345.031	4638.06
345.259	4628.06
345.487	4402.06
345.714	4360.06
345.942	4310.06
346.17	4286.06
346.397	4226.06
346.625	4208.06
346.853	4193.06
347.08	4214.06
347.308	4263.06
347.535	4283.06
347.763	4349.06
347.99	4276.06
348.218	4295.06
348.445	4343.06
348.673	4260.06
348.9	4162.06
349.128	4183.06
349.355	4082.06
349.583	4017.06
349.81	4096.06
350.037	4070.06
350.265	4069.06
350.492	4079.06
350.72	4078.06
350.947	4169.06
351.174	4229.06
351.402	4228.06
351.629	4139.06
351.856	4207.06
352.083	4218.06
352.311	4289.06
352.538	4260.06
352.765	4226.06
352.992	4120.06
353.22	4090.06
353.447	4114.06
353.674	4056.06
353.901	3976.06
354.128	4016.06
354.355	3970.06
354.583	4033.06
354.81	3960.06
355.037	3976.06
355.264	3907.06
355.491	3920.06
355.718	3954.06
355.945	4004.06
356.172	3957.06
356.399	3998.06
356.626	3973.06
356.853	4030.06
357.08	3933.06
357.307	3978.06
357.534	3972.06
357.761	4041.06
357.988	4014.06
358.215	3959.06
358.441	4004.06
358.668	4033.06
358.895	4101.06
359.122	4103.06
359.349	4158.06
359.576	4238.06
359.802	4461.06
360.029	4608.06
360.256	4613.06
360.483	4383.06
360.709	4214.06
360.936	4194.06
361.163	4231.06
361.39	4162.06
361.616	4201.06
361.843	4163.06
362.07	4188.06
362.296	4199.06
362.523	4177.06
362.749	4164.06
362.976	4127.06
363.203	4095.06
363.429	4087.06
363.656	4105.06
363.882	4071.06
364.109	4071.06
364.335	4028.06
364.562	4004.06
364.788	4057.06
365.015	4087.06
365.241	4086.06
365.468	4101.06
365.694	4099.06
365.92	4143.06
366.147	4072.06
366.373	4052.06
366.599	4052.06
366.826	3998.06
367.052	3974.06
367.278	4112.06
367.505	4105.06
367.731	4110.06
367.957	4049.06
368.184	4161.06
368.41	4180.06
368.636	4295.06
368.862	4258.06
369.089	4211.06
369.315	4170.06
369.541	4184.06
369.767	4213.06
369.993	4241.06
370.219	4150.06
370.445	4246.06
370.672	4216.06
370.898	4256.06
371.124	4309.06
371.35	4354.06
371.576	4314.06
371.802	4304.06
372.028	4277.06
372.254	4295.06
372.48	4338.06
372.706	4472.06
372.932	4554.06
373.158	4406.06
373.384	4382.06
373.61	4314.06
373.835	4339.06
374.061	4431.06
374.287	4421.06
374.513	4492.06
374.739	4638.06
374.965	4814.06
375.191	4735.06
375.416	4577.06
375.642	4520.06
375.868	4492.06
376.094	4455.06
376.319	4400.06
376.545	4363.06
376.771	4361.06
376.997	4294.06
377.222	4330.06
377.448	4223.06
377.674	4282.06
377.899	4300.06
378.125	4283.06
378.35	4260.06
378.576	4217.06
378.802	4211.06
379.027	4257.06
379.253	4229.06
379.478	4243.06
379.704	4302.06
379.929	4373.06
380.155	4306.06
380.38	4211.06
380.606	4294.06
380.831	4334.06
381.057	4325.06
381.282	4338.06
381.507	4332.06
381.733	4417.06
381.958	4465.06
382.184	4446.06
382.409	4523.06
382.634	4559.06
382.86	4572.06
383.085	4629.06
383.31	4691.06
383.535	4737.06
383.761	4774.06
383.986	4828.06
384.211	4958.06
384.436	4918.06
384.662	5054.06
384.887	5164.06
385.112	5134.06
385.337	5162.06
385.562	5185.06
385.787	5162.06
386.013	5311.06
386.238	5311.06
386.463	5280.06
386.688	5236.06
386.913	5150.06
387.138	5078.06
387.363	5162.06
387.588	5100.06
387.813	5107.06
388.038	5100.06
388.263	5108.06
388.488	5168.06
388.713	5135.06
388.938	5122.06
389.163	5132.06
389.387	5079.06
389.612	5051.06
389.837	5100.06
390.062	4945.06
390.287	5059.06
390.512	5007.06
390.736	5157.06
390.961	5170.06
391.186	5236.06
391.411	5453.06
391.636	5542.06
391.86	5745.06
392.085	5820.06
392.31	5633.06
392.534	5598.06
392.759	5434.06
392.984	5412.06
393.208	5305.06
393.433	5422.06
393.658	5365.06
393.882	5290.06
394.107	5316.06
394.331	5451.06
394.556	5312.06
394.78	5482.06
395.005	5506.06
395.229	5562.06
395.454	5667.06
395.678	5792.06
395.903	5853.06
396.127	5770.06
396.352	5674.06
396.576	5484.06
396.801	5423.06
397.025	5564.06
397.249	5610.06
397.474	5791.06
397.698	5807.06
397.922	5963.06
398.147	6062.06
398.371	6167.06
398.595	6204.06
398.82	6571.06
399.044	7161.06
399.268	7915.06
399.492	8883.06
399.717	9390.06
399.941	9164.06
400.165	8578.06
400.389	7896.06
400.613	7172.06
400.837	6756.06
401.062	6730.06
401.286	6517.06
401.51	6464.06
401.734	6510.06
401.958	6519.06
402.182	6611.06
402.406	6790.06
402.63	6942.06
402.854	6979.06
403.078	6986.06
403.302	7066.06
403.526	7339.06
403.75	7320.06
403.974	7420.06
404.198	7485.06
404.422	7485.06
404.645	7649.06
404.869	7698.06
405.093	8293.06
405.317	8696.06
405.541	8645.06
405.765	7790.06
405.988	7423.06
406.212	7502.06
406.436	7664.06
406.66	7772.06
406.883	7720.06
407.107	8223.06
407.331	8763.06
407.555	9241.06
407.778	8944.06
408.002	8106.06
408.226	7804.06
408.449	7705.06
408.673	7584.06
408.896	7736.06
409.12	7965.06
409.344	7457.06
409.567	7101.06
409.791	7130.06
410.014	6974.06
410.238	6964.06
410.461	7049.06
410.685	7055.06
410.908	7167.06
411.132	7354.06
411.355	7324.06
411.578	7059.06
411.802	6859.06
412.025	7126.06
412.249	7419.06
412.472	7959.06
412.695	8362.06
412.919	7706.06
413.142	7286.06
413.365	6922.06
413.589	6788.06
413.812	6651.06
414.035	6551.06
414.258	6576.06
414.482	6582.06
414.705	6628.06
414.928	6522.06
415.151	6493.06
415.374	6435.06
415.597	6376.06
415.821	6279.06
416.044	6367.06
416.267	6251.06
416.49	6253.06
416.713	6121.06
416.936	6366.06
417.159	6336.06
417.382	6430.06
417.605	6471.06
417.828	6708.06
418.051	6673.06
418.274	6469.06
418.497	6431.06
418.72	6548.06
418.943	6494.06
419.166	6937.06
419.389	7369.06
419.611	7239.06
419.834	7215.06
420.057	7297.06
420.28	7314.06
420.503	7166.06
420.726	6976.06
420.948	7035.06
421.171	7229.06
421.394	7082.06
421.617	6617.06
421.839	6630.06
422.062	6660.06
422.285	6774.06
422.507	7381.06
422.73	7848.06
422.953	7339.06
423.175	6882.06
423.398	6878.06
423.621	7008.06
423.843	7161.06
424.066	7153.06
424.288	7001.06
424.511	7210.06
424.733	7748.06
424.956	8092.06
425.178	7612.06
425.401	7866.06
425.623	7679.06
425.846	6683.06
426.068	6537.06
426.291	6526.06
426.513	6507.06
426.735	6616.06
426.958	7016.06
427.18	7828.06
427.402	9032.06
427.625	9246.06
427.847	8296.06
428.069	7985.06
428.292	6762.06
428.514	6250.06
428.736	6079.06
428.958	6010.06
429.181	5811.06
429.403	5879.06
429.625	5943.06
429.847	6282.06
430.069	6717.06
430.292	6292.06
430.514	5796.06
430.736	5722.06
430.958	5709.06
431.18	5653.06
431.402	5627.06
431.624	5675.06
431.846	5722.06
432.068	5708.06
432.29	5882.06
432.512	5713.06
432.734	5703.06
432.956	5732.06
433.178	5810.06
433.4	5798.06
433.622	5723.06
433.844	5815.06
434.066	5748.06
434.287	5865.06
434.509	6058.06
434.731	6260.06
434.953	6352.06
435.175	6465.06
435.397	6657.06
435.618	6464.06
435.84	6847.06
436.062	7738.06
436.284	7650.06
436.505	6421.06
436.727	6106.06
436.949	5911.06
437.17	5756.06
437.392	5751.06
437.614	5935.06
437.835	6343.06
438.057	7207.06
438.278	7850.06
438.5	7746.06
438.721	8600.06
438.943	7408.06
439.165	6208.06
439.386	6120.06
439.608	6174.06
439.829	6178.06
440.05	6564.06
440.272	6947.06
440.493	6359.06
440.715	6081.06
440.936	5969.06
441.158	6126.06
441.379	6216.06
441.6	6470.06
441.822	6635.06
442.043	7177.06
442.264	7836.06
442.486	7639.06
442.707	6755.06
442.928	6527.06
443.149	6759.06
443.371	6951.06
443.592	7641.06
443.813	8538.06
444.034	8389.06
444.255	7382.06
444.476	7267.06
444.698	7433.06
444.919	7400.06
445.14	7286.06
445.361	7185.06
445.582	7232.06
445.803	7908.06
446.024	8550.06
446.245	8139.06
446.466	7339.06
446.687	6301.06
446.908	5983.06
447.129	5720.06
447.35	5605.06
447.571	5575.06
447.792	5425.06
448.013	5536.06
448.234	5697.06
448.455	6496.06
448.675	7682.06
448.896	7979.06
449.117	6510.06
449.338	6764.06
449.559	8177.06
449.779	8218.06
450	6175.06
450.221	5610.06
450.442	5438.06
450.662	5374.06
450.883	5458.06
451.104	5611.06
451.324	5407.06
451.545	5348.06
451.766	5155.06
451.986	5121.06
452.207	4999.06
452.428	5065.06
452.648	5014.06
452.869	5034.06
453.089	5108.06
453.31	5152.06
453.53	5024.06
453.751	4932.06
453.971	4998.06
454.192	5122.06
454.412	4892.06
454.633	4909.06
454.853	4934.06
455.073	4858.06
455.294	5313.06
455.514	5812.06
455.734	5231.06
455.955	4788.06
456.175	4677.06
456.395	4658.06
456.616	4668.06
456.836	4695.06
457.056	4648.06
457.276	4562.06
457.497	4754.06
457.717	4722.06
457.937	4774.06
458.157	4882.06
458.377	4894.06
458.598	5284.06
458.818	5907.06
459.038	6640.06
459.258	6553.06
459.478	5854.06
459.698	5721.06
459.918	5872.06
460.138	6019.06
460.358	6254.06
460.578	6263.06
460.798	6368.06
461.018	6286.06
461.238	6137.06
461.458	6200.06
461.678	6170.06
461.898	6230.06
462.118	6342.06
462.338	6666.06
462.558	6777.06
462.777	7094.06
462.997	7620.06
463.217	8035.06
463.437	7855.06
463.657	7311.06
463.876	7019.06
464.096	7089.06
464.316	7086.06
464.536	7157.06
464.755	6937.06
464.975	6852.06
465.195	6949.06
465.414	6952.06
465.634	6192.06
465.854	5807.06
466.073	5624.06
466.293	5458.06
466.512	5351.06
466.732	5264.06
466.951	5232.06
467.171	5243.06
467.391	5370.06
467.61	5392.06
467.829	5488.06
468.049	5723.06
468.268	5940.06
468.488	5515.06
468.707	5207.06
468.927	5170.06
469.146	5114.06
469.365	5135.06
469.585	5088.06
469.804	5377.06
470.023	5437.06
470.243	5499.06
470.462	5536.06
470.681	5668.06
470.901	5494.06
471.12	5460.06
471.339	5395.06
471.558	5362.06
471.777	5384.06
471.997	5536.06
472.216	6447.06
472.435	8145.06
472.654	6740.06
472.873	5772.06
473.092	5585.06
473.311	5370.06
473.53	5328.06
473.749	5356.06
473.968	5871.06
474.187	6751.06
474.406	6239.06
474.625	5396.06
474.844	5105.06
475.063	5113.06
475.282	5134.06
475.501	5188.06
475.72	5235.06
475.939	5218.06
476.158	5383.06
476.377	5323.06
476.596	5194.06
476.814	5395.06
477.033	5381.06
477.252	5511.06
477.471	5654.06
477.69	5724.06
477.908	5852.06
478.127	5956.06
478.346	6021.06
478.564	6191.06
478.783	6282.06
479.002	6422.06
479.22	6375.06
479.439	6484.06
479.658	6655.06
479.876	6773.06
480.095	6950.06
480.313	7423.06
480.532	7358.06
480.751	7314.06
480.969	8321.06
481.188	11698.06
481.406	11418.06
481.624	8566.06
481.843	7535.06
482.061	7044.06
482.28	6710.06
482.498	6505.06
482.717	6365.06
482.935	6291.06
483.153	6262.06
483.372	6151.06
483.59	6093.06
483.808	6147.06
484.027	6182.06
484.245	6170.06
484.463	6101.06
484.681	6307.06
484.9	6330.06
485.118	6332.06
485.336	6363.06
485.554	6538.06
485.772	6516.06
485.99	6421.06
486.209	6547.06
486.427	6564.06
486.645	6485.06
486.863	6665.06
487.081	6665.06
487.299	6631.06
487.517	6535.06
487.735	6493.06
