Data from Circ_1984_H10_HRD10591_00032.txt Node
Date: Wed Jan 03 12:22:48 EST 2024
User: Yrep
Spectrometer: HR+D1059
Trigger mode: 1
Integration Time (sec): 1.000000E-1
Scans to average: 1
Electric dark correction enabled: true
Nonlinearity correction enabled: false
Boxcar width: 0
XAxis mode: Wavelengths
Number of Pixels in Spectrum: 2048
>>>>>Begin Spectral Data<<<<<
223.165	-16.75
223.4	-16.75
223.635	-16.75
223.869	-30.75
224.104	-17.75
224.338	-15.75
224.573	-18.75
224.808	-19.75
225.042	-2.75
225.277	-12.75
225.511	-2.75
225.746	2.25
225.98	8.25
226.215	21.25
226.449	14.25
226.683	25.25
226.918	36.25
227.152	30.25
227.387	57.25
227.621	40.25
227.856	46.25
228.09	43.25
228.324	30.25
228.559	53.25
228.793	58.25
229.027	62.25
229.262	69.25
229.496	67.25
229.73	89.25
229.964	69.25
230.199	81.25
230.433	74.25
230.667	83.25
230.901	78.25
231.136	81.25
231.37	83.25
231.604	82.25
231.838	83.25
232.072	84.25
232.306	82.25
232.541	79.25
232.775	85.25
233.009	75.25
233.243	91.25
233.477	90.25
233.711	70.25
233.945	91.25
234.179	76.25
234.413	77.25
234.647	94.25
234.881	82.25
235.115	92.25
235.349	92.25
235.583	91.25
235.817	85.25
236.051	83.25
236.285	95.25
236.519	101.25
236.753	87.25
236.987	77.25
237.221	86.25
237.455	93.25
237.689	93.25
237.922	78.25
238.156	74.25
238.39	86.25
238.624	67.25
238.858	67.25
239.091	82.25
239.325	90.25
239.559	91.25
239.793	89.25
240.027	79.25
240.26	92.25
240.494	97.25
240.728	85.25
240.961	78.25
241.195	79.25
241.429	78.25
241.662	82.25
241.896	89.25
242.13	76.25
242.363	69.25
242.597	81.25
242.83	79.25
243.064	64.25
243.298	81.25
243.531	69.25
243.765	69.25
243.998	82.25
244.232	89.25
244.465	83.25
244.699	87.25
244.932	80.25
245.166	78.25
245.399	71.25
245.633	81.25
245.866	79.25
246.099	66.25
246.333	83.25
246.566	85.25
246.8	88.25
247.033	82.25
247.266	76.25
247.5	77.25
247.733	83.25
247.966	85.25
248.2	77.25
248.433	89.25
248.666	61.25
248.899	82.25
249.133	79.25
249.366	107.25
249.599	95.25
249.832	83.25
250.066	82.25
250.299	69.25
250.532	73.25
250.765	89.25
250.998	99.25
251.231	81.25
251.465	73.25
251.698	69.25
251.931	89.25
252.164	85.25
252.397	91.25
252.63	79.25
252.863	85.25
253.096	84.25
253.329	91.25
253.562	83.25
253.795	86.25
254.028	82.25
254.261	78.25
254.494	75.25
254.727	90.25
254.96	87.25
255.193	95.25
255.426	86.25
255.659	77.25
255.892	66.25
256.124	89.25
256.357	81.25
256.59	77.25
256.823	82.25
257.056	83.25
257.289	86.25
257.521	89.25
257.754	70.25
257.987	87.25
258.22	76.25
258.452	91.25
258.685	77.25
258.918	85.25
259.151	86.25
259.383	90.25
259.616	80.25
259.849	88.25
260.081	69.25
260.314	98.25
260.547	84.25
260.779	94.25
261.012	73.25
261.244	74.25
261.477	86.25
261.71	99.25
261.942	98.25
262.175	101.25
262.407	92.25
262.64	94.25
262.872	94.25
263.105	86.25
263.337	81.25
263.57	93.25
263.802	76.25
264.035	75.25
264.267	94.25
264.499	77.25
264.732	80.25
264.964	105.25
265.197	88.25
265.429	83.25
265.661	98.25
265.894	91.25
266.126	94.25
266.358	84.25
266.591	92.25
266.823	79.25
267.055	72.25
267.287	83.25
267.52	93.25
267.752	97.25
267.984	90.25
268.216	82.25
268.448	84.25
268.681	89.25
268.913	101.25
269.145	105.25
269.377	96.25
269.609	74.25
269.841	77.25
270.073	85.25
270.306	91.25
270.538	78.25
270.77	93.25
271.002	82.25
271.234	81.25
271.466	91.25
271.698	82.25
271.93	76.25
272.162	89.25
272.394	79.25
272.626	83.25
272.858	96.25
273.09	89.25
273.322	73.25
273.553	89.25
273.785	90.25
274.017	92.25
274.249	99.25
274.481	98.25
274.713	78.25
274.945	76.25
275.176	95.25
275.408	89.25
275.64	92.25
275.872	100.25
276.104	86.25
276.335	90.25
276.567	95.25
276.799	115.25
277.031	105.25
277.262	99.25
277.494	85.25
277.726	87.25
277.957	85.25
278.189	99.25
278.421	93.25
278.652	91.25
278.884	87.25
279.115	85.25
279.347	91.25
279.579	86.25
279.81	70.25
280.042	107.25
280.273	112.25
280.505	94.25
280.736	77.25
280.968	81.25
281.199	89.25
281.431	106.25
281.662	96.25
281.894	91.25
282.125	86.25
282.356	111.25
282.588	120.25
282.819	103.25
283.051	96.25
283.282	77.25
283.513	99.25
283.745	89.25
283.976	78.25
284.207	96.25
284.439	84.25
284.67	94.25
284.901	91.25
285.132	91.25
285.364	82.25
285.595	109.25
285.826	86.25
286.057	93.25
286.288	93.25
286.52	103.25
286.751	85.25
286.982	94.25
287.213	96.25
287.444	88.25
287.675	89.25
287.906	95.25
288.138	86.25
288.369	87.25
288.6	88.25
288.831	98.25
289.062	94.25
289.293	89.25
289.524	81.25
289.755	91.25
289.986	83.25
290.217	93.25
290.448	89.25
290.679	94.25
290.91	85.25
291.141	89.25
291.371	93.25
291.602	79.25
291.833	91.25
292.064	97.25
292.295	81.25
292.526	97.25
292.757	97.25
292.987	88.25
293.218	87.25
293.449	93.25
293.68	87.25
293.91	88.25
294.141	93.25
294.372	98.25
294.603	83.25
294.833	102.25
295.064	99.25
295.295	81.25
295.525	85.25
295.756	113.25
295.987	112.25
296.217	124.25
296.448	126.25
296.679	96.25
296.909	94.25
297.14	91.25
297.37	93.25
297.601	102.25
297.831	73.25
298.062	87.25
298.292	90.25
298.523	91.25
298.753	86.25
298.984	80.25
299.214	91.25
299.445	87.25
299.675	115.25
299.905	101.25
300.136	69.25
300.366	86.25
300.597	77.25
300.827	83.25
301.057	100.25
301.288	108.25
301.518	85.25
301.748	91.25
301.979	99.25
302.209	90.25
302.439	92.25
302.669	86.25
302.9	99.25
303.13	89.25
303.36	115.25
303.59	108.25
303.82	115.25
304.051	97.25
304.281	95.25
304.511	97.25
304.741	95.25
304.971	78.25
305.201	100.25
305.431	103.25
305.661	85.25
305.891	89.25
306.121	91.25
306.352	99.25
306.582	99.25
306.812	96.25
307.042	88.25
307.272	86.25
307.502	95.25
307.731	91.25
307.961	98.25
308.191	93.25
308.421	79.25
308.651	98.25
308.881	105.25
309.111	85.25
309.341	93.25
309.571	108.25
309.8	111.25
310.03	99.25
310.26	95.25
310.49	91.25
310.72	99.25
310.949	90.25
311.179	97.25
311.409	91.25
311.639	93.25
311.868	98.25
312.098	103.25
312.328	117.25
312.557	89.25
312.787	103.25
313.017	93.25
313.246	97.25
313.476	104.25
313.706	98.25
313.935	88.25
314.165	98.25
314.394	92.25
314.624	74.25
314.853	87.25
315.083	87.25
315.312	108.25
315.542	108.25
315.771	82.25
316.001	83.25
316.23	77.25
316.46	87.25
316.689	86.25
316.919	90.25
317.148	97.25
317.377	84.25
317.607	96.25
317.836	100.25
318.065	97.25
318.295	73.25
318.524	101.25
318.753	91.25
318.983	106.25
319.212	85.25
319.441	92.25
319.67	93.25
319.9	111.25
320.129	94.25
320.358	84.25
320.587	80.25
320.816	92.25
321.046	93.25
321.275	113.25
321.504	93.25
321.733	100.25
321.962	111.25
322.191	93.25
322.42	99.25
322.649	115.25
322.878	103.25
323.108	107.25
323.337	126.25
323.566	125.25
323.795	146.25
324.024	171.25
324.253	307.25
324.482	641.25
324.71	1349.25
324.939	1684.25
325.168	658.25
325.397	206.25
325.626	139.25
325.855	108.25
326.084	126.25
326.313	119.25
326.542	141.25
326.77	182.25
326.999	369.25
327.228	696.25
327.457	1330.25
327.686	1054.25
327.914	315.25
328.143	192.25
328.372	159.25
328.6	135.25
328.829	128.25
329.058	127.25
329.287	121.25
329.515	123.25
329.744	121.25
329.972	133.25
330.201	180.25
330.43	204.25
330.658	150.25
330.887	125.25
331.115	106.25
331.344	96.25
331.572	92.25
331.801	106.25
332.03	115.25
332.258	114.25
332.486	78.25
332.715	100.25
332.943	89.25
333.172	99.25
333.4	97.25
333.629	116.25
333.857	107.25
334.085	119.25
334.314	176.25
334.542	229.25
334.771	213.25
334.999	129.25
335.227	118.25
335.455	106.25
335.684	87.25
335.912	89.25
336.14	107.25
336.369	89.25
336.597	98.25
336.825	91.25
337.053	93.25
337.281	98.25
337.51	105.25
337.738	100.25
337.966	95.25
338.194	90.25
338.422	91.25
338.65	89.25
338.878	93.25
339.106	88.25
339.334	98.25
339.562	83.25
339.79	91.25
340.018	85.25
340.246	96.25
340.474	86.25
340.702	90.25
340.93	101.25
341.158	98.25
341.386	91.25
341.614	103.25
341.842	101.25
342.07	104.25
342.298	92.25
342.526	84.25
342.754	79.25
342.981	78.25
343.209	84.25
343.437	111.25
343.665	94.25
343.893	96.25
344.12	97.25
344.348	99.25
344.576	84.25
344.804	99.25
345.031	92.25
345.259	98.25
345.487	102.25
345.714	89.25
345.942	101.25
346.17	103.25
346.397	88.25
346.625	100.25
346.853	73.25
347.08	82.25
347.308	91.25
347.535	103.25
347.763	109.25
347.99	100.25
348.218	106.25
348.445	87.25
348.673	94.25
348.9	92.25
349.128	91.25
349.355	86.25
349.583	85.25
349.81	101.25
350.037	97.25
350.265	106.25
350.492	115.25
350.72	91.25
350.947	110.25
351.174	110.25
351.402	94.25
351.629	102.25
351.856	85.25
352.083	90.25
352.311	102.25
352.538	95.25
352.765	114.25
352.992	110.25
353.22	91.25
353.447	97.25
353.674	115.25
353.901	110.25
354.128	94.25
354.355	106.25
354.583	92.25
354.81	87.25
355.037	105.25
355.264	100.25
355.491	107.25
355.718	85.25
355.945	93.25
356.172	94.25
356.399	97.25
356.626	97.25
356.853	96.25
357.08	102.25
357.307	99.25
357.534	110.25
357.761	96.25
357.988	94.25
358.215	125.25
358.441	101.25
358.668	107.25
358.895	72.25
359.122	101.25
359.349	90.25
359.576	111.25
359.802	93.25
360.029	117.25
360.256	89.25
360.483	102.25
360.709	82.25
360.936	95.25
361.163	90.25
361.39	93.25
361.616	95.25
361.843	88.25
362.07	83.25
362.296	102.25
362.523	86.25
362.749	86.25
362.976	87.25
363.203	92.25
363.429	98.25
363.656	94.25
363.882	105.25
364.109	99.25
364.335	98.25
364.562	102.25
364.788	108.25
365.015	88.25
365.241	83.25
365.468	109.25
365.694	108.25
365.92	101.25
366.147	83.25
366.373	79.25
366.599	81.25
366.826	101.25
367.052	101.25
367.278	91.25
367.505	91.25
367.731	100.25
367.957	103.25
368.184	85.25
368.41	100.25
368.636	107.25
368.862	124.25
369.089	93.25
369.315	95.25
369.541	91.25
369.767	97.25
369.993	85.25
370.219	92.25
370.445	98.25
370.672	77.25
370.898	78.25
371.124	94.25
371.35	81.25
371.576	77.25
371.802	86.25
372.028	98.25
372.254	94.25
372.48	87.25
372.706	74.25
372.932	85.25
373.158	95.25
373.384	93.25
373.61	90.25
373.835	94.25
374.061	94.25
374.287	98.25
374.513	97.25
374.739	83.25
374.965	88.25
375.191	102.25
375.416	99.25
375.642	94.25
375.868	92.25
376.094	90.25
376.319	94.25
376.545	84.25
376.771	92.25
376.997	92.25
377.222	79.25
377.448	91.25
377.674	83.25
377.899	102.25
378.125	83.25
378.35	96.25
378.576	94.25
378.802	97.25
379.027	106.25
379.253	98.25
379.478	98.25
379.704	95.25
379.929	103.25
380.155	95.25
380.38	98.25
380.606	97.25
380.831	99.25
381.057	101.25
381.282	95.25
381.507	108.25
381.733	103.25
381.958	103.25
382.184	97.25
382.409	103.25
382.634	103.25
382.86	105.25
383.085	102.25
383.31	98.25
383.535	108.25
383.761	103.25
383.986	104.25
384.211	105.25
384.436	93.25
384.662	117.25
384.887	106.25
385.112	94.25
385.337	104.25
385.562	113.25
385.787	104.25
386.013	102.25
386.238	116.25
386.463	102.25
386.688	111.25
386.913	113.25
387.138	110.25
387.363	103.25
387.588	96.25
387.813	103.25
388.038	109.25
388.263	120.25
388.488	109.25
388.713	106.25
388.938	97.25
389.163	102.25
389.387	92.25
389.612	101.25
389.837	108.25
390.062	102.25
390.287	101.25
390.512	90.25
390.736	92.25
390.961	87.25
391.186	93.25
391.411	92.25
391.636	95.25
391.86	82.25
392.085	82.25
392.31	98.25
392.534	83.25
392.759	91.25
392.984	107.25
393.208	106.25
393.433	100.25
393.658	103.25
393.882	100.25
394.107	94.25
394.331	93.25
394.556	62.25
394.78	96.25
395.005	79.25
395.229	89.25
395.454	82.25
395.678	99.25
395.903	81.25
396.127	97.25
396.352	94.25
396.576	90.25
396.801	102.25
397.025	88.25
397.249	89.25
397.474	90.25
397.698	89.25
397.922	102.25
398.147	91.25
398.371	84.25
398.595	111.25
398.82	87.25
399.044	90.25
399.268	89.25
399.492	106.25
399.717	97.25
399.941	93.25
400.165	99.25
400.389	98.25
400.613	91.25
400.837	104.25
401.062	97.25
401.286	89.25
401.51	100.25
401.734	102.25
401.958	101.25
402.182	108.25
402.406	139.25
402.63	91.25
402.854	93.25
403.078	85.25
403.302	103.25
403.526	84.25
403.75	85.25
403.974	95.25
404.198	89.25
404.422	82.25
404.645	84.25
404.869	86.25
405.093	102.25
405.317	100.25
405.541	100.25
405.765	101.25
405.988	114.25
406.212	147.25
406.436	191.25
406.66	118.25
406.883	92.25
407.107	106.25
407.331	95.25
407.555	106.25
407.778	106.25
408.002	129.25
408.226	103.25
408.449	99.25
408.673	81.25
408.896	103.25
409.12	101.25
409.344	100.25
409.567	104.25
409.791	89.25
410.014	88.25
410.238	106.25
410.461	105.25
410.685	99.25
410.908	105.25
411.132	98.25
411.355	103.25
411.578	89.25
411.802	104.25
412.025	91.25
412.249	87.25
412.472	89.25
412.695	89.25
412.919	94.25
413.142	100.25
413.365	105.25
413.589	85.25
413.812	91.25
414.035	91.25
414.258	89.25
414.482	85.25
414.705	94.25
414.928	87.25
415.151	102.25
415.374	104.25
415.597	101.25
415.821	97.25
416.044	87.25
416.267	79.25
416.49	89.25
416.713	106.25
416.936	94.25
417.159	94.25
417.382	72.25
417.605	93.25
417.828	100.25
418.051	99.25
418.274	82.25
418.497	85.25
418.72	89.25
418.943	83.25
419.166	97.25
419.389	95.25
419.611	94.25
419.834	101.25
420.057	88.25
420.28	91.25
420.503	92.25
420.726	109.25
420.948	104.25
421.171	103.25
421.394	111.25
421.617	102.25
421.839	86.25
422.062	85.25
422.285	97.25
422.507	103.25
422.73	105.25
422.953	111.25
423.175	104.25
423.398	103.25
423.621	87.25
423.843	85.25
424.066	99.25
424.288	70.25
424.511	77.25
424.733	100.25
424.956	102.25
425.178	87.25
425.401	102.25
425.623	106.25
425.846	88.25
426.068	109.25
426.291	91.25
426.513	98.25
426.735	84.25
426.958	91.25
427.18	112.25
427.402	130.25
427.625	148.25
427.847	134.25
428.069	132.25
428.292	89.25
428.514	85.25
428.736	81.25
428.958	82.25
429.181	76.25
429.403	105.25
429.625	85.25
429.847	103.25
430.069	99.25
430.292	100.25
430.514	93.25
430.736	97.25
430.958	87.25
431.18	91.25
431.402	101.25
431.624	85.25
431.846	83.25
432.068	90.25
432.29	77.25
432.512	95.25
432.734	89.25
432.956	86.25
433.178	99.25
433.4	107.25
433.622	87.25
433.844	92.25
434.066	95.25
434.287	85.25
434.509	92.25
434.731	95.25
434.953	97.25
435.175	91.25
435.397	87.25
435.618	104.25
435.84	95.25
436.062	125.25
436.284	105.25
436.505	95.25
436.727	97.25
436.949	87.25
437.17	99.25
437.392	100.25
437.614	96.25
437.835	97.25
438.057	113.25
438.278	100.25
438.5	90.25
438.721	105.25
438.943	103.25
439.165	87.25
439.386	88.25
439.608	96.25
439.829	87.25
440.05	118.25
440.272	118.25
440.493	94.25
440.715	101.25
440.936	83.25
441.158	86.25
441.379	94.25
441.6	96.25
441.822	88.25
442.043	114.25
442.264	102.25
442.486	100.25
442.707	84.25
442.928	103.25
443.149	129.25
443.371	129.25
443.592	102.25
443.813	115.25
444.034	100.25
444.255	91.25
444.476	86.25
444.698	85.25
444.919	95.25
445.14	146.25
445.361	133.25
445.582	115.25
445.803	122.25
446.024	129.25
446.245	125.25
446.466	112.25
446.687	90.25
446.908	100.25
447.129	99.25
447.35	86.25
447.571	92.25
447.792	89.25
448.013	103.25
448.234	92.25
448.455	97.25
448.675	108.25
448.896	103.25
449.117	99.25
449.338	98.25
449.559	131.25
449.779	115.25
450	95.25
450.221	84.25
450.442	89.25
450.662	94.25
450.883	109.25
451.104	97.25
451.324	102.25
451.545	82.25
451.766	94.25
451.986	90.25
452.207	89.25
452.428	95.25
452.648	89.25
452.869	90.25
453.089	121.25
453.31	95.25
453.53	98.25
453.751	81.25
453.971	112.25
454.192	108.25
454.412	95.25
454.633	81.25
454.853	97.25
455.073	102.25
455.294	86.25
455.514	98.25
455.734	90.25
455.955	89.25
456.175	85.25
456.395	105.25
456.616	94.25
456.836	72.25
457.056	85.25
457.276	82.25
457.497	94.25
457.717	98.25
457.937	89.25
458.157	89.25
458.377	101.25
458.598	107.25
458.818	143.25
459.038	127.25
459.258	107.25
459.478	98.25
459.698	84.25
459.918	93.25
460.138	89.25
460.358	98.25
460.578	83.25
460.798	81.25
461.018	93.25
461.238	85.25
461.458	97.25
461.678	92.25
461.898	71.25
462.118	77.25
462.338	92.25
462.558	96.25
462.777	95.25
462.997	91.25
463.217	94.25
463.437	87.25
463.657	91.25
463.876	80.25
464.096	77.25
464.316	95.25
464.536	100.25
464.755	92.25
464.975	101.25
465.195	133.25
465.414	142.25
465.634	107.25
465.854	94.25
466.073	94.25
466.293	96.25
466.512	84.25
466.732	86.25
466.951	83.25
467.171	76.25
467.391	88.25
467.61	105.25
467.829	102.25
468.049	123.25
468.268	141.25
468.488	99.25
468.707	81.25
468.927	90.25
469.146	95.25
469.365	108.25
469.585	89.25
469.804	94.25
470.023	72.25
470.243	89.25
470.462	104.25
470.681	110.25
470.901	102.25
471.12	84.25
471.339	83.25
471.558	77.25
471.777	85.25
471.997	105.25
472.216	189.25
472.435	285.25
472.654	126.25
472.873	92.25
473.092	83.25
473.311	87.25
473.53	94.25
473.749	81.25
473.968	90.25
474.187	107.25
474.406	105.25
474.625	93.25
474.844	76.25
475.063	77.25
475.282	91.25
475.501	85.25
475.72	84.25
475.939	86.25
476.158	91.25
476.377	82.25
476.596	92.25
476.814	91.25
477.033	94.25
477.252	87.25
477.471	73.25
477.69	101.25
477.908	87.25
478.127	118.25
478.346	86.25
478.564	90.25
478.783	91.25
479.002	79.25
479.22	73.25
479.439	105.25
479.658	100.25
479.876	92.25
480.095	87.25
480.313	91.25
480.532	101.25
480.751	123.25
480.969	189.25
481.188	467.25
481.406	298.25
481.624	133.25
481.843	89.25
482.061	87.25
482.28	85.25
482.498	81.25
482.717	92.25
482.935	95.25
483.153	94.25
483.372	86.25
483.59	90.25
483.808	104.25
484.027	79.25
484.245	91.25
484.463	72.25
484.681	90.25
484.9	105.25
485.118	99.25
485.336	97.25
485.554	105.25
485.772	108.25
485.99	94.25
486.209	111.25
486.427	110.25
486.645	118.25
486.863	120.25
487.081	101.25
487.299	98.25
487.517	95.25
487.735	106.25
487.953	83.25
488.171	100.25
488.389	89.25
488.607	95.25
488.825	87.25
489.043	99.25
489.261	100.25
489.479	91.25
489.696	90.25
489.914	86.25
490.132	89.25
490.35	84.25
490.568	99.25
490.786	100.25
491.003	89.25
491.221	77.25
491.439	91.25
491.657	109.25
491.874	104.25
492.092	102.25
492.31	96.25
492.527	87.25
492.745	95.25
492.963	88.25
493.18	87.25
493.398	89.25
493.615	89.25
493.833	86.25
494.05	92.25
494.268	80.25
494.485	93.25
494.703	83.25
494.92	104.25
495.138	89.25
495.355	103.25
495.573	93.25
495.79	90.25
496.008	102.25
496.225	92.25
496.442	86.25
496.66	99.25
496.877	95.25
497.094	95.25
497.312	98.25
497.529	93.25
497.746	87.25
497.963	91.25
498.181	90.25
498.398	94.25
498.615	104.25
498.832	103.25
499.049	90.25
499.267	94.25
499.484	93.25
499.701	75.25
499.918	94.25
500.135	96.25
500.352	90.25
500.569	113.25
500.786	92.25
501.003	90.25
501.22	99.25
501.437	89.25
501.654	94.25
501.871	110.25
502.088	88.25
502.305	90.25
502.522	96.25
502.739	96.25
502.956	96.25
503.172	98.25
503.389	96.25
503.606	109.25
503.823	113.25
504.04	91.25
504.256	101.25
504.473	81.25
504.69	92.25
504.907	98.25
505.123	93.25
505.34	95.25
505.557	96.25
505.773	93.25
505.99	90.25
506.207	81.25
506.423	69.25
506.64	100.25
506.856	94.25
507.073	100.25
507.289	110.25
507.506	102.25
507.722	97.25
507.939	104.25
508.155	85.25
508.372	94.25
508.588	81.25
508.805	94.25
509.021	92.25
509.238	83.25
509.454	103.25
509.67	87.25
509.887	100.25
510.103	111.25
510.319	189.25
510.536	597.25
510.752	1903.25
510.968	529.25
511.184	122.25
511.401	97.25
511.617	99.25
511.833	97.25
512.049	106.25
512.265	97.25
512.481	90.25
512.698	86.25
512.914	83.25
513.13	98.25
513.346	103.25
513.562	104.25
513.778	91.25
513.994	85.25
514.21	104.25
514.426	105.25
514.642	128.25
