Data from Circ_1984_H10_HRD10591_00075.txt Node
Date: Wed Jan 03 12:22:57 EST 2024
User: Yrep
Spectrometer: HR+D1059
Trigger mode: 1
Integration Time (sec): 1.000000E-1
Scans to average: 1
Electric dark correction enabled: true
Nonlinearity correction enabled: false
Boxcar width: 0
XAxis mode: Wavelengths
Number of Pixels in Spectrum: 2048
>>>>>Begin Spectral Data<<<<<
223.165	-35.75
223.4	-35.75
223.635	-35.75
223.869	-28.75
224.104	-20.75
224.338	-12.75
224.573	-20.75
224.808	-2.75
225.042	-6.75
225.277	5.25
225.511	-2.75
225.746	7.25
225.98	5.25
226.215	19.25
226.449	12.25
226.683	27.25
226.918	19.25
227.152	35.25
227.387	36.25
227.621	41.25
227.856	38.25
228.09	42.25
228.324	42.25
228.559	65.25
228.793	70.25
229.027	66.25
229.262	68.25
229.496	74.25
229.73	69.25
229.964	84.25
230.199	77.25
230.433	75.25
230.667	73.25
230.901	68.25
231.136	61.25
231.37	74.25
231.604	92.25
231.838	74.25
232.072	74.25
232.306	85.25
232.541	83.25
232.775	76.25
233.009	72.25
233.243	91.25
233.477	73.25
233.711	93.25
233.945	85.25
234.179	92.25
234.413	89.25
234.647	64.25
234.881	77.25
235.115	85.25
235.349	67.25
235.583	88.25
235.817	83.25
236.051	86.25
236.285	91.25
236.519	86.25
236.753	74.25
236.987	61.25
237.221	81.25
237.455	80.25
237.689	85.25
237.922	84.25
238.156	87.25
238.39	57.25
238.624	89.25
238.858	79.25
239.091	80.25
239.325	60.25
239.559	81.25
239.793	93.25
240.027	74.25
240.26	74.25
240.494	69.25
240.728	84.25
240.961	73.25
241.195	66.25
241.429	71.25
241.662	82.25
241.896	78.25
242.13	83.25
242.363	91.25
242.597	67.25
242.83	69.25
243.064	75.25
243.298	81.25
243.531	85.25
243.765	86.25
243.998	72.25
244.232	78.25
244.465	75.25
244.699	68.25
244.932	83.25
245.166	84.25
245.399	71.25
245.633	80.25
245.866	85.25
246.099	80.25
246.333	74.25
246.566	70.25
246.8	80.25
247.033	85.25
247.266	77.25
247.5	71.25
247.733	83.25
247.966	86.25
248.2	92.25
248.433	91.25
248.666	73.25
248.899	88.25
249.133	78.25
249.366	96.25
249.599	85.25
249.832	93.25
250.066	81.25
250.299	80.25
250.532	80.25
250.765	86.25
250.998	63.25
251.231	71.25
251.465	90.25
251.698	84.25
251.931	89.25
252.164	70.25
252.397	82.25
252.63	78.25
252.863	81.25
253.096	70.25
253.329	80.25
253.562	84.25
253.795	82.25
254.028	91.25
254.261	83.25
254.494	75.25
254.727	76.25
254.96	77.25
255.193	77.25
255.426	91.25
255.659	74.25
255.892	82.25
256.124	81.25
256.357	80.25
256.59	72.25
256.823	86.25
257.056	76.25
257.289	82.25
257.521	72.25
257.754	72.25
257.987	72.25
258.22	92.25
258.452	78.25
258.685	88.25
258.918	70.25
259.151	74.25
259.383	86.25
259.616	80.25
259.849	98.25
260.081	83.25
260.314	94.25
260.547	62.25
260.779	72.25
261.012	87.25
261.244	77.25
261.477	84.25
261.71	89.25
261.942	88.25
262.175	99.25
262.407	92.25
262.64	75.25
262.872	81.25
263.105	92.25
263.337	92.25
263.57	77.25
263.802	82.25
264.035	87.25
264.267	69.25
264.499	72.25
264.732	90.25
264.964	80.25
265.197	81.25
265.429	81.25
265.661	97.25
265.894	97.25
266.126	88.25
266.358	80.25
266.591	64.25
266.823	83.25
267.055	70.25
267.287	69.25
267.52	90.25
267.752	80.25
267.984	84.25
268.216	71.25
268.448	84.25
268.681	81.25
268.913	82.25
269.145	89.25
269.377	85.25
269.609	88.25
269.841	89.25
270.073	94.25
270.306	91.25
270.538	90.25
270.77	82.25
271.002	83.25
271.234	80.25
271.466	95.25
271.698	82.25
271.93	95.25
272.162	92.25
272.394	90.25
272.626	88.25
272.858	90.25
273.09	73.25
273.322	82.25
273.553	87.25
273.785	97.25
274.017	76.25
274.249	86.25
274.481	76.25
274.713	79.25
274.945	77.25
275.176	96.25
275.408	74.25
275.64	96.25
275.872	103.25
276.104	91.25
276.335	90.25
276.567	77.25
276.799	88.25
277.031	93.25
277.262	103.25
277.494	94.25
277.726	85.25
277.957	81.25
278.189	99.25
278.421	98.25
278.652	85.25
278.884	85.25
279.115	85.25
279.347	97.25
279.579	84.25
279.81	82.25
280.042	100.25
280.273	96.25
280.505	96.25
280.736	78.25
280.968	88.25
281.199	95.25
281.431	101.25
281.662	84.25
281.894	86.25
282.125	95.25
282.356	115.25
282.588	115.25
282.819	102.25
283.051	98.25
283.282	86.25
283.513	84.25
283.745	93.25
283.976	86.25
284.207	97.25
284.439	80.25
284.67	80.25
284.901	87.25
285.132	89.25
285.364	85.25
285.595	83.25
285.826	80.25
286.057	82.25
286.288	94.25
286.52	87.25
286.751	87.25
286.982	87.25
287.213	93.25
287.444	103.25
287.675	85.25
287.906	82.25
288.138	95.25
288.369	95.25
288.6	99.25
288.831	80.25
289.062	90.25
289.293	75.25
289.524	77.25
289.755	89.25
289.986	91.25
290.217	99.25
290.448	88.25
290.679	85.25
290.91	92.25
291.141	82.25
291.371	89.25
291.602	86.25
291.833	85.25
292.064	82.25
292.295	82.25
292.526	89.25
292.757	93.25
292.987	83.25
293.218	85.25
293.449	87.25
293.68	80.25
293.91	79.25
294.141	94.25
294.372	87.25
294.603	83.25
294.833	85.25
295.064	81.25
295.295	78.25
295.525	80.25
295.756	112.25
295.987	104.25
296.217	106.25
296.448	119.25
296.679	90.25
296.909	91.25
297.14	90.25
297.37	76.25
297.601	91.25
297.831	80.25
298.062	97.25
298.292	96.25
298.523	100.25
298.753	93.25
298.984	89.25
299.214	84.25
299.445	83.25
299.675	101.25
299.905	91.25
300.136	100.25
300.366	88.25
300.597	101.25
300.827	99.25
301.057	103.25
301.288	95.25
301.518	84.25
301.748	73.25
301.979	109.25
302.209	83.25
302.439	95.25
302.669	88.25
302.9	84.25
303.13	81.25
303.36	91.25
303.59	81.25
303.82	105.25
304.051	95.25
304.281	92.25
304.511	92.25
304.741	93.25
304.971	85.25
305.201	93.25
305.431	104.25
305.661	85.25
305.891	98.25
306.121	81.25
306.352	104.25
306.582	104.25
306.812	93.25
307.042	105.25
307.272	116.25
307.502	100.25
307.731	96.25
307.961	89.25
308.191	113.25
308.421	101.25
308.651	89.25
308.881	85.25
309.111	83.25
309.341	89.25
309.571	107.25
309.8	85.25
310.03	102.25
310.26	99.25
310.49	100.25
310.72	102.25
310.949	104.25
311.179	92.25
311.409	85.25
311.639	90.25
311.868	96.25
312.098	71.25
312.328	103.25
312.557	87.25
312.787	93.25
313.017	105.25
313.246	100.25
313.476	96.25
313.706	96.25
313.935	82.25
314.165	99.25
314.394	100.25
314.624	91.25
314.853	87.25
315.083	96.25
315.312	94.25
315.542	76.25
315.771	94.25
316.001	85.25
316.23	84.25
316.46	94.25
316.689	105.25
316.919	80.25
317.148	90.25
317.377	90.25
317.607	93.25
317.836	96.25
318.065	97.25
318.295	92.25
318.524	100.25
318.753	87.25
318.983	84.25
319.212	96.25
319.441	103.25
319.67	99.25
319.9	95.25
320.129	85.25
320.358	82.25
320.587	102.25
320.816	105.25
321.046	98.25
321.275	92.25
321.504	98.25
321.733	90.25
321.962	95.25
322.191	102.25
322.42	100.25
322.649	119.25
322.878	110.25
323.108	110.25
323.337	109.25
323.566	113.25
323.795	136.25
324.024	182.25
324.253	294.25
324.482	653.25
324.71	1296.25
324.939	1730.25
325.168	665.25
325.397	220.25
325.626	133.25
325.855	114.25
326.084	111.25
326.313	138.25
326.542	128.25
326.77	167.25
326.999	372.25
327.228	706.25
327.457	1345.25
327.686	1052.25
327.914	310.25
328.143	196.25
328.372	190.25
328.6	138.25
328.829	128.25
329.058	116.25
329.287	111.25
329.515	95.25
329.744	116.25
329.972	137.25
330.201	226.25
330.43	279.25
330.658	188.25
330.887	138.25
331.115	119.25
331.344	111.25
331.572	90.25
331.801	96.25
332.03	108.25
332.258	96.25
332.486	102.25
332.715	97.25
332.943	99.25
333.172	105.25
333.4	98.25
333.629	107.25
333.857	123.25
334.085	152.25
334.314	224.25
334.542	331.25
334.771	308.25
334.999	134.25
335.227	114.25
335.455	119.25
335.684	92.25
335.912	88.25
336.14	100.25
336.369	98.25
336.597	75.25
336.825	98.25
337.053	101.25
337.281	103.25
337.51	88.25
337.738	94.25
337.966	88.25
338.194	93.25
338.422	94.25
338.65	96.25
338.878	91.25
339.106	88.25
339.334	88.25
339.562	100.25
339.79	92.25
340.018	83.25
340.246	97.25
340.474	100.25
340.702	100.25
340.93	92.25
341.158	100.25
341.386	90.25
341.614	92.25
341.842	82.25
342.07	90.25
342.298	97.25
342.526	87.25
342.754	87.25
342.981	93.25
343.209	88.25
343.437	100.25
343.665	88.25
343.893	86.25
344.12	97.25
344.348	89.25
344.576	91.25
344.804	81.25
345.031	89.25
345.259	93.25
345.487	106.25
345.714	85.25
345.942	77.25
346.17	75.25
346.397	83.25
346.625	96.25
346.853	83.25
347.08	96.25
347.308	97.25
347.535	94.25
347.763	105.25
347.99	90.25
348.218	102.25
348.445	105.25
348.673	98.25
348.9	97.25
349.128	107.25
349.355	99.25
349.583	84.25
349.81	88.25
350.037	88.25
350.265	99.25
350.492	83.25
350.72	90.25
350.947	93.25
351.174	98.25
351.402	95.25
351.629	92.25
351.856	100.25
352.083	119.25
352.311	100.25
352.538	101.25
352.765	110.25
352.992	111.25
353.22	113.25
353.447	103.25
353.674	97.25
353.901	93.25
354.128	90.25
354.355	92.25
354.583	88.25
354.81	118.25
355.037	92.25
355.264	113.25
355.491	94.25
355.718	94.25
355.945	86.25
356.172	99.25
356.399	102.25
356.626	98.25
356.853	95.25
357.08	75.25
357.307	99.25
357.534	106.25
357.761	92.25
357.988	89.25
358.215	84.25
358.441	105.25
358.668	97.25
358.895	93.25
359.122	105.25
359.349	84.25
359.576	88.25
359.802	92.25
360.029	89.25
360.256	112.25
360.483	105.25
360.709	80.25
360.936	101.25
361.163	95.25
361.39	88.25
361.616	80.25
361.843	96.25
362.07	102.25
362.296	88.25
362.523	97.25
362.749	99.25
362.976	90.25
363.203	94.25
363.429	85.25
363.656	72.25
363.882	96.25
364.109	90.25
364.335	88.25
364.562	88.25
364.788	92.25
365.015	86.25
365.241	102.25
365.468	109.25
365.694	100.25
365.92	84.25
366.147	86.25
366.373	94.25
366.599	81.25
366.826	93.25
367.052	88.25
367.278	90.25
367.505	89.25
367.731	89.25
367.957	90.25
368.184	95.25
368.41	100.25
368.636	100.25
368.862	111.25
369.089	106.25
369.315	91.25
369.541	96.25
369.767	91.25
369.993	97.25
370.219	86.25
370.445	78.25
370.672	89.25
370.898	84.25
371.124	96.25
371.35	88.25
371.576	90.25
371.802	77.25
372.028	87.25
372.254	88.25
372.48	86.25
372.706	110.25
372.932	90.25
373.158	96.25
373.384	90.25
373.61	95.25
373.835	97.25
374.061	91.25
374.287	89.25
374.513	86.25
374.739	100.25
374.965	95.25
375.191	84.25
375.416	87.25
375.642	73.25
375.868	98.25
376.094	82.25
376.319	90.25
376.545	100.25
376.771	88.25
376.997	84.25
377.222	107.25
377.448	96.25
377.674	97.25
377.899	87.25
378.125	82.25
378.35	105.25
378.576	86.25
378.802	94.25
379.027	90.25
379.253	98.25
379.478	83.25
379.704	72.25
379.929	102.25
380.155	95.25
380.38	86.25
380.606	95.25
380.831	97.25
381.057	104.25
381.282	85.25
381.507	75.25
381.733	76.25
381.958	97.25
382.184	92.25
382.409	101.25
382.634	101.25
382.86	105.25
383.085	114.25
383.31	126.25
383.535	107.25
383.761	93.25
383.986	109.25
384.211	94.25
384.436	92.25
384.662	102.25
384.887	94.25
385.112	94.25
385.337	102.25
385.562	96.25
385.787	92.25
386.013	110.25
386.238	113.25
386.463	109.25
386.688	98.25
386.913	84.25
387.138	107.25
387.363	111.25
387.588	89.25
387.813	107.25
388.038	101.25
388.263	91.25
388.488	92.25
388.713	100.25
388.938	85.25
389.163	95.25
389.387	99.25
389.612	90.25
389.837	69.25
390.062	98.25
390.287	82.25
390.512	84.25
390.736	94.25
390.961	103.25
391.186	117.25
391.411	104.25
391.636	91.25
391.86	84.25
392.085	94.25
392.31	93.25
392.534	106.25
392.759	74.25
392.984	92.25
393.208	92.25
393.433	90.25
393.658	95.25
393.882	75.25
394.107	91.25
394.331	73.25
394.556	79.25
394.78	88.25
395.005	93.25
395.229	75.25
395.454	95.25
395.678	85.25
395.903	75.25
396.127	89.25
396.352	93.25
396.576	90.25
396.801	80.25
397.025	73.25
397.249	93.25
397.474	100.25
397.698	90.25
397.922	77.25
398.147	72.25
398.371	88.25
398.595	98.25
398.82	101.25
399.044	100.25
399.268	79.25
399.492	81.25
399.717	97.25
399.941	83.25
400.165	84.25
400.389	88.25
400.613	85.25
400.837	86.25
401.062	92.25
401.286	81.25
401.51	85.25
401.734	93.25
401.958	86.25
402.182	105.25
402.406	138.25
402.63	118.25
402.854	80.25
403.078	90.25
403.302	89.25
403.526	88.25
403.75	77.25
403.974	94.25
404.198	88.25
404.422	91.25
404.645	86.25
404.869	95.25
405.093	94.25
405.317	124.25
405.541	90.25
405.765	97.25
405.988	93.25
406.212	128.25
406.436	178.25
406.66	128.25
406.883	105.25
407.107	97.25
407.331	81.25
407.555	94.25
407.778	91.25
408.002	66.25
408.226	97.25
408.449	93.25
408.673	98.25
408.896	116.25
409.12	91.25
409.344	84.25
409.567	91.25
409.791	83.25
410.014	94.25
410.238	85.25
410.461	93.25
410.685	98.25
410.908	97.25
411.132	113.25
411.355	106.25
411.578	73.25
411.802	103.25
412.025	77.25
412.249	101.25
412.472	84.25
412.695	101.25
412.919	96.25
413.142	88.25
413.365	87.25
413.589	82.25
413.812	90.25
414.035	102.25
414.258	87.25
414.482	83.25
414.705	96.25
414.928	109.25
415.151	106.25
415.374	88.25
415.597	73.25
415.821	93.25
416.044	85.25
416.267	98.25
416.49	88.25
416.713	83.25
416.936	97.25
417.159	92.25
417.382	89.25
417.605	81.25
417.828	80.25
418.051	98.25
418.274	76.25
418.497	88.25
418.72	90.25
418.943	96.25
419.166	90.25
419.389	95.25
419.611	101.25
419.834	94.25
420.057	88.25
420.28	88.25
420.503	86.25
420.726	93.25
420.948	101.25
421.171	98.25
421.394	102.25
421.617	90.25
421.839	96.25
422.062	81.25
422.285	83.25
422.507	92.25
422.73	100.25
422.953	100.25
423.175	81.25
423.398	96.25
423.621	86.25
423.843	92.25
424.066	97.25
424.288	88.25
424.511	89.25
424.733	103.25
424.956	115.25
425.178	96.25
425.401	86.25
425.623	82.25
425.846	91.25
426.068	88.25
426.291	82.25
426.513	90.25
426.735	90.25
426.958	93.25
427.18	100.25
427.402	116.25
427.625	145.25
427.847	131.25
428.069	131.25
428.292	101.25
428.514	99.25
428.736	91.25
428.958	86.25
429.181	77.25
429.403	88.25
429.625	83.25
429.847	91.25
430.069	97.25
430.292	87.25
430.514	84.25
430.736	88.25
430.958	93.25
431.18	82.25
431.402	93.25
431.624	89.25
431.846	97.25
432.068	81.25
432.29	97.25
432.512	83.25
432.734	93.25
432.956	96.25
433.178	89.25
433.4	93.25
433.622	93.25
433.844	107.25
434.066	89.25
434.287	77.25
434.509	92.25
434.731	76.25
434.953	94.25
435.175	98.25
435.397	81.25
435.618	89.25
435.84	102.25
436.062	122.25
436.284	102.25
436.505	110.25
436.727	89.25
436.949	98.25
437.17	88.25
437.392	88.25
437.614	94.25
437.835	98.25
438.057	100.25
438.278	107.25
438.5	84.25
438.721	114.25
438.943	103.25
439.165	81.25
439.386	88.25
439.608	97.25
439.829	93.25
440.05	105.25
440.272	119.25
440.493	96.25
440.715	75.25
440.936	93.25
441.158	102.25
441.379	88.25
441.6	85.25
441.822	80.25
442.043	102.25
442.264	99.25
442.486	92.25
442.707	81.25
442.928	102.25
443.149	120.25
443.371	125.25
443.592	105.25
443.813	101.25
444.034	89.25
444.255	98.25
444.476	85.25
444.698	98.25
444.919	96.25
445.14	133.25
445.361	122.25
445.582	110.25
445.803	131.25
446.024	123.25
446.245	134.25
446.466	92.25
446.687	91.25
446.908	79.25
447.129	83.25
447.35	83.25
447.571	106.25
447.792	75.25
448.013	107.25
448.234	98.25
448.455	104.25
448.675	98.25
448.896	105.25
449.117	101.25
449.338	103.25
449.559	127.25
449.779	132.25
450	96.25
450.221	91.25
450.442	94.25
450.662	84.25
450.883	90.25
451.104	86.25
451.324	80.25
451.545	89.25
451.766	96.25
451.986	84.25
452.207	89.25
452.428	102.25
452.648	85.25
452.869	99.25
453.089	103.25
453.31	119.25
453.53	95.25
453.751	86.25
453.971	90.25
454.192	106.25
454.412	105.25
454.633	90.25
454.853	90.25
455.073	95.25
455.294	90.25
455.514	92.25
455.734	100.25
455.955	85.25
456.175	99.25
456.395	89.25
456.616	92.25
456.836	91.25
457.056	77.25
457.276	90.25
457.497	81.25
457.717	91.25
457.937	73.25
458.157	92.25
458.377	98.25
458.598	96.25
458.818	111.25
459.038	136.25
459.258	110.25
459.478	84.25
459.698	104.25
459.918	82.25
460.138	87.25
460.358	90.25
460.578	89.25
460.798	92.25
461.018	82.25
461.238	101.25
461.458	79.25
461.678	86.25
461.898	85.25
462.118	99.25
462.338	81.25
462.558	80.25
462.777	83.25
462.997	94.25
463.217	88.25
463.437	94.25
463.657	85.25
463.876	84.25
464.096	84.25
464.316	89.25
464.536	72.25
464.755	95.25
464.975	104.25
465.195	127.25
465.414	130.25
465.634	105.25
465.854	91.25
466.073	84.25
466.293	85.25
466.512	99.25
466.732	97.25
466.951	102.25
467.171	93.25
467.391	69.25
467.61	89.25
467.829	105.25
468.049	173.25
468.268	196.25
468.488	98.25
468.707	95.25
468.927	97.25
469.146	94.25
469.365	90.25
469.585	91.25
469.804	100.25
470.023	102.25
470.243	107.25
470.462	93.25
470.681	104.25
470.901	86.25
471.12	101.25
471.339	89.25
471.558	96.25
471.777	95.25
471.997	108.25
472.216	251.25
472.435	439.25
472.654	145.25
472.873	94.25
473.092	90.25
473.311	77.25
473.53	85.25
473.749	102.25
473.968	102.25
474.187	103.25
474.406	90.25
474.625	77.25
474.844	94.25
475.063	79.25
475.282	88.25
475.501	98.25
475.72	106.25
475.939	75.25
476.158	99.25
476.377	74.25
476.596	80.25
476.814	86.25
477.033	93.25
477.252	100.25
477.471	88.25
477.69	100.25
477.908	96.25
478.127	92.25
478.346	96.25
478.564	96.25
478.783	104.25
479.002	92.25
479.22	88.25
479.439	86.25
479.658	111.25
479.876	82.25
480.095	79.25
480.313	98.25
480.532	91.25
480.751	128.25
480.969	237.25
481.188	744.25
481.406	457.25
481.624	140.25
481.843	80.25
482.061	106.25
482.28	88.25
482.498	87.25
482.717	76.25
482.935	89.25
483.153	101.25
483.372	93.25
483.59	86.25
483.808	97.25
484.027	88.25
484.245	95.25
484.463	93.25
484.681	98.25
484.9	86.25
485.118	100.25
485.336	90.25
485.554	97.25
485.772	89.25
485.99	100.25
486.209	95.25
486.427	98.25
486.645	118.25
486.863	115.25
487.081	100.25
487.299	103.25
487.517	95.25
487.735	100.25
487.953	93.25
488.171	81.25
488.389	92.25
488.607	97.25
488.825	94.25
489.043	84.25
489.261	93.25
489.479	91.25
489.696	93.25
489.914	75.25
490.132	87.25
490.35	84.25
490.568	90.25
490.786	88.25
491.003	77.25
491.221	98.25
491.439	92.25
491.657	89.25
491.874	95.25
492.092	82.25
492.31	100.25
492.527	84.25
492.745	86.25
492.963	94.25
493.18	89.25
493.398	85.25
493.615	93.25
493.833	97.25
494.05	92.25
494.268	105.25
494.485	83.25
494.703	81.25
494.92	87.25
495.138	96.25
495.355	93.25
495.573	90.25
495.79	92.25
496.008	100.25
496.225	96.25
496.442	74.25
496.66	93.25
496.877	76.25
497.094	80.25
497.312	88.25
497.529	82.25
497.746	84.25
497.963	106.25
498.181	93.25
498.398	93.25
498.615	89.25
498.832	86.25
499.049	81.25
499.267	99.25
499.484	105.25
499.701	90.25
499.918	85.25
500.135	102.25
500.352	101.25
500.569	83.25
500.786	102.25
501.003	76.25
501.22	94.25
501.437	82.25
501.654	77.25
501.871	84.25
502.088	88.25
502.305	92.25
502.522	81.25
502.739	84.25
502.956	84.25
503.172	91.25
503.389	103.25
503.606	107.25
503.823	92.25
504.04	90.25
504.256	94.25
504.473	72.25
504.69	90.25
504.907	76.25
505.123	102.25
505.34	92.25
505.557	85.25
505.773	84.25
505.99	85.25
506.207	86.25
506.423	73.25
506.64	77.25
506.856	98.25
507.073	93.25
507.289	82.25
507.506	82.25
507.722	109.25
507.939	96.25
508.155	96.25
508.372	106.25
508.588	102.25
508.805	80.25
509.021	96.25
509.238	100.25
509.454	97.25
509.67	100.25
509.887	105.25
510.103	128.25
510.319	164.25
510.536	578.25
510.752	1768.25
510.968	503.25
511.184	138.25
511.401	103.25
511.617	87.25
511.833	98.25
512.049	93.25
512.265	98.25
512.481	96.25
512.698	101.25
512.914	90.25
513.13	99.25
513.346	88.25
513.562	81.25
513.778	95.25
513.994	80.25
514.21	84.25
514.426	105.25
514.642	118.25
514.858	110.25
515.074	124.25
515.29	337.25
515.506	1037.25
515.721	407.25
