Data from Circ_1984_H10_HRD10591_00074.txt Node
Date: Wed Jan 03 12:22:56 EST 2024
User: Yrep
Spectrometer: HR+D1059
Trigger mode: 1
Integration Time (sec): 1.000000E-1
Scans to average: 1
Electric dark correction enabled: true
Nonlinearity correction enabled: false
Boxcar width: 0
XAxis mode: Wavelengths
Number of Pixels in Spectrum: 2048
>>>>>Begin Spectral Data<<<<<
223.165	-18.94
223.4	-18.94
223.635	-18.94
223.869	-6.94
224.104	-18.94
224.338	-6.94
224.573	-8.94
224.808	-27.94
225.042	-6.94
225.277	3.06
225.511	-5.94
225.746	5.06
225.98	-6.94
226.215	16.06
226.449	16.06
226.683	21.06
226.918	22.06
227.152	25.06
227.387	43.06
227.621	41.06
227.856	51.06
228.09	50.06
228.324	53.06
228.559	65.06
228.793	50.06
229.027	72.06
229.262	82.06
229.496	65.06
229.73	85.06
229.964	77.06
230.199	76.06
230.433	67.06
230.667	80.06
230.901	75.06
231.136	94.06
231.37	78.06
231.604	83.06
231.838	81.06
232.072	73.06
232.306	81.06
232.541	72.06
232.775	76.06
233.009	73.06
233.243	77.06
233.477	84.06
233.711	71.06
233.945	72.06
234.179	75.06
234.413	81.06
234.647	77.06
234.881	80.06
235.115	79.06
235.349	83.06
235.583	78.06
235.817	78.06
236.051	67.06
236.285	73.06
236.519	80.06
236.753	88.06
236.987	77.06
237.221	74.06
237.455	76.06
237.689	88.06
237.922	88.06
238.156	64.06
238.39	83.06
238.624	56.06
238.858	73.06
239.091	77.06
239.325	81.06
239.559	82.06
239.793	81.06
240.027	84.06
240.26	56.06
240.494	68.06
240.728	78.06
240.961	73.06
241.195	85.06
241.429	75.06
241.662	65.06
241.896	62.06
242.13	71.06
242.363	72.06
242.597	68.06
242.83	81.06
243.064	67.06
243.298	70.06
243.531	71.06
243.765	72.06
243.998	88.06
244.232	75.06
244.465	77.06
244.699	88.06
244.932	63.06
245.166	87.06
245.399	71.06
245.633	77.06
245.866	63.06
246.099	75.06
246.333	60.06
246.566	79.06
246.8	64.06
247.033	85.06
247.266	63.06
247.5	75.06
247.733	73.06
247.966	81.06
248.2	91.06
248.433	95.06
248.666	81.06
248.899	71.06
249.133	84.06
249.366	86.06
249.599	91.06
249.832	71.06
250.066	74.06
250.299	81.06
250.532	77.06
250.765	80.06
250.998	81.06
251.231	69.06
251.465	69.06
251.698	79.06
251.931	71.06
252.164	77.06
252.397	85.06
252.63	71.06
252.863	75.06
253.096	84.06
253.329	77.06
253.562	84.06
253.795	89.06
254.028	65.06
254.261	72.06
254.494	76.06
254.727	76.06
254.96	73.06
255.193	75.06
255.426	77.06
255.659	68.06
255.892	77.06
256.124	81.06
256.357	84.06
256.59	75.06
256.823	85.06
257.056	75.06
257.289	77.06
257.521	71.06
257.754	86.06
257.987	93.06
258.22	87.06
258.452	86.06
258.685	69.06
258.918	87.06
259.151	75.06
259.383	80.06
259.616	72.06
259.849	67.06
260.081	76.06
260.314	87.06
260.547	93.06
260.779	81.06
261.012	93.06
261.244	65.06
261.477	85.06
261.71	94.06
261.942	107.06
262.175	102.06
262.407	104.06
262.64	81.06
262.872	70.06
263.105	68.06
263.337	61.06
263.57	68.06
263.802	79.06
264.035	81.06
264.267	75.06
264.499	85.06
264.732	82.06
264.964	77.06
265.197	91.06
265.429	89.06
265.661	94.06
265.894	79.06
266.126	91.06
266.358	83.06
266.591	66.06
266.823	69.06
267.055	78.06
267.287	85.06
267.52	70.06
267.752	91.06
267.984	89.06
268.216	83.06
268.448	71.06
268.681	75.06
268.913	85.06
269.145	83.06
269.377	71.06
269.609	81.06
269.841	96.06
270.073	75.06
270.306	78.06
270.538	75.06
270.77	71.06
271.002	79.06
271.234	84.06
271.466	87.06
271.698	84.06
271.93	76.06
272.162	70.06
272.394	80.06
272.626	62.06
272.858	73.06
273.09	81.06
273.322	73.06
273.553	77.06
273.785	97.06
274.017	75.06
274.249	75.06
274.481	84.06
274.713	73.06
274.945	80.06
275.176	73.06
275.408	71.06
275.64	90.06
275.872	79.06
276.104	80.06
276.335	87.06
276.567	86.06
276.799	122.06
277.031	93.06
277.262	95.06
277.494	93.06
277.726	93.06
277.957	84.06
278.189	81.06
278.421	75.06
278.652	91.06
278.884	90.06
279.115	83.06
279.347	94.06
279.579	61.06
279.81	88.06
280.042	83.06
280.273	88.06
280.505	77.06
280.736	75.06
280.968	83.06
281.199	92.06
281.431	77.06
281.662	88.06
281.894	88.06
282.125	90.06
282.356	96.06
282.588	132.06
282.819	101.06
283.051	94.06
283.282	89.06
283.513	77.06
283.745	90.06
283.976	84.06
284.207	90.06
284.439	79.06
284.67	79.06
284.901	89.06
285.132	79.06
285.364	92.06
285.595	87.06
285.826	77.06
286.057	86.06
286.288	65.06
286.52	82.06
286.751	77.06
286.982	83.06
287.213	87.06
287.444	93.06
287.675	83.06
287.906	84.06
288.138	91.06
288.369	79.06
288.6	87.06
288.831	94.06
289.062	90.06
289.293	76.06
289.524	95.06
289.755	81.06
289.986	95.06
290.217	87.06
290.448	72.06
290.679	90.06
290.91	81.06
291.141	77.06
291.371	76.06
291.602	88.06
291.833	85.06
292.064	83.06
292.295	88.06
292.526	81.06
292.757	89.06
292.987	95.06
293.218	88.06
293.449	93.06
293.68	85.06
293.91	88.06
294.141	83.06
294.372	87.06
294.603	96.06
294.833	89.06
295.064	86.06
295.295	73.06
295.525	91.06
295.756	90.06
295.987	110.06
296.217	123.06
296.448	110.06
296.679	97.06
296.909	85.06
297.14	89.06
297.37	88.06
297.601	75.06
297.831	80.06
298.062	77.06
298.292	80.06
298.523	91.06
298.753	79.06
298.984	86.06
299.214	87.06
299.445	84.06
299.675	95.06
299.905	101.06
300.136	86.06
300.366	92.06
300.597	84.06
300.827	101.06
301.057	93.06
301.288	93.06
301.518	100.06
301.748	86.06
301.979	82.06
302.209	76.06
302.439	81.06
302.669	88.06
302.9	89.06
303.13	87.06
303.36	98.06
303.59	86.06
303.82	101.06
304.051	84.06
304.281	81.06
304.511	95.06
304.741	91.06
304.971	79.06
305.201	95.06
305.431	85.06
305.661	82.06
305.891	88.06
306.121	79.06
306.352	91.06
306.582	93.06
306.812	78.06
307.042	96.06
307.272	107.06
307.502	111.06
307.731	104.06
307.961	99.06
308.191	85.06
308.421	91.06
308.651	98.06
308.881	85.06
309.111	88.06
309.341	89.06
309.571	105.06
309.8	85.06
310.03	106.06
310.26	79.06
310.49	91.06
310.72	85.06
310.949	95.06
311.179	90.06
311.409	79.06
311.639	71.06
311.868	91.06
312.098	84.06
312.328	87.06
312.557	92.06
312.787	101.06
313.017	94.06
313.246	88.06
313.476	90.06
313.706	94.06
313.935	93.06
314.165	102.06
314.394	99.06
314.624	82.06
314.853	99.06
315.083	90.06
315.312	87.06
315.542	75.06
315.771	86.06
316.001	83.06
316.23	89.06
316.46	82.06
316.689	95.06
316.919	88.06
317.148	85.06
317.377	94.06
317.607	86.06
317.836	105.06
318.065	99.06
318.295	92.06
318.524	77.06
318.753	80.06
318.983	90.06
319.212	88.06
319.441	100.06
319.67	104.06
319.9	79.06
320.129	75.06
320.358	77.06
320.587	91.06
320.816	93.06
321.046	100.06
321.275	93.06
321.504	85.06
321.733	102.06
321.962	85.06
322.191	94.06
322.42	100.06
322.649	91.06
322.878	104.06
323.108	101.06
323.337	130.06
323.566	116.06
323.795	130.06
324.024	173.06
324.253	322.06
324.482	651.06
324.71	1351.06
324.939	1747.06
325.168	636.06
325.397	188.06
325.626	132.06
325.855	110.06
326.084	112.06
326.313	116.06
326.542	143.06
326.77	199.06
326.999	372.06
327.228	749.06
327.457	1344.06
327.686	1069.06
327.914	326.06
328.143	187.06
328.372	192.06
328.6	137.06
328.829	108.06
329.058	117.06
329.287	118.06
329.515	112.06
329.744	111.06
329.972	137.06
330.201	219.06
330.43	278.06
330.658	181.06
330.887	139.06
331.115	114.06
331.344	99.06
331.572	100.06
331.801	108.06
332.03	91.06
332.258	109.06
332.486	88.06
332.715	83.06
332.943	82.06
333.172	103.06
333.4	93.06
333.629	110.06
333.857	126.06
334.085	135.06
334.314	219.06
334.542	347.06
334.771	340.06
334.999	135.06
335.227	115.06
335.455	99.06
335.684	94.06
335.912	100.06
336.14	88.06
336.369	87.06
336.597	94.06
336.825	80.06
337.053	93.06
337.281	97.06
337.51	89.06
337.738	98.06
337.966	91.06
338.194	83.06
338.422	87.06
338.65	91.06
338.878	84.06
339.106	95.06
339.334	96.06
339.562	88.06
339.79	92.06
340.018	76.06
340.246	96.06
340.474	92.06
340.702	100.06
340.93	88.06
341.158	101.06
341.386	91.06
341.614	103.06
341.842	92.06
342.07	83.06
342.298	62.06
342.526	82.06
342.754	84.06
342.981	78.06
343.209	79.06
343.437	100.06
343.665	89.06
343.893	86.06
344.12	89.06
344.348	77.06
344.576	90.06
344.804	84.06
345.031	76.06
345.259	90.06
345.487	97.06
345.714	100.06
345.942	83.06
346.17	84.06
346.397	74.06
346.625	94.06
346.853	97.06
347.08	89.06
347.308	80.06
347.535	84.06
347.763	85.06
347.99	93.06
348.218	99.06
348.445	94.06
348.673	111.06
348.9	86.06
349.128	103.06
349.355	82.06
349.583	86.06
349.81	94.06
350.037	77.06
350.265	95.06
350.492	95.06
350.72	95.06
350.947	94.06
351.174	94.06
351.402	110.06
351.629	93.06
351.856	81.06
352.083	87.06
352.311	87.06
352.538	99.06
352.765	88.06
352.992	112.06
353.22	100.06
353.447	91.06
353.674	96.06
353.901	80.06
354.128	87.06
354.355	110.06
354.583	96.06
354.81	92.06
355.037	84.06
355.264	98.06
355.491	75.06
355.718	93.06
355.945	104.06
356.172	93.06
356.399	98.06
356.626	76.06
356.853	100.06
357.08	97.06
357.307	82.06
357.534	97.06
357.761	81.06
357.988	92.06
358.215	103.06
358.441	80.06
358.668	93.06
358.895	102.06
359.122	78.06
359.349	78.06
359.576	88.06
359.802	92.06
360.029	89.06
360.256	124.06
360.483	92.06
360.709	83.06
360.936	83.06
361.163	91.06
361.39	97.06
361.616	78.06
361.843	92.06
362.07	85.06
362.296	101.06
362.523	96.06
362.749	85.06
362.976	85.06
363.203	100.06
363.429	100.06
363.656	89.06
363.882	87.06
364.109	99.06
364.335	87.06
364.562	79.06
364.788	85.06
365.015	72.06
365.241	97.06
365.468	93.06
365.694	91.06
365.92	90.06
366.147	85.06
366.373	79.06
366.599	81.06
366.826	93.06
367.052	75.06
367.278	82.06
367.505	77.06
367.731	84.06
367.957	81.06
368.184	99.06
368.41	99.06
368.636	104.06
368.862	102.06
369.089	101.06
369.315	88.06
369.541	92.06
369.767	83.06
369.993	102.06
370.219	86.06
370.445	84.06
370.672	77.06
370.898	91.06
371.124	86.06
371.35	91.06
371.576	96.06
371.802	76.06
372.028	84.06
372.254	66.06
372.48	66.06
372.706	79.06
372.932	79.06
373.158	85.06
373.384	90.06
373.61	77.06
373.835	75.06
374.061	80.06
374.287	83.06
374.513	85.06
374.739	75.06
374.965	87.06
375.191	96.06
375.416	96.06
375.642	92.06
375.868	79.06
376.094	90.06
376.319	82.06
376.545	80.06
376.771	66.06
376.997	75.06
377.222	86.06
377.448	91.06
377.674	85.06
377.899	80.06
378.125	86.06
378.35	82.06
378.576	86.06
378.802	92.06
379.027	90.06
379.253	75.06
379.478	91.06
379.704	71.06
379.929	88.06
380.155	89.06
380.38	87.06
380.606	98.06
380.831	79.06
381.057	83.06
381.282	87.06
381.507	82.06
381.733	93.06
381.958	88.06
382.184	91.06
382.409	81.06
382.634	86.06
382.86	104.06
383.085	100.06
383.31	77.06
383.535	95.06
383.761	86.06
383.986	94.06
384.211	94.06
384.436	91.06
384.662	100.06
384.887	87.06
385.112	83.06
385.337	97.06
385.562	99.06
385.787	84.06
386.013	88.06
386.238	106.06
386.463	87.06
386.688	103.06
386.913	92.06
387.138	94.06
387.363	91.06
387.588	89.06
387.813	84.06
388.038	86.06
388.263	87.06
388.488	87.06
388.713	87.06
388.938	95.06
389.163	92.06
389.387	84.06
389.612	87.06
389.837	87.06
390.062	85.06
390.287	86.06
390.512	81.06
390.736	81.06
390.961	87.06
391.186	90.06
391.411	88.06
391.636	75.06
391.86	73.06
392.085	98.06
392.31	77.06
392.534	70.06
392.759	87.06
392.984	95.06
393.208	79.06
393.433	92.06
393.658	72.06
393.882	79.06
394.107	79.06
394.331	66.06
394.556	89.06
394.78	91.06
395.005	87.06
395.229	80.06
395.454	94.06
395.678	71.06
395.903	82.06
396.127	100.06
396.352	82.06
396.576	88.06
396.801	81.06
397.025	87.06
397.249	86.06
397.474	75.06
397.698	77.06
397.922	91.06
398.147	64.06
398.371	84.06
398.595	94.06
398.82	66.06
399.044	80.06
399.268	91.06
399.492	85.06
399.717	87.06
399.941	85.06
400.165	93.06
400.389	75.06
400.613	80.06
400.837	84.06
401.062	86.06
401.286	85.06
401.51	91.06
401.734	83.06
401.958	83.06
402.182	114.06
402.406	145.06
402.63	113.06
402.854	100.06
403.078	86.06
403.302	85.06
403.526	78.06
403.75	80.06
403.974	79.06
404.198	68.06
404.422	87.06
404.645	70.06
404.869	93.06
405.093	95.06
405.317	97.06
405.541	79.06
405.765	86.06
405.988	96.06
406.212	143.06
406.436	186.06
406.66	116.06
406.883	105.06
407.107	85.06
407.331	81.06
407.555	97.06
407.778	95.06
408.002	61.06
408.226	78.06
408.449	89.06
408.673	84.06
408.896	79.06
409.12	100.06
409.344	82.06
409.567	85.06
409.791	94.06
410.014	82.06
410.238	81.06
410.461	81.06
410.685	85.06
410.908	86.06
411.132	91.06
411.355	91.06
411.578	94.06
411.802	96.06
412.025	80.06
412.249	84.06
412.472	70.06
412.695	90.06
412.919	97.06
413.142	83.06
413.365	88.06
413.589	72.06
413.812	84.06
414.035	75.06
414.258	86.06
414.482	78.06
414.705	81.06
414.928	85.06
415.151	101.06
415.374	90.06
415.597	93.06
415.821	97.06
416.044	85.06
416.267	90.06
416.49	89.06
416.713	77.06
416.936	92.06
417.159	81.06
417.382	84.06
417.605	75.06
417.828	91.06
418.051	93.06
418.274	85.06
418.497	87.06
418.72	89.06
418.943	80.06
419.166	94.06
419.389	93.06
419.611	94.06
419.834	86.06
420.057	76.06
420.28	98.06
420.503	80.06
420.726	92.06
420.948	77.06
421.171	84.06
421.394	81.06
421.617	85.06
421.839	89.06
422.062	78.06
422.285	87.06
422.507	91.06
422.73	96.06
422.953	92.06
423.175	91.06
423.398	71.06
423.621	69.06
423.843	91.06
424.066	79.06
424.288	74.06
424.511	100.06
424.733	95.06
424.956	100.06
425.178	107.06
425.401	94.06
425.623	88.06
425.846	89.06
426.068	87.06
426.291	88.06
426.513	80.06
426.735	81.06
426.958	87.06
427.18	88.06
427.402	113.06
427.625	139.06
427.847	128.06
428.069	123.06
428.292	92.06
428.514	91.06
428.736	84.06
428.958	85.06
429.181	74.06
429.403	83.06
429.625	62.06
429.847	79.06
430.069	87.06
430.292	94.06
430.514	84.06
430.736	80.06
430.958	72.06
431.18	77.06
431.402	80.06
431.624	76.06
431.846	81.06
432.068	93.06
432.29	79.06
432.512	82.06
432.734	82.06
432.956	88.06
433.178	87.06
433.4	93.06
433.622	86.06
433.844	75.06
434.066	90.06
434.287	86.06
434.509	80.06
434.731	80.06
434.953	81.06
435.175	92.06
435.397	83.06
435.618	71.06
435.84	97.06
436.062	104.06
436.284	96.06
436.505	94.06
436.727	98.06
436.949	88.06
437.17	68.06
437.392	67.06
437.614	83.06
437.835	95.06
438.057	97.06
438.278	100.06
438.5	93.06
438.721	105.06
438.943	112.06
439.165	83.06
439.386	88.06
439.608	78.06
439.829	93.06
440.05	104.06
440.272	119.06
440.493	79.06
440.715	84.06
440.936	75.06
441.158	95.06
441.379	84.06
441.6	81.06
441.822	92.06
442.043	78.06
442.264	88.06
442.486	97.06
442.707	73.06
442.928	87.06
443.149	122.06
443.371	117.06
443.592	90.06
443.813	112.06
444.034	108.06
444.255	86.06
444.476	75.06
444.698	86.06
444.919	88.06
445.14	119.06
445.361	116.06
445.582	113.06
445.803	132.06
446.024	108.06
446.245	141.06
446.466	97.06
446.687	96.06
446.908	88.06
447.129	81.06
447.35	87.06
447.571	89.06
447.792	97.06
448.013	103.06
448.234	100.06
448.455	95.06
448.675	102.06
448.896	103.06
449.117	81.06
449.338	87.06
449.559	103.06
449.779	107.06
450	85.06
450.221	91.06
450.442	91.06
450.662	99.06
450.883	99.06
451.104	83.06
451.324	86.06
451.545	83.06
451.766	79.06
451.986	79.06
452.207	83.06
452.428	87.06
452.648	76.06
452.869	89.06
453.089	96.06
453.31	109.06
453.53	83.06
453.751	72.06
453.971	97.06
454.192	111.06
454.412	86.06
454.633	87.06
454.853	93.06
455.073	73.06
455.294	86.06
455.514	91.06
455.734	76.06
455.955	79.06
456.175	85.06
456.395	73.06
456.616	64.06
456.836	80.06
457.056	87.06
457.276	96.06
457.497	83.06
457.717	87.06
457.937	77.06
458.157	87.06
458.377	81.06
458.598	100.06
458.818	139.06
459.038	125.06
459.258	102.06
459.478	96.06
459.698	79.06
459.918	78.06
460.138	69.06
460.358	63.06
460.578	73.06
460.798	85.06
461.018	90.06
461.238	80.06
461.458	78.06
461.678	79.06
461.898	80.06
462.118	95.06
462.338	82.06
462.558	93.06
462.777	89.06
462.997	88.06
463.217	80.06
463.437	84.06
463.657	81.06
463.876	86.06
464.096	77.06
464.316	67.06
464.536	91.06
464.755	95.06
464.975	94.06
465.195	148.06
465.414	149.06
465.634	101.06
465.854	70.06
466.073	84.06
466.293	73.06
466.512	69.06
466.732	77.06
466.951	90.06
467.171	99.06
467.391	83.06
467.61	82.06
467.829	124.06
468.049	155.06
468.268	189.06
468.488	101.06
468.707	82.06
468.927	64.06
469.146	85.06
469.365	100.06
469.585	79.06
469.804	77.06
470.023	91.06
470.243	95.06
470.462	83.06
470.681	93.06
470.901	89.06
471.12	95.06
471.339	84.06
471.558	77.06
471.777	88.06
471.997	109.06
472.216	242.06
472.435	459.06
472.654	162.06
472.873	87.06
473.092	77.06
473.311	83.06
473.53	92.06
473.749	78.06
473.968	89.06
474.187	101.06
474.406	95.06
474.625	75.06
474.844	107.06
475.063	80.06
475.282	77.06
475.501	86.06
475.72	93.06
475.939	88.06
476.158	78.06
476.377	90.06
476.596	82.06
476.814	95.06
477.033	67.06
477.252	94.06
477.471	78.06
477.69	90.06
477.908	85.06
478.127	92.06
478.346	75.06
478.564	88.06
478.783	91.06
479.002	87.06
479.22	81.06
479.439	95.06
479.658	101.06
479.876	80.06
480.095	91.06
480.313	89.06
480.532	88.06
480.751	110.06
480.969	245.06
481.188	781.06
481.406	465.06
481.624	130.06
481.843	85.06
482.061	72.06
482.28	79.06
482.498	80.06
482.717	93.06
482.935	71.06
483.153	86.06
483.372	89.06
483.59	80.06
483.808	88.06
484.027	85.06
484.245	95.06
484.463	83.06
484.681	78.06
484.9	102.06
485.118	96.06
485.336	89.06
485.554	88.06
485.772	81.06
485.99	100.06
486.209	85.06
486.427	97.06
486.645	108.06
486.863	95.06
487.081	96.06
487.299	98.06
487.517	87.06
487.735	89.06
487.953	85.06
488.171	92.06
488.389	86.06
488.607	97.06
488.825	80.06
489.043	83.06
489.261	84.06
489.479	76.06
489.696	74.06
489.914	79.06
490.132	85.06
490.35	97.06
490.568	86.06
490.786	74.06
491.003	79.06
491.221	81.06
491.439	79.06
491.657	89.06
491.874	77.06
492.092	84.06
492.31	84.06
492.527	79.06
492.745	91.06
492.963	89.06
493.18	82.06
493.398	83.06
493.615	73.06
493.833	80.06
494.05	77.06
494.268	76.06
494.485	83.06
494.703	94.06
494.92	73.06
495.138	87.06
495.355	104.06
495.573	80.06
495.79	82.06
496.008	77.06
496.225	81.06
496.442	77.06
496.66	99.06
496.877	86.06
497.094	89.06
497.312	78.06
497.529	75.06
497.746	88.06
497.963	84.06
498.181	103.06
498.398	89.06
498.615	100.06
498.832	98.06
499.049	89.06
499.267	84.06
499.484	81.06
499.701	83.06
499.918	90.06
500.135	85.06
500.352	88.06
500.569	92.06
500.786	77.06
501.003	102.06
501.22	73.06
501.437	88.06
501.654	104.06
501.871	90.06
502.088	82.06
502.305	87.06
502.522	84.06
502.739	87.06
502.956	77.06
503.172	88.06
503.389	88.06
503.606	96.06
503.823	96.06
504.04	80.06
504.256	83.06
504.473	89.06
504.69	82.06
504.907	85.06
505.123	90.06
505.34	80.06
505.557	84.06
505.773	94.06
505.99	72.06
506.207	89.06
506.423	84.06
506.64	72.06
506.856	70.06
507.073	98.06
507.289	88.06
507.506	107.06
507.722	109.06
507.939	92.06
508.155	87.06
508.372	93.06
508.588	83.06
508.805	93.06
509.021	96.06
509.238	96.06
509.454	99.06
509.67	99.06
509.887	105.06
510.103	125.06
510.319	184.06
510.536	623.06
510.752	2003.06
510.968	546.06
511.184	133.06
511.401	104.06
511.617	87.06
511.833	91.06
512.049	91.06
512.265	86.06
512.481	96.06
512.698	79.06
512.914	107.06
513.13	100.06
513.346	89.06
513.562	77.06
513.778	84.06
513.994	88.06
514.21	96.06
514.426	112.06
514.642	111.06
514.858	94.06
515.074	135.06
515.29	368.06
515.506	1198.06
515.721	437.06
515.937	137.06
516.153	100.06
516.369	103.06
516.585	95.06
516.801	81.06
517.016	87.06
517.232	87.06
