Data from Circ_1984_H10_HRD10591_00020.txt Node
Date: Wed Jan 03 12:22:46 EST 2024
User: Yrep
Spectrometer: HR+D1059
Trigger mode: 1
Integration Time (sec): 1.000000E-1
Scans to average: 1
Electric dark correction enabled: true
Nonlinearity correction enabled: false
Boxcar width: 0
XAxis mode: Wavelengths
Number of Pixels in Spectrum: 2048
>>>>>Begin Spectral Data<<<<<
223.165	-4.62
223.4	-4.62
223.635	-4.62
223.869	-27.62
224.104	-10.62
224.338	-1.62
224.573	-7.62
224.808	-9.62
225.042	-16.62
225.277	-25.62
225.511	1.38
225.746	10.38
225.98	2.38
226.215	5.38
226.449	-3.62
226.683	22.38
226.918	26.38
227.152	39.38
227.387	36.38
227.621	42.38
227.856	62.38
228.09	50.38
228.324	42.38
228.559	63.38
228.793	60.38
229.027	59.38
229.262	61.38
229.496	77.38
229.73	70.38
229.964	79.38
230.199	61.38
230.433	58.38
230.667	83.38
230.901	73.38
231.136	68.38
231.37	77.38
231.604	70.38
231.838	77.38
232.072	76.38
232.306	69.38
232.541	76.38
232.775	77.38
233.009	82.38
233.243	64.38
233.477	75.38
233.711	91.38
233.945	96.38
234.179	89.38
234.413	84.38
234.647	97.38
234.881	71.38
235.115	83.38
235.349	62.38
235.583	90.38
235.817	82.38
236.051	78.38
236.285	86.38
236.519	72.38
236.753	79.38
236.987	55.38
237.221	101.38
237.455	80.38
237.689	85.38
237.922	72.38
238.156	73.38
238.39	70.38
238.624	86.38
238.858	73.38
239.091	72.38
239.325	80.38
239.559	86.38
239.793	69.38
240.027	89.38
240.26	92.38
240.494	69.38
240.728	70.38
240.961	90.38
241.195	65.38
241.429	92.38
241.662	94.38
241.896	73.38
242.13	60.38
242.363	77.38
242.597	74.38
242.83	85.38
243.064	69.38
243.298	72.38
243.531	86.38
243.765	85.38
243.998	77.38
244.232	84.38
244.465	86.38
244.699	79.38
244.932	80.38
245.166	69.38
245.399	72.38
245.633	94.38
245.866	83.38
246.099	70.38
246.333	86.38
246.566	81.38
246.8	75.38
247.033	70.38
247.266	69.38
247.5	73.38
247.733	81.38
247.966	101.38
248.2	90.38
248.433	87.38
248.666	86.38
248.899	85.38
249.133	85.38
249.366	100.38
249.599	89.38
249.832	81.38
250.066	81.38
250.299	89.38
250.532	93.38
250.765	87.38
250.998	85.38
251.231	72.38
251.465	84.38
251.698	70.38
251.931	84.38
252.164	82.38
252.397	84.38
252.63	87.38
252.863	70.38
253.096	81.38
253.329	77.38
253.562	87.38
253.795	69.38
254.028	96.38
254.261	83.38
254.494	83.38
254.727	76.38
254.96	86.38
255.193	68.38
255.426	70.38
255.659	71.38
255.892	74.38
256.124	78.38
256.357	97.38
256.59	90.38
256.823	82.38
257.056	88.38
257.289	89.38
257.521	72.38
257.754	87.38
257.987	82.38
258.22	78.38
258.452	77.38
258.685	73.38
258.918	84.38
259.151	94.38
259.383	67.38
259.616	87.38
259.849	84.38
260.081	77.38
260.314	80.38
260.547	85.38
260.779	79.38
261.012	70.38
261.244	88.38
261.477	82.38
261.71	105.38
261.942	102.38
262.175	101.38
262.407	86.38
262.64	85.38
262.872	65.38
263.105	89.38
263.337	70.38
263.57	89.38
263.802	92.38
264.035	67.38
264.267	77.38
264.499	85.38
264.732	97.38
264.964	90.38
265.197	95.38
265.429	83.38
265.661	74.38
265.894	82.38
266.126	94.38
266.358	93.38
266.591	81.38
266.823	80.38
267.055	82.38
267.287	82.38
267.52	88.38
267.752	85.38
267.984	82.38
268.216	96.38
268.448	75.38
268.681	95.38
268.913	89.38
269.145	74.38
269.377	67.38
269.609	87.38
269.841	80.38
270.073	75.38
270.306	87.38
270.538	91.38
270.77	90.38
271.002	90.38
271.234	96.38
271.466	80.38
271.698	66.38
271.93	78.38
272.162	89.38
272.394	88.38
272.626	85.38
272.858	69.38
273.09	93.38
273.322	90.38
273.553	98.38
273.785	101.38
274.017	96.38
274.249	91.38
274.481	90.38
274.713	85.38
274.945	93.38
275.176	81.38
275.408	81.38
275.64	93.38
275.872	82.38
276.104	110.38
276.335	82.38
276.567	97.38
276.799	99.38
277.031	93.38
277.262	90.38
277.494	85.38
277.726	85.38
277.957	85.38
278.189	77.38
278.421	75.38
278.652	98.38
278.884	92.38
279.115	86.38
279.347	74.38
279.579	93.38
279.81	87.38
280.042	77.38
280.273	102.38
280.505	90.38
280.736	85.38
280.968	96.38
281.199	84.38
281.431	78.38
281.662	89.38
281.894	89.38
282.125	95.38
282.356	117.38
282.588	136.38
282.819	122.38
283.051	88.38
283.282	98.38
283.513	95.38
283.745	85.38
283.976	94.38
284.207	86.38
284.439	76.38
284.67	83.38
284.901	80.38
285.132	97.38
285.364	78.38
285.595	84.38
285.826	90.38
286.057	82.38
286.288	74.38
286.52	90.38
286.751	75.38
286.982	94.38
287.213	90.38
287.444	86.38
287.675	91.38
287.906	87.38
288.138	84.38
288.369	107.38
288.6	99.38
288.831	89.38
289.062	93.38
289.293	97.38
289.524	99.38
289.755	85.38
289.986	90.38
290.217	81.38
290.448	89.38
290.679	86.38
290.91	64.38
291.141	82.38
291.371	92.38
291.602	98.38
291.833	82.38
292.064	86.38
292.295	91.38
292.526	84.38
292.757	94.38
292.987	91.38
293.218	81.38
293.449	89.38
293.68	102.38
293.91	92.38
294.141	94.38
294.372	93.38
294.603	82.38
294.833	92.38
295.064	93.38
295.295	103.38
295.525	97.38
295.756	90.38
295.987	116.38
296.217	153.38
296.448	104.38
296.679	103.38
296.909	91.38
297.14	100.38
297.37	92.38
297.601	96.38
297.831	88.38
298.062	90.38
298.292	84.38
298.523	98.38
298.753	85.38
298.984	81.38
299.214	61.38
299.445	92.38
299.675	76.38
299.905	94.38
300.136	77.38
300.366	81.38
300.597	98.38
300.827	95.38
301.057	107.38
301.288	77.38
301.518	83.38
301.748	74.38
301.979	107.38
302.209	105.38
302.439	93.38
302.669	70.38
302.9	94.38
303.13	86.38
303.36	99.38
303.59	92.38
303.82	110.38
304.051	98.38
304.281	91.38
304.511	100.38
304.741	96.38
304.971	70.38
305.201	109.38
305.431	96.38
305.661	91.38
305.891	84.38
306.121	95.38
306.352	85.38
306.582	88.38
306.812	105.38
307.042	89.38
307.272	98.38
307.502	108.38
307.731	94.38
307.961	88.38
308.191	83.38
308.421	95.38
308.651	91.38
308.881	89.38
309.111	89.38
309.341	102.38
309.571	94.38
309.8	83.38
310.03	88.38
310.26	103.38
310.49	92.38
310.72	82.38
310.949	111.38
311.179	89.38
311.409	101.38
311.639	77.38
311.868	102.38
312.098	81.38
312.328	100.38
312.557	89.38
312.787	92.38
313.017	102.38
313.246	98.38
313.476	90.38
313.706	100.38
313.935	94.38
314.165	94.38
314.394	109.38
314.624	91.38
314.853	98.38
315.083	92.38
315.312	102.38
315.542	91.38
315.771	96.38
316.001	97.38
316.23	102.38
316.46	101.38
316.689	91.38
316.919	96.38
317.148	110.38
317.377	91.38
317.607	103.38
317.836	98.38
318.065	90.38
318.295	106.38
318.524	100.38
318.753	75.38
318.983	98.38
319.212	110.38
319.441	104.38
319.67	89.38
319.9	96.38
320.129	102.38
320.358	83.38
320.587	99.38
320.816	100.38
321.046	96.38
321.275	100.38
321.504	92.38
321.733	97.38
321.962	94.38
322.191	100.38
322.42	76.38
322.649	95.38
322.878	99.38
323.108	114.38
323.337	136.38
323.566	129.38
323.795	138.38
324.024	194.38
324.253	352.38
324.482	698.38
324.71	1431.38
324.939	1920.38
325.168	729.38
325.397	216.38
325.626	164.38
325.855	141.38
326.084	124.38
326.313	132.38
326.542	141.38
326.77	218.38
326.999	404.38
327.228	807.38
327.457	1460.38
327.686	1143.38
327.914	317.38
328.143	197.38
328.372	155.38
328.6	140.38
328.829	116.38
329.058	115.38
329.287	123.38
329.515	110.38
329.744	93.38
329.972	130.38
330.201	147.38
330.43	181.38
330.658	133.38
330.887	115.38
331.115	120.38
331.344	96.38
331.572	109.38
331.801	106.38
332.03	106.38
332.258	103.38
332.486	95.38
332.715	88.38
332.943	85.38
333.172	107.38
333.4	93.38
333.629	106.38
333.857	116.38
334.085	131.38
334.314	147.38
334.542	195.38
334.771	179.38
334.999	120.38
335.227	101.38
335.455	82.38
335.684	106.38
335.912	114.38
336.14	102.38
336.369	98.38
336.597	97.38
336.825	97.38
337.053	90.38
337.281	93.38
337.51	90.38
337.738	101.38
337.966	94.38
338.194	94.38
338.422	105.38
338.65	97.38
338.878	104.38
339.106	83.38
339.334	102.38
339.562	95.38
339.79	86.38
340.018	91.38
340.246	88.38
340.474	93.38
340.702	85.38
340.93	74.38
341.158	100.38
341.386	109.38
341.614	92.38
341.842	89.38
342.07	96.38
342.298	88.38
342.526	93.38
342.754	102.38
342.981	86.38
343.209	94.38
343.437	95.38
343.665	73.38
343.893	87.38
344.12	101.38
344.348	81.38
344.576	82.38
344.804	75.38
345.031	94.38
345.259	89.38
345.487	90.38
345.714	94.38
345.942	90.38
346.17	93.38
346.397	75.38
346.625	86.38
346.853	98.38
347.08	94.38
347.308	97.38
347.535	89.38
347.763	80.38
347.99	100.38
348.218	101.38
348.445	96.38
348.673	92.38
348.9	81.38
349.128	85.38
349.355	96.38
349.583	103.38
349.81	102.38
350.037	96.38
350.265	106.38
350.492	93.38
350.72	95.38
350.947	85.38
351.174	90.38
351.402	108.38
351.629	98.38
351.856	92.38
352.083	99.38
352.311	94.38
352.538	100.38
352.765	108.38
352.992	120.38
353.22	109.38
353.447	112.38
353.674	110.38
353.901	101.38
354.128	103.38
354.355	88.38
354.583	92.38
354.81	100.38
355.037	101.38
355.264	99.38
355.491	80.38
355.718	93.38
355.945	94.38
356.172	87.38
356.399	107.38
356.626	106.38
356.853	84.38
357.08	87.38
357.307	95.38
357.534	94.38
357.761	112.38
357.988	92.38
358.215	91.38
358.441	100.38
358.668	100.38
358.895	100.38
359.122	92.38
359.349	88.38
359.576	88.38
359.802	86.38
360.029	107.38
360.256	114.38
360.483	107.38
360.709	97.38
360.936	86.38
361.163	93.38
361.39	99.38
361.616	104.38
361.843	89.38
362.07	93.38
362.296	100.38
362.523	88.38
362.749	87.38
362.976	82.38
363.203	93.38
363.429	99.38
363.656	98.38
363.882	90.38
364.109	96.38
364.335	98.38
364.562	85.38
364.788	88.38
365.015	84.38
365.241	95.38
365.468	100.38
365.694	105.38
365.92	103.38
366.147	88.38
366.373	67.38
366.599	68.38
366.826	96.38
367.052	98.38
367.278	85.38
367.505	88.38
367.731	91.38
367.957	87.38
368.184	106.38
368.41	90.38
368.636	106.38
368.862	110.38
369.089	108.38
369.315	82.38
369.541	90.38
369.767	80.38
369.993	98.38
370.219	84.38
370.445	96.38
370.672	80.38
370.898	82.38
371.124	75.38
371.35	86.38
371.576	91.38
371.802	88.38
372.028	81.38
372.254	92.38
372.48	96.38
372.706	87.38
372.932	80.38
373.158	84.38
373.384	100.38
373.61	97.38
373.835	80.38
374.061	84.38
374.287	97.38
374.513	87.38
374.739	80.38
374.965	74.38
375.191	109.38
375.416	101.38
375.642	84.38
375.868	100.38
376.094	91.38
376.319	85.38
376.545	78.38
376.771	92.38
376.997	97.38
377.222	84.38
377.448	82.38
377.674	93.38
377.899	82.38
378.125	94.38
378.35	88.38
378.576	84.38
378.802	98.38
379.027	92.38
379.253	111.38
379.478	82.38
379.704	104.38
379.929	92.38
380.155	90.38
380.38	76.38
380.606	100.38
380.831	101.38
381.057	97.38
381.282	93.38
381.507	96.38
381.733	85.38
381.958	111.38
382.184	96.38
382.409	106.38
382.634	105.38
382.86	88.38
383.085	96.38
383.31	107.38
383.535	108.38
383.761	93.38
383.986	96.38
384.211	93.38
384.436	82.38
384.662	99.38
384.887	100.38
385.112	110.38
385.337	108.38
385.562	101.38
385.787	108.38
386.013	115.38
386.238	120.38
386.463	91.38
386.688	109.38
386.913	105.38
387.138	106.38
387.363	111.38
387.588	89.38
387.813	104.38
388.038	109.38
388.263	133.38
388.488	106.38
388.713	102.38
388.938	92.38
389.163	84.38
389.387	84.38
389.612	92.38
389.837	97.38
390.062	88.38
390.287	92.38
390.512	91.38
390.736	92.38
390.961	96.38
391.186	95.38
391.411	89.38
391.636	79.38
391.86	90.38
392.085	76.38
392.31	94.38
392.534	96.38
392.759	95.38
392.984	89.38
393.208	98.38
393.433	120.38
393.658	101.38
393.882	71.38
394.107	95.38
394.331	81.38
394.556	81.38
394.78	94.38
395.005	100.38
395.229	85.38
395.454	77.38
395.678	78.38
395.903	94.38
396.127	89.38
396.352	80.38
396.576	84.38
396.801	92.38
397.025	105.38
397.249	93.38
397.474	101.38
397.698	97.38
397.922	84.38
398.147	82.38
398.371	88.38
398.595	101.38
398.82	83.38
399.044	94.38
399.268	73.38
399.492	94.38
399.717	95.38
399.941	82.38
400.165	83.38
400.389	100.38
400.613	78.38
400.837	84.38
401.062	88.38
401.286	88.38
401.51	86.38
401.734	89.38
401.958	93.38
402.182	106.38
402.406	138.38
402.63	117.38
402.854	86.38
403.078	99.38
403.302	86.38
403.526	96.38
403.75	100.38
403.974	84.38
404.198	93.38
404.422	106.38
404.645	92.38
404.869	92.38
405.093	109.38
405.317	97.38
405.541	90.38
405.765	96.38
405.988	105.38
406.212	160.38
406.436	203.38
406.66	126.38
406.883	91.38
407.107	84.38
407.331	92.38
407.555	107.38
407.778	89.38
408.002	83.38
408.226	88.38
408.449	94.38
408.673	88.38
408.896	88.38
409.12	101.38
409.344	96.38
409.567	109.38
409.791	74.38
410.014	88.38
410.238	85.38
410.461	94.38
410.685	97.38
410.908	100.38
411.132	113.38
411.355	99.38
411.578	88.38
411.802	89.38
412.025	106.38
412.249	94.38
412.472	102.38
412.695	93.38
412.919	80.38
413.142	96.38
413.365	81.38
413.589	89.38
413.812	93.38
414.035	93.38
414.258	104.38
414.482	73.38
414.705	92.38
414.928	93.38
415.151	93.38
415.374	80.38
415.597	92.38
415.821	96.38
416.044	81.38
416.267	96.38
416.49	91.38
416.713	96.38
416.936	104.38
417.159	83.38
417.382	76.38
417.605	87.38
417.828	94.38
418.051	92.38
418.274	94.38
418.497	93.38
418.72	89.38
418.943	100.38
419.166	84.38
419.389	96.38
419.611	98.38
419.834	84.38
420.057	89.38
420.28	93.38
420.503	85.38
420.726	90.38
420.948	94.38
421.171	97.38
421.394	102.38
421.617	107.38
421.839	86.38
422.062	95.38
422.285	86.38
422.507	86.38
422.73	114.38
422.953	95.38
423.175	99.38
423.398	84.38
423.621	89.38
423.843	80.38
424.066	93.38
424.288	84.38
424.511	99.38
424.733	99.38
424.956	104.38
425.178	91.38
425.401	95.38
425.623	97.38
425.846	105.38
426.068	77.38
426.291	85.38
426.513	85.38
426.735	89.38
426.958	85.38
427.18	111.38
427.402	120.38
427.625	138.38
427.847	113.38
428.069	113.38
428.292	85.38
428.514	90.38
428.736	90.38
428.958	88.38
429.181	84.38
429.403	101.38
429.625	76.38
429.847	88.38
430.069	99.38
430.292	88.38
430.514	86.38
430.736	88.38
430.958	86.38
431.18	85.38
431.402	88.38
431.624	96.38
431.846	85.38
432.068	92.38
432.29	81.38
432.512	91.38
432.734	85.38
432.956	87.38
433.178	90.38
433.4	88.38
433.622	78.38
433.844	84.38
434.066	92.38
434.287	84.38
434.509	92.38
434.731	88.38
434.953	89.38
435.175	75.38
435.397	101.38
435.618	94.38
435.84	106.38
436.062	115.38
436.284	110.38
436.505	92.38
436.727	89.38
436.949	101.38
437.17	93.38
437.392	84.38
437.614	106.38
437.835	103.38
438.057	115.38
438.278	99.38
438.5	106.38
438.721	120.38
438.943	86.38
439.165	84.38
439.386	80.38
439.608	91.38
439.829	92.38
440.05	111.38
440.272	115.38
440.493	95.38
440.715	90.38
440.936	86.38
441.158	93.38
441.379	78.38
441.6	97.38
441.822	103.38
442.043	90.38
442.264	95.38
442.486	104.38
442.707	85.38
442.928	113.38
443.149	137.38
443.371	105.38
443.592	108.38
443.813	112.38
444.034	102.38
444.255	88.38
444.476	105.38
444.698	93.38
444.919	95.38
445.14	132.38
445.361	107.38
445.582	105.38
445.803	119.38
446.024	112.38
446.245	114.38
446.466	113.38
446.687	86.38
446.908	87.38
447.129	84.38
447.35	89.38
447.571	80.38
447.792	82.38
448.013	100.38
448.234	118.38
448.455	87.38
448.675	114.38
448.896	93.38
449.117	111.38
449.338	94.38
449.559	103.38
449.779	133.38
450	106.38
450.221	88.38
450.442	73.38
450.662	94.38
450.883	94.38
451.104	108.38
451.324	81.38
451.545	88.38
451.766	92.38
451.986	89.38
452.207	98.38
452.428	86.38
452.648	84.38
452.869	99.38
453.089	109.38
453.31	102.38
453.53	81.38
453.751	107.38
453.971	99.38
454.192	92.38
454.412	88.38
454.633	89.38
454.853	92.38
455.073	92.38
455.294	80.38
455.514	104.38
455.734	82.38
455.955	97.38
456.175	68.38
456.395	86.38
456.616	81.38
456.836	76.38
457.056	77.38
457.276	82.38
457.497	92.38
457.717	81.38
457.937	86.38
458.157	86.38
458.377	108.38
458.598	97.38
458.818	138.38
459.038	140.38
459.258	100.38
459.478	93.38
459.698	92.38
459.918	91.38
460.138	81.38
460.358	83.38
460.578	95.38
460.798	90.38
461.018	89.38
461.238	80.38
461.458	96.38
461.678	96.38
461.898	92.38
462.118	85.38
462.338	77.38
462.558	85.38
462.777	79.38
462.997	90.38
463.217	89.38
463.437	91.38
463.657	92.38
463.876	86.38
464.096	87.38
464.316	96.38
464.536	89.38
464.755	74.38
464.975	105.38
465.195	160.38
465.414	139.38
465.634	97.38
465.854	103.38
466.073	82.38
466.293	108.38
466.512	77.38
466.732	80.38
466.951	88.38
467.171	100.38
467.391	102.38
467.61	110.38
467.829	116.38
468.049	118.38
468.268	129.38
468.488	93.38
468.707	77.38
468.927	79.38
469.146	92.38
469.365	86.38
469.585	82.38
469.804	97.38
470.023	99.38
470.243	90.38
470.462	82.38
470.681	98.38
470.901	88.38
471.12	69.38
471.339	101.38
471.558	86.38
471.777	77.38
471.997	97.38
472.216	150.38
472.435	224.38
472.654	108.38
472.873	92.38
473.092	69.38
473.311	83.38
473.53	87.38
473.749	67.38
473.968	100.38
474.187	96.38
474.406	87.38
474.625	87.38
474.844	89.38
475.063	91.38
475.282	97.38
475.501	92.38
475.72	92.38
475.939	84.38
476.158	75.38
476.377	78.38
476.596	97.38
476.814	86.38
477.033	80.38
477.252	80.38
477.471	80.38
477.69	81.38
477.908	105.38
478.127	88.38
478.346	94.38
478.564	81.38
478.783	89.38
479.002	107.38
479.22	99.38
479.439	96.38
479.658	96.38
479.876	84.38
480.095	78.38
480.313	98.38
480.532	94.38
480.751	116.38
480.969	147.38
481.188	349.38
481.406	236.38
481.624	91.38
481.843	94.38
482.061	70.38
482.28	93.38
482.498	88.38
482.717	96.38
482.935	98.38
483.153	94.38
483.372	94.38
483.59	85.38
483.808	81.38
484.027	97.38
484.245	83.38
484.463	86.38
484.681	84.38
484.9	90.38
485.118	94.38
485.336	101.38
485.554	107.38
485.772	96.38
485.99	96.38
486.209	109.38
486.427	117.38
486.645	115.38
486.863	107.38
487.081	90.38
487.299	92.38
487.517	114.38
487.735	107.38
487.953	86.38
488.171	105.38
488.389	82.38
488.607	112.38
488.825	102.38
489.043	102.38
489.261	92.38
489.479	102.38
489.696	99.38
489.914	84.38
490.132	86.38
490.35	99.38
490.568	88.38
490.786	84.38
491.003	86.38
491.221	100.38
491.439	93.38
491.657	86.38
491.874	80.38
492.092	96.38
492.31	90.38
492.527	90.38
492.745	88.38
492.963	91.38
493.18	76.38
493.398	86.38
493.615	98.38
493.833	85.38
494.05	86.38
494.268	109.38
494.485	97.38
494.703	107.38
494.92	90.38
495.138	76.38
495.355	82.38
495.573	93.38
495.79	98.38
496.008	99.38
496.225	91.38
496.442	96.38
496.66	101.38
496.877	103.38
497.094	89.38
497.312	81.38
497.529	91.38
497.746	80.38
497.963	88.38
498.181	69.38
498.398	90.38
498.615	112.38
498.832	98.38
499.049	88.38
499.267	98.38
499.484	95.38
499.701	86.38
499.918	80.38
500.135	96.38
500.352	100.38
500.569	107.38
500.786	101.38
501.003	88.38
501.22	100.38
501.437	99.38
501.654	89.38
501.871	123.38
502.088	94.38
502.305	94.38
502.522	81.38
502.739	83.38
502.956	92.38
503.172	96.38
503.389	93.38
503.606	86.38
503.823	92.38
504.04	107.38
504.256	82.38
504.473	90.38
504.69	100.38
504.907	90.38
505.123	84.38
505.34	84.38
505.557	86.38
505.773	92.38
505.99	102.38
506.207	103.38
506.423	80.38
506.64	95.38
506.856	87.38
507.073	91.38
507.289	84.38
507.506	82.38
507.722	100.38
507.939	112.38
508.155	80.38
508.372	86.38
508.588	92.38
508.805	99.38
509.021	88.38
509.238	93.38
509.454	108.38
509.67	100.38
509.887	105.38
510.103	133.38
510.319	192.38
510.536	664.38
510.752	2080.38
510.968	576.38
511.184	137.38
511.401	109.38
511.617	88.38
511.833	97.38
512.049	109.38
512.265	106.38
512.481	84.38
512.698	81.38
512.914	91.38
513.13	109.38
513.346	96.38
513.562	99.38
513.778	91.38
513.994	99.38
514.21	98.38
514.426	116.38
514.642	117.38
514.858	113.38
515.074	148.38
515.29	385.38
515.506	1194.38
