Data from Circ_1984_H10_HRD10591_00097.txt Node
Date: Wed Jan 03 12:23:01 EST 2024
User: Yrep
Spectrometer: HR+D1059
Trigger mode: 1
Integration Time (sec): 1.000000E-1
Scans to average: 1
Electric dark correction enabled: true
Nonlinearity correction enabled: false
Boxcar width: 0
XAxis mode: Wavelengths
Number of Pixels in Spectrum: 2048
>>>>>Begin Spectral Data<<<<<
223.165	-15
223.4	-15
223.635	-15
223.869	-1
224.104	-19
224.338	-30
224.573	-21
224.808	-8
225.042	-19
225.277	-13
225.511	-2
225.746	-4
225.98	18
226.215	15
226.449	14
226.683	23
226.918	33
227.152	29
227.387	43
227.621	45
227.856	41
228.09	50
228.324	45
228.559	64
228.793	72
229.027	71
229.262	84
229.496	73
229.73	90
229.964	76
230.199	73
230.433	74
230.667	80
230.901	74
231.136	84
231.37	64
231.604	82
231.838	69
232.072	83
232.306	78
232.541	88
232.775	90
233.009	87
233.243	86
233.477	80
233.711	87
233.945	82
234.179	90
234.413	97
234.647	91
234.881	78
235.115	79
235.349	90
235.583	76
235.817	90
236.051	81
236.285	81
236.519	81
236.753	74
236.987	70
237.221	98
237.455	101
237.689	72
237.922	70
238.156	71
238.39	85
238.624	75
238.858	72
239.091	76
239.325	79
239.559	84
239.793	91
240.027	88
240.26	73
240.494	68
240.728	84
240.961	76
241.195	78
241.429	102
241.662	93
241.896	88
242.13	81
242.363	79
242.597	85
242.83	80
243.064	84
243.298	80
243.531	89
243.765	61
243.998	75
244.232	76
244.465	94
244.699	81
244.932	89
245.166	79
245.399	94
245.633	80
245.866	69
246.099	79
246.333	73
246.566	81
246.8	74
247.033	77
247.266	76
247.5	85
247.733	94
247.966	70
248.2	91
248.433	77
248.666	77
248.899	76
249.133	91
249.366	93
249.599	108
249.832	71
250.066	91
250.299	69
250.532	80
250.765	79
250.998	91
251.231	82
251.465	90
251.698	84
251.931	93
252.164	71
252.397	84
252.63	83
252.863	99
253.096	77
253.329	91
253.562	97
253.795	83
254.028	74
254.261	87
254.494	96
254.727	89
254.96	92
255.193	85
255.426	78
255.659	79
255.892	86
256.124	81
256.357	71
256.59	83
256.823	74
257.056	81
257.289	85
257.521	96
257.754	93
257.987	87
258.22	90
258.452	98
258.685	79
258.918	69
259.151	68
259.383	81
259.616	82
259.849	70
260.081	83
260.314	85
260.547	74
260.779	82
261.012	93
261.244	89
261.477	102
261.71	109
261.942	105
262.175	108
262.407	91
262.64	84
262.872	85
263.105	95
263.337	97
263.57	77
263.802	77
264.035	92
264.267	75
264.499	90
264.732	87
264.964	104
265.197	100
265.429	77
265.661	89
265.894	85
266.126	97
266.358	91
266.591	84
266.823	91
267.055	83
267.287	91
267.52	77
267.752	84
267.984	86
268.216	72
268.448	91
268.681	93
268.913	101
269.145	78
269.377	90
269.609	76
269.841	87
270.073	96
270.306	77
270.538	81
270.77	90
271.002	83
271.234	78
271.466	90
271.698	87
271.93	84
272.162	84
272.394	76
272.626	87
272.858	89
273.09	68
273.322	92
273.553	91
273.785	92
274.017	75
274.249	76
274.481	69
274.713	85
274.945	76
275.176	85
275.408	85
275.64	105
275.872	92
276.104	88
276.335	77
276.567	94
276.799	95
277.031	95
277.262	100
277.494	97
277.726	87
277.957	90
278.189	86
278.421	78
278.652	86
278.884	84
279.115	87
279.347	101
279.579	87
279.81	103
280.042	99
280.273	124
280.505	102
280.736	84
280.968	88
281.199	82
281.431	92
281.662	109
281.894	97
282.125	90
282.356	107
282.588	134
282.819	105
283.051	78
283.282	95
283.513	93
283.745	85
283.976	103
284.207	90
284.439	96
284.67	91
284.901	81
285.132	81
285.364	96
285.595	98
285.826	90
286.057	86
286.288	82
286.52	94
286.751	103
286.982	84
287.213	89
287.444	98
287.675	82
287.906	87
288.138	93
288.369	82
288.6	94
288.831	86
289.062	86
289.293	92
289.524	72
289.755	92
289.986	85
290.217	97
290.448	95
290.679	90
290.91	74
291.141	85
291.371	97
291.602	83
291.833	97
292.064	92
292.295	88
292.526	97
292.757	91
292.987	81
293.218	88
293.449	100
293.68	69
293.91	82
294.141	99
294.372	86
294.603	93
294.833	77
295.064	94
295.295	105
295.525	92
295.756	105
295.987	119
296.217	130
296.448	129
296.679	104
296.909	108
297.14	98
297.37	94
297.601	98
297.831	93
298.062	95
298.292	96
298.523	93
298.753	87
298.984	76
299.214	85
299.445	89
299.675	87
299.905	108
300.136	110
300.366	110
300.597	112
300.827	92
301.057	98
301.288	91
301.518	92
301.748	89
301.979	93
302.209	83
302.439	100
302.669	87
302.9	101
303.13	99
303.36	99
303.59	111
303.82	109
304.051	97
304.281	90
304.511	109
304.741	88
304.971	90
305.201	99
305.431	95
305.661	111
305.891	84
306.121	100
306.352	98
306.582	102
306.812	99
307.042	92
307.272	106
307.502	106
307.731	115
307.961	98
308.191	99
308.421	105
308.651	98
308.881	87
309.111	92
309.341	96
309.571	105
309.8	106
310.03	97
310.26	100
310.49	115
310.72	93
310.949	99
311.179	115
311.409	95
311.639	104
311.868	101
312.098	109
312.328	110
312.557	109
312.787	100
313.017	95
313.246	95
313.476	98
313.706	85
313.935	97
314.165	105
314.394	103
314.624	102
314.853	102
315.083	110
315.312	101
315.542	86
315.771	91
316.001	77
316.23	96
316.46	86
316.689	94
316.919	94
317.148	98
317.377	110
317.607	103
317.836	89
318.065	93
318.295	97
318.524	100
318.753	94
318.983	96
319.212	102
319.441	110
319.67	99
319.9	107
320.129	86
320.358	98
320.587	95
320.816	95
321.046	92
321.275	95
321.504	87
321.733	94
321.962	107
322.191	107
322.42	110
322.649	121
322.878	97
323.108	108
323.337	129
323.566	121
323.795	142
324.024	179
324.253	320
324.482	711
324.71	1412
324.939	1897
325.168	695
325.397	222
325.626	153
325.855	114
326.084	113
326.313	137
326.542	160
326.77	202
326.999	372
327.228	789
327.457	1438
327.686	1178
327.914	363
328.143	216
328.372	220
328.6	170
328.829	136
329.058	130
329.287	126
329.515	125
329.744	124
329.972	161
330.201	263
330.43	351
330.658	199
330.887	153
331.115	117
331.344	114
331.572	105
331.801	109
332.03	102
332.258	100
332.486	90
332.715	105
332.943	103
333.172	104
333.4	107
333.629	117
333.857	134
334.085	186
334.314	278
334.542	417
334.771	392
334.999	156
335.227	102
335.455	113
335.684	102
335.912	108
336.14	111
336.369	108
336.597	88
336.825	107
337.053	89
337.281	104
337.51	95
337.738	89
337.966	87
338.194	93
338.422	94
338.65	91
338.878	89
339.106	89
339.334	79
339.562	87
339.79	88
340.018	81
340.246	99
340.474	92
340.702	102
340.93	89
341.158	87
341.386	103
341.614	102
341.842	89
342.07	97
342.298	81
342.526	95
342.754	90
342.981	94
343.209	78
343.437	91
343.665	85
343.893	89
344.12	98
344.348	101
344.576	90
344.804	91
345.031	100
345.259	101
345.487	101
345.714	97
345.942	94
346.17	85
346.397	98
346.625	99
346.853	83
347.08	87
347.308	83
347.535	100
347.763	98
347.99	106
348.218	122
348.445	106
348.673	107
348.9	111
349.128	105
349.355	83
349.583	108
349.81	94
350.037	93
350.265	96
350.492	82
350.72	111
350.947	96
351.174	109
351.402	118
351.629	106
351.856	94
352.083	100
352.311	101
352.538	101
352.765	112
352.992	113
353.22	107
353.447	85
353.674	109
353.901	97
354.128	92
354.355	77
354.583	106
354.81	104
355.037	99
355.264	95
355.491	99
355.718	90
355.945	89
356.172	91
356.399	97
356.626	87
356.853	99
357.08	93
357.307	75
357.534	96
357.761	89
357.988	95
358.215	98
358.441	89
358.668	89
358.895	81
359.122	99
359.349	88
359.576	89
359.802	98
360.029	95
360.256	122
360.483	95
360.709	92
360.936	108
361.163	92
361.39	82
361.616	96
361.843	100
362.07	92
362.296	94
362.523	94
362.749	92
362.976	87
363.203	89
363.429	95
363.656	97
363.882	91
364.109	98
364.335	104
364.562	97
364.788	92
365.015	106
365.241	103
365.468	112
365.694	103
365.92	110
366.147	94
366.373	107
366.599	105
366.826	81
367.052	89
367.278	94
367.505	92
367.731	101
367.957	99
368.184	87
368.41	118
368.636	101
368.862	132
369.089	125
369.315	79
369.541	85
369.767	93
369.993	91
370.219	96
370.445	81
370.672	75
370.898	89
371.124	94
371.35	98
371.576	91
371.802	100
372.028	91
372.254	77
372.48	72
372.706	93
372.932	89
373.158	92
373.384	94
373.61	89
373.835	89
374.061	100
374.287	102
374.513	101
374.739	94
374.965	101
375.191	97
375.416	88
375.642	72
375.868	90
376.094	100
376.319	90
376.545	90
376.771	78
376.997	83
377.222	85
377.448	89
377.674	89
377.899	94
378.125	98
378.35	88
378.576	103
378.802	94
379.027	89
379.253	95
379.478	97
379.704	76
379.929	98
380.155	94
380.38	83
380.606	93
380.831	92
381.057	101
381.282	106
381.507	87
381.733	100
381.958	98
382.184	94
382.409	118
382.634	103
382.86	83
383.085	109
383.31	85
383.535	100
383.761	107
383.986	101
384.211	111
384.436	106
384.662	103
384.887	118
385.112	92
385.337	87
385.562	87
385.787	122
386.013	107
386.238	118
386.463	103
386.688	106
386.913	103
387.138	97
387.363	90
387.588	89
387.813	92
388.038	92
388.263	111
388.488	111
388.713	106
388.938	85
389.163	91
389.387	91
389.612	88
389.837	95
390.062	96
390.287	93
390.512	86
390.736	101
390.961	90
391.186	87
391.411	88
391.636	89
391.86	91
392.085	84
392.31	88
392.534	82
392.759	97
392.984	91
393.208	97
393.433	86
393.658	99
393.882	94
394.107	81
394.331	86
394.556	102
394.78	79
395.005	87
395.229	86
395.454	98
395.678	95
395.903	103
396.127	90
396.352	77
396.576	85
396.801	97
397.025	78
397.249	83
397.474	97
397.698	85
397.922	92
398.147	96
398.371	102
398.595	100
398.82	77
399.044	83
399.268	97
399.492	89
399.717	84
399.941	103
400.165	88
400.389	95
400.613	84
400.837	96
401.062	70
401.286	70
401.51	93
401.734	84
401.958	106
402.182	118
402.406	139
402.63	99
402.854	97
403.078	96
403.302	76
403.526	94
403.75	85
403.974	86
404.198	86
404.422	86
404.645	95
404.869	88
405.093	87
405.317	114
405.541	107
405.765	109
405.988	120
406.212	162
406.436	211
406.66	134
406.883	105
407.107	89
407.331	84
407.555	85
407.778	87
408.002	94
408.226	94
408.449	86
408.673	102
408.896	99
409.12	90
409.344	96
409.567	74
409.791	98
410.014	90
410.238	79
410.461	85
410.685	91
410.908	91
411.132	95
411.355	85
411.578	98
411.802	89
412.025	93
412.249	84
412.472	117
412.695	85
412.919	101
413.142	79
413.365	95
413.589	97
413.812	101
414.035	105
414.258	99
414.482	97
414.705	92
414.928	87
415.151	93
415.374	82
415.597	107
415.821	106
416.044	85
416.267	91
416.49	89
416.713	111
416.936	99
417.159	79
417.382	82
417.605	87
417.828	106
418.051	93
418.274	100
418.497	98
418.72	101
418.943	101
419.166	83
419.389	97
419.611	96
419.834	99
420.057	85
420.28	89
420.503	86
420.726	108
420.948	87
421.171	89
421.394	82
421.617	99
421.839	82
422.062	95
422.285	102
422.507	99
422.73	98
422.953	78
423.175	91
423.398	83
423.621	98
423.843	74
424.066	84
424.288	85
424.511	82
424.733	88
424.956	97
425.178	97
425.401	94
425.623	103
425.846	104
426.068	90
426.291	92
426.513	94
426.735	92
426.958	94
427.18	101
427.402	137
427.625	153
427.847	147
428.069	121
428.292	102
428.514	97
428.736	86
428.958	84
429.181	90
429.403	97
429.625	90
429.847	85
430.069	90
430.292	90
430.514	92
430.736	86
430.958	91
431.18	80
431.402	100
431.624	86
431.846	90
432.068	95
432.29	77
432.512	75
432.734	91
432.956	99
433.178	95
433.4	105
433.622	86
433.844	92
434.066	114
434.287	76
434.509	100
434.731	85
434.953	93
435.175	85
435.397	108
435.618	93
435.84	100
436.062	113
436.284	104
436.505	106
436.727	101
436.949	99
437.17	102
437.392	84
437.614	89
437.835	105
438.057	103
438.278	88
438.5	87
438.721	107
438.943	103
439.165	85
439.386	83
439.608	103
439.829	95
440.05	130
440.272	117
440.493	99
440.715	83
440.936	97
441.158	97
441.379	97
441.6	105
441.822	97
442.043	107
442.264	99
442.486	104
442.707	87
442.928	110
443.149	126
443.371	127
443.592	106
443.813	102
444.034	104
444.255	68
444.476	100
444.698	90
444.919	94
445.14	131
445.361	113
445.582	107
445.803	140
446.024	123
446.245	128
446.466	105
446.687	85
446.908	98
447.129	81
447.35	76
447.571	87
447.792	81
448.013	106
448.234	110
448.455	103
448.675	104
448.896	111
449.117	90
449.338	94
449.559	106
449.779	122
450	99
450.221	96
450.442	90
450.662	89
450.883	100
451.104	123
451.324	99
451.545	100
451.766	99
451.986	94
452.207	92
452.428	102
452.648	98
452.869	93
453.089	102
453.31	118
453.53	101
453.751	82
453.971	93
454.192	83
454.412	101
454.633	97
454.853	99
455.073	88
455.294	91
455.514	103
455.734	78
455.955	102
456.175	81
456.395	99
456.616	95
456.836	91
457.056	82
457.276	82
457.497	94
457.717	84
457.937	88
458.157	99
458.377	93
458.598	93
458.818	155
459.038	131
459.258	110
459.478	97
459.698	88
459.918	77
460.138	93
460.358	91
460.578	85
460.798	89
461.018	94
461.238	81
461.458	95
461.678	89
461.898	85
462.118	86
462.338	83
462.558	83
462.777	92
462.997	82
463.217	71
463.437	89
463.657	85
463.876	81
464.096	87
464.316	90
464.536	93
464.755	94
464.975	118
465.195	146
465.414	151
465.634	84
465.854	91
466.073	81
466.293	96
466.512	92
466.732	85
466.951	84
467.171	98
467.391	93
467.61	105
467.829	115
468.049	192
468.268	233
468.488	114
468.707	73
468.927	86
469.146	87
469.365	84
469.585	94
469.804	102
470.023	100
470.243	96
470.462	116
470.681	106
470.901	92
471.12	90
471.339	104
471.558	93
471.777	92
471.997	135
472.216	302
472.435	562
472.654	203
472.873	112
473.092	94
473.311	77
473.53	85
473.749	95
473.968	94
474.187	105
474.406	102
474.625	97
474.844	101
475.063	94
475.282	86
475.501	98
475.72	100
475.939	89
476.158	85
476.377	95
476.596	90
476.814	108
477.033	87
477.252	86
477.471	93
477.69	104
477.908	100
478.127	85
478.346	97
478.564	101
478.783	90
479.002	98
479.22	95
479.439	87
479.658	99
479.876	111
480.095	103
480.313	96
480.532	94
480.751	145
480.969	306
481.188	1001
481.406	591
481.624	148
481.843	95
482.061	103
482.28	90
482.498	99
482.717	79
482.935	87
483.153	89
483.372	79
483.59	85
483.808	90
484.027	108
484.245	99
484.463	95
484.681	104
484.9	94
485.118	106
485.336	97
485.554	93
485.772	105
485.99	95
486.209	105
486.427	103
486.645	109
486.863	99
487.081	92
487.299	91
487.517	93
487.735	95
487.953	96
488.171	90
488.389	95
488.607	92
488.825	90
489.043	97
489.261	85
489.479	91
489.696	91
489.914	90
490.132	81
490.35	86
490.568	83
490.786	95
491.003	92
491.221	92
491.439	104
491.657	95
491.874	92
492.092	101
492.31	93
492.527	75
492.745	87
492.963	94
493.18	78
493.398	94
493.615	100
493.833	102
494.05	77
494.268	99
494.485	100
494.703	99
494.92	86
495.138	104
495.355	82
495.573	94
495.79	102
496.008	90
496.225	91
496.442	79
496.66	77
496.877	82
497.094	97
497.312	92
497.529	100
497.746	100
497.963	84
498.181	101
498.398	99
498.615	109
498.832	100
499.049	104
499.267	86
499.484	100
499.701	94
499.918	99
500.135	93
500.352	74
500.569	99
500.786	94
501.003	94
501.22	90
501.437	99
501.654	93
501.871	98
502.088	100
502.305	100
502.522	103
502.739	97
502.956	89
503.172	97
503.389	100
503.606	102
503.823	100
504.04	84
504.256	85
504.473	81
504.69	102
504.907	104
505.123	99
505.34	84
505.557	91
505.773	89
505.99	91
506.207	93
506.423	109
506.64	89
506.856	81
507.073	97
507.289	106
507.506	91
507.722	121
507.939	103
508.155	93
508.372	97
508.588	93
508.805	87
509.021	102
509.238	95
509.454	89
509.67	99
509.887	99
510.103	134
510.319	192
510.536	645
510.752	2081
510.968	576
511.184	153
511.401	99
511.617	97
511.833	117
512.049	90
512.265	86
512.481	91
512.698	93
512.914	97
513.13	99
513.346	87
513.562	95
513.778	100
513.994	99
514.21	94
514.426	121
514.642	121
514.858	130
515.074	135
515.29	402
515.506	1261
515.721	467
515.937	147
516.153	115
516.369	97
516.585	86
516.801	84
517.016	97
517.232	103
517.448	97
517.664	90
517.879	85
518.095	95
518.311	110
518.527	95
518.742	91
518.958	98
519.173	89
519.389	105
519.605	101
519.82	73
520.036	102
520.251	118
520.467	108
520.682	117
520.898	110
521.113	106
521.329	132
521.544	182
521.76	481
521.975	2067
522.19	1231
522.406	271
522.621	123
522.836	105
523.052	97
523.267	109
523.482	92
523.698	94
523.913	116
524.128	99
524.343	103
524.559	96
524.774	85
524.989	94
525.204	98
525.419	108
525.634	91
525.849	85
526.064	99
526.28	90
526.495	95
526.71	107
526.925	78
527.14	90
527.355	91
527.57	83
527.785	86
527.999	97
528.214	94
528.429	99
528.644	97
528.859	82
529.074	96
529.289	113
529.503	150
529.718	98
529.933	77
530.148	87
530.363	83
530.577	104
530.792	82
531.007	90
531.221	89
531.436	93
531.651	99
531.865	89
532.08	97
532.295	99
532.509	108
532.724	106
532.938	92
533.153	93
533.367	100
533.582	109
533.796	83
534.011	100
534.225	93
534.44	82
534.654	105
534.868	99
535.083	94
535.297	79
535.511	99
535.726	94
535.94	97
536.154	85
536.369	105
536.583	95
536.797	93
537.011	72
537.225	95
537.44	92
537.654	97
537.868	86
538.082	98
538.296	100
538.51	94
538.724	101
538.938	95
539.153	106
539.367	110
539.581	92
539.795	103
540.009	95
540.222	94
540.436	86
540.65	95
540.864	93
541.078	102
541.292	90
541.506	94
541.72	98
541.934	102
542.147	95
542.361	95
542.575	73
542.789	101
543.002	92
543.216	81
543.43	98
543.644	90
543.857	86
544.071	102
544.285	110
544.498	97
544.712	107
544.925	90
545.139	89
545.352	91
545.566	94
545.779	76
545.993	96
546.206	94
546.42	90
546.633	97
546.847	100
547.06	81
547.274	90
547.487	97
547.7	83
547.914	101
548.127	94
548.34	90
548.554	98
548.767	88
548.98	101
549.193	86
549.407	87
549.62	99
549.833	85
550.046	100
550.259	98
550.473	83
550.686	83
550.899	91
551.112	91
551.325	91
551.538	93
551.751	93
551.964	98
552.177	101
552.39	79
552.603	91
552.816	93
553.029	94
553.242	108
553.455	102
553.667	103
553.88	99
554.093	79
554.306	92
554.519	95
554.732	101
554.944	81
555.157	91
555.37	100
555.583	99
555.795	99
556.008	83
556.221	97
556.433	84
556.646	105
556.859	95
557.071	106
557.284	96
557.496	107
557.709	80
557.921	89
558.134	104
558.346	92
558.559	73
558.771	101
558.984	100
559.196	85
559.409	97
559.621	89
559.833	94
560.046	87
560.258	100
560.47	108
560.683	94
560.895	82
561.107	78
561.32	90
561.532	92
561.744	94
561.956	82
562.168	98
562.381	102
562.593	68
562.805	98
563.017	88
563.229	103
563.441	83
563.653	102
563.865	82
564.077	91
564.289	86
564.501	98
564.713	82
564.925	95
565.137	114
565.349	93
565.561	92
565.773	85
565.985	91
566.197	92
566.408	88
566.62	76
566.832	87
567.044	91
567.255	88
567.467	86
567.679	91
567.891	83
568.102	73
568.314	73
568.526	98
568.737	95
568.949	74
569.161	91
569.372	86
569.584	93
569.795	103
570.007	122
570.218	212
570.43	120
570.641	109
570.853	99
571.064	90
571.276	99
571.487	104
571.698	95
571.91	94
572.121	82
572.333	94
572.544	104
572.755	91
572.966	93
573.178	84
573.389	100
573.6	99
573.811	93
574.023	83
574.234	82
574.445	87
574.656	99
574.867	83
575.078	97
575.289	102
575.501	94
575.712	85
575.923	74
576.134	79
576.345	98
576.556	84
576.767	77
576.978	88
577.188	103
577.399	93
577.61	86
577.821	94
578.032	96
578.243	244
578.454	636
578.665	177
578.875	118
579.086	102
579.297	81
579.508	99
579.718	92
579.929	89
580.14	101
580.35	88
580.561	93
580.772	101
580.982	87
581.193	95
581.403	71
581.614	103
581.825	83
582.035	80
582.246	106
582.456	81
