Data from Circ_1984_H10_HRD10591_00092.txt Node
Date: Wed Jan 03 12:23:00 EST 2024
User: Yrep
Spectrometer: HR+D1059
Trigger mode: 1
Integration Time (sec): 1.000000E-1
Scans to average: 1
Electric dark correction enabled: true
Nonlinearity correction enabled: false
Boxcar width: 0
XAxis mode: Wavelengths
Number of Pixels in Spectrum: 2048
>>>>>Begin Spectral Data<<<<<
223.165	-10.5
223.4	-10.5
223.635	-10.5
223.869	-16.5
224.104	-20.5
224.338	-20.5
224.573	-13.5
224.808	-15.5
225.042	-3.5
225.277	-3.5
225.511	-4.5
225.746	11.5
225.98	9.5
226.215	12.5
226.449	4.5
226.683	16.5
226.918	27.5
227.152	26.5
227.387	39.5
227.621	39.5
227.856	35.5
228.09	63.5
228.324	55.5
228.559	54.5
228.793	52.5
229.027	61.5
229.262	76.5
229.496	85.5
229.73	98.5
229.964	70.5
230.199	74.5
230.433	70.5
230.667	83.5
230.901	63.5
231.136	55.5
231.37	84.5
231.604	76.5
231.838	85.5
232.072	91.5
232.306	82.5
232.541	68.5
232.775	83.5
233.009	89.5
233.243	76.5
233.477	90.5
233.711	89.5
233.945	84.5
234.179	88.5
234.413	70.5
234.647	81.5
234.881	82.5
235.115	88.5
235.349	76.5
235.583	69.5
235.817	101.5
236.051	93.5
236.285	61.5
236.519	67.5
236.753	69.5
236.987	72.5
237.221	89.5
237.455	75.5
237.689	101.5
237.922	74.5
238.156	79.5
238.39	74.5
238.624	90.5
238.858	84.5
239.091	65.5
239.325	74.5
239.559	92.5
239.793	92.5
240.027	85.5
240.26	87.5
240.494	72.5
240.728	62.5
240.961	83.5
241.195	92.5
241.429	77.5
241.662	84.5
241.896	77.5
242.13	83.5
242.363	88.5
242.597	76.5
242.83	83.5
243.064	79.5
243.298	89.5
243.531	84.5
243.765	77.5
243.998	87.5
244.232	80.5
244.465	92.5
244.699	71.5
244.932	85.5
245.166	78.5
245.399	83.5
245.633	75.5
245.866	78.5
246.099	80.5
246.333	76.5
246.566	79.5
246.8	89.5
247.033	82.5
247.266	67.5
247.5	89.5
247.733	80.5
247.966	88.5
248.2	83.5
248.433	87.5
248.666	87.5
248.899	93.5
249.133	84.5
249.366	99.5
249.599	97.5
249.832	83.5
250.066	71.5
250.299	89.5
250.532	81.5
250.765	92.5
250.998	68.5
251.231	82.5
251.465	76.5
251.698	70.5
251.931	72.5
252.164	77.5
252.397	80.5
252.63	75.5
252.863	89.5
253.096	72.5
253.329	74.5
253.562	80.5
253.795	73.5
254.028	88.5
254.261	91.5
254.494	96.5
254.727	74.5
254.96	78.5
255.193	87.5
255.426	84.5
255.659	88.5
255.892	93.5
256.124	88.5
256.357	88.5
256.59	82.5
256.823	92.5
257.056	85.5
257.289	72.5
257.521	72.5
257.754	89.5
257.987	71.5
258.22	81.5
258.452	88.5
258.685	96.5
258.918	88.5
259.151	74.5
259.383	81.5
259.616	85.5
259.849	68.5
260.081	89.5
260.314	65.5
260.547	68.5
260.779	93.5
261.012	81.5
261.244	81.5
261.477	88.5
261.71	90.5
261.942	102.5
262.175	122.5
262.407	90.5
262.64	89.5
262.872	92.5
263.105	74.5
263.337	86.5
263.57	82.5
263.802	74.5
264.035	85.5
264.267	89.5
264.499	83.5
264.732	94.5
264.964	85.5
265.197	84.5
265.429	72.5
265.661	82.5
265.894	89.5
266.126	100.5
266.358	77.5
266.591	75.5
266.823	81.5
267.055	87.5
267.287	92.5
267.52	77.5
267.752	99.5
267.984	90.5
268.216	81.5
268.448	87.5
268.681	80.5
268.913	95.5
269.145	89.5
269.377	88.5
269.609	76.5
269.841	91.5
270.073	87.5
270.306	73.5
270.538	87.5
270.77	73.5
271.002	93.5
271.234	99.5
271.466	90.5
271.698	91.5
271.93	81.5
272.162	76.5
272.394	83.5
272.626	79.5
272.858	88.5
273.09	80.5
273.322	82.5
273.553	79.5
273.785	84.5
274.017	80.5
274.249	82.5
274.481	85.5
274.713	79.5
274.945	95.5
275.176	80.5
275.408	96.5
275.64	89.5
275.872	95.5
276.104	100.5
276.335	85.5
276.567	108.5
276.799	115.5
277.031	107.5
277.262	97.5
277.494	96.5
277.726	88.5
277.957	92.5
278.189	77.5
278.421	88.5
278.652	75.5
278.884	96.5
279.115	81.5
279.347	101.5
279.579	85.5
279.81	95.5
280.042	104.5
280.273	108.5
280.505	97.5
280.736	109.5
280.968	95.5
281.199	81.5
281.431	73.5
281.662	93.5
281.894	88.5
282.125	103.5
282.356	123.5
282.588	120.5
282.819	103.5
283.051	87.5
283.282	95.5
283.513	75.5
283.745	82.5
283.976	76.5
284.207	95.5
284.439	89.5
284.67	90.5
284.901	103.5
285.132	90.5
285.364	86.5
285.595	86.5
285.826	84.5
286.057	85.5
286.288	98.5
286.52	92.5
286.751	91.5
286.982	84.5
287.213	76.5
287.444	86.5
287.675	83.5
287.906	85.5
288.138	90.5
288.369	95.5
288.6	90.5
288.831	90.5
289.062	99.5
289.293	83.5
289.524	90.5
289.755	70.5
289.986	83.5
290.217	87.5
290.448	90.5
290.679	97.5
290.91	89.5
291.141	88.5
291.371	92.5
291.602	90.5
291.833	90.5
292.064	79.5
292.295	91.5
292.526	88.5
292.757	68.5
292.987	86.5
293.218	85.5
293.449	84.5
293.68	93.5
293.91	89.5
294.141	83.5
294.372	96.5
294.603	84.5
294.833	84.5
295.064	86.5
295.295	92.5
295.525	99.5
295.756	88.5
295.987	117.5
296.217	136.5
296.448	121.5
296.679	92.5
296.909	91.5
297.14	87.5
297.37	91.5
297.601	87.5
297.831	87.5
298.062	91.5
298.292	83.5
298.523	96.5
298.753	86.5
298.984	93.5
299.214	81.5
299.445	97.5
299.675	77.5
299.905	103.5
300.136	79.5
300.366	77.5
300.597	95.5
300.827	94.5
301.057	101.5
301.288	99.5
301.518	95.5
301.748	79.5
301.979	103.5
302.209	89.5
302.439	92.5
302.669	106.5
302.9	84.5
303.13	90.5
303.36	94.5
303.59	108.5
303.82	106.5
304.051	87.5
304.281	88.5
304.511	105.5
304.741	101.5
304.971	79.5
305.201	95.5
305.431	87.5
305.661	86.5
305.891	91.5
306.121	87.5
306.352	91.5
306.582	96.5
306.812	96.5
307.042	93.5
307.272	108.5
307.502	120.5
307.731	118.5
307.961	105.5
308.191	85.5
308.421	85.5
308.651	94.5
308.881	92.5
309.111	88.5
309.341	95.5
309.571	82.5
309.8	112.5
310.03	104.5
310.26	105.5
310.49	91.5
310.72	87.5
310.949	105.5
311.179	103.5
311.409	96.5
311.639	102.5
311.868	95.5
312.098	86.5
312.328	87.5
312.557	106.5
312.787	113.5
313.017	94.5
313.246	92.5
313.476	103.5
313.706	83.5
313.935	101.5
314.165	88.5
314.394	92.5
314.624	92.5
314.853	88.5
315.083	91.5
315.312	91.5
315.542	81.5
315.771	88.5
316.001	103.5
316.23	97.5
316.46	83.5
316.689	95.5
316.919	88.5
317.148	99.5
317.377	90.5
317.607	93.5
317.836	96.5
318.065	87.5
318.295	87.5
318.524	90.5
318.753	84.5
318.983	69.5
319.212	95.5
319.441	100.5
319.67	116.5
319.9	101.5
320.129	87.5
320.358	74.5
320.587	97.5
320.816	97.5
321.046	100.5
321.275	99.5
321.504	107.5
321.733	88.5
321.962	95.5
322.191	91.5
322.42	111.5
322.649	92.5
322.878	108.5
323.108	113.5
323.337	103.5
323.566	124.5
323.795	139.5
324.024	196.5
324.253	323.5
324.482	723.5
324.71	1525.5
324.939	1992.5
325.168	731.5
325.397	230.5
325.626	143.5
325.855	111.5
326.084	110.5
326.313	134.5
326.542	152.5
326.77	215.5
326.999	407.5
327.228	857.5
327.457	1531.5
327.686	1213.5
327.914	364.5
328.143	228.5
328.372	222.5
328.6	150.5
328.829	107.5
329.058	127.5
329.287	133.5
329.515	123.5
329.744	100.5
329.972	142.5
330.201	237.5
330.43	343.5
330.658	199.5
330.887	156.5
331.115	134.5
331.344	108.5
331.572	102.5
331.801	104.5
332.03	120.5
332.258	103.5
332.486	91.5
332.715	100.5
332.943	91.5
333.172	95.5
333.4	106.5
333.629	119.5
333.857	122.5
334.085	181.5
334.314	251.5
334.542	403.5
334.771	393.5
334.999	150.5
335.227	108.5
335.455	104.5
335.684	87.5
335.912	105.5
336.14	102.5
336.369	100.5
336.597	92.5
336.825	94.5
337.053	88.5
337.281	85.5
337.51	92.5
337.738	93.5
337.966	105.5
338.194	91.5
338.422	98.5
338.65	90.5
338.878	95.5
339.106	96.5
339.334	103.5
339.562	87.5
339.79	97.5
340.018	84.5
340.246	101.5
340.474	98.5
340.702	99.5
340.93	103.5
341.158	87.5
341.386	93.5
341.614	89.5
341.842	82.5
342.07	101.5
342.298	96.5
342.526	79.5
342.754	105.5
342.981	84.5
343.209	83.5
343.437	101.5
343.665	88.5
343.893	97.5
344.12	92.5
344.348	81.5
344.576	88.5
344.804	93.5
345.031	93.5
345.259	88.5
345.487	83.5
345.714	91.5
345.942	108.5
346.17	97.5
346.397	97.5
346.625	94.5
346.853	89.5
347.08	96.5
347.308	103.5
347.535	103.5
347.763	99.5
347.99	95.5
348.218	93.5
348.445	109.5
348.673	78.5
348.9	100.5
349.128	97.5
349.355	88.5
349.583	100.5
349.81	102.5
350.037	101.5
350.265	96.5
350.492	91.5
350.72	102.5
350.947	97.5
351.174	104.5
351.402	123.5
351.629	102.5
351.856	109.5
352.083	104.5
352.311	101.5
352.538	108.5
352.765	92.5
352.992	115.5
353.22	111.5
353.447	116.5
353.674	102.5
353.901	95.5
354.128	95.5
354.355	93.5
354.583	80.5
354.81	101.5
355.037	95.5
355.264	85.5
355.491	92.5
355.718	98.5
355.945	98.5
356.172	100.5
356.399	100.5
356.626	96.5
356.853	105.5
357.08	102.5
357.307	88.5
357.534	89.5
357.761	100.5
357.988	99.5
358.215	91.5
358.441	91.5
358.668	77.5
358.895	84.5
359.122	89.5
359.349	78.5
359.576	87.5
359.802	100.5
360.029	104.5
360.256	108.5
360.483	91.5
360.709	104.5
360.936	101.5
361.163	86.5
361.39	105.5
361.616	96.5
361.843	89.5
362.07	97.5
362.296	85.5
362.523	82.5
362.749	84.5
362.976	90.5
363.203	98.5
363.429	81.5
363.656	82.5
363.882	89.5
364.109	89.5
364.335	82.5
364.562	84.5
364.788	69.5
365.015	96.5
365.241	85.5
365.468	96.5
365.694	92.5
365.92	86.5
366.147	82.5
366.373	76.5
366.599	75.5
366.826	104.5
367.052	91.5
367.278	95.5
367.505	98.5
367.731	91.5
367.957	101.5
368.184	99.5
368.41	98.5
368.636	101.5
368.862	120.5
369.089	98.5
369.315	105.5
369.541	92.5
369.767	103.5
369.993	91.5
370.219	84.5
370.445	96.5
370.672	86.5
370.898	91.5
371.124	92.5
371.35	80.5
371.576	84.5
371.802	91.5
372.028	82.5
372.254	84.5
372.48	77.5
372.706	82.5
372.932	92.5
373.158	102.5
373.384	95.5
373.61	96.5
373.835	95.5
374.061	83.5
374.287	84.5
374.513	103.5
374.739	96.5
374.965	82.5
375.191	88.5
375.416	96.5
375.642	86.5
375.868	79.5
376.094	93.5
376.319	87.5
376.545	87.5
376.771	89.5
376.997	87.5
377.222	108.5
377.448	91.5
377.674	92.5
377.899	88.5
378.125	92.5
378.35	66.5
378.576	87.5
378.802	96.5
379.027	96.5
379.253	104.5
379.478	95.5
379.704	85.5
379.929	96.5
380.155	96.5
380.38	97.5
380.606	96.5
380.831	100.5
381.057	90.5
381.282	93.5
381.507	93.5
381.733	91.5
381.958	85.5
382.184	105.5
382.409	89.5
382.634	97.5
382.86	97.5
383.085	97.5
383.31	98.5
383.535	103.5
383.761	98.5
383.986	94.5
384.211	99.5
384.436	92.5
384.662	115.5
384.887	108.5
385.112	91.5
385.337	93.5
385.562	96.5
385.787	90.5
386.013	104.5
386.238	104.5
386.463	88.5
386.688	99.5
386.913	104.5
387.138	109.5
387.363	96.5
387.588	95.5
387.813	104.5
388.038	92.5
388.263	110.5
388.488	94.5
388.713	91.5
388.938	99.5
389.163	98.5
389.387	82.5
389.612	95.5
389.837	90.5
390.062	97.5
390.287	90.5
390.512	89.5
390.736	92.5
390.961	91.5
391.186	86.5
391.411	101.5
391.636	91.5
391.86	85.5
392.085	93.5
392.31	81.5
392.534	66.5
392.759	85.5
392.984	89.5
393.208	79.5
393.433	91.5
393.658	82.5
393.882	76.5
394.107	79.5
394.331	91.5
394.556	79.5
394.78	89.5
395.005	116.5
395.229	87.5
395.454	87.5
395.678	83.5
395.903	112.5
396.127	98.5
396.352	84.5
396.576	94.5
396.801	97.5
397.025	99.5
397.249	77.5
397.474	83.5
397.698	84.5
397.922	88.5
398.147	96.5
398.371	83.5
398.595	91.5
398.82	85.5
399.044	80.5
399.268	96.5
399.492	92.5
399.717	89.5
399.941	96.5
400.165	89.5
400.389	85.5
400.613	84.5
400.837	95.5
401.062	82.5
401.286	85.5
401.51	84.5
401.734	88.5
401.958	87.5
402.182	105.5
402.406	146.5
402.63	124.5
402.854	100.5
403.078	101.5
403.302	96.5
403.526	80.5
403.75	69.5
403.974	77.5
404.198	80.5
404.422	90.5
404.645	89.5
404.869	101.5
405.093	92.5
405.317	119.5
405.541	114.5
405.765	102.5
405.988	115.5
406.212	137.5
406.436	189.5
406.66	136.5
406.883	103.5
407.107	101.5
407.331	89.5
407.555	108.5
407.778	89.5
408.002	93.5
408.226	93.5
408.449	81.5
408.673	72.5
408.896	89.5
409.12	81.5
409.344	86.5
409.567	86.5
409.791	99.5
410.014	87.5
410.238	86.5
410.461	104.5
410.685	92.5
410.908	98.5
411.132	103.5
411.355	90.5
411.578	99.5
411.802	85.5
412.025	95.5
412.249	89.5
412.472	99.5
412.695	108.5
412.919	102.5
413.142	101.5
413.365	96.5
413.589	89.5
413.812	74.5
414.035	79.5
414.258	81.5
414.482	87.5
414.705	97.5
414.928	99.5
415.151	91.5
415.374	88.5
415.597	94.5
415.821	89.5
416.044	100.5
416.267	85.5
416.49	81.5
416.713	83.5
416.936	91.5
417.159	96.5
417.382	91.5
417.605	86.5
417.828	104.5
418.051	95.5
418.274	86.5
418.497	84.5
418.72	96.5
418.943	88.5
419.166	96.5
419.389	96.5
419.611	81.5
419.834	87.5
420.057	81.5
420.28	91.5
420.503	94.5
420.726	98.5
420.948	90.5
421.171	96.5
421.394	106.5
421.617	104.5
421.839	73.5
422.062	102.5
422.285	81.5
422.507	109.5
422.73	104.5
422.953	108.5
423.175	97.5
423.398	83.5
423.621	108.5
423.843	91.5
424.066	82.5
424.288	89.5
424.511	95.5
424.733	83.5
424.956	107.5
425.178	109.5
425.401	97.5
425.623	85.5
425.846	86.5
426.068	100.5
426.291	94.5
426.513	83.5
426.735	90.5
426.958	90.5
427.18	89.5
427.402	133.5
427.625	169.5
427.847	139.5
428.069	133.5
428.292	95.5
428.514	92.5
428.736	87.5
428.958	93.5
429.181	88.5
429.403	83.5
429.625	79.5
429.847	89.5
430.069	100.5
430.292	105.5
430.514	82.5
430.736	100.5
430.958	91.5
431.18	79.5
431.402	84.5
431.624	89.5
431.846	83.5
432.068	83.5
432.29	90.5
432.512	83.5
432.734	93.5
432.956	99.5
433.178	95.5
433.4	105.5
433.622	105.5
433.844	87.5
434.066	83.5
434.287	89.5
434.509	98.5
434.731	87.5
434.953	87.5
435.175	84.5
435.397	89.5
435.618	87.5
435.84	86.5
436.062	120.5
436.284	115.5
436.505	98.5
436.727	99.5
436.949	94.5
437.17	82.5
437.392	92.5
437.614	87.5
437.835	105.5
438.057	108.5
438.278	106.5
438.5	115.5
438.721	113.5
438.943	100.5
439.165	88.5
439.386	77.5
439.608	100.5
439.829	112.5
440.05	116.5
440.272	140.5
440.493	97.5
440.715	89.5
440.936	108.5
441.158	91.5
441.379	80.5
441.6	96.5
441.822	98.5
442.043	93.5
442.264	103.5
442.486	103.5
442.707	93.5
442.928	104.5
443.149	120.5
443.371	116.5
443.592	96.5
443.813	110.5
444.034	119.5
444.255	82.5
444.476	87.5
444.698	95.5
444.919	71.5
445.14	131.5
445.361	121.5
445.582	108.5
445.803	139.5
446.024	117.5
446.245	127.5
446.466	113.5
446.687	91.5
446.908	88.5
447.129	88.5
447.35	83.5
447.571	92.5
447.792	81.5
448.013	93.5
448.234	100.5
448.455	95.5
448.675	116.5
448.896	136.5
449.117	105.5
449.338	106.5
449.559	120.5
449.779	133.5
450	97.5
450.221	100.5
450.442	95.5
450.662	95.5
450.883	99.5
451.104	115.5
451.324	85.5
451.545	79.5
451.766	87.5
451.986	84.5
452.207	91.5
452.428	95.5
452.648	96.5
452.869	96.5
453.089	107.5
453.31	92.5
453.53	96.5
453.751	81.5
453.971	79.5
454.192	103.5
454.412	97.5
454.633	111.5
454.853	87.5
455.073	87.5
455.294	84.5
455.514	103.5
455.734	84.5
455.955	85.5
456.175	89.5
456.395	99.5
456.616	73.5
456.836	89.5
457.056	85.5
457.276	74.5
457.497	83.5
457.717	93.5
457.937	93.5
458.157	80.5
458.377	88.5
458.598	104.5
458.818	125.5
459.038	138.5
459.258	109.5
459.478	101.5
459.698	102.5
459.918	84.5
460.138	91.5
460.358	85.5
460.578	74.5
460.798	93.5
461.018	87.5
461.238	72.5
461.458	90.5
461.678	91.5
461.898	84.5
462.118	87.5
462.338	73.5
462.558	84.5
462.777	87.5
462.997	100.5
463.217	87.5
463.437	80.5
463.657	104.5
463.876	104.5
464.096	87.5
464.316	84.5
464.536	80.5
464.755	88.5
464.975	101.5
465.195	146.5
465.414	122.5
465.634	87.5
465.854	90.5
466.073	76.5
466.293	81.5
466.512	85.5
466.732	81.5
466.951	84.5
467.171	92.5
467.391	105.5
467.61	109.5
467.829	115.5
468.049	173.5
468.268	221.5
468.488	111.5
468.707	79.5
468.927	84.5
469.146	98.5
469.365	90.5
469.585	99.5
469.804	98.5
470.023	104.5
470.243	97.5
470.462	80.5
470.681	99.5
470.901	93.5
471.12	102.5
471.339	93.5
471.558	87.5
471.777	108.5
471.997	112.5
472.216	291.5
472.435	542.5
472.654	173.5
472.873	99.5
473.092	89.5
473.311	90.5
473.53	90.5
473.749	98.5
473.968	85.5
474.187	107.5
474.406	87.5
474.625	91.5
474.844	103.5
475.063	90.5
475.282	72.5
475.501	91.5
475.72	91.5
475.939	72.5
476.158	84.5
476.377	73.5
476.596	85.5
476.814	72.5
477.033	84.5
477.252	109.5
477.471	89.5
477.69	94.5
477.908	96.5
478.127	77.5
478.346	98.5
478.564	96.5
478.783	101.5
479.002	93.5
479.22	82.5
479.439	81.5
479.658	105.5
479.876	102.5
480.095	96.5
480.313	88.5
480.532	111.5
480.751	129.5
480.969	281.5
481.188	918.5
481.406	568.5
481.624	158.5
481.843	113.5
482.061	93.5
482.28	92.5
482.498	84.5
482.717	94.5
482.935	89.5
483.153	61.5
483.372	88.5
483.59	96.5
483.808	94.5
484.027	88.5
484.245	99.5
484.463	78.5
484.681	106.5
484.9	96.5
485.118	92.5
485.336	98.5
485.554	109.5
485.772	102.5
485.99	82.5
486.209	108.5
486.427	100.5
486.645	103.5
486.863	112.5
487.081	109.5
487.299	89.5
487.517	90.5
487.735	102.5
487.953	80.5
488.171	97.5
488.389	99.5
488.607	101.5
488.825	108.5
489.043	83.5
489.261	91.5
489.479	92.5
489.696	85.5
489.914	66.5
490.132	81.5
490.35	81.5
490.568	96.5
490.786	93.5
491.003	98.5
491.221	89.5
491.439	90.5
491.657	96.5
491.874	90.5
492.092	89.5
492.31	103.5
492.527	90.5
492.745	94.5
492.963	91.5
493.18	102.5
493.398	101.5
493.615	88.5
493.833	88.5
494.05	88.5
494.268	82.5
494.485	87.5
494.703	75.5
494.92	91.5
495.138	98.5
495.355	85.5
495.573	103.5
495.79	83.5
496.008	96.5
496.225	90.5
496.442	96.5
496.66	86.5
496.877	75.5
497.094	95.5
497.312	91.5
497.529	95.5
497.746	84.5
497.963	91.5
498.181	82.5
498.398	94.5
498.615	103.5
498.832	105.5
499.049	98.5
499.267	97.5
499.484	94.5
499.701	68.5
499.918	92.5
500.135	85.5
500.352	92.5
500.569	90.5
500.786	97.5
501.003	92.5
501.22	85.5
501.437	94.5
501.654	97.5
501.871	106.5
502.088	98.5
502.305	91.5
502.522	89.5
502.739	100.5
502.956	90.5
503.172	89.5
503.389	83.5
503.606	93.5
503.823	78.5
504.04	100.5
504.256	82.5
504.473	79.5
504.69	102.5
504.907	100.5
505.123	81.5
505.34	102.5
505.557	103.5
505.773	94.5
505.99	106.5
506.207	90.5
506.423	88.5
506.64	96.5
506.856	85.5
507.073	78.5
507.289	95.5
507.506	88.5
507.722	95.5
507.939	104.5
508.155	95.5
508.372	91.5
508.588	101.5
508.805	99.5
509.021	103.5
509.238	94.5
509.454	103.5
509.67	97.5
509.887	103.5
510.103	119.5
510.319	183.5
510.536	631.5
510.752	2003.5
510.968	573.5
511.184	136.5
511.401	108.5
511.617	93.5
511.833	96.5
512.049	91.5
512.265	79.5
512.481	85.5
512.698	96.5
512.914	93.5
513.13	81.5
513.346	77.5
513.562	98.5
513.778	90.5
513.994	100.5
514.21	108.5
514.426	110.5
514.642	126.5
514.858	122.5
515.074	144.5
515.29	364.5
515.506	1189.5
515.721	454.5
515.937	145.5
516.153	98.5
516.369	94.5
516.585	95.5
516.801	88.5
517.016	85.5
517.232	103.5
517.448	92.5
517.664	86.5
517.879	100.5
518.095	89.5
518.311	99.5
518.527	86.5
518.742	83.5
518.958	95.5
519.173	75.5
519.389	105.5
519.605	105.5
519.82	97.5
520.036	98.5
520.251	99.5
520.467	102.5
520.682	99.5
520.898	100.5
521.113	108.5
521.329	121.5
521.544	170.5
521.76	475.5
521.975	1995.5
522.19	1182.5
522.406	263.5
522.621	115.5
522.836	103.5
523.052	101.5
523.267	97.5
523.482	100.5
523.698	94.5
523.913	125.5
524.128	107.5
524.343	90.5
524.559	105.5
524.774	90.5
524.989	87.5
525.204	100.5
525.419	98.5
525.634	106.5
525.849	84.5
526.064	105.5
526.28	89.5
526.495	79.5
526.71	81.5
526.925	100.5
527.14	79.5
527.355	99.5
527.57	88.5
527.785	90.5
527.999	90.5
528.214	80.5
528.429	95.5
528.644	98.5
528.859	81.5
529.074	94.5
529.289	115.5
529.503	166.5
529.718	103.5
529.933	96.5
530.148	97.5
530.363	108.5
530.577	93.5
530.792	94.5
531.007	99.5
531.221	95.5
531.436	93.5
531.651	101.5
531.865	84.5
532.08	89.5
532.295	109.5
532.509	98.5
532.724	95.5
532.938	103.5
533.153	87.5
533.367	98.5
533.582	87.5
533.796	83.5
534.011	84.5
534.225	93.5
534.44	91.5
534.654	86.5
534.868	105.5
