Data from Circ_1984_H10_HRD10591_00078.txt Node
Date: Wed Jan 03 12:22:57 EST 2024
User: Yrep
Spectrometer: HR+D1059
Trigger mode: 1
Integration Time (sec): 1.000000E-1
Scans to average: 1
Electric dark correction enabled: true
Nonlinearity correction enabled: false
Boxcar width: 0
XAxis mode: Wavelengths
Number of Pixels in Spectrum: 2048
>>>>>Begin Spectral Data<<<<<
223.165	-16.88
223.4	-16.88
223.635	-16.88
223.869	-10.88
224.104	-26.88
224.338	-12.88
224.573	-15.88
224.808	-7.88
225.042	-13.88
225.277	-19.88
225.511	-2.88
225.746	6.12
225.98	25.12
226.215	16.12
226.449	19.12
226.683	12.12
226.918	29.12
227.152	20.12
227.387	29.12
227.621	39.12
227.856	35.12
228.09	45.12
228.324	49.12
228.559	47.12
228.793	60.12
229.027	79.12
229.262	59.12
229.496	74.12
229.73	91.12
229.964	73.12
230.199	91.12
230.433	69.12
230.667	73.12
230.901	69.12
231.136	92.12
231.37	87.12
231.604	83.12
231.838	66.12
232.072	79.12
232.306	94.12
232.541	81.12
232.775	89.12
233.009	86.12
233.243	77.12
233.477	83.12
233.711	86.12
233.945	102.12
234.179	79.12
234.413	98.12
234.647	89.12
234.881	83.12
235.115	86.12
235.349	78.12
235.583	85.12
235.817	74.12
236.051	91.12
236.285	93.12
236.519	74.12
236.753	78.12
236.987	98.12
237.221	75.12
237.455	73.12
237.689	82.12
237.922	70.12
238.156	82.12
238.39	78.12
238.624	70.12
238.858	94.12
239.091	65.12
239.325	72.12
239.559	75.12
239.793	77.12
240.027	88.12
240.26	81.12
240.494	95.12
240.728	69.12
240.961	91.12
241.195	82.12
241.429	82.12
241.662	84.12
241.896	83.12
242.13	82.12
242.363	77.12
242.597	69.12
242.83	76.12
243.064	70.12
243.298	81.12
243.531	80.12
243.765	87.12
243.998	83.12
244.232	72.12
244.465	81.12
244.699	70.12
244.932	68.12
245.166	85.12
245.399	86.12
245.633	70.12
245.866	88.12
246.099	75.12
246.333	84.12
246.566	87.12
246.8	71.12
247.033	69.12
247.266	106.12
247.5	82.12
247.733	106.12
247.966	81.12
248.2	77.12
248.433	82.12
248.666	69.12
248.899	96.12
249.133	89.12
249.366	109.12
249.599	92.12
249.832	79.12
250.066	90.12
250.299	95.12
250.532	72.12
250.765	83.12
250.998	89.12
251.231	82.12
251.465	76.12
251.698	89.12
251.931	86.12
252.164	88.12
252.397	70.12
252.63	89.12
252.863	78.12
253.096	68.12
253.329	83.12
253.562	85.12
253.795	92.12
254.028	79.12
254.261	93.12
254.494	75.12
254.727	79.12
254.96	92.12
255.193	76.12
255.426	78.12
255.659	66.12
255.892	78.12
256.124	94.12
256.357	95.12
256.59	85.12
256.823	87.12
257.056	72.12
257.289	83.12
257.521	89.12
257.754	87.12
257.987	93.12
258.22	77.12
258.452	86.12
258.685	92.12
258.918	78.12
259.151	71.12
259.383	81.12
259.616	85.12
259.849	85.12
260.081	73.12
260.314	85.12
260.547	84.12
260.779	96.12
261.012	87.12
261.244	90.12
261.477	86.12
261.71	97.12
261.942	115.12
262.175	114.12
262.407	102.12
262.64	89.12
262.872	87.12
263.105	100.12
263.337	67.12
263.57	87.12
263.802	66.12
264.035	74.12
264.267	82.12
264.499	90.12
264.732	75.12
264.964	91.12
265.197	75.12
265.429	86.12
265.661	87.12
265.894	83.12
266.126	80.12
266.358	76.12
266.591	77.12
266.823	73.12
267.055	90.12
267.287	93.12
267.52	62.12
267.752	91.12
267.984	93.12
268.216	70.12
268.448	100.12
268.681	86.12
268.913	91.12
269.145	101.12
269.377	83.12
269.609	91.12
269.841	90.12
270.073	78.12
270.306	79.12
270.538	82.12
270.77	83.12
271.002	85.12
271.234	97.12
271.466	74.12
271.698	77.12
271.93	69.12
272.162	94.12
272.394	93.12
272.626	87.12
272.858	81.12
273.09	87.12
273.322	92.12
273.553	83.12
273.785	78.12
274.017	99.12
274.249	93.12
274.481	78.12
274.713	85.12
274.945	88.12
275.176	85.12
275.408	92.12
275.64	100.12
275.872	95.12
276.104	89.12
276.335	92.12
276.567	99.12
276.799	106.12
277.031	101.12
277.262	108.12
277.494	95.12
277.726	85.12
277.957	86.12
278.189	94.12
278.421	84.12
278.652	85.12
278.884	94.12
279.115	100.12
279.347	81.12
279.579	86.12
279.81	99.12
280.042	108.12
280.273	115.12
280.505	105.12
280.736	94.12
280.968	91.12
281.199	93.12
281.431	96.12
281.662	94.12
281.894	88.12
282.125	93.12
282.356	112.12
282.588	126.12
282.819	108.12
283.051	84.12
283.282	98.12
283.513	84.12
283.745	96.12
283.976	111.12
284.207	83.12
284.439	102.12
284.67	96.12
284.901	83.12
285.132	88.12
285.364	76.12
285.595	81.12
285.826	89.12
286.057	76.12
286.288	62.12
286.52	89.12
286.751	102.12
286.982	85.12
287.213	81.12
287.444	102.12
287.675	98.12
287.906	97.12
288.138	87.12
288.369	95.12
288.6	96.12
288.831	94.12
289.062	89.12
289.293	78.12
289.524	86.12
289.755	99.12
289.986	71.12
290.217	89.12
290.448	102.12
290.679	76.12
290.91	91.12
291.141	96.12
291.371	90.12
291.602	86.12
291.833	76.12
292.064	81.12
292.295	81.12
292.526	90.12
292.757	79.12
292.987	94.12
293.218	85.12
293.449	93.12
293.68	77.12
293.91	81.12
294.141	89.12
294.372	91.12
294.603	85.12
294.833	92.12
295.064	91.12
295.295	87.12
295.525	86.12
295.756	85.12
295.987	119.12
296.217	130.12
296.448	125.12
296.679	81.12
296.909	97.12
297.14	103.12
297.37	91.12
297.601	88.12
297.831	94.12
298.062	88.12
298.292	100.12
298.523	91.12
298.753	97.12
298.984	91.12
299.214	93.12
299.445	99.12
299.675	97.12
299.905	95.12
300.136	88.12
300.366	93.12
300.597	92.12
300.827	94.12
301.057	103.12
301.288	110.12
301.518	84.12
301.748	84.12
301.979	97.12
302.209	83.12
302.439	90.12
302.669	87.12
302.9	99.12
303.13	88.12
303.36	106.12
303.59	100.12
303.82	107.12
304.051	90.12
304.281	98.12
304.511	95.12
304.741	94.12
304.971	94.12
305.201	81.12
305.431	91.12
305.661	98.12
305.891	90.12
306.121	87.12
306.352	111.12
306.582	98.12
306.812	107.12
307.042	85.12
307.272	97.12
307.502	111.12
307.731	101.12
307.961	88.12
308.191	95.12
308.421	99.12
308.651	82.12
308.881	90.12
309.111	77.12
309.341	97.12
309.571	97.12
309.8	99.12
310.03	99.12
310.26	98.12
310.49	103.12
310.72	104.12
310.949	108.12
311.179	99.12
311.409	98.12
311.639	97.12
311.868	108.12
312.098	81.12
312.328	89.12
312.557	103.12
312.787	108.12
313.017	94.12
313.246	92.12
313.476	86.12
313.706	82.12
313.935	93.12
314.165	101.12
314.394	99.12
314.624	111.12
314.853	89.12
315.083	97.12
315.312	86.12
315.542	89.12
315.771	106.12
316.001	101.12
316.23	85.12
316.46	90.12
316.689	97.12
316.919	83.12
317.148	107.12
317.377	109.12
317.607	87.12
317.836	76.12
318.065	85.12
318.295	104.12
318.524	90.12
318.753	87.12
318.983	88.12
319.212	102.12
319.441	109.12
319.67	102.12
319.9	98.12
320.129	89.12
320.358	98.12
320.587	103.12
320.816	107.12
321.046	110.12
321.275	109.12
321.504	83.12
321.733	85.12
321.962	94.12
322.191	87.12
322.42	98.12
322.649	110.12
322.878	110.12
323.108	108.12
323.337	114.12
323.566	129.12
323.795	128.12
324.024	162.12
324.253	312.12
324.482	659.12
324.71	1307.12
324.939	1712.12
325.168	647.12
325.397	197.12
325.626	124.12
325.855	121.12
326.084	110.12
326.313	107.12
326.542	132.12
326.77	186.12
326.999	367.12
327.228	739.12
327.457	1327.12
327.686	1073.12
327.914	330.12
328.143	221.12
328.372	205.12
328.6	140.12
328.829	106.12
329.058	122.12
329.287	119.12
329.515	103.12
329.744	119.12
329.972	162.12
330.201	227.12
330.43	307.12
330.658	186.12
330.887	147.12
331.115	118.12
331.344	99.12
331.572	110.12
331.801	98.12
332.03	92.12
332.258	109.12
332.486	101.12
332.715	90.12
332.943	101.12
333.172	115.12
333.4	109.12
333.629	116.12
333.857	140.12
334.085	146.12
334.314	247.12
334.542	395.12
334.771	366.12
334.999	163.12
335.227	107.12
335.455	104.12
335.684	111.12
335.912	103.12
336.14	93.12
336.369	99.12
336.597	106.12
336.825	105.12
337.053	99.12
337.281	91.12
337.51	99.12
337.738	88.12
337.966	83.12
338.194	96.12
338.422	87.12
338.65	90.12
338.878	105.12
339.106	99.12
339.334	95.12
339.562	93.12
339.79	100.12
340.018	98.12
340.246	89.12
340.474	98.12
340.702	72.12
340.93	74.12
341.158	92.12
341.386	105.12
341.614	86.12
341.842	81.12
342.07	72.12
342.298	82.12
342.526	84.12
342.754	98.12
342.981	91.12
343.209	91.12
343.437	98.12
343.665	94.12
343.893	98.12
344.12	90.12
344.348	93.12
344.576	89.12
344.804	99.12
345.031	88.12
345.259	100.12
345.487	100.12
345.714	106.12
345.942	79.12
346.17	84.12
346.397	92.12
346.625	95.12
346.853	114.12
347.08	106.12
347.308	102.12
347.535	97.12
347.763	100.12
347.99	87.12
348.218	111.12
348.445	100.12
348.673	105.12
348.9	102.12
349.128	101.12
349.355	87.12
349.583	90.12
349.81	90.12
350.037	96.12
350.265	84.12
350.492	105.12
350.72	107.12
350.947	103.12
351.174	118.12
351.402	111.12
351.629	93.12
351.856	99.12
352.083	111.12
352.311	98.12
352.538	96.12
352.765	93.12
352.992	117.12
353.22	106.12
353.447	116.12
353.674	104.12
353.901	97.12
354.128	107.12
354.355	105.12
354.583	99.12
354.81	111.12
355.037	97.12
355.264	94.12
355.491	94.12
355.718	80.12
355.945	100.12
356.172	106.12
356.399	88.12
356.626	95.12
356.853	95.12
357.08	105.12
357.307	93.12
357.534	91.12
357.761	107.12
357.988	90.12
358.215	78.12
358.441	87.12
358.668	92.12
358.895	94.12
359.122	87.12
359.349	83.12
359.576	89.12
359.802	109.12
360.029	110.12
360.256	113.12
360.483	89.12
360.709	98.12
360.936	93.12
361.163	97.12
361.39	101.12
361.616	101.12
361.843	92.12
362.07	98.12
362.296	96.12
362.523	106.12
362.749	103.12
362.976	87.12
363.203	86.12
363.429	84.12
363.656	79.12
363.882	107.12
364.109	76.12
364.335	93.12
364.562	84.12
364.788	82.12
365.015	95.12
365.241	98.12
365.468	107.12
365.694	94.12
365.92	95.12
366.147	82.12
366.373	89.12
366.599	91.12
366.826	94.12
367.052	81.12
367.278	86.12
367.505	90.12
367.731	94.12
367.957	93.12
368.184	96.12
368.41	97.12
368.636	107.12
368.862	98.12
369.089	107.12
369.315	92.12
369.541	91.12
369.767	98.12
369.993	91.12
370.219	90.12
370.445	92.12
370.672	85.12
370.898	95.12
371.124	85.12
371.35	109.12
371.576	88.12
371.802	93.12
372.028	85.12
372.254	85.12
372.48	83.12
372.706	94.12
372.932	90.12
373.158	88.12
373.384	107.12
373.61	101.12
373.835	93.12
374.061	98.12
374.287	81.12
374.513	91.12
374.739	94.12
374.965	97.12
375.191	74.12
375.416	101.12
375.642	99.12
375.868	109.12
376.094	99.12
376.319	94.12
376.545	88.12
376.771	89.12
376.997	104.12
377.222	74.12
377.448	103.12
377.674	94.12
377.899	93.12
378.125	82.12
378.35	91.12
378.576	91.12
378.802	91.12
379.027	89.12
379.253	87.12
379.478	102.12
379.704	86.12
379.929	84.12
380.155	84.12
380.38	98.12
380.606	109.12
380.831	94.12
381.057	108.12
381.282	89.12
381.507	95.12
381.733	86.12
381.958	87.12
382.184	96.12
382.409	102.12
382.634	89.12
382.86	98.12
383.085	105.12
383.31	98.12
383.535	109.12
383.761	106.12
383.986	86.12
384.211	98.12
384.436	96.12
384.662	109.12
384.887	107.12
385.112	97.12
385.337	122.12
385.562	100.12
385.787	99.12
386.013	110.12
386.238	112.12
386.463	106.12
386.688	110.12
386.913	93.12
387.138	103.12
387.363	98.12
387.588	99.12
387.813	106.12
388.038	90.12
388.263	104.12
388.488	114.12
388.713	84.12
388.938	73.12
389.163	90.12
389.387	95.12
389.612	94.12
389.837	90.12
390.062	92.12
390.287	90.12
390.512	90.12
390.736	102.12
390.961	86.12
391.186	104.12
391.411	89.12
391.636	96.12
391.86	81.12
392.085	88.12
392.31	96.12
392.534	90.12
392.759	96.12
392.984	84.12
393.208	92.12
393.433	99.12
393.658	89.12
393.882	93.12
394.107	92.12
394.331	81.12
394.556	92.12
394.78	93.12
395.005	90.12
395.229	81.12
395.454	87.12
395.678	93.12
395.903	92.12
396.127	85.12
396.352	81.12
396.576	86.12
396.801	105.12
397.025	82.12
397.249	85.12
397.474	94.12
397.698	72.12
397.922	97.12
398.147	84.12
398.371	91.12
398.595	98.12
398.82	90.12
399.044	81.12
399.268	84.12
399.492	93.12
399.717	90.12
399.941	94.12
400.165	92.12
400.389	99.12
400.613	87.12
400.837	81.12
401.062	93.12
401.286	93.12
401.51	77.12
401.734	87.12
401.958	102.12
402.182	117.12
402.406	145.12
402.63	122.12
402.854	101.12
403.078	77.12
403.302	84.12
403.526	101.12
403.75	85.12
403.974	100.12
404.198	92.12
404.422	89.12
404.645	94.12
404.869	103.12
405.093	103.12
405.317	109.12
405.541	103.12
405.765	103.12
405.988	101.12
406.212	141.12
406.436	185.12
406.66	141.12
406.883	95.12
407.107	94.12
407.331	98.12
407.555	86.12
407.778	88.12
408.002	92.12
408.226	85.12
408.449	86.12
408.673	97.12
408.896	82.12
409.12	81.12
409.344	81.12
409.567	90.12
409.791	90.12
410.014	96.12
410.238	99.12
410.461	90.12
410.685	98.12
410.908	99.12
411.132	109.12
411.355	90.12
411.578	92.12
411.802	85.12
412.025	90.12
412.249	99.12
412.472	91.12
412.695	129.12
412.919	104.12
413.142	88.12
413.365	75.12
413.589	97.12
413.812	84.12
414.035	90.12
414.258	83.12
414.482	94.12
414.705	97.12
414.928	90.12
415.151	103.12
415.374	94.12
415.597	92.12
415.821	87.12
416.044	82.12
416.267	93.12
416.49	86.12
416.713	93.12
416.936	92.12
417.159	81.12
417.382	84.12
417.605	84.12
417.828	99.12
418.051	106.12
418.274	100.12
418.497	102.12
418.72	91.12
418.943	87.12
419.166	95.12
419.389	79.12
419.611	79.12
419.834	89.12
420.057	71.12
420.28	103.12
420.503	96.12
420.726	92.12
420.948	90.12
421.171	91.12
421.394	101.12
421.617	97.12
421.839	90.12
422.062	90.12
422.285	97.12
422.507	85.12
422.73	92.12
422.953	101.12
423.175	94.12
423.398	98.12
423.621	91.12
423.843	93.12
424.066	93.12
424.288	89.12
424.511	89.12
424.733	100.12
424.956	99.12
425.178	97.12
425.401	83.12
425.623	90.12
425.846	73.12
426.068	95.12
426.291	103.12
426.513	93.12
426.735	93.12
426.958	88.12
427.18	97.12
427.402	123.12
427.625	151.12
427.847	151.12
428.069	129.12
428.292	100.12
428.514	97.12
428.736	89.12
428.958	94.12
429.181	97.12
429.403	85.12
429.625	97.12
429.847	102.12
430.069	81.12
430.292	85.12
430.514	89.12
430.736	89.12
430.958	90.12
431.18	96.12
431.402	87.12
431.624	92.12
431.846	101.12
432.068	83.12
432.29	97.12
432.512	97.12
432.734	94.12
432.956	84.12
433.178	91.12
433.4	98.12
433.622	86.12
433.844	97.12
434.066	96.12
434.287	105.12
434.509	99.12
434.731	94.12
434.953	87.12
435.175	92.12
435.397	89.12
435.618	98.12
435.84	98.12
436.062	123.12
436.284	106.12
436.505	100.12
436.727	99.12
436.949	105.12
437.17	90.12
437.392	99.12
437.614	93.12
437.835	107.12
438.057	117.12
438.278	109.12
438.5	99.12
438.721	116.12
438.943	92.12
439.165	87.12
439.386	77.12
439.608	87.12
439.829	111.12
440.05	121.12
440.272	122.12
440.493	100.12
440.715	88.12
440.936	99.12
441.158	110.12
441.379	103.12
441.6	88.12
441.822	101.12
442.043	86.12
442.264	96.12
442.486	97.12
442.707	94.12
442.928	105.12
443.149	116.12
443.371	116.12
443.592	90.12
443.813	95.12
444.034	104.12
444.255	85.12
444.476	90.12
444.698	89.12
444.919	74.12
445.14	131.12
445.361	116.12
445.582	110.12
445.803	127.12
446.024	112.12
446.245	131.12
446.466	94.12
446.687	86.12
446.908	90.12
447.129	94.12
447.35	90.12
447.571	98.12
447.792	82.12
448.013	94.12
448.234	104.12
448.455	93.12
448.675	103.12
448.896	105.12
449.117	108.12
449.338	99.12
449.559	116.12
449.779	124.12
450	91.12
450.221	99.12
450.442	90.12
450.662	82.12
450.883	91.12
451.104	100.12
451.324	105.12
451.545	91.12
451.766	84.12
451.986	101.12
452.207	88.12
452.428	84.12
452.648	85.12
452.869	96.12
453.089	112.12
453.31	106.12
453.53	103.12
453.751	85.12
453.971	107.12
454.192	96.12
454.412	85.12
454.633	83.12
454.853	79.12
455.073	93.12
455.294	79.12
455.514	106.12
455.734	90.12
455.955	92.12
456.175	94.12
456.395	89.12
456.616	86.12
456.836	67.12
457.056	97.12
457.276	77.12
457.497	81.12
457.717	76.12
457.937	94.12
458.157	95.12
458.377	96.12
458.598	86.12
458.818	133.12
459.038	126.12
459.258	107.12
459.478	95.12
459.698	102.12
459.918	93.12
460.138	89.12
460.358	92.12
460.578	76.12
460.798	90.12
461.018	89.12
461.238	83.12
461.458	71.12
461.678	96.12
461.898	88.12
462.118	87.12
462.338	79.12
462.558	97.12
462.777	96.12
462.997	86.12
463.217	93.12
463.437	87.12
463.657	65.12
463.876	79.12
464.096	94.12
464.316	85.12
464.536	91.12
464.755	80.12
464.975	105.12
465.195	138.12
465.414	132.12
465.634	94.12
465.854	98.12
466.073	78.12
466.293	87.12
466.512	94.12
466.732	89.12
466.951	85.12
467.171	81.12
467.391	111.12
467.61	105.12
467.829	116.12
468.049	153.12
468.268	191.12
468.488	83.12
468.707	89.12
468.927	82.12
469.146	97.12
469.365	93.12
469.585	77.12
469.804	111.12
470.023	86.12
470.243	87.12
470.462	86.12
470.681	109.12
470.901	99.12
471.12	102.12
471.339	106.12
471.558	85.12
471.777	113.12
471.997	105.12
472.216	258.12
472.435	474.12
472.654	169.12
472.873	101.12
473.092	86.12
473.311	91.12
473.53	87.12
473.749	87.12
473.968	98.12
474.187	111.12
474.406	103.12
474.625	88.12
474.844	84.12
475.063	81.12
475.282	87.12
475.501	81.12
475.72	98.12
475.939	86.12
476.158	78.12
476.377	94.12
476.596	100.12
476.814	94.12
477.033	81.12
477.252	93.12
477.471	82.12
477.69	83.12
477.908	94.12
478.127	90.12
478.346	101.12
478.564	94.12
478.783	112.12
479.002	90.12
479.22	106.12
479.439	100.12
479.658	113.12
479.876	82.12
480.095	101.12
480.313	99.12
480.532	115.12
480.751	133.12
480.969	269.12
481.188	834.12
481.406	503.12
481.624	127.12
481.843	107.12
482.061	89.12
482.28	92.12
482.498	86.12
482.717	90.12
482.935	86.12
483.153	91.12
483.372	94.12
483.59	84.12
483.808	89.12
484.027	92.12
484.245	73.12
484.463	91.12
484.681	110.12
484.9	114.12
485.118	110.12
485.336	102.12
485.554	100.12
485.772	100.12
485.99	98.12
486.209	99.12
486.427	85.12
486.645	116.12
486.863	106.12
487.081	102.12
487.299	95.12
487.517	89.12
487.735	88.12
487.953	84.12
488.171	94.12
488.389	91.12
488.607	95.12
488.825	88.12
489.043	96.12
489.261	92.12
489.479	78.12
489.696	72.12
489.914	95.12
490.132	90.12
490.35	93.12
490.568	100.12
490.786	85.12
491.003	94.12
491.221	103.12
491.439	85.12
491.657	86.12
491.874	83.12
492.092	100.12
492.31	75.12
492.527	87.12
492.745	90.12
492.963	93.12
493.18	87.12
493.398	102.12
493.615	96.12
493.833	87.12
494.05	91.12
494.268	94.12
494.485	91.12
494.703	106.12
494.92	94.12
495.138	95.12
495.355	89.12
495.573	83.12
495.79	102.12
496.008	99.12
496.225	91.12
496.442	85.12
496.66	88.12
496.877	82.12
497.094	97.12
497.312	89.12
497.529	93.12
497.746	94.12
497.963	90.12
498.181	106.12
498.398	101.12
498.615	97.12
498.832	110.12
499.049	99.12
499.267	83.12
499.484	85.12
499.701	82.12
499.918	85.12
500.135	86.12
500.352	94.12
500.569	85.12
500.786	102.12
501.003	100.12
501.22	87.12
501.437	86.12
501.654	91.12
501.871	108.12
502.088	85.12
502.305	93.12
502.522	95.12
502.739	103.12
502.956	91.12
503.172	85.12
503.389	105.12
503.606	111.12
503.823	94.12
504.04	87.12
504.256	92.12
504.473	101.12
504.69	100.12
504.907	88.12
505.123	88.12
505.34	89.12
505.557	95.12
505.773	91.12
505.99	91.12
506.207	85.12
506.423	87.12
506.64	97.12
506.856	90.12
507.073	87.12
507.289	85.12
507.506	98.12
507.722	102.12
507.939	98.12
508.155	94.12
508.372	95.12
508.588	102.12
508.805	101.12
509.021	101.12
509.238	87.12
509.454	88.12
509.67	104.12
509.887	102.12
510.103	122.12
510.319	183.12
510.536	593.12
510.752	1829.12
510.968	525.12
511.184	132.12
511.401	116.12
511.617	93.12
511.833	96.12
512.049	88.12
512.265	94.12
512.481	87.12
512.698	88.12
512.914	99.12
513.13	100.12
513.346	97.12
513.562	102.12
513.778	100.12
513.994	96.12
514.21	102.12
514.426	93.12
514.642	120.12
514.858	110.12
515.074	145.12
