Data from Circ_1984_H10_HRD10591_00004.txt Node
Date: Wed Jan 03 12:22:42 EST 2024
User: Yrep
Spectrometer: HR+D1059
Trigger mode: 1
Integration Time (sec): 1.000000E-1
Scans to average: 1
Electric dark correction enabled: true
Nonlinearity correction enabled: false
Boxcar width: 0
XAxis mode: Wavelengths
Number of Pixels in Spectrum: 2048
>>>>>Begin Spectral Data<<<<<
223.165	-17.38
223.4	-17.38
223.635	-17.38
223.869	-11.38
224.104	-19.38
224.338	-21.38
224.573	-19.38
224.808	-12.38
225.042	-8.38
225.277	0.62
225.511	-5.38
225.746	-6.38
225.98	16.62
226.215	12.62
226.449	28.62
226.683	4.62
226.918	28.62
227.152	29.62
227.387	33.62
227.621	44.62
227.856	48.62
228.09	52.62
228.324	34.62
228.559	52.62
228.793	59.62
229.027	70.62
229.262	74.62
229.496	55.62
229.73	81.62
229.964	81.62
230.199	71.62
230.433	80.62
230.667	78.62
230.901	69.62
231.136	81.62
231.37	75.62
231.604	80.62
231.838	74.62
232.072	82.62
232.306	74.62
232.541	93.62
232.775	72.62
233.009	76.62
233.243	85.62
233.477	79.62
233.711	66.62
233.945	78.62
234.179	88.62
234.413	85.62
234.647	93.62
234.881	78.62
235.115	74.62
235.349	87.62
235.583	96.62
235.817	72.62
236.051	85.62
236.285	72.62
236.519	84.62
236.753	100.62
236.987	91.62
237.221	80.62
237.455	88.62
237.689	81.62
237.922	78.62
238.156	91.62
238.39	82.62
238.624	73.62
238.858	80.62
239.091	80.62
239.325	76.62
239.559	70.62
239.793	77.62
240.027	76.62
240.26	72.62
240.494	90.62
240.728	77.62
240.961	69.62
241.195	83.62
241.429	70.62
241.662	60.62
241.896	69.62
242.13	97.62
242.363	88.62
242.597	77.62
242.83	81.62
243.064	77.62
243.298	76.62
243.531	72.62
243.765	67.62
243.998	80.62
244.232	72.62
244.465	80.62
244.699	93.62
244.932	83.62
245.166	75.62
245.399	82.62
245.633	73.62
245.866	69.62
246.099	80.62
246.333	82.62
246.566	59.62
246.8	80.62
247.033	74.62
247.266	91.62
247.5	71.62
247.733	93.62
247.966	80.62
248.2	82.62
248.433	92.62
248.666	84.62
248.899	80.62
249.133	80.62
249.366	93.62
249.599	90.62
249.832	90.62
250.066	88.62
250.299	80.62
250.532	89.62
250.765	82.62
250.998	103.62
251.231	80.62
251.465	72.62
251.698	87.62
251.931	92.62
252.164	81.62
252.397	84.62
252.63	78.62
252.863	84.62
253.096	87.62
253.329	73.62
253.562	85.62
253.795	91.62
254.028	76.62
254.261	74.62
254.494	85.62
254.727	85.62
254.96	70.62
255.193	74.62
255.426	78.62
255.659	80.62
255.892	75.62
256.124	84.62
256.357	87.62
256.59	78.62
256.823	91.62
257.056	65.62
257.289	100.62
257.521	80.62
257.754	84.62
257.987	88.62
258.22	87.62
258.452	82.62
258.685	78.62
258.918	81.62
259.151	82.62
259.383	80.62
259.616	87.62
259.849	75.62
260.081	61.62
260.314	76.62
260.547	78.62
260.779	76.62
261.012	78.62
261.244	75.62
261.477	80.62
261.71	95.62
261.942	97.62
262.175	99.62
262.407	85.62
262.64	88.62
262.872	85.62
263.105	75.62
263.337	84.62
263.57	90.62
263.802	104.62
264.035	73.62
264.267	83.62
264.499	90.62
264.732	96.62
264.964	96.62
265.197	83.62
265.429	93.62
265.661	84.62
265.894	113.62
266.126	86.62
266.358	88.62
266.591	86.62
266.823	86.62
267.055	84.62
267.287	90.62
267.52	88.62
267.752	102.62
267.984	91.62
268.216	87.62
268.448	87.62
268.681	92.62
268.913	85.62
269.145	69.62
269.377	94.62
269.609	78.62
269.841	93.62
270.073	96.62
270.306	75.62
270.538	104.62
270.77	75.62
271.002	76.62
271.234	84.62
271.466	84.62
271.698	94.62
271.93	97.62
272.162	90.62
272.394	100.62
272.626	92.62
272.858	71.62
273.09	87.62
273.322	76.62
273.553	81.62
273.785	88.62
274.017	83.62
274.249	84.62
274.481	90.62
274.713	97.62
274.945	93.62
275.176	97.62
275.408	96.62
275.64	86.62
275.872	86.62
276.104	90.62
276.335	81.62
276.567	84.62
276.799	101.62
277.031	94.62
277.262	93.62
277.494	93.62
277.726	90.62
277.957	89.62
278.189	79.62
278.421	82.62
278.652	84.62
278.884	69.62
279.115	78.62
279.347	74.62
279.579	92.62
279.81	86.62
280.042	89.62
280.273	98.62
280.505	84.62
280.736	77.62
280.968	80.62
281.199	88.62
281.431	88.62
281.662	86.62
281.894	99.62
282.125	90.62
282.356	91.62
282.588	115.62
282.819	95.62
283.051	76.62
283.282	83.62
283.513	85.62
283.745	85.62
283.976	97.62
284.207	87.62
284.439	89.62
284.67	93.62
284.901	91.62
285.132	91.62
285.364	72.62
285.595	84.62
285.826	86.62
286.057	99.62
286.288	91.62
286.52	98.62
286.751	66.62
286.982	75.62
287.213	100.62
287.444	86.62
287.675	89.62
287.906	108.62
288.138	97.62
288.369	86.62
288.6	88.62
288.831	80.62
289.062	88.62
289.293	84.62
289.524	76.62
289.755	82.62
289.986	92.62
290.217	84.62
290.448	93.62
290.679	93.62
290.91	96.62
291.141	88.62
291.371	88.62
291.602	82.62
291.833	76.62
292.064	92.62
292.295	98.62
292.526	101.62
292.757	81.62
292.987	95.62
293.218	91.62
293.449	90.62
293.68	89.62
293.91	96.62
294.141	90.62
294.372	92.62
294.603	94.62
294.833	93.62
295.064	103.62
295.295	81.62
295.525	88.62
295.756	93.62
295.987	97.62
296.217	113.62
296.448	104.62
296.679	84.62
296.909	86.62
297.14	82.62
297.37	87.62
297.601	74.62
297.831	91.62
298.062	93.62
298.292	85.62
298.523	92.62
298.753	84.62
298.984	85.62
299.214	89.62
299.445	101.62
299.675	92.62
299.905	100.62
300.136	105.62
300.366	94.62
300.597	94.62
300.827	101.62
301.057	88.62
301.288	97.62
301.518	94.62
301.748	87.62
301.979	102.62
302.209	98.62
302.439	89.62
302.669	81.62
302.9	82.62
303.13	88.62
303.36	96.62
303.59	93.62
303.82	94.62
304.051	92.62
304.281	88.62
304.511	103.62
304.741	99.62
304.971	85.62
305.201	85.62
305.431	78.62
305.661	85.62
305.891	108.62
306.121	108.62
306.352	119.62
306.582	111.62
306.812	101.62
307.042	85.62
307.272	93.62
307.502	94.62
307.731	97.62
307.961	83.62
308.191	82.62
308.421	100.62
308.651	98.62
308.881	85.62
309.111	104.62
309.341	99.62
309.571	110.62
309.8	90.62
310.03	91.62
310.26	97.62
310.49	93.62
310.72	108.62
310.949	90.62
311.179	87.62
311.409	76.62
311.639	96.62
311.868	91.62
312.098	102.62
312.328	101.62
312.557	109.62
312.787	107.62
313.017	101.62
313.246	86.62
313.476	87.62
313.706	97.62
313.935	92.62
314.165	97.62
314.394	95.62
314.624	89.62
314.853	90.62
315.083	90.62
315.312	97.62
315.542	83.62
315.771	89.62
316.001	86.62
316.23	100.62
316.46	96.62
316.689	92.62
316.919	91.62
317.148	84.62
317.377	92.62
317.607	100.62
317.836	83.62
318.065	92.62
318.295	96.62
318.524	86.62
318.753	94.62
318.983	101.62
319.212	98.62
319.441	106.62
319.67	99.62
319.9	107.62
320.129	89.62
320.358	80.62
320.587	98.62
320.816	86.62
321.046	93.62
321.275	90.62
321.504	88.62
321.733	104.62
321.962	89.62
322.191	102.62
322.42	118.62
322.649	105.62
322.878	112.62
323.108	113.62
323.337	124.62
323.566	117.62
323.795	132.62
324.024	179.62
324.253	298.62
324.482	552.62
324.71	1172.62
324.939	1564.62
325.168	596.62
325.397	202.62
325.626	127.62
325.855	113.62
326.084	129.62
326.313	124.62
326.542	124.62
326.77	191.62
326.999	338.62
327.228	659.62
327.457	1221.62
327.686	971.62
327.914	284.62
328.143	160.62
328.372	144.62
328.6	109.62
328.829	129.62
329.058	105.62
329.287	106.62
329.515	91.62
329.744	114.62
329.972	116.62
330.201	109.62
330.43	141.62
330.658	123.62
330.887	115.62
331.115	108.62
331.344	99.62
331.572	96.62
331.801	94.62
332.03	90.62
332.258	93.62
332.486	97.62
332.715	99.62
332.943	98.62
333.172	109.62
333.4	108.62
333.629	102.62
333.857	105.62
334.085	105.62
334.314	115.62
334.542	127.62
334.771	128.62
334.999	106.62
335.227	89.62
335.455	102.62
335.684	112.62
335.912	94.62
336.14	109.62
336.369	102.62
336.597	91.62
336.825	91.62
337.053	98.62
337.281	95.62
337.51	89.62
337.738	96.62
337.966	89.62
338.194	88.62
338.422	90.62
338.65	99.62
338.878	100.62
339.106	86.62
339.334	97.62
339.562	87.62
339.79	90.62
340.018	100.62
340.246	89.62
340.474	99.62
340.702	93.62
340.93	103.62
341.158	93.62
341.386	91.62
341.614	85.62
341.842	87.62
342.07	84.62
342.298	94.62
342.526	87.62
342.754	100.62
342.981	92.62
343.209	108.62
343.437	104.62
343.665	81.62
343.893	84.62
344.12	95.62
344.348	97.62
344.576	94.62
344.804	99.62
345.031	99.62
345.259	100.62
345.487	97.62
345.714	104.62
345.942	92.62
346.17	92.62
346.397	91.62
346.625	113.62
346.853	93.62
347.08	77.62
347.308	91.62
347.535	91.62
347.763	89.62
347.99	92.62
348.218	107.62
348.445	97.62
348.673	106.62
348.9	93.62
349.128	105.62
349.355	92.62
349.583	97.62
349.81	77.62
350.037	86.62
350.265	76.62
350.492	103.62
350.72	93.62
350.947	109.62
351.174	100.62
351.402	99.62
351.629	96.62
351.856	101.62
352.083	99.62
352.311	108.62
352.538	96.62
352.765	108.62
352.992	109.62
353.22	92.62
353.447	95.62
353.674	101.62
353.901	102.62
354.128	88.62
354.355	102.62
354.583	93.62
354.81	99.62
355.037	96.62
355.264	98.62
355.491	84.62
355.718	94.62
355.945	96.62
356.172	112.62
356.399	94.62
356.626	95.62
356.853	110.62
357.08	95.62
357.307	81.62
357.534	91.62
357.761	99.62
357.988	82.62
358.215	109.62
358.441	93.62
358.668	101.62
358.895	99.62
359.122	81.62
359.349	89.62
359.576	84.62
359.802	104.62
360.029	105.62
360.256	104.62
360.483	90.62
360.709	96.62
360.936	105.62
361.163	88.62
361.39	109.62
361.616	92.62
361.843	100.62
362.07	81.62
362.296	99.62
362.523	85.62
362.749	104.62
362.976	101.62
363.203	78.62
363.429	76.62
363.656	72.62
363.882	92.62
364.109	100.62
364.335	108.62
364.562	94.62
364.788	104.62
365.015	85.62
365.241	100.62
365.468	98.62
365.694	98.62
365.92	100.62
366.147	99.62
366.373	86.62
366.599	108.62
366.826	82.62
367.052	84.62
367.278	88.62
367.505	76.62
367.731	76.62
367.957	95.62
368.184	98.62
368.41	93.62
368.636	100.62
368.862	101.62
369.089	89.62
369.315	89.62
369.541	94.62
369.767	90.62
369.993	97.62
370.219	90.62
370.445	84.62
370.672	78.62
370.898	93.62
371.124	82.62
371.35	82.62
371.576	90.62
371.802	77.62
372.028	85.62
372.254	80.62
372.48	87.62
372.706	83.62
372.932	77.62
373.158	98.62
373.384	86.62
373.61	78.62
373.835	89.62
374.061	84.62
374.287	92.62
374.513	78.62
374.739	87.62
374.965	81.62
375.191	94.62
375.416	88.62
375.642	97.62
375.868	91.62
376.094	77.62
376.319	93.62
376.545	82.62
376.771	69.62
376.997	81.62
377.222	96.62
377.448	98.62
377.674	84.62
377.899	90.62
378.125	85.62
378.35	87.62
378.576	100.62
378.802	99.62
379.027	85.62
379.253	103.62
379.478	97.62
379.704	95.62
379.929	84.62
380.155	99.62
380.38	101.62
380.606	112.62
380.831	104.62
381.057	101.62
381.282	89.62
381.507	104.62
381.733	91.62
381.958	93.62
382.184	98.62
382.409	110.62
382.634	107.62
382.86	101.62
383.085	114.62
383.31	114.62
383.535	108.62
383.761	109.62
383.986	101.62
384.211	116.62
384.436	112.62
384.662	111.62
384.887	99.62
385.112	109.62
385.337	130.62
385.562	122.62
385.787	124.62
386.013	120.62
386.238	116.62
386.463	104.62
386.688	125.62
386.913	102.62
387.138	125.62
387.363	116.62
387.588	108.62
387.813	118.62
388.038	105.62
388.263	126.62
388.488	116.62
388.713	94.62
388.938	92.62
389.163	105.62
389.387	99.62
389.612	87.62
389.837	83.62
390.062	83.62
390.287	99.62
390.512	92.62
390.736	96.62
390.961	96.62
391.186	91.62
391.411	105.62
391.636	82.62
391.86	83.62
392.085	99.62
392.31	85.62
392.534	76.62
392.759	98.62
392.984	96.62
393.208	104.62
393.433	112.62
393.658	97.62
393.882	92.62
394.107	86.62
394.331	80.62
394.556	83.62
394.78	81.62
395.005	84.62
395.229	92.62
395.454	80.62
395.678	86.62
395.903	98.62
396.127	86.62
396.352	86.62
396.576	91.62
396.801	98.62
397.025	107.62
397.249	85.62
397.474	91.62
397.698	88.62
397.922	91.62
398.147	85.62
398.371	77.62
398.595	101.62
398.82	89.62
399.044	92.62
399.268	77.62
399.492	89.62
399.717	86.62
399.941	91.62
400.165	92.62
400.389	92.62
400.613	89.62
400.837	80.62
401.062	73.62
401.286	73.62
401.51	85.62
401.734	84.62
401.958	89.62
402.182	92.62
402.406	116.62
402.63	105.62
402.854	82.62
403.078	89.62
403.302	88.62
403.526	86.62
403.75	77.62
403.974	96.62
404.198	89.62
404.422	88.62
404.645	81.62
404.869	91.62
405.093	81.62
405.317	87.62
405.541	96.62
405.765	92.62
405.988	111.62
406.212	142.62
406.436	179.62
406.66	119.62
406.883	107.62
407.107	103.62
407.331	84.62
407.555	101.62
407.778	87.62
408.002	91.62
408.226	78.62
408.449	71.62
408.673	88.62
408.896	97.62
409.12	76.62
409.344	87.62
409.567	85.62
409.791	87.62
410.014	100.62
410.238	104.62
410.461	92.62
410.685	98.62
410.908	98.62
411.132	88.62
411.355	91.62
411.578	103.62
411.802	90.62
412.025	88.62
412.249	88.62
412.472	82.62
412.695	92.62
412.919	95.62
413.142	91.62
413.365	94.62
413.589	82.62
413.812	91.62
414.035	69.62
414.258	93.62
414.482	96.62
414.705	80.62
414.928	86.62
415.151	96.62
415.374	81.62
415.597	93.62
415.821	90.62
416.044	101.62
416.267	92.62
416.49	88.62
416.713	106.62
416.936	89.62
417.159	76.62
417.382	78.62
417.605	86.62
417.828	98.62
418.051	101.62
418.274	89.62
418.497	74.62
418.72	87.62
418.943	86.62
419.166	77.62
419.389	82.62
419.611	83.62
419.834	70.62
420.057	101.62
420.28	86.62
420.503	89.62
420.726	97.62
420.948	87.62
421.171	87.62
421.394	101.62
421.617	90.62
421.839	104.62
422.062	96.62
422.285	96.62
422.507	100.62
422.73	99.62
422.953	103.62
423.175	93.62
423.398	88.62
423.621	101.62
423.843	90.62
424.066	95.62
424.288	94.62
424.511	83.62
424.733	84.62
424.956	98.62
425.178	86.62
425.401	83.62
425.623	75.62
425.846	82.62
426.068	72.62
426.291	95.62
426.513	103.62
426.735	82.62
426.958	85.62
427.18	100.62
427.402	107.62
427.625	133.62
427.847	130.62
428.069	106.62
428.292	96.62
428.514	93.62
428.736	85.62
428.958	91.62
429.181	94.62
429.403	82.62
429.625	90.62
429.847	82.62
430.069	97.62
430.292	88.62
430.514	94.62
430.736	76.62
430.958	79.62
431.18	82.62
431.402	101.62
431.624	84.62
431.846	94.62
432.068	92.62
432.29	93.62
432.512	97.62
432.734	98.62
432.956	92.62
433.178	98.62
433.4	96.62
433.622	83.62
433.844	96.62
434.066	74.62
434.287	103.62
434.509	93.62
434.731	94.62
434.953	80.62
435.175	83.62
435.397	87.62
435.618	85.62
435.84	96.62
436.062	93.62
436.284	107.62
436.505	102.62
436.727	90.62
436.949	80.62
437.17	71.62
437.392	102.62
437.614	88.62
437.835	100.62
438.057	105.62
438.278	96.62
438.5	98.62
438.721	90.62
438.943	101.62
439.165	102.62
439.386	90.62
439.608	85.62
439.829	94.62
440.05	102.62
440.272	125.62
440.493	100.62
440.715	82.62
440.936	82.62
441.158	77.62
441.379	93.62
441.6	67.62
441.822	101.62
442.043	107.62
442.264	96.62
442.486	98.62
442.707	107.62
442.928	95.62
443.149	108.62
443.371	102.62
443.592	105.62
443.813	107.62
444.034	98.62
444.255	84.62
444.476	90.62
444.698	92.62
444.919	86.62
445.14	129.62
445.361	126.62
445.582	97.62
445.803	112.62
446.024	111.62
446.245	107.62
446.466	98.62
446.687	80.62
446.908	73.62
447.129	82.62
447.35	87.62
447.571	96.62
447.792	85.62
448.013	90.62
448.234	92.62
448.455	88.62
448.675	105.62
448.896	103.62
449.117	83.62
449.338	102.62
449.559	110.62
449.779	115.62
450	103.62
450.221	88.62
450.442	88.62
450.662	85.62
450.883	74.62
451.104	94.62
451.324	94.62
451.545	81.62
451.766	77.62
451.986	97.62
452.207	91.62
452.428	89.62
452.648	103.62
452.869	99.62
453.089	96.62
453.31	114.62
453.53	102.62
453.751	74.62
453.971	100.62
454.192	100.62
454.412	88.62
454.633	72.62
454.853	86.62
455.073	98.62
455.294	92.62
455.514	98.62
455.734	93.62
455.955	87.62
456.175	85.62
456.395	86.62
456.616	74.62
456.836	91.62
457.056	70.62
457.276	76.62
457.497	99.62
457.717	90.62
457.937	94.62
458.157	87.62
458.377	87.62
458.598	93.62
458.818	122.62
459.038	138.62
459.258	107.62
459.478	94.62
459.698	92.62
459.918	91.62
460.138	82.62
460.358	85.62
460.578	89.62
460.798	84.62
461.018	88.62
461.238	84.62
461.458	100.62
461.678	73.62
461.898	80.62
462.118	91.62
462.338	91.62
462.558	77.62
462.777	77.62
462.997	84.62
463.217	88.62
463.437	85.62
463.657	77.62
463.876	75.62
464.096	99.62
464.316	88.62
464.536	92.62
464.755	100.62
464.975	112.62
465.195	137.62
465.414	109.62
465.634	90.62
465.854	82.62
466.073	75.62
466.293	92.62
466.512	85.62
466.732	82.62
466.951	88.62
467.171	101.62
467.391	96.62
467.61	78.62
467.829	94.62
468.049	105.62
468.268	108.62
468.488	95.62
468.707	85.62
468.927	97.62
469.146	72.62
469.365	86.62
469.585	76.62
469.804	91.62
470.023	96.62
470.243	96.62
470.462	95.62
470.681	107.62
470.901	83.62
471.12	84.62
471.339	89.62
471.558	82.62
471.777	77.62
471.997	102.62
472.216	111.62
472.435	123.62
472.654	93.62
472.873	97.62
473.092	80.62
473.311	90.62
473.53	86.62
473.749	80.62
473.968	87.62
474.187	84.62
474.406	85.62
474.625	87.62
474.844	73.62
475.063	93.62
475.282	91.62
475.501	80.62
475.72	82.62
475.939	82.62
476.158	78.62
476.377	84.62
476.596	98.62
476.814	92.62
477.033	86.62
477.252	90.62
477.471	84.62
477.69	90.62
477.908	96.62
478.127	98.62
478.346	83.62
478.564	84.62
478.783	100.62
479.002	93.62
479.22	90.62
479.439	77.62
479.658	79.62
479.876	98.62
480.095	85.62
480.313	91.62
480.532	82.62
480.751	88.62
480.969	105.62
481.188	200.62
481.406	170.62
481.624	97.62
481.843	92.62
482.061	84.62
482.28	84.62
482.498	88.62
482.717	94.62
482.935	84.62
483.153	87.62
483.372	94.62
483.59	84.62
483.808	93.62
484.027	90.62
484.245	96.62
484.463	96.62
484.681	85.62
484.9	97.62
485.118	105.62
485.336	84.62
485.554	89.62
485.772	121.62
485.99	116.62
486.209	96.62
486.427	92.62
486.645	106.62
486.863	115.62
487.081	89.62
487.299	109.62
487.517	103.62
487.735	92.62
487.953	91.62
488.171	101.62
488.389	96.62
488.607	103.62
488.825	91.62
489.043	96.62
489.261	91.62
489.479	79.62
489.696	100.62
489.914	84.62
490.132	93.62
490.35	98.62
490.568	105.62
490.786	101.62
491.003	90.62
491.221	86.62
491.439	96.62
491.657	99.62
491.874	84.62
492.092	86.62
492.31	87.62
492.527	102.62
492.745	86.62
492.963	90.62
493.18	85.62
493.398	101.62
493.615	104.62
493.833	91.62
494.05	94.62
494.268	90.62
494.485	73.62
494.703	84.62
494.92	87.62
495.138	94.62
495.355	83.62
495.573	86.62
495.79	95.62
496.008	84.62
496.225	89.62
496.442	94.62
496.66	92.62
496.877	83.62
497.094	96.62
497.312	84.62
497.529	70.62
497.746	98.62
497.963	98.62
498.181	89.62
498.398	101.62
498.615	107.62
498.832	89.62
499.049	88.62
499.267	101.62
499.484	85.62
499.701	91.62
499.918	86.62
500.135	97.62
500.352	105.62
500.569	92.62
500.786	88.62
501.003	92.62
501.22	87.62
501.437	95.62
501.654	92.62
501.871	88.62
502.088	85.62
502.305	82.62
502.522	91.62
502.739	90.62
502.956	97.62
503.172	102.62
503.389	105.62
503.606	99.62
503.823	103.62
504.04	93.62
504.256	87.62
504.473	78.62
504.69	94.62
504.907	96.62
505.123	100.62
505.34	99.62
505.557	103.62
505.773	85.62
505.99	80.62
506.207	85.62
506.423	77.62
506.64	77.62
506.856	94.62
507.073	83.62
507.289	102.62
507.506	96.62
507.722	117.62
507.939	98.62
508.155	100.62
508.372	87.62
508.588	96.62
508.805	98.62
509.021	86.62
509.238	92.62
509.454	97.62
509.67	105.62
509.887	100.62
510.103	116.62
510.319	173.62
510.536	533.62
510.752	1607.62
510.968	478.62
511.184	136.62
511.401	93.62
511.617	91.62
511.833	91.62
512.049	83.62
512.265	92.62
512.481	84.62
512.698	98.62
512.914	97.62
513.13	98.62
513.346	96.62
513.562	104.62
513.778	89.62
513.994	100.62
514.21	80.62
514.426	95.62
514.642	103.62
514.858	102.62
515.074	137.62
515.29	278.62
515.506	914.62
515.721	355.62
