Data from Circ_1984_H10_HRD10591_00052.txt Node
Date: Wed Jan 03 12:22:52 EST 2024
User: Yrep
Spectrometer: HR+D1059
Trigger mode: 1
Integration Time (sec): 1.000000E-1
Scans to average: 1
Electric dark correction enabled: true
Nonlinearity correction enabled: false
Boxcar width: 0
XAxis mode: Wavelengths
Number of Pixels in Spectrum: 2048
>>>>>Begin Spectral Data<<<<<
223.165	-11.81
223.4	-11.81
223.635	-11.81
223.869	-26.81
224.104	-12.81
224.338	-7.81
224.573	-15.81
224.808	-15.81
225.042	5.19
225.277	-7.81
225.511	-10.81
225.746	3.19
225.98	7.19
226.215	21.19
226.449	6.19
226.683	22.19
226.918	9.19
227.152	35.19
227.387	41.19
227.621	52.19
227.856	48.19
228.09	40.19
228.324	59.19
228.559	54.19
228.793	71.19
229.027	65.19
229.262	61.19
229.496	77.19
229.73	78.19
229.964	82.19
230.199	72.19
230.433	70.19
230.667	89.19
230.901	81.19
231.136	73.19
231.37	83.19
231.604	75.19
231.838	80.19
232.072	79.19
232.306	77.19
232.541	89.19
232.775	86.19
233.009	94.19
233.243	89.19
233.477	96.19
233.711	72.19
233.945	94.19
234.179	81.19
234.413	83.19
234.647	90.19
234.881	90.19
235.115	75.19
235.349	82.19
235.583	76.19
235.817	81.19
236.051	69.19
236.285	83.19
236.519	85.19
236.753	84.19
236.987	77.19
237.221	87.19
237.455	73.19
237.689	90.19
237.922	70.19
238.156	89.19
238.39	83.19
238.624	75.19
238.858	77.19
239.091	72.19
239.325	65.19
239.559	97.19
239.793	74.19
240.027	81.19
240.26	89.19
240.494	74.19
240.728	86.19
240.961	73.19
241.195	66.19
241.429	74.19
241.662	86.19
241.896	71.19
242.13	75.19
242.363	83.19
242.597	73.19
242.83	77.19
243.064	76.19
243.298	68.19
243.531	93.19
243.765	83.19
243.998	82.19
244.232	74.19
244.465	88.19
244.699	96.19
244.932	81.19
245.166	97.19
245.399	68.19
245.633	83.19
245.866	93.19
246.099	73.19
246.333	86.19
246.566	78.19
246.8	81.19
247.033	87.19
247.266	78.19
247.5	87.19
247.733	81.19
247.966	77.19
248.2	84.19
248.433	99.19
248.666	78.19
248.899	92.19
249.133	82.19
249.366	105.19
249.599	90.19
249.832	91.19
250.066	81.19
250.299	80.19
250.532	75.19
250.765	74.19
250.998	88.19
251.231	91.19
251.465	85.19
251.698	76.19
251.931	73.19
252.164	84.19
252.397	86.19
252.63	86.19
252.863	99.19
253.096	68.19
253.329	84.19
253.562	85.19
253.795	81.19
254.028	78.19
254.261	89.19
254.494	105.19
254.727	91.19
254.96	94.19
255.193	92.19
255.426	79.19
255.659	93.19
255.892	86.19
256.124	82.19
256.357	96.19
256.59	84.19
256.823	88.19
257.056	95.19
257.289	81.19
257.521	78.19
257.754	74.19
257.987	98.19
258.22	86.19
258.452	81.19
258.685	88.19
258.918	87.19
259.151	89.19
259.383	78.19
259.616	94.19
259.849	77.19
260.081	81.19
260.314	88.19
260.547	94.19
260.779	77.19
261.012	94.19
261.244	95.19
261.477	98.19
261.71	84.19
261.942	117.19
262.175	115.19
262.407	95.19
262.64	91.19
262.872	85.19
263.105	89.19
263.337	94.19
263.57	88.19
263.802	89.19
264.035	80.19
264.267	90.19
264.499	90.19
264.732	91.19
264.964	90.19
265.197	71.19
265.429	92.19
265.661	104.19
265.894	97.19
266.126	89.19
266.358	90.19
266.591	88.19
266.823	82.19
267.055	90.19
267.287	87.19
267.52	89.19
267.752	82.19
267.984	107.19
268.216	94.19
268.448	73.19
268.681	76.19
268.913	82.19
269.145	92.19
269.377	101.19
269.609	75.19
269.841	97.19
270.073	102.19
270.306	85.19
270.538	85.19
270.77	75.19
271.002	81.19
271.234	81.19
271.466	79.19
271.698	85.19
271.93	85.19
272.162	100.19
272.394	99.19
272.626	91.19
272.858	73.19
273.09	99.19
273.322	90.19
273.553	74.19
273.785	86.19
274.017	75.19
274.249	79.19
274.481	85.19
274.713	87.19
274.945	96.19
275.176	96.19
275.408	90.19
275.64	99.19
275.872	99.19
276.104	95.19
276.335	93.19
276.567	104.19
276.799	104.19
277.031	104.19
277.262	108.19
277.494	97.19
277.726	105.19
277.957	100.19
278.189	85.19
278.421	88.19
278.652	84.19
278.884	87.19
279.115	102.19
279.347	83.19
279.579	102.19
279.81	93.19
280.042	84.19
280.273	97.19
280.505	88.19
280.736	85.19
280.968	88.19
281.199	84.19
281.431	93.19
281.662	94.19
281.894	100.19
282.125	93.19
282.356	106.19
282.588	137.19
282.819	102.19
283.051	84.19
283.282	96.19
283.513	100.19
283.745	91.19
283.976	83.19
284.207	84.19
284.439	100.19
284.67	95.19
284.901	89.19
285.132	89.19
285.364	89.19
285.595	100.19
285.826	98.19
286.057	88.19
286.288	92.19
286.52	94.19
286.751	79.19
286.982	83.19
287.213	92.19
287.444	97.19
287.675	92.19
287.906	89.19
288.138	87.19
288.369	85.19
288.6	91.19
288.831	78.19
289.062	89.19
289.293	93.19
289.524	100.19
289.755	83.19
289.986	102.19
290.217	102.19
290.448	91.19
290.679	98.19
290.91	89.19
291.141	90.19
291.371	89.19
291.602	93.19
291.833	91.19
292.064	89.19
292.295	99.19
292.526	83.19
292.757	91.19
292.987	79.19
293.218	89.19
293.449	86.19
293.68	97.19
293.91	89.19
294.141	101.19
294.372	90.19
294.603	95.19
294.833	93.19
295.064	91.19
295.295	92.19
295.525	104.19
295.756	107.19
295.987	117.19
296.217	126.19
296.448	116.19
296.679	95.19
296.909	96.19
297.14	95.19
297.37	76.19
297.601	101.19
297.831	83.19
298.062	90.19
298.292	89.19
298.523	102.19
298.753	96.19
298.984	89.19
299.214	78.19
299.445	104.19
299.675	90.19
299.905	102.19
300.136	104.19
300.366	88.19
300.597	91.19
300.827	95.19
301.057	93.19
301.288	98.19
301.518	81.19
301.748	99.19
301.979	106.19
302.209	99.19
302.439	89.19
302.669	84.19
302.9	104.19
303.13	86.19
303.36	93.19
303.59	111.19
303.82	115.19
304.051	97.19
304.281	97.19
304.511	92.19
304.741	93.19
304.971	90.19
305.201	91.19
305.431	90.19
305.661	87.19
305.891	96.19
306.121	100.19
306.352	105.19
306.582	107.19
306.812	98.19
307.042	100.19
307.272	95.19
307.502	106.19
307.731	102.19
307.961	88.19
308.191	113.19
308.421	99.19
308.651	93.19
308.881	89.19
309.111	85.19
309.341	94.19
309.571	105.19
309.8	103.19
310.03	94.19
310.26	98.19
310.49	108.19
310.72	91.19
310.949	105.19
311.179	94.19
311.409	99.19
311.639	91.19
311.868	92.19
312.098	98.19
312.328	98.19
312.557	105.19
312.787	101.19
313.017	103.19
313.246	92.19
313.476	102.19
313.706	102.19
313.935	107.19
314.165	102.19
314.394	98.19
314.624	105.19
314.853	83.19
315.083	97.19
315.312	92.19
315.542	102.19
315.771	94.19
316.001	93.19
316.23	88.19
316.46	83.19
316.689	90.19
316.919	93.19
317.148	91.19
317.377	107.19
317.607	93.19
317.836	92.19
318.065	89.19
318.295	82.19
318.524	94.19
318.753	96.19
318.983	100.19
319.212	87.19
319.441	106.19
319.67	94.19
319.9	77.19
320.129	91.19
320.358	96.19
320.587	106.19
320.816	103.19
321.046	111.19
321.275	108.19
321.504	106.19
321.733	118.19
321.962	98.19
322.191	111.19
322.42	101.19
322.649	108.19
322.878	111.19
323.108	118.19
323.337	126.19
323.566	140.19
323.795	146.19
324.024	173.19
324.253	309.19
324.482	677.19
324.71	1414.19
324.939	1846.19
325.168	712.19
325.397	233.19
325.626	143.19
325.855	122.19
326.084	117.19
326.313	134.19
326.542	130.19
326.77	202.19
326.999	394.19
327.228	792.19
327.457	1404.19
327.686	1121.19
327.914	341.19
328.143	218.19
328.372	182.19
328.6	147.19
328.829	121.19
329.058	109.19
329.287	131.19
329.515	123.19
329.744	103.19
329.972	149.19
330.201	219.19
330.43	278.19
330.658	168.19
330.887	165.19
331.115	123.19
331.344	115.19
331.572	102.19
331.801	99.19
332.03	102.19
332.258	84.19
332.486	117.19
332.715	97.19
332.943	109.19
333.172	103.19
333.4	111.19
333.629	107.19
333.857	126.19
334.085	143.19
334.314	227.19
334.542	328.19
334.771	319.19
334.999	155.19
335.227	97.19
335.455	111.19
335.684	86.19
335.912	109.19
336.14	103.19
336.369	99.19
336.597	111.19
336.825	102.19
337.053	93.19
337.281	101.19
337.51	95.19
337.738	95.19
337.966	87.19
338.194	106.19
338.422	96.19
338.65	95.19
338.878	83.19
339.106	90.19
339.334	89.19
339.562	95.19
339.79	87.19
340.018	89.19
340.246	94.19
340.474	97.19
340.702	71.19
340.93	83.19
341.158	99.19
341.386	90.19
341.614	109.19
341.842	107.19
342.07	97.19
342.298	103.19
342.526	100.19
342.754	79.19
342.981	92.19
343.209	97.19
343.437	86.19
343.665	94.19
343.893	89.19
344.12	99.19
344.348	101.19
344.576	97.19
344.804	99.19
345.031	89.19
345.259	74.19
345.487	85.19
345.714	103.19
345.942	103.19
346.17	93.19
346.397	89.19
346.625	90.19
346.853	114.19
347.08	89.19
347.308	107.19
347.535	101.19
347.763	108.19
347.99	97.19
348.218	99.19
348.445	96.19
348.673	95.19
348.9	108.19
349.128	84.19
349.355	89.19
349.583	86.19
349.81	92.19
350.037	93.19
350.265	93.19
350.492	100.19
350.72	99.19
350.947	99.19
351.174	111.19
351.402	119.19
351.629	93.19
351.856	99.19
352.083	105.19
352.311	108.19
352.538	103.19
352.765	103.19
352.992	118.19
353.22	103.19
353.447	106.19
353.674	98.19
353.901	94.19
354.128	110.19
354.355	97.19
354.583	102.19
354.81	96.19
355.037	95.19
355.264	92.19
355.491	91.19
355.718	81.19
355.945	102.19
356.172	93.19
356.399	101.19
356.626	95.19
356.853	97.19
357.08	85.19
357.307	94.19
357.534	78.19
357.761	88.19
357.988	88.19
358.215	101.19
358.441	106.19
358.668	108.19
358.895	114.19
359.122	91.19
359.349	99.19
359.576	87.19
359.802	109.19
360.029	111.19
360.256	113.19
360.483	96.19
360.709	88.19
360.936	100.19
361.163	98.19
361.39	86.19
361.616	85.19
361.843	90.19
362.07	87.19
362.296	89.19
362.523	88.19
362.749	94.19
362.976	106.19
363.203	102.19
363.429	84.19
363.656	100.19
363.882	84.19
364.109	91.19
364.335	102.19
364.562	95.19
364.788	97.19
365.015	97.19
365.241	103.19
365.468	99.19
365.694	100.19
365.92	88.19
366.147	101.19
366.373	92.19
366.599	97.19
366.826	98.19
367.052	78.19
367.278	79.19
367.505	95.19
367.731	83.19
367.957	107.19
368.184	98.19
368.41	102.19
368.636	104.19
368.862	125.19
369.089	105.19
369.315	88.19
369.541	96.19
369.767	80.19
369.993	100.19
370.219	97.19
370.445	89.19
370.672	87.19
370.898	85.19
371.124	65.19
371.35	99.19
371.576	78.19
371.802	95.19
372.028	84.19
372.254	105.19
372.48	85.19
372.706	84.19
372.932	90.19
373.158	82.19
373.384	91.19
373.61	95.19
373.835	91.19
374.061	104.19
374.287	95.19
374.513	91.19
374.739	97.19
374.965	87.19
375.191	84.19
375.416	85.19
375.642	91.19
375.868	94.19
376.094	73.19
376.319	87.19
376.545	90.19
376.771	85.19
376.997	92.19
377.222	106.19
377.448	108.19
377.674	84.19
377.899	100.19
378.125	98.19
378.35	100.19
378.576	71.19
378.802	87.19
379.027	93.19
379.253	90.19
379.478	98.19
379.704	109.19
379.929	101.19
380.155	84.19
380.38	105.19
380.606	110.19
380.831	101.19
381.057	101.19
381.282	85.19
381.507	101.19
381.733	91.19
381.958	100.19
382.184	102.19
382.409	101.19
382.634	86.19
382.86	107.19
383.085	104.19
383.31	113.19
383.535	110.19
383.761	98.19
383.986	99.19
384.211	97.19
384.436	100.19
384.662	108.19
384.887	125.19
385.112	104.19
385.337	90.19
385.562	98.19
385.787	99.19
386.013	106.19
386.238	112.19
386.463	114.19
386.688	97.19
386.913	101.19
387.138	100.19
387.363	87.19
387.588	114.19
387.813	96.19
388.038	100.19
388.263	129.19
388.488	107.19
388.713	101.19
388.938	89.19
389.163	95.19
389.387	95.19
389.612	80.19
389.837	102.19
390.062	89.19
390.287	89.19
390.512	93.19
390.736	89.19
390.961	100.19
391.186	103.19
391.411	87.19
391.636	81.19
391.86	81.19
392.085	88.19
392.31	82.19
392.534	101.19
392.759	99.19
392.984	87.19
393.208	99.19
393.433	94.19
393.658	94.19
393.882	79.19
394.107	103.19
394.331	91.19
394.556	91.19
394.78	90.19
395.005	83.19
395.229	76.19
395.454	98.19
395.678	96.19
395.903	101.19
396.127	78.19
396.352	88.19
396.576	100.19
396.801	83.19
397.025	93.19
397.249	93.19
397.474	102.19
397.698	75.19
397.922	75.19
398.147	84.19
398.371	96.19
398.595	92.19
398.82	76.19
399.044	87.19
399.268	93.19
399.492	100.19
399.717	99.19
399.941	91.19
400.165	102.19
400.389	84.19
400.613	79.19
400.837	74.19
401.062	82.19
401.286	85.19
401.51	85.19
401.734	95.19
401.958	99.19
402.182	114.19
402.406	151.19
402.63	122.19
402.854	104.19
403.078	76.19
403.302	100.19
403.526	89.19
403.75	90.19
403.974	95.19
404.198	93.19
404.422	87.19
404.645	87.19
404.869	96.19
405.093	95.19
405.317	112.19
405.541	106.19
405.765	100.19
405.988	120.19
406.212	187.19
406.436	214.19
406.66	146.19
406.883	111.19
407.107	95.19
407.331	98.19
407.555	88.19
407.778	99.19
408.002	101.19
408.226	92.19
408.449	96.19
408.673	93.19
408.896	96.19
409.12	105.19
409.344	92.19
409.567	90.19
409.791	101.19
410.014	108.19
410.238	88.19
410.461	95.19
410.685	101.19
410.908	100.19
411.132	108.19
411.355	97.19
411.578	86.19
411.802	90.19
412.025	101.19
412.249	101.19
412.472	104.19
412.695	92.19
412.919	100.19
413.142	101.19
413.365	98.19
413.589	103.19
413.812	96.19
414.035	92.19
414.258	90.19
414.482	101.19
414.705	93.19
414.928	85.19
415.151	88.19
415.374	74.19
415.597	97.19
415.821	101.19
416.044	82.19
416.267	75.19
416.49	91.19
416.713	94.19
416.936	85.19
417.159	97.19
417.382	88.19
417.605	76.19
417.828	85.19
418.051	89.19
418.274	98.19
418.497	92.19
418.72	89.19
418.943	98.19
419.166	89.19
419.389	104.19
419.611	94.19
419.834	73.19
420.057	96.19
420.28	98.19
420.503	91.19
420.726	72.19
420.948	81.19
421.171	94.19
421.394	105.19
421.617	83.19
421.839	93.19
422.062	82.19
422.285	109.19
422.507	89.19
422.73	106.19
422.953	110.19
423.175	76.19
423.398	74.19
423.621	93.19
423.843	89.19
424.066	87.19
424.288	92.19
424.511	98.19
424.733	90.19
424.956	108.19
425.178	97.19
425.401	110.19
425.623	83.19
425.846	91.19
426.068	96.19
426.291	104.19
426.513	88.19
426.735	102.19
426.958	107.19
427.18	97.19
427.402	101.19
427.625	156.19
427.847	137.19
428.069	122.19
428.292	99.19
428.514	83.19
428.736	93.19
428.958	94.19
429.181	84.19
429.403	101.19
429.625	97.19
429.847	100.19
430.069	93.19
430.292	101.19
430.514	90.19
430.736	73.19
430.958	95.19
431.18	77.19
431.402	103.19
431.624	110.19
431.846	93.19
432.068	82.19
432.29	95.19
432.512	77.19
432.734	90.19
432.956	87.19
433.178	107.19
433.4	109.19
433.622	98.19
433.844	83.19
434.066	78.19
434.287	103.19
434.509	98.19
434.731	98.19
434.953	94.19
435.175	82.19
435.397	92.19
435.618	100.19
435.84	90.19
436.062	115.19
436.284	106.19
436.505	97.19
436.727	93.19
436.949	86.19
437.17	100.19
437.392	97.19
437.614	102.19
437.835	92.19
438.057	100.19
438.278	120.19
438.5	99.19
438.721	114.19
438.943	99.19
439.165	95.19
439.386	69.19
439.608	105.19
439.829	106.19
440.05	115.19
440.272	133.19
440.493	93.19
440.715	86.19
440.936	98.19
441.158	85.19
441.379	87.19
441.6	86.19
441.822	96.19
442.043	89.19
442.264	99.19
442.486	104.19
442.707	86.19
442.928	96.19
443.149	136.19
443.371	137.19
443.592	106.19
443.813	120.19
444.034	107.19
444.255	89.19
444.476	84.19
444.698	88.19
444.919	87.19
445.14	130.19
445.361	129.19
445.582	106.19
445.803	125.19
446.024	123.19
446.245	132.19
446.466	101.19
446.687	83.19
446.908	98.19
447.129	82.19
447.35	84.19
447.571	90.19
447.792	89.19
448.013	102.19
448.234	111.19
448.455	97.19
448.675	107.19
448.896	110.19
449.117	100.19
449.338	83.19
449.559	118.19
449.779	109.19
450	112.19
450.221	89.19
450.442	94.19
450.662	111.19
450.883	118.19
451.104	121.19
451.324	84.19
451.545	98.19
451.766	82.19
451.986	97.19
452.207	88.19
452.428	102.19
452.648	93.19
452.869	108.19
453.089	110.19
453.31	124.19
453.53	99.19
453.751	89.19
453.971	101.19
454.192	116.19
454.412	97.19
454.633	90.19
454.853	67.19
455.073	92.19
455.294	83.19
455.514	89.19
455.734	98.19
455.955	99.19
456.175	87.19
456.395	94.19
456.616	88.19
456.836	89.19
457.056	85.19
457.276	85.19
457.497	86.19
457.717	92.19
457.937	101.19
458.157	86.19
458.377	78.19
458.598	105.19
458.818	133.19
459.038	144.19
459.258	113.19
459.478	85.19
459.698	86.19
459.918	88.19
460.138	84.19
460.358	106.19
460.578	85.19
460.798	94.19
461.018	110.19
461.238	100.19
461.458	94.19
461.678	86.19
461.898	90.19
462.118	93.19
462.338	88.19
462.558	87.19
462.777	91.19
462.997	97.19
463.217	81.19
463.437	85.19
463.657	99.19
463.876	83.19
464.096	93.19
464.316	84.19
464.536	98.19
464.755	103.19
464.975	113.19
465.195	163.19
465.414	146.19
465.634	94.19
465.854	98.19
466.073	85.19
466.293	87.19
466.512	93.19
466.732	92.19
466.951	83.19
467.171	114.19
467.391	88.19
467.61	104.19
467.829	112.19
468.049	157.19
468.268	187.19
468.488	101.19
468.707	97.19
468.927	76.19
469.146	94.19
469.365	83.19
469.585	72.19
469.804	98.19
470.023	96.19
470.243	90.19
470.462	109.19
470.681	100.19
470.901	72.19
471.12	97.19
471.339	92.19
471.558	88.19
471.777	96.19
471.997	118.19
472.216	241.19
472.435	391.19
472.654	167.19
472.873	110.19
473.092	86.19
473.311	83.19
473.53	101.19
473.749	85.19
473.968	106.19
474.187	118.19
474.406	107.19
474.625	101.19
474.844	100.19
475.063	91.19
475.282	87.19
475.501	81.19
475.72	87.19
475.939	87.19
476.158	78.19
476.377	92.19
476.596	86.19
476.814	87.19
477.033	95.19
477.252	99.19
477.471	86.19
477.69	102.19
477.908	93.19
478.127	85.19
478.346	107.19
478.564	99.19
478.783	100.19
479.002	83.19
479.22	87.19
479.439	83.19
479.658	106.19
479.876	90.19
480.095	96.19
480.313	111.19
480.532	113.19
480.751	118.19
480.969	227.19
481.188	714.19
481.406	429.19
481.624	142.19
481.843	97.19
482.061	96.19
482.28	80.19
482.498	87.19
482.717	91.19
482.935	95.19
483.153	86.19
483.372	99.19
483.59	92.19
483.808	92.19
484.027	93.19
484.245	95.19
484.463	99.19
484.681	99.19
484.9	92.19
485.118	93.19
485.336	95.19
485.554	101.19
485.772	93.19
485.99	103.19
486.209	114.19
486.427	106.19
486.645	100.19
486.863	100.19
487.081	107.19
487.299	121.19
487.517	91.19
487.735	106.19
487.953	83.19
488.171	93.19
488.389	101.19
488.607	85.19
488.825	104.19
489.043	91.19
489.261	95.19
489.479	93.19
489.696	92.19
489.914	97.19
490.132	102.19
490.35	94.19
490.568	89.19
490.786	97.19
491.003	91.19
491.221	94.19
491.439	90.19
491.657	110.19
491.874	91.19
492.092	99.19
492.31	102.19
492.527	92.19
492.745	88.19
492.963	77.19
493.18	76.19
493.398	88.19
493.615	95.19
493.833	84.19
494.05	105.19
494.268	98.19
494.485	101.19
494.703	84.19
494.92	97.19
495.138	83.19
495.355	99.19
495.573	90.19
495.79	98.19
496.008	91.19
496.225	95.19
496.442	81.19
496.66	98.19
496.877	92.19
497.094	102.19
497.312	103.19
497.529	95.19
497.746	90.19
497.963	77.19
498.181	99.19
498.398	90.19
498.615	116.19
498.832	106.19
499.049	92.19
499.267	102.19
499.484	98.19
499.701	94.19
499.918	90.19
500.135	106.19
500.352	85.19
500.569	85.19
500.786	104.19
501.003	95.19
501.22	99.19
501.437	97.19
501.654	105.19
501.871	112.19
502.088	109.19
502.305	82.19
502.522	87.19
502.739	77.19
502.956	101.19
503.172	85.19
503.389	87.19
503.606	100.19
503.823	99.19
504.04	96.19
504.256	97.19
504.473	101.19
504.69	74.19
504.907	98.19
505.123	101.19
505.34	95.19
505.557	101.19
505.773	97.19
505.99	78.19
506.207	95.19
506.423	97.19
506.64	85.19
506.856	97.19
507.073	93.19
507.289	101.19
507.506	107.19
507.722	117.19
507.939	119.19
508.155	102.19
508.372	79.19
508.588	97.19
508.805	104.19
509.021	94.19
509.238	101.19
509.454	109.19
509.67	94.19
509.887	114.19
510.103	137.19
510.319	211.19
510.536	716.19
510.752	2250.19
510.968	626.19
511.184	151.19
511.401	120.19
511.617	110.19
511.833	85.19
512.049	105.19
512.265	81.19
512.481	92.19
512.698	97.19
512.914	94.19
513.13	97.19
513.346	100.19
513.562	102.19
513.778	98.19
513.994	102.19
514.21	101.19
