Data from Circ_1984_H10_HRD10591_00015.txt Node
Date: Wed Jan 03 12:22:45 EST 2024
User: Yrep
Spectrometer: HR+D1059
Trigger mode: 1
Integration Time (sec): 1.000000E-1
Scans to average: 1
Electric dark correction enabled: true
Nonlinearity correction enabled: false
Boxcar width: 0
XAxis mode: Wavelengths
Number of Pixels in Spectrum: 2048
>>>>>Begin Spectral Data<<<<<
223.165	-20.94
223.4	-20.94
223.635	-20.94
223.869	-30.94
224.104	-11.94
224.338	-4.94
224.573	-17.94
224.808	-7.94
225.042	-13.94
225.277	-25.94
225.511	0.06
225.746	3.06
225.98	5.06
226.215	21.06
226.449	19.06
226.683	19.06
226.918	29.06
227.152	38.06
227.387	40.06
227.621	32.06
227.856	39.06
228.09	44.06
228.324	41.06
228.559	62.06
228.793	41.06
229.027	57.06
229.262	57.06
229.496	70.06
229.73	86.06
229.964	76.06
230.199	87.06
230.433	84.06
230.667	74.06
230.901	87.06
231.136	81.06
231.37	82.06
231.604	64.06
231.838	70.06
232.072	65.06
232.306	72.06
232.541	93.06
232.775	80.06
233.009	86.06
233.243	80.06
233.477	86.06
233.711	87.06
233.945	89.06
234.179	79.06
234.413	86.06
234.647	75.06
234.881	82.06
235.115	78.06
235.349	75.06
235.583	83.06
235.817	74.06
236.051	84.06
236.285	75.06
236.519	78.06
236.753	78.06
236.987	82.06
237.221	92.06
237.455	76.06
237.689	55.06
237.922	61.06
238.156	85.06
238.39	68.06
238.624	64.06
238.858	65.06
239.091	79.06
239.325	80.06
239.559	96.06
239.793	82.06
240.027	74.06
240.26	71.06
240.494	87.06
240.728	70.06
240.961	76.06
241.195	82.06
241.429	75.06
241.662	94.06
241.896	93.06
242.13	85.06
242.363	80.06
242.597	79.06
242.83	68.06
243.064	68.06
243.298	84.06
243.531	76.06
243.765	80.06
243.998	74.06
244.232	90.06
244.465	79.06
244.699	83.06
244.932	87.06
245.166	79.06
245.399	88.06
245.633	74.06
245.866	75.06
246.099	82.06
246.333	83.06
246.566	80.06
246.8	85.06
247.033	81.06
247.266	67.06
247.5	88.06
247.733	82.06
247.966	90.06
248.2	94.06
248.433	70.06
248.666	68.06
248.899	82.06
249.133	70.06
249.366	90.06
249.599	95.06
249.832	79.06
250.066	73.06
250.299	85.06
250.532	97.06
250.765	72.06
250.998	84.06
251.231	74.06
251.465	78.06
251.698	72.06
251.931	87.06
252.164	72.06
252.397	87.06
252.63	78.06
252.863	81.06
253.096	82.06
253.329	82.06
253.562	82.06
253.795	97.06
254.028	91.06
254.261	81.06
254.494	75.06
254.727	84.06
254.96	84.06
255.193	62.06
255.426	91.06
255.659	76.06
255.892	70.06
256.124	62.06
256.357	63.06
256.59	67.06
256.823	75.06
257.056	80.06
257.289	80.06
257.521	91.06
257.754	82.06
257.987	72.06
258.22	75.06
258.452	82.06
258.685	76.06
258.918	81.06
259.151	67.06
259.383	76.06
259.616	74.06
259.849	70.06
260.081	86.06
260.314	76.06
260.547	80.06
260.779	88.06
261.012	89.06
261.244	75.06
261.477	90.06
261.71	85.06
261.942	114.06
262.175	100.06
262.407	89.06
262.64	79.06
262.872	91.06
263.105	84.06
263.337	77.06
263.57	80.06
263.802	84.06
264.035	93.06
264.267	73.06
264.499	95.06
264.732	84.06
264.964	75.06
265.197	68.06
265.429	74.06
265.661	70.06
265.894	78.06
266.126	83.06
266.358	82.06
266.591	104.06
266.823	88.06
267.055	85.06
267.287	86.06
267.52	80.06
267.752	79.06
267.984	84.06
268.216	80.06
268.448	74.06
268.681	91.06
268.913	87.06
269.145	93.06
269.377	81.06
269.609	85.06
269.841	80.06
270.073	82.06
270.306	71.06
270.538	91.06
270.77	81.06
271.002	75.06
271.234	82.06
271.466	90.06
271.698	75.06
271.93	84.06
272.162	64.06
272.394	75.06
272.626	83.06
272.858	88.06
273.09	98.06
273.322	83.06
273.553	87.06
273.785	68.06
274.017	78.06
274.249	87.06
274.481	79.06
274.713	91.06
274.945	91.06
275.176	95.06
275.408	91.06
275.64	98.06
275.872	84.06
276.104	95.06
276.335	84.06
276.567	91.06
276.799	109.06
277.031	103.06
277.262	85.06
277.494	84.06
277.726	96.06
277.957	91.06
278.189	82.06
278.421	98.06
278.652	86.06
278.884	82.06
279.115	95.06
279.347	88.06
279.579	86.06
279.81	74.06
280.042	82.06
280.273	86.06
280.505	79.06
280.736	86.06
280.968	91.06
281.199	68.06
281.431	88.06
281.662	96.06
281.894	91.06
282.125	95.06
282.356	95.06
282.588	117.06
282.819	98.06
283.051	89.06
283.282	91.06
283.513	88.06
283.745	82.06
283.976	92.06
284.207	109.06
284.439	106.06
284.67	85.06
284.901	86.06
285.132	96.06
285.364	81.06
285.595	108.06
285.826	88.06
286.057	90.06
286.288	90.06
286.52	85.06
286.751	94.06
286.982	81.06
287.213	94.06
287.444	75.06
287.675	86.06
287.906	91.06
288.138	85.06
288.369	88.06
288.6	92.06
288.831	94.06
289.062	99.06
289.293	94.06
289.524	97.06
289.755	101.06
289.986	88.06
290.217	89.06
290.448	94.06
290.679	97.06
290.91	93.06
291.141	88.06
291.371	90.06
291.602	87.06
291.833	82.06
292.064	94.06
292.295	94.06
292.526	81.06
292.757	82.06
292.987	89.06
293.218	92.06
293.449	83.06
293.68	79.06
293.91	94.06
294.141	75.06
294.372	103.06
294.603	75.06
294.833	90.06
295.064	96.06
295.295	88.06
295.525	84.06
295.756	97.06
295.987	109.06
296.217	122.06
296.448	120.06
296.679	82.06
296.909	98.06
297.14	78.06
297.37	94.06
297.601	97.06
297.831	66.06
298.062	85.06
298.292	90.06
298.523	86.06
298.753	102.06
298.984	98.06
299.214	97.06
299.445	94.06
299.675	73.06
299.905	86.06
300.136	79.06
300.366	92.06
300.597	99.06
300.827	87.06
301.057	91.06
301.288	103.06
301.518	98.06
301.748	97.06
301.979	84.06
302.209	99.06
302.439	85.06
302.669	81.06
302.9	78.06
303.13	80.06
303.36	84.06
303.59	92.06
303.82	92.06
304.051	103.06
304.281	82.06
304.511	88.06
304.741	89.06
304.971	86.06
305.201	89.06
305.431	85.06
305.661	96.06
305.891	86.06
306.121	82.06
306.352	89.06
306.582	102.06
306.812	91.06
307.042	94.06
307.272	75.06
307.502	96.06
307.731	106.06
307.961	96.06
308.191	100.06
308.421	95.06
308.651	95.06
308.881	79.06
309.111	75.06
309.341	88.06
309.571	97.06
309.8	93.06
310.03	95.06
310.26	86.06
310.49	94.06
310.72	100.06
310.949	97.06
311.179	92.06
311.409	96.06
311.639	88.06
311.868	110.06
312.098	100.06
312.328	95.06
312.557	104.06
312.787	104.06
313.017	74.06
313.246	92.06
313.476	78.06
313.706	86.06
313.935	89.06
314.165	93.06
314.394	101.06
314.624	78.06
314.853	87.06
315.083	90.06
315.312	92.06
315.542	99.06
315.771	95.06
316.001	104.06
316.23	90.06
316.46	80.06
316.689	96.06
316.919	95.06
317.148	96.06
317.377	73.06
317.607	82.06
317.836	98.06
318.065	86.06
318.295	83.06
318.524	81.06
318.753	93.06
318.983	85.06
319.212	87.06
319.441	106.06
319.67	105.06
319.9	97.06
320.129	100.06
320.358	90.06
320.587	89.06
320.816	107.06
321.046	88.06
321.275	96.06
321.504	106.06
321.733	80.06
321.962	100.06
322.191	96.06
322.42	99.06
322.649	110.06
322.878	88.06
323.108	90.06
323.337	112.06
323.566	130.06
323.795	123.06
324.024	162.06
324.253	290.06
324.482	622.06
324.71	1218.06
324.939	1647.06
325.168	616.06
325.397	202.06
325.626	134.06
325.855	111.06
326.084	116.06
326.313	130.06
326.542	118.06
326.77	186.06
326.999	347.06
327.228	709.06
327.457	1291.06
327.686	1032.06
327.914	307.06
328.143	186.06
328.372	149.06
328.6	129.06
328.829	103.06
329.058	120.06
329.287	120.06
329.515	108.06
329.744	95.06
329.972	111.06
330.201	122.06
330.43	152.06
330.658	128.06
330.887	112.06
331.115	117.06
331.344	113.06
331.572	103.06
331.801	103.06
332.03	92.06
332.258	88.06
332.486	75.06
332.715	92.06
332.943	95.06
333.172	87.06
333.4	90.06
333.629	92.06
333.857	102.06
334.085	113.06
334.314	119.06
334.542	167.06
334.771	167.06
334.999	94.06
335.227	101.06
335.455	94.06
335.684	99.06
335.912	96.06
336.14	103.06
336.369	94.06
336.597	100.06
336.825	96.06
337.053	97.06
337.281	87.06
337.51	82.06
337.738	103.06
337.966	85.06
338.194	105.06
338.422	82.06
338.65	98.06
338.878	89.06
339.106	79.06
339.334	82.06
339.562	97.06
339.79	88.06
340.018	94.06
340.246	80.06
340.474	88.06
340.702	97.06
340.93	99.06
341.158	81.06
341.386	76.06
341.614	89.06
341.842	98.06
342.07	94.06
342.298	100.06
342.526	87.06
342.754	90.06
342.981	80.06
343.209	82.06
343.437	92.06
343.665	97.06
343.893	93.06
344.12	93.06
344.348	84.06
344.576	88.06
344.804	94.06
345.031	87.06
345.259	89.06
345.487	89.06
345.714	95.06
345.942	86.06
346.17	103.06
346.397	87.06
346.625	86.06
346.853	92.06
347.08	106.06
347.308	90.06
347.535	93.06
347.763	103.06
347.99	91.06
348.218	117.06
348.445	101.06
348.673	88.06
348.9	91.06
349.128	89.06
349.355	88.06
349.583	107.06
349.81	84.06
350.037	106.06
350.265	97.06
350.492	81.06
350.72	100.06
350.947	93.06
351.174	82.06
351.402	105.06
351.629	96.06
351.856	98.06
352.083	94.06
352.311	110.06
352.538	108.06
352.765	112.06
352.992	111.06
353.22	99.06
353.447	101.06
353.674	88.06
353.901	97.06
354.128	98.06
354.355	101.06
354.583	79.06
354.81	97.06
355.037	104.06
355.264	93.06
355.491	96.06
355.718	89.06
355.945	93.06
356.172	92.06
356.399	97.06
356.626	102.06
356.853	86.06
357.08	92.06
357.307	86.06
357.534	75.06
357.761	99.06
357.988	110.06
358.215	106.06
358.441	101.06
358.668	91.06
358.895	86.06
359.122	82.06
359.349	76.06
359.576	92.06
359.802	103.06
360.029	106.06
360.256	107.06
360.483	93.06
360.709	80.06
360.936	82.06
361.163	97.06
361.39	104.06
361.616	89.06
361.843	98.06
362.07	76.06
362.296	87.06
362.523	89.06
362.749	80.06
362.976	90.06
363.203	84.06
363.429	78.06
363.656	81.06
363.882	83.06
364.109	108.06
364.335	83.06
364.562	77.06
364.788	90.06
365.015	95.06
365.241	95.06
365.468	106.06
365.694	93.06
365.92	82.06
366.147	94.06
366.373	90.06
366.599	92.06
366.826	86.06
367.052	84.06
367.278	95.06
367.505	95.06
367.731	97.06
367.957	90.06
368.184	103.06
368.41	82.06
368.636	112.06
368.862	120.06
369.089	100.06
369.315	86.06
369.541	87.06
369.767	85.06
369.993	97.06
370.219	72.06
370.445	98.06
370.672	80.06
370.898	96.06
371.124	69.06
371.35	98.06
371.576	87.06
371.802	86.06
372.028	89.06
372.254	74.06
372.48	84.06
372.706	98.06
372.932	92.06
373.158	99.06
373.384	90.06
373.61	90.06
373.835	91.06
374.061	95.06
374.287	86.06
374.513	83.06
374.739	90.06
374.965	94.06
375.191	86.06
375.416	81.06
375.642	94.06
375.868	86.06
376.094	92.06
376.319	82.06
376.545	84.06
376.771	71.06
376.997	72.06
377.222	91.06
377.448	82.06
377.674	87.06
377.899	88.06
378.125	110.06
378.35	89.06
378.576	68.06
378.802	91.06
379.027	90.06
379.253	94.06
379.478	93.06
379.704	90.06
379.929	98.06
380.155	98.06
380.38	97.06
380.606	81.06
380.831	99.06
381.057	106.06
381.282	98.06
381.507	98.06
381.733	89.06
381.958	110.06
382.184	108.06
382.409	104.06
382.634	94.06
382.86	93.06
383.085	117.06
383.31	98.06
383.535	98.06
383.761	103.06
383.986	100.06
384.211	105.06
384.436	102.06
384.662	101.06
384.887	113.06
385.112	94.06
385.337	93.06
385.562	105.06
385.787	95.06
386.013	102.06
386.238	110.06
386.463	105.06
386.688	114.06
386.913	84.06
387.138	117.06
387.363	97.06
387.588	107.06
387.813	88.06
388.038	92.06
388.263	112.06
388.488	113.06
388.713	94.06
388.938	74.06
389.163	91.06
389.387	92.06
389.612	94.06
389.837	90.06
390.062	91.06
390.287	91.06
390.512	91.06
390.736	85.06
390.961	91.06
391.186	82.06
391.411	94.06
391.636	74.06
391.86	67.06
392.085	92.06
392.31	76.06
392.534	82.06
392.759	85.06
392.984	92.06
393.208	102.06
393.433	100.06
393.658	98.06
393.882	91.06
394.107	89.06
394.331	87.06
394.556	93.06
394.78	104.06
395.005	84.06
395.229	85.06
395.454	90.06
395.678	87.06
395.903	88.06
396.127	89.06
396.352	70.06
396.576	75.06
396.801	91.06
397.025	93.06
397.249	82.06
397.474	86.06
397.698	77.06
397.922	79.06
398.147	73.06
398.371	88.06
398.595	82.06
398.82	72.06
399.044	82.06
399.268	86.06
399.492	76.06
399.717	78.06
399.941	88.06
400.165	71.06
400.389	78.06
400.613	85.06
400.837	78.06
401.062	91.06
401.286	80.06
401.51	86.06
401.734	89.06
401.958	97.06
402.182	118.06
402.406	144.06
402.63	97.06
402.854	86.06
403.078	88.06
403.302	90.06
403.526	88.06
403.75	84.06
403.974	78.06
404.198	71.06
404.422	86.06
404.645	81.06
404.869	75.06
405.093	104.06
405.317	98.06
405.541	81.06
405.765	101.06
405.988	97.06
406.212	144.06
406.436	179.06
406.66	120.06
406.883	92.06
407.107	98.06
407.331	89.06
407.555	95.06
407.778	103.06
408.002	83.06
408.226	90.06
408.449	95.06
408.673	84.06
408.896	91.06
409.12	103.06
409.344	91.06
409.567	86.06
409.791	83.06
410.014	92.06
410.238	88.06
410.461	94.06
410.685	105.06
410.908	102.06
411.132	100.06
411.355	86.06
411.578	95.06
411.802	90.06
412.025	92.06
412.249	78.06
412.472	108.06
412.695	100.06
412.919	91.06
413.142	90.06
413.365	87.06
413.589	59.06
413.812	92.06
414.035	89.06
414.258	66.06
414.482	91.06
414.705	84.06
414.928	85.06
415.151	94.06
415.374	81.06
415.597	73.06
415.821	94.06
416.044	90.06
416.267	68.06
416.49	84.06
416.713	85.06
416.936	90.06
417.159	95.06
417.382	91.06
417.605	86.06
417.828	89.06
418.051	82.06
418.274	89.06
418.497	89.06
418.72	94.06
418.943	95.06
419.166	84.06
419.389	90.06
419.611	89.06
419.834	97.06
420.057	78.06
420.28	64.06
420.503	80.06
420.726	79.06
420.948	80.06
421.171	82.06
421.394	92.06
421.617	86.06
421.839	111.06
422.062	87.06
422.285	88.06
422.507	107.06
422.73	105.06
422.953	96.06
423.175	83.06
423.398	91.06
423.621	82.06
423.843	71.06
424.066	98.06
424.288	94.06
424.511	81.06
424.733	96.06
424.956	89.06
425.178	91.06
425.401	96.06
425.623	84.06
425.846	87.06
426.068	83.06
426.291	78.06
426.513	93.06
426.735	95.06
426.958	85.06
427.18	99.06
427.402	115.06
427.625	142.06
427.847	119.06
428.069	104.06
428.292	96.06
428.514	91.06
428.736	76.06
428.958	78.06
429.181	104.06
429.403	96.06
429.625	76.06
429.847	80.06
430.069	92.06
430.292	72.06
430.514	87.06
430.736	85.06
430.958	79.06
431.18	70.06
431.402	85.06
431.624	79.06
431.846	90.06
432.068	88.06
432.29	98.06
432.512	92.06
432.734	73.06
432.956	97.06
433.178	93.06
433.4	108.06
433.622	95.06
433.844	81.06
434.066	88.06
434.287	90.06
434.509	74.06
434.731	93.06
434.953	86.06
435.175	83.06
435.397	86.06
435.618	93.06
435.84	93.06
436.062	94.06
436.284	96.06
436.505	81.06
436.727	84.06
436.949	87.06
437.17	83.06
437.392	75.06
437.614	88.06
437.835	95.06
438.057	110.06
438.278	105.06
438.5	101.06
438.721	104.06
438.943	95.06
439.165	94.06
439.386	88.06
439.608	73.06
439.829	83.06
440.05	97.06
440.272	131.06
440.493	84.06
440.715	90.06
440.936	92.06
441.158	80.06
441.379	90.06
441.6	86.06
441.822	88.06
442.043	88.06
442.264	95.06
442.486	87.06
442.707	102.06
442.928	99.06
443.149	126.06
443.371	110.06
443.592	108.06
443.813	95.06
444.034	90.06
444.255	90.06
444.476	96.06
444.698	79.06
444.919	88.06
445.14	124.06
445.361	120.06
445.582	116.06
445.803	108.06
446.024	94.06
446.245	123.06
446.466	96.06
446.687	75.06
446.908	88.06
447.129	84.06
447.35	83.06
447.571	82.06
447.792	69.06
448.013	76.06
448.234	105.06
448.455	97.06
448.675	100.06
448.896	122.06
449.117	86.06
449.338	106.06
449.559	104.06
449.779	107.06
450	97.06
450.221	93.06
450.442	91.06
450.662	89.06
450.883	81.06
451.104	99.06
451.324	82.06
451.545	86.06
451.766	91.06
451.986	94.06
452.207	96.06
452.428	85.06
452.648	95.06
452.869	105.06
453.089	107.06
453.31	88.06
453.53	98.06
453.751	87.06
453.971	94.06
454.192	102.06
454.412	93.06
454.633	73.06
454.853	72.06
455.073	86.06
455.294	86.06
455.514	92.06
455.734	92.06
455.955	82.06
456.175	80.06
456.395	86.06
456.616	83.06
456.836	69.06
457.056	92.06
457.276	71.06
457.497	80.06
457.717	94.06
457.937	92.06
458.157	80.06
458.377	78.06
458.598	95.06
458.818	137.06
459.038	133.06
459.258	114.06
459.478	99.06
459.698	84.06
459.918	91.06
460.138	84.06
460.358	94.06
460.578	72.06
460.798	82.06
461.018	100.06
461.238	92.06
461.458	76.06
461.678	77.06
461.898	84.06
462.118	85.06
462.338	98.06
462.558	84.06
462.777	87.06
462.997	90.06
463.217	74.06
463.437	76.06
463.657	82.06
463.876	70.06
464.096	75.06
464.316	85.06
464.536	82.06
464.755	81.06
464.975	92.06
465.195	127.06
465.414	142.06
465.634	83.06
465.854	80.06
466.073	86.06
466.293	86.06
466.512	76.06
466.732	101.06
466.951	84.06
467.171	94.06
467.391	92.06
467.61	96.06
467.829	94.06
468.049	103.06
468.268	118.06
468.488	80.06
468.707	84.06
468.927	87.06
469.146	83.06
469.365	87.06
469.585	101.06
469.804	84.06
470.023	94.06
470.243	95.06
470.462	90.06
470.681	98.06
470.901	96.06
471.12	82.06
471.339	86.06
471.558	94.06
471.777	80.06
471.997	100.06
472.216	152.06
472.435	186.06
472.654	83.06
472.873	104.06
473.092	72.06
473.311	93.06
473.53	81.06
473.749	78.06
473.968	98.06
474.187	96.06
474.406	84.06
474.625	84.06
474.844	84.06
475.063	87.06
475.282	91.06
475.501	90.06
475.72	86.06
475.939	95.06
476.158	95.06
476.377	80.06
476.596	84.06
476.814	81.06
477.033	84.06
477.252	82.06
477.471	71.06
477.69	80.06
477.908	76.06
478.127	86.06
478.346	91.06
478.564	94.06
478.783	88.06
479.002	96.06
479.22	90.06
479.439	105.06
479.658	104.06
479.876	81.06
480.095	83.06
480.313	97.06
480.532	98.06
480.751	95.06
480.969	127.06
481.188	308.06
481.406	202.06
481.624	96.06
481.843	96.06
482.061	87.06
482.28	88.06
482.498	89.06
482.717	86.06
482.935	88.06
483.153	96.06
483.372	76.06
483.59	97.06
483.808	88.06
484.027	86.06
484.245	87.06
484.463	75.06
484.681	94.06
484.9	84.06
485.118	99.06
485.336	99.06
485.554	102.06
485.772	106.06
485.99	94.06
486.209	114.06
486.427	104.06
486.645	108.06
486.863	104.06
487.081	104.06
487.299	94.06
487.517	99.06
487.735	95.06
487.953	87.06
488.171	99.06
488.389	95.06
488.607	100.06
488.825	97.06
489.043	81.06
489.261	94.06
489.479	82.06
489.696	76.06
489.914	96.06
490.132	89.06
490.35	86.06
490.568	83.06
490.786	82.06
491.003	80.06
491.221	87.06
491.439	82.06
491.657	94.06
491.874	91.06
492.092	86.06
492.31	87.06
492.527	87.06
492.745	86.06
492.963	95.06
493.18	87.06
493.398	99.06
493.615	91.06
493.833	86.06
494.05	91.06
494.268	90.06
494.485	85.06
494.703	86.06
494.92	89.06
495.138	87.06
495.355	86.06
495.573	88.06
495.79	95.06
496.008	82.06
496.225	77.06
496.442	89.06
496.66	77.06
496.877	89.06
497.094	87.06
497.312	84.06
497.529	89.06
497.746	79.06
497.963	90.06
498.181	82.06
498.398	85.06
498.615	106.06
498.832	101.06
499.049	87.06
499.267	97.06
499.484	76.06
499.701	82.06
499.918	88.06
500.135	79.06
500.352	91.06
500.569	86.06
500.786	91.06
501.003	88.06
501.22	94.06
501.437	86.06
501.654	88.06
501.871	98.06
502.088	78.06
502.305	92.06
502.522	88.06
502.739	86.06
502.956	84.06
503.172	84.06
503.389	99.06
503.606	105.06
503.823	100.06
504.04	87.06
504.256	87.06
504.473	90.06
504.69	93.06
504.907	87.06
505.123	76.06
505.34	92.06
505.557	90.06
505.773	80.06
505.99	68.06
506.207	91.06
506.423	85.06
506.64	99.06
506.856	90.06
507.073	106.06
507.289	91.06
507.506	96.06
507.722	99.06
507.939	97.06
508.155	91.06
508.372	88.06
508.588	100.06
508.805	93.06
509.021	95.06
509.238	111.06
509.454	94.06
509.67	101.06
509.887	101.06
510.103	119.06
510.319	173.06
510.536	585.06
510.752	1796.06
510.968	522.06
511.184	115.06
511.401	100.06
511.617	104.06
511.833	92.06
512.049	88.06
512.265	95.06
512.481	90.06
512.698	89.06
512.914	93.06
513.13	98.06
513.346	98.06
513.562	90.06
513.778	92.06
513.994	95.06
514.21	98.06
514.426	122.06
514.642	113.06
514.858	110.06
515.074	139.06
515.29	330.06
515.506	1028.06
515.721	389.06
515.937	127.06
516.153	96.06
516.369	68.06
516.585	85.06
516.801	90.06
