Data from Circ_1984_H10_HRD10591_00059.txt Node
Date: Wed Jan 03 12:22:53 EST 2024
User: Yrep
Spectrometer: HR+D1059
Trigger mode: 1
Integration Time (sec): 1.000000E-1
Scans to average: 1
Electric dark correction enabled: true
Nonlinearity correction enabled: false
Boxcar width: 0
XAxis mode: Wavelengths
Number of Pixels in Spectrum: 2048
>>>>>Begin Spectral Data<<<<<
223.165	-13.56
223.4	-13.56
223.635	-13.56
223.869	-12.56
224.104	-14.56
224.338	-17.56
224.573	-22.56
224.808	-11.56
225.042	-9.56
225.277	-24.56
225.511	5.44
225.746	3.44
225.98	4.44
226.215	14.44
226.449	20.44
226.683	31.44
226.918	20.44
227.152	26.44
227.387	33.44
227.621	28.44
227.856	51.44
228.09	48.44
228.324	35.44
228.559	47.44
228.793	54.44
229.027	58.44
229.262	62.44
229.496	65.44
229.73	79.44
229.964	78.44
230.199	76.44
230.433	90.44
230.667	66.44
230.901	60.44
231.136	68.44
231.37	78.44
231.604	74.44
231.838	75.44
232.072	72.44
232.306	75.44
232.541	84.44
232.775	74.44
233.009	78.44
233.243	90.44
233.477	72.44
233.711	67.44
233.945	80.44
234.179	56.44
234.413	76.44
234.647	72.44
234.881	80.44
235.115	69.44
235.349	82.44
235.583	76.44
235.817	75.44
236.051	67.44
236.285	69.44
236.519	82.44
236.753	86.44
236.987	65.44
237.221	85.44
237.455	74.44
237.689	82.44
237.922	75.44
238.156	74.44
238.39	63.44
238.624	70.44
238.858	78.44
239.091	78.44
239.325	95.44
239.559	69.44
239.793	66.44
240.027	69.44
240.26	79.44
240.494	67.44
240.728	62.44
240.961	77.44
241.195	63.44
241.429	60.44
241.662	72.44
241.896	60.44
242.13	86.44
242.363	83.44
242.597	81.44
242.83	67.44
243.064	71.44
243.298	78.44
243.531	71.44
243.765	71.44
243.998	62.44
244.232	71.44
244.465	75.44
244.699	68.44
244.932	79.44
245.166	42.44
245.399	74.44
245.633	56.44
245.866	71.44
246.099	79.44
246.333	79.44
246.566	54.44
246.8	80.44
247.033	76.44
247.266	63.44
247.5	73.44
247.733	75.44
247.966	76.44
248.2	76.44
248.433	67.44
248.666	86.44
248.899	67.44
249.133	74.44
249.366	90.44
249.599	79.44
249.832	80.44
250.066	71.44
250.299	72.44
250.532	85.44
250.765	69.44
250.998	82.44
251.231	81.44
251.465	75.44
251.698	76.44
251.931	83.44
252.164	78.44
252.397	65.44
252.63	79.44
252.863	66.44
253.096	74.44
253.329	69.44
253.562	88.44
253.795	79.44
254.028	86.44
254.261	70.44
254.494	70.44
254.727	75.44
254.96	74.44
255.193	91.44
255.426	84.44
255.659	71.44
255.892	66.44
256.124	106.44
256.357	75.44
256.59	70.44
256.823	65.44
257.056	80.44
257.289	88.44
257.521	73.44
257.754	84.44
257.987	80.44
258.22	62.44
258.452	75.44
258.685	56.44
258.918	71.44
259.151	76.44
259.383	81.44
259.616	82.44
259.849	69.44
260.081	68.44
260.314	79.44
260.547	86.44
260.779	81.44
261.012	68.44
261.244	78.44
261.477	92.44
261.71	99.44
261.942	103.44
262.175	102.44
262.407	81.44
262.64	61.44
262.872	63.44
263.105	82.44
263.337	88.44
263.57	81.44
263.802	77.44
264.035	74.44
264.267	90.44
264.499	82.44
264.732	82.44
264.964	82.44
265.197	79.44
265.429	82.44
265.661	79.44
265.894	84.44
266.126	90.44
266.358	87.44
266.591	84.44
266.823	70.44
267.055	89.44
267.287	75.44
267.52	62.44
267.752	76.44
267.984	70.44
268.216	86.44
268.448	86.44
268.681	83.44
268.913	85.44
269.145	87.44
269.377	84.44
269.609	74.44
269.841	79.44
270.073	83.44
270.306	95.44
270.538	79.44
270.77	74.44
271.002	86.44
271.234	70.44
271.466	80.44
271.698	69.44
271.93	89.44
272.162	79.44
272.394	65.44
272.626	85.44
272.858	91.44
273.09	92.44
273.322	75.44
273.553	77.44
273.785	80.44
274.017	76.44
274.249	76.44
274.481	82.44
274.713	72.44
274.945	82.44
275.176	81.44
275.408	84.44
275.64	80.44
275.872	67.44
276.104	84.44
276.335	101.44
276.567	82.44
276.799	93.44
277.031	103.44
277.262	95.44
277.494	96.44
277.726	83.44
277.957	82.44
278.189	90.44
278.421	93.44
278.652	84.44
278.884	75.44
279.115	80.44
279.347	70.44
279.579	93.44
279.81	87.44
280.042	103.44
280.273	100.44
280.505	93.44
280.736	88.44
280.968	83.44
281.199	85.44
281.431	80.44
281.662	82.44
281.894	86.44
282.125	90.44
282.356	110.44
282.588	115.44
282.819	103.44
283.051	91.44
283.282	84.44
283.513	91.44
283.745	80.44
283.976	76.44
284.207	92.44
284.439	80.44
284.67	86.44
284.901	68.44
285.132	79.44
285.364	90.44
285.595	79.44
285.826	91.44
286.057	87.44
286.288	79.44
286.52	77.44
286.751	79.44
286.982	85.44
287.213	80.44
287.444	99.44
287.675	86.44
287.906	76.44
288.138	88.44
288.369	90.44
288.6	91.44
288.831	85.44
289.062	75.44
289.293	79.44
289.524	89.44
289.755	82.44
289.986	86.44
290.217	94.44
290.448	96.44
290.679	95.44
290.91	84.44
291.141	88.44
291.371	74.44
291.602	74.44
291.833	80.44
292.064	70.44
292.295	88.44
292.526	93.44
292.757	86.44
292.987	82.44
293.218	80.44
293.449	85.44
293.68	76.44
293.91	94.44
294.141	94.44
294.372	90.44
294.603	89.44
294.833	72.44
295.064	79.44
295.295	85.44
295.525	93.44
295.756	102.44
295.987	100.44
296.217	118.44
296.448	119.44
296.679	85.44
296.909	72.44
297.14	82.44
297.37	80.44
297.601	80.44
297.831	83.44
298.062	78.44
298.292	78.44
298.523	82.44
298.753	71.44
298.984	76.44
299.214	90.44
299.445	80.44
299.675	97.44
299.905	98.44
300.136	98.44
300.366	90.44
300.597	85.44
300.827	82.44
301.057	83.44
301.288	86.44
301.518	89.44
301.748	83.44
301.979	94.44
302.209	83.44
302.439	80.44
302.669	65.44
302.9	79.44
303.13	83.44
303.36	80.44
303.59	93.44
303.82	95.44
304.051	91.44
304.281	87.44
304.511	85.44
304.741	81.44
304.971	84.44
305.201	86.44
305.431	87.44
305.661	87.44
305.891	85.44
306.121	80.44
306.352	101.44
306.582	106.44
306.812	96.44
307.042	110.44
307.272	99.44
307.502	97.44
307.731	114.44
307.961	92.44
308.191	87.44
308.421	85.44
308.651	68.44
308.881	88.44
309.111	98.44
309.341	85.44
309.571	99.44
309.8	95.44
310.03	81.44
310.26	82.44
310.49	94.44
310.72	98.44
310.949	93.44
311.179	90.44
311.409	95.44
311.639	83.44
311.868	93.44
312.098	90.44
312.328	96.44
312.557	97.44
312.787	103.44
313.017	82.44
313.246	79.44
313.476	74.44
313.706	84.44
313.935	92.44
314.165	92.44
314.394	93.44
314.624	99.44
314.853	100.44
315.083	86.44
315.312	84.44
315.542	88.44
315.771	74.44
316.001	75.44
316.23	102.44
316.46	79.44
316.689	87.44
316.919	80.44
317.148	84.44
317.377	90.44
317.607	87.44
317.836	85.44
318.065	99.44
318.295	87.44
318.524	69.44
318.753	75.44
318.983	96.44
319.212	89.44
319.441	100.44
319.67	104.44
319.9	91.44
320.129	90.44
320.358	77.44
320.587	107.44
320.816	91.44
321.046	90.44
321.275	78.44
321.504	91.44
321.733	78.44
321.962	91.44
322.191	106.44
322.42	92.44
322.649	94.44
322.878	101.44
323.108	98.44
323.337	123.44
323.566	131.44
323.795	113.44
324.024	174.44
324.253	310.44
324.482	682.44
324.71	1389.44
324.939	1816.44
325.168	692.44
325.397	210.44
325.626	132.44
325.855	131.44
326.084	118.44
326.313	106.44
326.542	139.44
326.77	210.44
326.999	395.44
327.228	794.44
327.457	1381.44
327.686	1115.44
327.914	318.44
328.143	199.44
328.372	170.44
328.6	135.44
328.829	103.44
329.058	104.44
329.287	121.44
329.515	107.44
329.744	107.44
329.972	143.44
330.201	210.44
330.43	267.44
330.658	163.44
330.887	135.44
331.115	100.44
331.344	90.44
331.572	80.44
331.801	124.44
332.03	98.44
332.258	102.44
332.486	84.44
332.715	108.44
332.943	99.44
333.172	97.44
333.4	101.44
333.629	105.44
333.857	126.44
334.085	138.44
334.314	208.44
334.542	320.44
334.771	288.44
334.999	138.44
335.227	86.44
335.455	100.44
335.684	91.44
335.912	90.44
336.14	97.44
336.369	96.44
336.597	103.44
336.825	90.44
337.053	86.44
337.281	83.44
337.51	83.44
337.738	88.44
337.966	96.44
338.194	86.44
338.422	91.44
338.65	91.44
338.878	86.44
339.106	72.44
339.334	77.44
339.562	82.44
339.79	84.44
340.018	83.44
340.246	88.44
340.474	87.44
340.702	76.44
340.93	86.44
341.158	79.44
341.386	86.44
341.614	94.44
341.842	89.44
342.07	76.44
342.298	83.44
342.526	90.44
342.754	85.44
342.981	110.44
343.209	102.44
343.437	100.44
343.665	96.44
343.893	92.44
344.12	96.44
344.348	87.44
344.576	78.44
344.804	90.44
345.031	90.44
345.259	96.44
345.487	88.44
345.714	84.44
345.942	83.44
346.17	98.44
346.397	76.44
346.625	86.44
346.853	99.44
347.08	83.44
347.308	96.44
347.535	84.44
347.763	81.44
347.99	88.44
348.218	87.44
348.445	108.44
348.673	96.44
348.9	84.44
349.128	90.44
349.355	76.44
349.583	101.44
349.81	78.44
350.037	97.44
350.265	98.44
350.492	84.44
350.72	87.44
350.947	96.44
351.174	106.44
351.402	108.44
351.629	82.44
351.856	84.44
352.083	88.44
352.311	88.44
352.538	95.44
352.765	105.44
352.992	91.44
353.22	109.44
353.447	88.44
353.674	90.44
353.901	97.44
354.128	92.44
354.355	93.44
354.583	108.44
354.81	98.44
355.037	93.44
355.264	96.44
355.491	90.44
355.718	86.44
355.945	98.44
356.172	98.44
356.399	87.44
356.626	97.44
356.853	82.44
357.08	84.44
357.307	79.44
357.534	98.44
357.761	86.44
357.988	81.44
358.215	74.44
358.441	90.44
358.668	79.44
358.895	97.44
359.122	87.44
359.349	75.44
359.576	69.44
359.802	90.44
360.029	104.44
360.256	87.44
360.483	88.44
360.709	86.44
360.936	78.44
361.163	103.44
361.39	82.44
361.616	93.44
361.843	77.44
362.07	97.44
362.296	89.44
362.523	96.44
362.749	97.44
362.976	79.44
363.203	87.44
363.429	81.44
363.656	89.44
363.882	96.44
364.109	90.44
364.335	93.44
364.562	95.44
364.788	84.44
365.015	80.44
365.241	96.44
365.468	93.44
365.694	116.44
365.92	94.44
366.147	85.44
366.373	75.44
366.599	80.44
366.826	98.44
367.052	84.44
367.278	87.44
367.505	98.44
367.731	86.44
367.957	89.44
368.184	94.44
368.41	103.44
368.636	111.44
368.862	103.44
369.089	105.44
369.315	95.44
369.541	92.44
369.767	90.44
369.993	79.44
370.219	92.44
370.445	96.44
370.672	76.44
370.898	89.44
371.124	66.44
371.35	90.44
371.576	75.44
371.802	69.44
372.028	82.44
372.254	83.44
372.48	88.44
372.706	90.44
372.932	72.44
373.158	78.44
373.384	82.44
373.61	78.44
373.835	73.44
374.061	82.44
374.287	91.44
374.513	83.44
374.739	92.44
374.965	79.44
375.191	76.44
375.416	76.44
375.642	78.44
375.868	78.44
376.094	98.44
376.319	88.44
376.545	74.44
376.771	94.44
376.997	86.44
377.222	88.44
377.448	88.44
377.674	74.44
377.899	81.44
378.125	86.44
378.35	93.44
378.576	83.44
378.802	79.44
379.027	89.44
379.253	77.44
379.478	87.44
379.704	84.44
379.929	79.44
380.155	94.44
380.38	69.44
380.606	74.44
380.831	92.44
381.057	91.44
381.282	84.44
381.507	93.44
381.733	99.44
381.958	83.44
382.184	93.44
382.409	110.44
382.634	94.44
382.86	99.44
383.085	92.44
383.31	88.44
383.535	95.44
383.761	90.44
383.986	93.44
384.211	87.44
384.436	96.44
384.662	87.44
384.887	88.44
385.112	102.44
385.337	98.44
385.562	97.44
385.787	97.44
386.013	102.44
386.238	100.44
386.463	108.44
386.688	103.44
386.913	92.44
387.138	86.44
387.363	86.44
387.588	90.44
387.813	92.44
388.038	104.44
388.263	100.44
388.488	104.44
388.713	86.44
388.938	84.44
389.163	94.44
389.387	79.44
389.612	80.44
389.837	97.44
390.062	87.44
390.287	81.44
390.512	95.44
390.736	84.44
390.961	80.44
391.186	94.44
391.411	85.44
391.636	100.44
391.86	73.44
392.085	84.44
392.31	84.44
392.534	91.44
392.759	86.44
392.984	74.44
393.208	78.44
393.433	89.44
393.658	92.44
393.882	75.44
394.107	104.44
394.331	83.44
394.556	89.44
394.78	90.44
395.005	87.44
395.229	77.44
395.454	79.44
395.678	74.44
395.903	92.44
396.127	78.44
396.352	94.44
396.576	99.44
396.801	87.44
397.025	93.44
397.249	90.44
397.474	94.44
397.698	82.44
397.922	76.44
398.147	77.44
398.371	88.44
398.595	69.44
398.82	92.44
399.044	71.44
399.268	80.44
399.492	80.44
399.717	70.44
399.941	88.44
400.165	96.44
400.389	95.44
400.613	72.44
400.837	78.44
401.062	74.44
401.286	84.44
401.51	75.44
401.734	87.44
401.958	98.44
402.182	104.44
402.406	149.44
402.63	102.44
402.854	80.44
403.078	69.44
403.302	79.44
403.526	77.44
403.75	88.44
403.974	94.44
404.198	74.44
404.422	87.44
404.645	80.44
404.869	96.44
405.093	82.44
405.317	87.44
405.541	110.44
405.765	89.44
405.988	109.44
406.212	147.44
406.436	202.44
406.66	132.44
406.883	104.44
407.107	95.44
407.331	84.44
407.555	94.44
407.778	83.44
408.002	82.44
408.226	88.44
408.449	77.44
408.673	81.44
408.896	96.44
409.12	88.44
409.344	92.44
409.567	71.44
409.791	86.44
410.014	69.44
410.238	70.44
410.461	83.44
410.685	86.44
410.908	95.44
411.132	97.44
411.355	78.44
411.578	81.44
411.802	90.44
412.025	83.44
412.249	81.44
412.472	99.44
412.695	94.44
412.919	93.44
413.142	75.44
413.365	78.44
413.589	81.44
413.812	87.44
414.035	90.44
414.258	94.44
414.482	79.44
414.705	78.44
414.928	85.44
415.151	86.44
415.374	81.44
415.597	82.44
415.821	101.44
416.044	83.44
416.267	92.44
416.49	92.44
416.713	82.44
416.936	84.44
417.159	70.44
417.382	67.44
417.605	76.44
417.828	91.44
418.051	89.44
418.274	71.44
418.497	87.44
418.72	91.44
418.943	94.44
419.166	85.44
419.389	80.44
419.611	98.44
419.834	90.44
420.057	81.44
420.28	94.44
420.503	85.44
420.726	90.44
420.948	82.44
421.171	79.44
421.394	77.44
421.617	102.44
421.839	91.44
422.062	74.44
422.285	95.44
422.507	92.44
422.73	85.44
422.953	86.44
423.175	87.44
423.398	78.44
423.621	82.44
423.843	78.44
424.066	78.44
424.288	90.44
424.511	87.44
424.733	96.44
424.956	95.44
425.178	89.44
425.401	82.44
425.623	94.44
425.846	80.44
426.068	88.44
426.291	99.44
426.513	83.44
426.735	81.44
426.958	75.44
427.18	101.44
427.402	131.44
427.625	150.44
427.847	148.44
428.069	111.44
428.292	79.44
428.514	72.44
428.736	84.44
428.958	89.44
429.181	91.44
429.403	84.44
429.625	76.44
429.847	85.44
430.069	99.44
430.292	90.44
430.514	81.44
430.736	70.44
430.958	74.44
431.18	68.44
431.402	72.44
431.624	77.44
431.846	85.44
432.068	84.44
432.29	94.44
432.512	66.44
432.734	79.44
432.956	95.44
433.178	99.44
433.4	86.44
433.622	79.44
433.844	92.44
434.066	86.44
434.287	83.44
434.509	86.44
434.731	85.44
434.953	86.44
435.175	78.44
435.397	91.44
435.618	84.44
435.84	89.44
436.062	102.44
436.284	107.44
436.505	94.44
436.727	90.44
436.949	87.44
437.17	95.44
437.392	79.44
437.614	93.44
437.835	106.44
438.057	99.44
438.278	97.44
438.5	93.44
438.721	108.44
438.943	86.44
439.165	80.44
439.386	87.44
439.608	80.44
439.829	90.44
440.05	110.44
440.272	131.44
440.493	93.44
440.715	81.44
440.936	76.44
441.158	87.44
441.379	82.44
441.6	78.44
441.822	101.44
442.043	86.44
442.264	97.44
442.486	82.44
442.707	76.44
442.928	91.44
443.149	121.44
443.371	118.44
443.592	95.44
443.813	109.44
444.034	88.44
444.255	82.44
444.476	83.44
444.698	75.44
444.919	75.44
445.14	120.44
445.361	108.44
445.582	99.44
445.803	130.44
446.024	115.44
446.245	125.44
446.466	97.44
446.687	84.44
446.908	86.44
447.129	83.44
447.35	90.44
447.571	89.44
447.792	78.44
448.013	96.44
448.234	93.44
448.455	96.44
448.675	98.44
448.896	90.44
449.117	99.44
449.338	107.44
449.559	119.44
449.779	108.44
450	90.44
450.221	94.44
450.442	82.44
450.662	81.44
450.883	87.44
451.104	94.44
451.324	103.44
451.545	75.44
451.766	77.44
451.986	91.44
452.207	80.44
452.428	85.44
452.648	92.44
452.869	97.44
453.089	102.44
453.31	99.44
453.53	88.44
453.751	81.44
453.971	93.44
454.192	109.44
454.412	72.44
454.633	71.44
454.853	80.44
455.073	74.44
455.294	93.44
455.514	85.44
455.734	78.44
455.955	69.44
456.175	82.44
456.395	87.44
456.616	81.44
456.836	70.44
457.056	86.44
457.276	112.44
457.497	76.44
457.717	91.44
457.937	84.44
458.157	75.44
458.377	80.44
458.598	92.44
458.818	125.44
459.038	142.44
459.258	102.44
459.478	82.44
459.698	69.44
459.918	83.44
460.138	84.44
460.358	66.44
460.578	91.44
460.798	76.44
461.018	87.44
461.238	81.44
461.458	83.44
461.678	82.44
461.898	84.44
462.118	84.44
462.338	83.44
462.558	76.44
462.777	66.44
462.997	81.44
463.217	84.44
463.437	65.44
463.657	84.44
463.876	86.44
464.096	92.44
464.316	81.44
464.536	100.44
464.755	97.44
464.975	96.44
465.195	135.44
465.414	140.44
465.634	110.44
465.854	92.44
466.073	82.44
466.293	98.44
466.512	86.44
466.732	95.44
466.951	83.44
467.171	84.44
467.391	83.44
467.61	90.44
467.829	102.44
468.049	146.44
468.268	165.44
468.488	94.44
468.707	80.44
468.927	69.44
469.146	83.44
469.365	87.44
469.585	76.44
469.804	91.44
470.023	88.44
470.243	90.44
470.462	88.44
470.681	87.44
470.901	86.44
471.12	81.44
471.339	89.44
471.558	91.44
471.777	90.44
471.997	116.44
472.216	225.44
472.435	402.44
472.654	152.44
472.873	86.44
473.092	78.44
473.311	80.44
473.53	63.44
473.749	89.44
473.968	103.44
474.187	92.44
474.406	86.44
474.625	96.44
474.844	90.44
475.063	79.44
475.282	99.44
475.501	74.44
475.72	86.44
475.939	90.44
476.158	74.44
476.377	85.44
476.596	79.44
476.814	102.44
477.033	89.44
477.252	87.44
477.471	75.44
477.69	76.44
477.908	83.44
478.127	75.44
478.346	85.44
478.564	95.44
478.783	82.44
479.002	81.44
479.22	93.44
479.439	88.44
479.658	88.44
479.876	92.44
480.095	85.44
480.313	90.44
480.532	100.44
480.751	114.44
480.969	231.44
481.188	690.44
481.406	430.44
481.624	126.44
481.843	107.44
482.061	86.44
482.28	86.44
482.498	86.44
482.717	81.44
482.935	65.44
483.153	96.44
483.372	86.44
483.59	74.44
483.808	88.44
484.027	74.44
484.245	88.44
484.463	92.44
484.681	89.44
484.9	83.44
485.118	90.44
485.336	82.44
485.554	94.44
485.772	96.44
485.99	87.44
486.209	98.44
486.427	103.44
486.645	112.44
486.863	102.44
487.081	102.44
487.299	89.44
487.517	92.44
487.735	96.44
487.953	87.44
488.171	93.44
488.389	99.44
488.607	91.44
488.825	83.44
489.043	95.44
489.261	102.44
489.479	88.44
489.696	84.44
489.914	96.44
490.132	82.44
490.35	102.44
490.568	84.44
490.786	65.44
491.003	87.44
491.221	82.44
491.439	87.44
491.657	80.44
491.874	82.44
492.092	77.44
492.31	96.44
492.527	85.44
492.745	79.44
492.963	83.44
493.18	85.44
493.398	88.44
493.615	94.44
493.833	102.44
494.05	93.44
494.268	78.44
494.485	78.44
494.703	91.44
494.92	90.44
495.138	88.44
495.355	84.44
495.573	84.44
495.79	79.44
496.008	78.44
496.225	78.44
496.442	86.44
496.66	85.44
496.877	88.44
497.094	86.44
497.312	80.44
497.529	92.44
497.746	83.44
497.963	87.44
498.181	83.44
498.398	86.44
498.615	106.44
498.832	101.44
499.049	81.44
499.267	83.44
499.484	93.44
499.701	85.44
499.918	91.44
500.135	83.44
500.352	78.44
500.569	87.44
500.786	84.44
501.003	89.44
501.22	92.44
501.437	92.44
501.654	82.44
501.871	103.44
502.088	76.44
502.305	92.44
502.522	74.44
502.739	83.44
502.956	94.44
503.172	82.44
503.389	87.44
503.606	102.44
503.823	78.44
504.04	95.44
504.256	88.44
504.473	86.44
504.69	75.44
504.907	84.44
505.123	88.44
505.34	83.44
505.557	92.44
505.773	68.44
505.99	74.44
506.207	93.44
506.423	80.44
506.64	81.44
506.856	75.44
507.073	85.44
507.289	86.44
507.506	94.44
507.722	88.44
507.939	99.44
508.155	85.44
508.372	75.44
508.588	81.44
508.805	96.44
509.021	91.44
509.238	75.44
509.454	78.44
509.67	103.44
509.887	107.44
510.103	126.44
510.319	176.44
510.536	647.44
510.752	2051.44
510.968	558.44
511.184	130.44
511.401	93.44
511.617	94.44
511.833	89.44
512.049	84.44
512.265	92.44
512.481	82.44
512.698	80.44
512.914	91.44
513.13	98.44
513.346	73.44
513.562	102.44
513.778	99.44
513.994	104.44
514.21	104.44
514.426	112.44
514.642	130.44
514.858	106.44
515.074	140.44
515.29	373.44
515.506	1200.44
515.721	441.44
515.937	116.44
516.153	109.44
516.369	90.44
516.585	84.44
516.801	87.44
517.016	90.44
517.232	95.44
