Data from Circ_1984_H10_HRD10591_00081.txt Node
Date: Wed Jan 03 12:22:58 EST 2024
User: Yrep
Spectrometer: HR+D1059
Trigger mode: 1
Integration Time (sec): 1.000000E-1
Scans to average: 1
Electric dark correction enabled: true
Nonlinearity correction enabled: false
Boxcar width: 0
XAxis mode: Wavelengths
Number of Pixels in Spectrum: 2048
>>>>>Begin Spectral Data<<<<<
223.165	-7.94
223.4	-7.94
223.635	-7.94
223.869	-27.94
224.104	-31.94
224.338	-8.94
224.573	-3.94
224.808	-9.94
225.042	-14.94
225.277	-5.94
225.511	-11.94
225.746	16.06
225.98	3.06
226.215	14.06
226.449	26.06
226.683	10.06
226.918	28.06
227.152	26.06
227.387	35.06
227.621	38.06
227.856	40.06
228.09	38.06
228.324	61.06
228.559	53.06
228.793	159.06
229.027	428.06
229.262	501.06
229.496	582.06
229.73	798.06
229.964	770.06
230.199	535.06
230.433	490.06
230.667	482.06
230.901	461.06
231.136	438.06
231.37	476.06
231.604	468.06
231.838	435.06
232.072	470.06
232.306	456.06
232.541	474.06
232.775	482.06
233.009	484.06
233.243	496.06
233.477	482.06
233.711	491.06
233.945	506.06
234.179	530.06
234.413	512.06
234.647	524.06
234.881	541.06
235.115	549.06
235.349	566.06
235.583	560.06
235.817	607.06
236.051	633.06
236.285	628.06
236.519	642.06
236.753	708.06
236.987	895.06
237.221	1371.06
237.455	1462.06
237.689	876.06
237.922	741.06
238.156	711.06
238.39	680.06
238.624	640.06
238.858	668.06
239.091	642.06
239.325	670.06
239.559	694.06
239.793	715.06
240.027	751.06
240.26	892.06
240.494	979.06
240.728	931.06
240.961	927.06
241.195	824.06
241.429	805.06
241.662	807.06
241.896	793.06
242.13	820.06
242.363	796.06
242.597	837.06
242.83	887.06
243.064	847.06
243.298	850.06
243.531	888.06
243.765	877.06
243.998	896.06
244.232	902.06
244.465	921.06
244.699	948.06
244.932	929.06
245.166	954.06
245.399	955.06
245.633	939.06
245.866	946.06
246.099	972.06
246.333	977.06
246.566	1016.06
246.8	992.06
247.033	1046.06
247.266	1067.06
247.5	1143.06
247.733	1205.06
247.966	1174.06
248.2	1163.06
248.433	1188.06
248.666	1284.06
248.899	1391.06
249.133	1485.06
249.366	1458.06
249.599	1402.06
249.832	1371.06
250.066	1456.06
250.299	1675.06
250.532	2028.06
250.765	2067.06
250.998	2019.06
251.231	1806.06
251.465	1616.06
251.698	1505.06
251.931	1506.06
252.164	1457.06
252.397	1479.06
252.63	1494.06
252.863	1619.06
253.096	1706.06
253.329	1746.06
253.562	1664.06
253.795	1577.06
254.028	1619.06
254.261	1691.06
254.494	1873.06
254.727	2226.06
254.96	2242.06
255.193	2040.06
255.426	1982.06
255.659	2113.06
255.892	2693.06
256.124	3255.06
256.357	2940.06
256.59	2318.06
256.823	2055.06
257.056	1850.06
257.289	1764.06
257.521	1746.06
257.754	1715.06
257.987	1673.06
258.22	1649.06
258.452	1657.06
258.685	1637.06
258.918	1652.06
259.151	1675.06
259.383	1796.06
259.616	1747.06
259.849	1825.06
260.081	1959.06
260.314	2103.06
260.547	2037.06
260.779	1912.06
261.012	1803.06
261.244	1797.06
261.477	1749.06
261.71	1721.06
261.942	1812.06
262.175	1812.06
262.407	1790.06
262.64	1722.06
262.872	1698.06
263.105	1662.06
263.337	1678.06
263.57	1740.06
263.802	1741.06
264.035	1705.06
264.267	1686.06
264.499	1704.06
264.732	1741.06
264.964	1763.06
265.197	1728.06
265.429	1794.06
265.661	1763.06
265.894	1780.06
266.126	1836.06
266.358	1860.06
266.591	1850.06
266.823	1939.06
267.055	1916.06
267.287	1952.06
267.52	1888.06
267.752	1886.06
267.984	1910.06
268.216	1928.06
268.448	1985.06
268.681	2091.06
268.913	2177.06
269.145	2351.06
269.377	2383.06
269.609	2293.06
269.841	2224.06
270.073	2439.06
270.306	2613.06
270.538	2794.06
270.77	2608.06
271.002	2476.06
271.234	2439.06
271.466	2592.06
271.698	2759.06
271.93	2763.06
272.162	2734.06
272.394	2652.06
272.626	2530.06
272.858	2372.06
273.09	2329.06
273.322	2290.06
273.553	2243.06
273.785	2279.06
274.017	2264.06
274.249	2298.06
274.481	2353.06
274.713	2382.06
274.945	2377.06
275.176	2395.06
275.408	2388.06
275.64	2374.06
275.872	2421.06
276.104	2375.06
276.335	2453.06
276.567	2558.06
276.799	2674.06
277.031	2964.06
277.262	3074.06
277.494	2904.06
277.726	2737.06
277.957	2648.06
278.189	2577.06
278.421	2494.06
278.652	2474.06
278.884	2488.06
279.115	2505.06
279.347	2514.06
279.579	2553.06
279.81	2548.06
280.042	2610.06
280.273	2718.06
280.505	2644.06
280.736	2579.06
280.968	2535.06
281.199	2519.06
281.431	2600.06
281.662	2557.06
281.894	2576.06
282.125	2664.06
282.356	2785.06
282.588	2909.06
282.819	2804.06
283.051	2642.06
283.282	2642.06
283.513	2624.06
283.745	2688.06
283.976	2686.06
284.207	2742.06
284.439	2659.06
284.67	2718.06
284.901	2769.06
285.132	2718.06
285.364	2709.06
285.595	2705.06
285.826	2716.06
286.057	2725.06
286.288	2720.06
286.52	2723.06
286.751	2791.06
286.982	2732.06
287.213	2835.06
287.444	2823.06
287.675	2878.06
287.906	2972.06
288.138	3000.06
288.369	2985.06
288.6	2978.06
288.831	2930.06
289.062	2869.06
289.293	2907.06
289.524	2905.06
289.755	2871.06
289.986	2821.06
290.217	2891.06
290.448	2853.06
290.679	2878.06
290.91	2939.06
291.141	2913.06
291.371	2898.06
291.602	2884.06
291.833	2890.06
292.064	2874.06
292.295	2858.06
292.526	2922.06
292.757	2840.06
292.987	2857.06
293.218	2893.06
293.449	2928.06
293.68	2909.06
293.91	2945.06
294.141	2876.06
294.372	2870.06
294.603	2907.06
294.833	2933.06
295.064	2954.06
295.295	2992.06
295.525	2930.06
295.756	2976.06
295.987	3083.06
296.217	3241.06
296.448	3210.06
296.679	3009.06
296.909	3006.06
297.14	2967.06
297.37	3098.06
297.601	3086.06
297.831	3046.06
298.062	3124.06
298.292	3094.06
298.523	3215.06
298.753	3225.06
298.984	3146.06
299.214	3109.06
299.445	3143.06
299.675	3156.06
299.905	3251.06
300.136	3196.06
300.366	3195.06
300.597	3283.06
300.827	3365.06
301.057	3414.06
301.288	3488.06
301.518	3400.06
301.748	3414.06
301.979	3483.06
302.209	3455.06
302.439	3417.06
302.669	3404.06
302.9	3405.06
303.13	3395.06
303.36	3402.06
303.59	3392.06
303.82	3517.06
304.051	3431.06
304.281	3411.06
304.511	3328.06
304.741	3340.06
304.971	3313.06
305.201	3327.06
305.431	3353.06
305.661	3366.06
305.891	3323.06
306.121	3296.06
306.352	3375.06
306.582	3366.06
306.812	3330.06
307.042	3374.06
307.272	3406.06
307.502	3415.06
307.731	3447.06
307.961	3410.06
308.191	3344.06
308.421	3360.06
308.651	3401.06
308.881	3382.06
309.111	3415.06
309.341	3431.06
309.571	3499.06
309.8	3522.06
310.03	3683.06
310.26	3641.06
310.49	3674.06
310.72	3770.06
310.949	3939.06
311.179	3808.06
311.409	3713.06
311.639	3673.06
311.868	3720.06
312.098	3759.06
312.328	3830.06
312.557	3938.06
312.787	4066.06
313.017	3991.06
313.246	3828.06
313.476	3792.06
313.706	3837.06
313.935	3927.06
314.165	3936.06
314.394	4062.06
314.624	3982.06
314.853	3870.06
315.083	3824.06
315.312	3828.06
315.542	3836.06
315.771	3747.06
316.001	3743.06
316.23	3779.06
316.46	3740.06
316.689	3830.06
316.919	3857.06
317.148	3914.06
317.377	3856.06
317.607	3875.06
317.836	3781.06
318.065	3732.06
318.295	3744.06
318.524	3749.06
318.753	3787.06
318.983	3748.06
319.212	3786.06
319.441	3827.06
319.67	3816.06
319.9	3763.06
320.129	3738.06
320.358	3852.06
320.587	3874.06
320.816	3947.06
321.046	3892.06
321.275	3938.06
321.504	3970.06
321.733	3907.06
321.962	3995.06
322.191	4138.06
322.42	4200.06
322.649	4331.06
322.878	4392.06
323.108	4488.06
323.337	4705.06
323.566	4854.06
323.795	5167.06
324.024	5775.06
324.253	7516.06
324.482	11443.06
324.71	15572.06
324.939	15628.06
325.168	13220.06
325.397	6729.06
325.626	5441.06
325.855	5039.06
326.084	4979.06
326.313	5024.06
326.542	5193.06
326.77	5850.06
326.999	7512.06
327.228	10942.06
327.457	14824.06
327.686	14068.06
327.914	8134.06
328.143	7056.06
328.372	6997.06
328.6	6254.06
328.829	5870.06
329.058	6078.06
329.287	6016.06
329.515	5946.06
329.744	6148.06
329.972	7000.06
330.201	8322.06
330.43	9138.06
330.658	7598.06
330.887	6976.06
331.115	6214.06
331.344	5612.06
331.572	5488.06
331.801	5594.06
332.03	5570.06
332.258	5377.06
332.486	5490.06
332.715	5536.06
332.943	5820.06
333.172	6045.06
333.4	6369.06
333.629	6636.06
333.857	7276.06
334.085	8094.06
334.314	9552.06
334.542	11274.06
334.771	10503.06
334.999	7433.06
335.227	6441.06
335.455	5951.06
335.684	5705.06
335.912	5449.06
336.14	5366.06
336.369	5258.06
336.597	5371.06
336.825	5252.06
337.053	5196.06
337.281	4981.06
337.51	4942.06
337.738	4965.06
337.966	4908.06
338.194	4897.06
338.422	4728.06
338.65	4750.06
338.878	4651.06
339.106	4673.06
339.334	4631.06
339.562	4643.06
339.79	4515.06
340.018	4544.06
340.246	4506.06
340.474	4581.06
340.702	4565.06
340.93	4483.06
341.158	4541.06
341.386	4603.06
341.614	4548.06
341.842	4522.06
342.07	4453.06
342.298	4438.06
342.526	4432.06
342.754	4357.06
342.981	4389.06
343.209	4536.06
343.437	4714.06
343.665	4996.06
343.893	5191.06
344.12	5138.06
344.348	5008.06
344.576	4880.06
344.804	4795.06
345.031	4726.06
345.259	4628.06
345.487	4504.06
345.714	4480.06
345.942	4308.06
346.17	4303.06
346.397	4258.06
346.625	4287.06
346.853	4250.06
347.08	4270.06
347.308	4262.06
347.535	4425.06
347.763	4434.06
347.99	4360.06
348.218	4379.06
348.445	4413.06
348.673	4379.06
348.9	4243.06
349.128	4209.06
349.355	4157.06
349.583	4169.06
349.81	4133.06
350.037	4087.06
350.265	4146.06
350.492	4123.06
350.72	4091.06
350.947	4197.06
351.174	4286.06
351.402	4350.06
351.629	4229.06
351.856	4285.06
352.083	4312.06
352.311	4321.06
352.538	4362.06
352.765	4312.06
352.992	4224.06
353.22	4161.06
353.447	4130.06
353.674	4113.06
353.901	4088.06
354.128	4067.06
354.355	4046.06
354.583	4082.06
354.81	4049.06
355.037	4020.06
355.264	3943.06
355.491	3984.06
355.718	4019.06
355.945	3939.06
356.172	3994.06
356.399	4004.06
356.626	4042.06
356.853	4027.06
357.08	3962.06
357.307	3957.06
357.534	3973.06
357.761	4041.06
357.988	4045.06
358.215	4014.06
358.441	4042.06
358.668	4051.06
358.895	4104.06
359.122	4186.06
359.349	4218.06
359.576	4316.06
359.802	4561.06
360.029	4778.06
360.256	4730.06
360.483	4452.06
360.709	4286.06
360.936	4238.06
361.163	4311.06
361.39	4294.06
361.616	4282.06
361.843	4278.06
362.07	4294.06
362.296	4308.06
362.523	4274.06
362.749	4242.06
362.976	4176.06
363.203	4086.06
363.429	4106.06
363.656	4193.06
363.882	4121.06
364.109	4126.06
364.335	4057.06
364.562	4102.06
364.788	4130.06
365.015	4134.06
365.241	4155.06
365.468	4131.06
365.694	4181.06
365.92	4178.06
366.147	4128.06
366.373	4121.06
366.599	4077.06
366.826	4086.06
367.052	4091.06
367.278	4095.06
367.505	4149.06
367.731	4167.06
367.957	4153.06
368.184	4149.06
368.41	4261.06
368.636	4292.06
368.862	4342.06
369.089	4251.06
369.315	4200.06
369.541	4237.06
369.767	4246.06
369.993	4205.06
370.219	4236.06
370.445	4274.06
370.672	4300.06
370.898	4272.06
371.124	4346.06
371.35	4358.06
371.576	4370.06
371.802	4357.06
372.028	4368.06
372.254	4361.06
372.48	4437.06
372.706	4523.06
372.932	4543.06
373.158	4470.06
373.384	4393.06
373.61	4410.06
373.835	4352.06
374.061	4390.06
374.287	4441.06
374.513	4507.06
374.739	4688.06
374.965	4743.06
375.191	4752.06
375.416	4681.06
375.642	4568.06
375.868	4523.06
376.094	4542.06
376.319	4467.06
376.545	4388.06
376.771	4393.06
376.997	4369.06
377.222	4318.06
377.448	4366.06
377.674	4375.06
377.899	4312.06
378.125	4293.06
378.35	4302.06
378.576	4247.06
378.802	4261.06
379.027	4310.06
379.253	4350.06
379.478	4273.06
379.704	4255.06
379.929	4316.06
380.155	4345.06
380.38	4328.06
380.606	4380.06
380.831	4327.06
381.057	4383.06
381.282	4366.06
381.507	4367.06
381.733	4446.06
381.958	4466.06
382.184	4488.06
382.409	4522.06
382.634	4610.06
382.86	4628.06
383.085	4602.06
383.31	4737.06
383.535	4798.06
383.761	4838.06
383.986	4860.06
384.211	4994.06
384.436	5016.06
384.662	5094.06
384.887	5121.06
385.112	5127.06
385.337	5256.06
385.562	5179.06
385.787	5264.06
386.013	5338.06
386.238	5329.06
386.463	5315.06
386.688	5300.06
386.913	5187.06
387.138	5178.06
387.363	5200.06
387.588	5121.06
387.813	5181.06
388.038	5156.06
388.263	5167.06
388.488	5174.06
388.713	5148.06
388.938	5171.06
389.163	5104.06
389.387	5109.06
389.612	5096.06
389.837	5084.06
390.062	5043.06
390.287	5082.06
390.512	5113.06
390.736	5268.06
390.961	5234.06
391.186	5366.06
391.411	5456.06
391.636	5603.06
391.86	5740.06
392.085	5816.06
392.31	5711.06
392.534	5560.06
392.759	5500.06
392.984	5422.06
393.208	5395.06
393.433	5444.06
393.658	5248.06
393.882	5393.06
394.107	5430.06
394.331	5518.06
394.556	5398.06
394.78	5520.06
395.005	5536.06
395.229	5553.06
395.454	5772.06
395.678	5787.06
395.903	5799.06
396.127	5873.06
396.352	5703.06
396.576	5566.06
396.801	5534.06
397.025	5557.06
397.249	5713.06
397.474	5851.06
397.698	5811.06
397.922	5949.06
398.147	6059.06
398.371	6205.06
398.595	6248.06
398.82	6585.06
399.044	7139.06
399.268	7826.06
399.492	8838.06
399.717	9582.06
399.941	9295.06
400.165	8730.06
400.389	8052.06
400.613	7194.06
400.837	6823.06
401.062	6686.06
401.286	6564.06
401.51	6498.06
401.734	6512.06
401.958	6648.06
402.182	6664.06
402.406	6772.06
402.63	6933.06
402.854	6967.06
403.078	7011.06
403.302	7217.06
403.526	7273.06
403.75	7402.06
403.974	7513.06
404.198	7452.06
404.422	7641.06
404.645	7643.06
404.869	7860.06
405.093	8375.06
405.317	8853.06
405.541	8777.06
405.765	7938.06
405.988	7624.06
406.212	7562.06
406.436	7720.06
406.66	7868.06
406.883	7803.06
407.107	8446.06
407.331	8846.06
407.555	9335.06
407.778	9070.06
408.002	8314.06
408.226	7918.06
408.449	7862.06
408.673	7654.06
408.896	7851.06
409.12	8000.06
409.344	7521.06
409.567	7266.06
409.791	7241.06
410.014	7110.06
410.238	7049.06
410.461	7097.06
410.685	7051.06
410.908	7208.06
411.132	7439.06
411.355	7489.06
411.578	7147.06
411.802	6962.06
412.025	7094.06
412.249	7535.06
412.472	7947.06
412.695	8454.06
412.919	7714.06
413.142	7234.06
413.365	7027.06
413.589	6940.06
413.812	6632.06
414.035	6494.06
414.258	6590.06
414.482	6674.06
414.705	6573.06
414.928	6550.06
415.151	6472.06
415.374	6590.06
415.597	6418.06
415.821	6363.06
416.044	6444.06
416.267	6367.06
416.49	6282.06
416.713	6230.06
416.936	6347.06
417.159	6417.06
417.382	6572.06
417.605	6515.06
417.828	6728.06
418.051	6759.06
418.274	6586.06
418.497	6419.06
418.72	6579.06
418.943	6494.06
419.166	7018.06
419.389	7362.06
419.611	7373.06
419.834	7231.06
420.057	7337.06
420.28	7435.06
420.503	7238.06
420.726	6994.06
420.948	7112.06
421.171	7267.06
421.394	7190.06
421.617	6653.06
421.839	6581.06
422.062	6707.06
422.285	6830.06
422.507	7577.06
422.73	8033.06
422.953	7362.06
423.175	6938.06
423.398	7131.06
423.621	6964.06
423.843	7232.06
424.066	7163.06
424.288	7093.06
424.511	7326.06
424.733	7823.06
424.956	8218.06
425.178	7716.06
425.401	7863.06
425.623	7787.06
425.846	6800.06
426.068	6712.06
426.291	6645.06
426.513	6543.06
426.735	6723.06
426.958	7200.06
427.18	7985.06
427.402	9239.06
427.625	9535.06
427.847	8499.06
428.069	8098.06
428.292	6962.06
428.514	6281.06
428.736	6057.06
428.958	6136.06
429.181	5830.06
429.403	5855.06
429.625	6026.06
429.847	6298.06
430.069	6907.06
430.292	6354.06
430.514	5899.06
430.736	5835.06
430.958	5707.06
431.18	5688.06
431.402	5698.06
431.624	5627.06
431.846	5731.06
432.068	5802.06
432.29	5840.06
432.512	5732.06
432.734	5849.06
432.956	5793.06
433.178	5856.06
433.4	5910.06
433.622	5810.06
433.844	5790.06
434.066	5861.06
434.287	5951.06
434.509	6169.06
434.731	6233.06
434.953	6408.06
435.175	6536.06
435.397	6611.06
435.618	6596.06
435.84	7003.06
436.062	7913.06
436.284	7726.06
436.505	6507.06
436.727	6228.06
436.949	5983.06
437.17	5856.06
437.392	5800.06
437.614	5972.06
437.835	6376.06
438.057	7403.06
438.278	7973.06
438.5	7943.06
438.721	8793.06
438.943	7554.06
439.165	6386.06
439.386	6251.06
439.608	6220.06
439.829	6421.06
440.05	6759.06
440.272	7116.06
440.493	6446.06
440.715	6177.06
440.936	6083.06
441.158	6122.06
441.379	6262.06
441.6	6583.06
441.822	6800.06
442.043	7270.06
442.264	8044.06
442.486	7673.06
442.707	6841.06
442.928	6746.06
443.149	6900.06
443.371	7119.06
443.592	7640.06
443.813	8758.06
444.034	8617.06
444.255	7474.06
444.476	7302.06
444.698	7478.06
444.919	7529.06
445.14	7338.06
445.361	7208.06
445.582	7385.06
445.803	8184.06
446.024	8838.06
446.245	8272.06
446.466	7364.06
446.687	6445.06
446.908	6098.06
447.129	5794.06
447.35	5712.06
447.571	5595.06
447.792	5489.06
448.013	5659.06
448.234	5855.06
448.455	6614.06
448.675	7783.06
448.896	8231.06
449.117	6708.06
449.338	6938.06
449.559	8306.06
449.779	8424.06
450	6374.06
450.221	5726.06
450.442	5515.06
450.662	5490.06
450.883	5666.06
451.104	5673.06
451.324	5531.06
451.545	5347.06
451.766	5218.06
451.986	5140.06
452.207	5105.06
452.428	5022.06
452.648	5129.06
452.869	5118.06
453.089	5145.06
453.31	5229.06
453.53	5091.06
453.751	5080.06
453.971	5085.06
454.192	5187.06
454.412	4974.06
454.633	4956.06
454.853	4946.06
455.073	4952.06
455.294	5306.06
455.514	5985.06
455.734	5396.06
455.955	4821.06
456.175	4762.06
456.395	4713.06
456.616	4651.06
456.836	4706.06
457.056	4646.06
457.276	4673.06
457.497	4830.06
457.717	4726.06
457.937	4805.06
458.157	4917.06
458.377	5012.06
458.598	5314.06
458.818	6109.06
459.038	6806.06
459.258	6696.06
459.478	5925.06
459.698	5840.06
459.918	5920.06
460.138	6061.06
460.358	6263.06
460.578	6326.06
460.798	6330.06
461.018	6291.06
461.238	6269.06
461.458	6217.06
461.678	6240.06
461.898	6306.06
462.118	6387.06
462.338	6728.06
462.558	6775.06
462.777	7128.06
462.997	7719.06
463.217	8048.06
463.437	7870.06
463.657	7336.06
463.876	7112.06
464.096	7176.06
464.316	7118.06
464.536	7258.06
464.755	7058.06
464.975	6878.06
465.195	7115.06
465.414	7120.06
465.634	6303.06
465.854	5993.06
466.073	5741.06
466.293	5510.06
466.512	5363.06
466.732	5250.06
466.951	5293.06
467.171	5329.06
467.391	5396.06
467.61	5463.06
467.829	5480.06
468.049	5832.06
468.268	6059.06
468.488	5554.06
468.707	5285.06
468.927	5237.06
469.146	5149.06
469.365	5241.06
469.585	5182.06
469.804	5442.06
470.023	5547.06
470.243	5536.06
470.462	5620.06
470.681	5715.06
470.901	5664.06
471.12	5503.06
471.339	5455.06
471.558	5456.06
471.777	5408.06
471.997	5566.06
472.216	6607.06
472.435	8568.06
472.654	6907.06
472.873	5982.06
473.092	5642.06
473.311	5429.06
473.53	5409.06
473.749	5464.06
473.968	5986.06
474.187	6914.06
474.406	6329.06
474.625	5502.06
474.844	5200.06
475.063	5168.06
475.282	5198.06
475.501	5217.06
475.72	5282.06
475.939	5235.06
476.158	5267.06
476.377	5336.06
476.596	5379.06
476.814	5468.06
477.033	5497.06
477.252	5593.06
477.471	5690.06
477.69	5821.06
477.908	5883.06
478.127	6099.06
478.346	6080.06
478.564	6186.06
478.783	6296.06
479.002	6466.06
479.22	6471.06
479.439	6565.06
479.658	6800.06
479.876	6825.06
480.095	7072.06
480.313	7438.06
480.532	7383.06
480.751	7622.06
480.969	8518.06
481.188	12274.06
481.406	11979.06
481.624	8773.06
481.843	7688.06
482.061	7118.06
482.28	6776.06
482.498	6571.06
482.717	6450.06
482.935	6364.06
483.153	6234.06
483.372	6169.06
483.59	6250.06
483.808	6191.06
484.027	6223.06
484.245	6297.06
484.463	6216.06
484.681	6345.06
484.9	6386.06
485.118	6399.06
485.336	6360.06
485.554	6607.06
485.772	6593.06
485.99	6545.06
486.209	6571.06
486.427	6624.06
486.645	6631.06
486.863	6773.06
487.081	6704.06
487.299	6613.06
487.517	6635.06
487.735	6603.06
