Data from Circ_1984_H10_HRD10591_00017.txt Node
Date: Wed Jan 03 12:22:45 EST 2024
User: Yrep
Spectrometer: HR+D1059
Trigger mode: 1
Integration Time (sec): 1.000000E-1
Scans to average: 1
Electric dark correction enabled: true
Nonlinearity correction enabled: false
Boxcar width: 0
XAxis mode: Wavelengths
Number of Pixels in Spectrum: 2048
>>>>>Begin Spectral Data<<<<<
223.165	-8.81
223.4	-8.81
223.635	-8.81
223.869	-13.81
224.104	-18.81
224.338	-31.81
224.573	-26.81
224.808	-7.81
225.042	-16.81
225.277	-17.81
225.511	10.19
225.746	5.19
225.98	12.19
226.215	-2.81
226.449	25.19
226.683	25.19
226.918	26.19
227.152	41.19
227.387	25.19
227.621	51.19
227.856	50.19
228.09	43.19
228.324	53.19
228.559	52.19
228.793	42.19
229.027	57.19
229.262	73.19
229.496	84.19
229.73	87.19
229.964	77.19
230.199	81.19
230.433	74.19
230.667	96.19
230.901	86.19
231.136	75.19
231.37	79.19
231.604	76.19
231.838	93.19
232.072	95.19
232.306	86.19
232.541	91.19
232.775	71.19
233.009	76.19
233.243	90.19
233.477	87.19
233.711	82.19
233.945	102.19
234.179	67.19
234.413	75.19
234.647	92.19
234.881	77.19
235.115	73.19
235.349	81.19
235.583	89.19
235.817	68.19
236.051	78.19
236.285	87.19
236.519	83.19
236.753	86.19
236.987	90.19
237.221	78.19
237.455	91.19
237.689	76.19
237.922	85.19
238.156	89.19
238.39	66.19
238.624	69.19
238.858	75.19
239.091	73.19
239.325	84.19
239.559	87.19
239.793	73.19
240.027	85.19
240.26	97.19
240.494	75.19
240.728	90.19
240.961	93.19
241.195	85.19
241.429	70.19
241.662	77.19
241.896	74.19
242.13	94.19
242.363	86.19
242.597	86.19
242.83	76.19
243.064	81.19
243.298	89.19
243.531	76.19
243.765	68.19
243.998	79.19
244.232	75.19
244.465	92.19
244.699	90.19
244.932	85.19
245.166	85.19
245.399	69.19
245.633	61.19
245.866	71.19
246.099	81.19
246.333	71.19
246.566	86.19
246.8	78.19
247.033	85.19
247.266	81.19
247.5	67.19
247.733	85.19
247.966	81.19
248.2	80.19
248.433	74.19
248.666	87.19
248.899	83.19
249.133	92.19
249.366	111.19
249.599	91.19
249.832	76.19
250.066	77.19
250.299	93.19
250.532	77.19
250.765	88.19
250.998	72.19
251.231	70.19
251.465	84.19
251.698	85.19
251.931	79.19
252.164	64.19
252.397	85.19
252.63	73.19
252.863	89.19
253.096	81.19
253.329	77.19
253.562	77.19
253.795	87.19
254.028	98.19
254.261	82.19
254.494	90.19
254.727	95.19
254.96	69.19
255.193	82.19
255.426	83.19
255.659	86.19
255.892	95.19
256.124	78.19
256.357	73.19
256.59	92.19
256.823	95.19
257.056	95.19
257.289	86.19
257.521	82.19
257.754	88.19
257.987	85.19
258.22	86.19
258.452	90.19
258.685	87.19
258.918	79.19
259.151	95.19
259.383	88.19
259.616	93.19
259.849	91.19
260.081	72.19
260.314	72.19
260.547	87.19
260.779	85.19
261.012	71.19
261.244	71.19
261.477	94.19
261.71	89.19
261.942	101.19
262.175	88.19
262.407	79.19
262.64	76.19
262.872	83.19
263.105	77.19
263.337	81.19
263.57	91.19
263.802	81.19
264.035	71.19
264.267	71.19
264.499	71.19
264.732	86.19
264.964	85.19
265.197	78.19
265.429	70.19
265.661	83.19
265.894	81.19
266.126	91.19
266.358	96.19
266.591	81.19
266.823	76.19
267.055	97.19
267.287	83.19
267.52	90.19
267.752	78.19
267.984	79.19
268.216	74.19
268.448	94.19
268.681	89.19
268.913	95.19
269.145	86.19
269.377	77.19
269.609	55.19
269.841	87.19
270.073	83.19
270.306	67.19
270.538	82.19
270.77	87.19
271.002	85.19
271.234	85.19
271.466	73.19
271.698	88.19
271.93	81.19
272.162	97.19
272.394	102.19
272.626	93.19
272.858	91.19
273.09	79.19
273.322	100.19
273.553	89.19
273.785	85.19
274.017	95.19
274.249	90.19
274.481	89.19
274.713	88.19
274.945	93.19
275.176	87.19
275.408	99.19
275.64	96.19
275.872	99.19
276.104	84.19
276.335	93.19
276.567	100.19
276.799	95.19
277.031	102.19
277.262	102.19
277.494	94.19
277.726	87.19
277.957	78.19
278.189	83.19
278.421	86.19
278.652	82.19
278.884	90.19
279.115	93.19
279.347	94.19
279.579	77.19
279.81	69.19
280.042	81.19
280.273	99.19
280.505	94.19
280.736	84.19
280.968	85.19
281.199	95.19
281.431	87.19
281.662	92.19
281.894	93.19
282.125	99.19
282.356	115.19
282.588	134.19
282.819	90.19
283.051	82.19
283.282	95.19
283.513	93.19
283.745	84.19
283.976	100.19
284.207	89.19
284.439	97.19
284.67	95.19
284.901	115.19
285.132	71.19
285.364	88.19
285.595	88.19
285.826	95.19
286.057	77.19
286.288	92.19
286.52	101.19
286.751	97.19
286.982	99.19
287.213	90.19
287.444	88.19
287.675	97.19
287.906	101.19
288.138	105.19
288.369	93.19
288.6	81.19
288.831	84.19
289.062	93.19
289.293	92.19
289.524	91.19
289.755	83.19
289.986	78.19
290.217	78.19
290.448	75.19
290.679	80.19
290.91	85.19
291.141	74.19
291.371	95.19
291.602	89.19
291.833	79.19
292.064	89.19
292.295	94.19
292.526	81.19
292.757	95.19
292.987	94.19
293.218	92.19
293.449	89.19
293.68	72.19
293.91	93.19
294.141	97.19
294.372	75.19
294.603	94.19
294.833	93.19
295.064	81.19
295.295	90.19
295.525	94.19
295.756	102.19
295.987	109.19
296.217	124.19
296.448	100.19
296.679	83.19
296.909	85.19
297.14	90.19
297.37	84.19
297.601	87.19
297.831	100.19
298.062	86.19
298.292	83.19
298.523	81.19
298.753	81.19
298.984	96.19
299.214	98.19
299.445	81.19
299.675	101.19
299.905	107.19
300.136	94.19
300.366	98.19
300.597	90.19
300.827	84.19
301.057	85.19
301.288	89.19
301.518	86.19
301.748	80.19
301.979	111.19
302.209	94.19
302.439	95.19
302.669	92.19
302.9	103.19
303.13	97.19
303.36	73.19
303.59	105.19
303.82	89.19
304.051	79.19
304.281	99.19
304.511	78.19
304.741	84.19
304.971	97.19
305.201	94.19
305.431	81.19
305.661	99.19
305.891	84.19
306.121	89.19
306.352	105.19
306.582	89.19
306.812	97.19
307.042	92.19
307.272	92.19
307.502	87.19
307.731	86.19
307.961	81.19
308.191	87.19
308.421	89.19
308.651	79.19
308.881	88.19
309.111	99.19
309.341	85.19
309.571	100.19
309.8	101.19
310.03	95.19
310.26	80.19
310.49	97.19
310.72	93.19
310.949	98.19
311.179	100.19
311.409	91.19
311.639	85.19
311.868	95.19
312.098	98.19
312.328	101.19
312.557	107.19
312.787	116.19
313.017	95.19
313.246	90.19
313.476	90.19
313.706	102.19
313.935	92.19
314.165	90.19
314.394	94.19
314.624	100.19
314.853	86.19
315.083	98.19
315.312	98.19
315.542	94.19
315.771	94.19
316.001	82.19
316.23	82.19
316.46	85.19
316.689	99.19
316.919	86.19
317.148	98.19
317.377	95.19
317.607	94.19
317.836	94.19
318.065	93.19
318.295	93.19
318.524	98.19
318.753	89.19
318.983	91.19
319.212	105.19
319.441	110.19
319.67	109.19
319.9	90.19
320.129	94.19
320.358	97.19
320.587	102.19
320.816	91.19
321.046	105.19
321.275	98.19
321.504	92.19
321.733	84.19
321.962	85.19
322.191	87.19
322.42	94.19
322.649	91.19
322.878	94.19
323.108	112.19
323.337	99.19
323.566	117.19
323.795	145.19
324.024	181.19
324.253	290.19
324.482	610.19
324.71	1210.19
324.939	1611.19
325.168	619.19
325.397	210.19
325.626	126.19
325.855	125.19
326.084	95.19
326.313	113.19
326.542	152.19
326.77	207.19
326.999	368.19
327.228	688.19
327.457	1276.19
327.686	1014.19
327.914	303.19
328.143	176.19
328.372	145.19
328.6	129.19
328.829	127.19
329.058	135.19
329.287	124.19
329.515	118.19
329.744	115.19
329.972	110.19
330.201	142.19
330.43	158.19
330.658	138.19
330.887	132.19
331.115	120.19
331.344	111.19
331.572	96.19
331.801	107.19
332.03	86.19
332.258	90.19
332.486	86.19
332.715	95.19
332.943	106.19
333.172	100.19
333.4	101.19
333.629	117.19
333.857	105.19
334.085	105.19
334.314	128.19
334.542	178.19
334.771	173.19
334.999	127.19
335.227	100.19
335.455	88.19
335.684	97.19
335.912	103.19
336.14	94.19
336.369	89.19
336.597	89.19
336.825	100.19
337.053	84.19
337.281	93.19
337.51	83.19
337.738	105.19
337.966	92.19
338.194	108.19
338.422	88.19
338.65	97.19
338.878	98.19
339.106	95.19
339.334	90.19
339.562	88.19
339.79	92.19
340.018	91.19
340.246	95.19
340.474	89.19
340.702	104.19
340.93	88.19
341.158	101.19
341.386	94.19
341.614	95.19
341.842	97.19
342.07	95.19
342.298	86.19
342.526	88.19
342.754	91.19
342.981	92.19
343.209	97.19
343.437	106.19
343.665	90.19
343.893	94.19
344.12	95.19
344.348	89.19
344.576	85.19
344.804	98.19
345.031	96.19
345.259	95.19
345.487	92.19
345.714	106.19
345.942	104.19
346.17	95.19
346.397	92.19
346.625	95.19
346.853	100.19
347.08	92.19
347.308	101.19
347.535	99.19
347.763	98.19
347.99	95.19
348.218	103.19
348.445	95.19
348.673	106.19
348.9	75.19
349.128	93.19
349.355	98.19
349.583	85.19
349.81	88.19
350.037	105.19
350.265	90.19
350.492	102.19
350.72	86.19
350.947	99.19
351.174	108.19
351.402	117.19
351.629	122.19
351.856	101.19
352.083	95.19
352.311	105.19
352.538	112.19
352.765	116.19
352.992	107.19
353.22	105.19
353.447	98.19
353.674	107.19
353.901	100.19
354.128	113.19
354.355	91.19
354.583	82.19
354.81	93.19
355.037	99.19
355.264	110.19
355.491	93.19
355.718	100.19
355.945	105.19
356.172	100.19
356.399	89.19
356.626	99.19
356.853	97.19
357.08	110.19
357.307	91.19
357.534	90.19
357.761	98.19
357.988	98.19
358.215	94.19
358.441	97.19
358.668	81.19
358.895	93.19
359.122	87.19
359.349	93.19
359.576	109.19
359.802	86.19
360.029	97.19
360.256	104.19
360.483	93.19
360.709	77.19
360.936	91.19
361.163	86.19
361.39	68.19
361.616	75.19
361.843	100.19
362.07	98.19
362.296	99.19
362.523	93.19
362.749	91.19
362.976	95.19
363.203	100.19
363.429	78.19
363.656	93.19
363.882	94.19
364.109	89.19
364.335	97.19
364.562	101.19
364.788	85.19
365.015	97.19
365.241	100.19
365.468	95.19
365.694	111.19
365.92	90.19
366.147	94.19
366.373	84.19
366.599	101.19
366.826	102.19
367.052	88.19
367.278	87.19
367.505	86.19
367.731	93.19
367.957	92.19
368.184	96.19
368.41	94.19
368.636	93.19
368.862	101.19
369.089	87.19
369.315	83.19
369.541	91.19
369.767	90.19
369.993	103.19
370.219	84.19
370.445	87.19
370.672	91.19
370.898	84.19
371.124	92.19
371.35	85.19
371.576	83.19
371.802	93.19
372.028	81.19
372.254	96.19
372.48	88.19
372.706	93.19
372.932	92.19
373.158	96.19
373.384	83.19
373.61	92.19
373.835	85.19
374.061	97.19
374.287	92.19
374.513	87.19
374.739	97.19
374.965	96.19
375.191	82.19
375.416	98.19
375.642	89.19
375.868	86.19
376.094	95.19
376.319	94.19
376.545	110.19
376.771	97.19
376.997	89.19
377.222	90.19
377.448	97.19
377.674	90.19
377.899	95.19
378.125	94.19
378.35	89.19
378.576	78.19
378.802	85.19
379.027	102.19
379.253	91.19
379.478	90.19
379.704	99.19
379.929	98.19
380.155	109.19
380.38	105.19
380.606	70.19
380.831	114.19
381.057	100.19
381.282	81.19
381.507	103.19
381.733	90.19
381.958	87.19
382.184	104.19
382.409	101.19
382.634	92.19
382.86	86.19
383.085	91.19
383.31	102.19
383.535	105.19
383.761	99.19
383.986	106.19
384.211	105.19
384.436	113.19
384.662	94.19
384.887	106.19
385.112	105.19
385.337	115.19
385.562	110.19
385.787	111.19
386.013	106.19
386.238	116.19
386.463	101.19
386.688	104.19
386.913	96.19
387.138	107.19
387.363	97.19
387.588	106.19
387.813	106.19
388.038	101.19
388.263	118.19
388.488	99.19
388.713	99.19
388.938	94.19
389.163	91.19
389.387	108.19
389.612	103.19
389.837	85.19
390.062	97.19
390.287	97.19
390.512	84.19
390.736	94.19
390.961	107.19
391.186	93.19
391.411	100.19
391.636	87.19
391.86	93.19
392.085	85.19
392.31	108.19
392.534	87.19
392.759	90.19
392.984	100.19
393.208	110.19
393.433	122.19
393.658	114.19
393.882	111.19
394.107	85.19
394.331	85.19
394.556	81.19
394.78	96.19
395.005	106.19
395.229	85.19
395.454	97.19
395.678	94.19
395.903	99.19
396.127	93.19
396.352	87.19
396.576	104.19
396.801	103.19
397.025	102.19
397.249	112.19
397.474	94.19
397.698	91.19
397.922	98.19
398.147	81.19
398.371	75.19
398.595	87.19
398.82	79.19
399.044	95.19
399.268	68.19
399.492	84.19
399.717	86.19
399.941	103.19
400.165	92.19
400.389	89.19
400.613	77.19
400.837	88.19
401.062	106.19
401.286	93.19
401.51	89.19
401.734	93.19
401.958	96.19
402.182	108.19
402.406	121.19
402.63	104.19
402.854	103.19
403.078	90.19
403.302	94.19
403.526	83.19
403.75	88.19
403.974	94.19
404.198	99.19
404.422	86.19
404.645	94.19
404.869	100.19
405.093	94.19
405.317	97.19
405.541	98.19
405.765	90.19
405.988	97.19
406.212	138.19
406.436	174.19
406.66	128.19
406.883	100.19
407.107	82.19
407.331	104.19
407.555	112.19
407.778	92.19
408.002	102.19
408.226	83.19
408.449	91.19
408.673	87.19
408.896	92.19
409.12	89.19
409.344	82.19
409.567	93.19
409.791	98.19
410.014	88.19
410.238	91.19
410.461	84.19
410.685	99.19
410.908	106.19
411.132	103.19
411.355	94.19
411.578	102.19
411.802	93.19
412.025	91.19
412.249	91.19
412.472	102.19
412.695	99.19
412.919	101.19
413.142	82.19
413.365	91.19
413.589	95.19
413.812	87.19
414.035	85.19
414.258	83.19
414.482	109.19
414.705	98.19
414.928	94.19
415.151	94.19
415.374	100.19
415.597	97.19
415.821	91.19
416.044	93.19
416.267	93.19
416.49	90.19
416.713	107.19
416.936	92.19
417.159	90.19
417.382	93.19
417.605	90.19
417.828	102.19
418.051	101.19
418.274	99.19
418.497	99.19
418.72	85.19
418.943	88.19
419.166	95.19
419.389	103.19
419.611	85.19
419.834	101.19
420.057	93.19
420.28	96.19
420.503	97.19
420.726	89.19
420.948	86.19
421.171	98.19
421.394	92.19
421.617	81.19
421.839	93.19
422.062	82.19
422.285	91.19
422.507	113.19
422.73	117.19
422.953	116.19
423.175	94.19
423.398	80.19
423.621	97.19
423.843	94.19
424.066	73.19
424.288	93.19
424.511	90.19
424.733	92.19
424.956	103.19
425.178	98.19
425.401	97.19
425.623	107.19
425.846	94.19
426.068	82.19
426.291	97.19
426.513	98.19
426.735	90.19
426.958	94.19
427.18	95.19
427.402	119.19
427.625	137.19
427.847	130.19
428.069	108.19
428.292	103.19
428.514	94.19
428.736	98.19
428.958	97.19
429.181	92.19
429.403	82.19
429.625	107.19
429.847	94.19
430.069	98.19
430.292	108.19
430.514	97.19
430.736	76.19
430.958	87.19
431.18	77.19
431.402	85.19
431.624	100.19
431.846	91.19
432.068	95.19
432.29	100.19
432.512	91.19
432.734	89.19
432.956	97.19
433.178	103.19
433.4	94.19
433.622	88.19
433.844	90.19
434.066	96.19
434.287	105.19
434.509	99.19
434.731	97.19
434.953	82.19
435.175	95.19
435.397	94.19
435.618	92.19
435.84	88.19
436.062	112.19
436.284	113.19
436.505	99.19
436.727	103.19
436.949	102.19
437.17	101.19
437.392	92.19
437.614	95.19
437.835	95.19
438.057	89.19
438.278	105.19
438.5	102.19
438.721	118.19
438.943	93.19
439.165	98.19
439.386	91.19
439.608	84.19
439.829	112.19
440.05	107.19
440.272	118.19
440.493	110.19
440.715	84.19
440.936	92.19
441.158	88.19
441.379	101.19
441.6	106.19
441.822	92.19
442.043	105.19
442.264	111.19
442.486	110.19
442.707	96.19
442.928	95.19
443.149	110.19
443.371	120.19
443.592	102.19
443.813	113.19
444.034	101.19
444.255	95.19
444.476	104.19
444.698	90.19
444.919	89.19
445.14	138.19
445.361	119.19
445.582	103.19
445.803	126.19
446.024	114.19
446.245	116.19
446.466	110.19
446.687	90.19
446.908	89.19
447.129	97.19
447.35	93.19
447.571	77.19
447.792	97.19
448.013	97.19
448.234	99.19
448.455	108.19
448.675	103.19
448.896	115.19
449.117	100.19
449.338	107.19
449.559	116.19
449.779	123.19
450	91.19
450.221	86.19
450.442	77.19
450.662	91.19
450.883	99.19
451.104	106.19
451.324	106.19
451.545	99.19
451.766	103.19
451.986	93.19
452.207	84.19
452.428	93.19
452.648	93.19
452.869	98.19
453.089	99.19
453.31	104.19
453.53	95.19
453.751	78.19
453.971	91.19
454.192	105.19
454.412	77.19
454.633	85.19
454.853	87.19
455.073	86.19
455.294	97.19
455.514	97.19
455.734	89.19
455.955	88.19
456.175	80.19
456.395	83.19
456.616	85.19
456.836	92.19
457.056	101.19
457.276	85.19
457.497	87.19
457.717	84.19
457.937	90.19
458.157	78.19
458.377	93.19
458.598	105.19
458.818	127.19
459.038	139.19
459.258	108.19
459.478	96.19
459.698	76.19
459.918	91.19
460.138	87.19
460.358	70.19
460.578	86.19
460.798	101.19
461.018	91.19
461.238	91.19
461.458	76.19
461.678	90.19
461.898	87.19
462.118	90.19
462.338	88.19
462.558	102.19
462.777	95.19
462.997	88.19
463.217	87.19
463.437	91.19
463.657	100.19
463.876	97.19
464.096	95.19
464.316	87.19
464.536	108.19
464.755	90.19
464.975	91.19
465.195	135.19
465.414	130.19
465.634	87.19
465.854	89.19
466.073	107.19
466.293	110.19
466.512	101.19
466.732	89.19
466.951	78.19
467.171	93.19
467.391	89.19
467.61	90.19
467.829	96.19
468.049	115.19
468.268	122.19
468.488	101.19
468.707	90.19
468.927	81.19
469.146	84.19
469.365	89.19
469.585	95.19
469.804	79.19
470.023	81.19
470.243	99.19
470.462	109.19
470.681	97.19
470.901	88.19
471.12	83.19
471.339	95.19
471.558	94.19
471.777	84.19
471.997	109.19
472.216	139.19
472.435	222.19
472.654	123.19
472.873	71.19
473.092	88.19
473.311	89.19
473.53	91.19
473.749	98.19
473.968	91.19
474.187	103.19
474.406	88.19
474.625	89.19
474.844	93.19
475.063	87.19
475.282	103.19
475.501	96.19
475.72	93.19
475.939	95.19
476.158	72.19
476.377	99.19
476.596	79.19
476.814	87.19
477.033	90.19
477.252	79.19
477.471	95.19
477.69	86.19
477.908	90.19
478.127	99.19
478.346	87.19
478.564	100.19
478.783	93.19
479.002	88.19
479.22	90.19
479.439	96.19
479.658	92.19
479.876	98.19
480.095	81.19
480.313	74.19
480.532	91.19
480.751	88.19
480.969	149.19
481.188	323.19
481.406	232.19
481.624	117.19
481.843	94.19
482.061	99.19
482.28	97.19
482.498	79.19
482.717	85.19
482.935	83.19
483.153	101.19
483.372	101.19
483.59	90.19
483.808	71.19
484.027	81.19
484.245	99.19
484.463	89.19
484.681	95.19
484.9	88.19
485.118	91.19
485.336	95.19
485.554	103.19
485.772	111.19
485.99	114.19
486.209	123.19
486.427	106.19
486.645	119.19
486.863	117.19
487.081	98.19
487.299	105.19
487.517	104.19
487.735	93.19
487.953	87.19
488.171	82.19
488.389	94.19
488.607	108.19
488.825	90.19
489.043	82.19
489.261	94.19
489.479	97.19
489.696	101.19
489.914	97.19
490.132	80.19
490.35	88.19
490.568	91.19
490.786	90.19
491.003	91.19
491.221	93.19
491.439	85.19
491.657	84.19
491.874	102.19
492.092	89.19
492.31	88.19
492.527	86.19
492.745	97.19
492.963	90.19
493.18	88.19
493.398	79.19
493.615	102.19
493.833	90.19
494.05	96.19
494.268	87.19
494.485	86.19
494.703	92.19
494.92	95.19
495.138	89.19
495.355	99.19
495.573	98.19
495.79	91.19
496.008	94.19
496.225	83.19
496.442	80.19
496.66	77.19
496.877	92.19
497.094	93.19
497.312	89.19
497.529	89.19
497.746	90.19
497.963	85.19
498.181	76.19
498.398	93.19
498.615	98.19
498.832	99.19
499.049	103.19
499.267	85.19
499.484	88.19
499.701	100.19
499.918	91.19
500.135	93.19
500.352	94.19
500.569	88.19
500.786	90.19
501.003	99.19
501.22	85.19
501.437	82.19
501.654	103.19
501.871	101.19
502.088	105.19
502.305	94.19
502.522	92.19
502.739	90.19
502.956	98.19
503.172	100.19
503.389	104.19
503.606	90.19
503.823	93.19
504.04	97.19
504.256	102.19
504.473	97.19
504.69	97.19
504.907	91.19
505.123	94.19
505.34	93.19
505.557	95.19
505.773	89.19
505.99	85.19
506.207	102.19
506.423	93.19
506.64	94.19
506.856	101.19
507.073	92.19
507.289	91.19
507.506	85.19
507.722	98.19
507.939	101.19
508.155	111.19
508.372	86.19
508.588	87.19
508.805	90.19
509.021	95.19
509.238	85.19
509.454	101.19
509.67	99.19
509.887	96.19
510.103	117.19
510.319	177.19
510.536	587.19
510.752	1759.19
510.968	485.19
511.184	132.19
511.401	97.19
511.617	103.19
511.833	93.19
512.049	77.19
512.265	86.19
512.481	91.19
512.698	95.19
512.914	99.19
513.13	86.19
513.346	81.19
513.562	98.19
513.778	94.19
513.994	88.19
514.21	107.19
514.426	105.19
514.642	114.19
514.858	116.19
515.074	137.19
515.29	337.19
515.506	1003.19
