Data from Circ_1984_H10_HRD10591_00014.txt Node
Date: Wed Jan 03 12:22:44 EST 2024
User: Yrep
Spectrometer: HR+D1059
Trigger mode: 1
Integration Time (sec): 1.000000E-1
Scans to average: 1
Electric dark correction enabled: true
Nonlinearity correction enabled: false
Boxcar width: 0
XAxis mode: Wavelengths
Number of Pixels in Spectrum: 2048
>>>>>Begin Spectral Data<<<<<
223.165	-5.81
223.4	-5.81
223.635	-5.81
223.869	-19.81
224.104	-12.81
224.338	-19.81
224.573	-11.81
224.808	-10.81
225.042	-16.81
225.277	-5.81
225.511	-6.81
225.746	-0.81
225.98	12.19
226.215	17.19
226.449	10.19
226.683	23.19
226.918	23.19
227.152	25.19
227.387	39.19
227.621	38.19
227.856	41.19
228.09	53.19
228.324	52.19
228.559	61.19
228.793	64.19
229.027	72.19
229.262	70.19
229.496	75.19
229.73	98.19
229.964	82.19
230.199	86.19
230.433	77.19
230.667	85.19
230.901	87.19
231.136	85.19
231.37	71.19
231.604	85.19
231.838	83.19
232.072	72.19
232.306	84.19
232.541	89.19
232.775	93.19
233.009	74.19
233.243	76.19
233.477	90.19
233.711	69.19
233.945	82.19
234.179	84.19
234.413	76.19
234.647	85.19
234.881	69.19
235.115	79.19
235.349	80.19
235.583	78.19
235.817	82.19
236.051	84.19
236.285	76.19
236.519	85.19
236.753	78.19
236.987	80.19
237.221	78.19
237.455	73.19
237.689	80.19
237.922	90.19
238.156	75.19
238.39	71.19
238.624	76.19
238.858	78.19
239.091	61.19
239.325	75.19
239.559	78.19
239.793	77.19
240.027	87.19
240.26	88.19
240.494	86.19
240.728	89.19
240.961	88.19
241.195	82.19
241.429	60.19
241.662	59.19
241.896	65.19
242.13	83.19
242.363	90.19
242.597	86.19
242.83	66.19
243.064	94.19
243.298	64.19
243.531	84.19
243.765	78.19
243.998	72.19
244.232	76.19
244.465	69.19
244.699	79.19
244.932	90.19
245.166	82.19
245.399	77.19
245.633	76.19
245.866	84.19
246.099	75.19
246.333	89.19
246.566	79.19
246.8	86.19
247.033	88.19
247.266	87.19
247.5	83.19
247.733	63.19
247.966	75.19
248.2	70.19
248.433	79.19
248.666	79.19
248.899	93.19
249.133	86.19
249.366	94.19
249.599	95.19
249.832	72.19
250.066	101.19
250.299	74.19
250.532	71.19
250.765	86.19
250.998	84.19
251.231	79.19
251.465	76.19
251.698	79.19
251.931	84.19
252.164	81.19
252.397	89.19
252.63	73.19
252.863	75.19
253.096	76.19
253.329	76.19
253.562	87.19
253.795	79.19
254.028	84.19
254.261	82.19
254.494	77.19
254.727	86.19
254.96	86.19
255.193	87.19
255.426	83.19
255.659	75.19
255.892	84.19
256.124	95.19
256.357	86.19
256.59	83.19
256.823	69.19
257.056	87.19
257.289	80.19
257.521	82.19
257.754	88.19
257.987	72.19
258.22	74.19
258.452	78.19
258.685	92.19
258.918	96.19
259.151	84.19
259.383	78.19
259.616	88.19
259.849	96.19
260.081	81.19
260.314	79.19
260.547	92.19
260.779	79.19
261.012	70.19
261.244	84.19
261.477	91.19
261.71	88.19
261.942	101.19
262.175	105.19
262.407	100.19
262.64	78.19
262.872	92.19
263.105	73.19
263.337	78.19
263.57	78.19
263.802	89.19
264.035	84.19
264.267	95.19
264.499	89.19
264.732	75.19
264.964	90.19
265.197	85.19
265.429	96.19
265.661	83.19
265.894	83.19
266.126	86.19
266.358	84.19
266.591	82.19
266.823	86.19
267.055	88.19
267.287	88.19
267.52	87.19
267.752	87.19
267.984	92.19
268.216	70.19
268.448	85.19
268.681	85.19
268.913	73.19
269.145	69.19
269.377	92.19
269.609	83.19
269.841	96.19
270.073	93.19
270.306	92.19
270.538	95.19
270.77	90.19
271.002	98.19
271.234	96.19
271.466	98.19
271.698	71.19
271.93	86.19
272.162	94.19
272.394	93.19
272.626	107.19
272.858	80.19
273.09	85.19
273.322	84.19
273.553	82.19
273.785	76.19
274.017	91.19
274.249	92.19
274.481	78.19
274.713	87.19
274.945	84.19
275.176	88.19
275.408	96.19
275.64	76.19
275.872	88.19
276.104	73.19
276.335	89.19
276.567	96.19
276.799	105.19
277.031	101.19
277.262	89.19
277.494	94.19
277.726	113.19
277.957	90.19
278.189	93.19
278.421	82.19
278.652	97.19
278.884	82.19
279.115	92.19
279.347	79.19
279.579	95.19
279.81	83.19
280.042	77.19
280.273	93.19
280.505	92.19
280.736	91.19
280.968	95.19
281.199	100.19
281.431	84.19
281.662	96.19
281.894	101.19
282.125	84.19
282.356	117.19
282.588	116.19
282.819	93.19
283.051	93.19
283.282	91.19
283.513	92.19
283.745	87.19
283.976	96.19
284.207	95.19
284.439	86.19
284.67	78.19
284.901	89.19
285.132	93.19
285.364	93.19
285.595	78.19
285.826	90.19
286.057	80.19
286.288	79.19
286.52	95.19
286.751	89.19
286.982	108.19
287.213	78.19
287.444	100.19
287.675	89.19
287.906	95.19
288.138	98.19
288.369	83.19
288.6	78.19
288.831	86.19
289.062	90.19
289.293	77.19
289.524	84.19
289.755	76.19
289.986	88.19
290.217	88.19
290.448	102.19
290.679	92.19
290.91	95.19
291.141	94.19
291.371	96.19
291.602	83.19
291.833	84.19
292.064	92.19
292.295	86.19
292.526	88.19
292.757	93.19
292.987	89.19
293.218	97.19
293.449	84.19
293.68	104.19
293.91	86.19
294.141	88.19
294.372	84.19
294.603	90.19
294.833	91.19
295.064	87.19
295.295	92.19
295.525	90.19
295.756	91.19
295.987	105.19
296.217	118.19
296.448	114.19
296.679	91.19
296.909	91.19
297.14	86.19
297.37	91.19
297.601	104.19
297.831	93.19
298.062	100.19
298.292	102.19
298.523	92.19
298.753	98.19
298.984	93.19
299.214	80.19
299.445	88.19
299.675	102.19
299.905	108.19
300.136	95.19
300.366	93.19
300.597	99.19
300.827	93.19
301.057	107.19
301.288	92.19
301.518	107.19
301.748	100.19
301.979	106.19
302.209	108.19
302.439	93.19
302.669	94.19
302.9	103.19
303.13	94.19
303.36	97.19
303.59	77.19
303.82	101.19
304.051	105.19
304.281	93.19
304.511	85.19
304.741	83.19
304.971	104.19
305.201	90.19
305.431	86.19
305.661	85.19
305.891	91.19
306.121	95.19
306.352	101.19
306.582	90.19
306.812	100.19
307.042	89.19
307.272	79.19
307.502	88.19
307.731	92.19
307.961	96.19
308.191	82.19
308.421	85.19
308.651	95.19
308.881	96.19
309.111	100.19
309.341	90.19
309.571	98.19
309.8	94.19
310.03	101.19
310.26	95.19
310.49	92.19
310.72	82.19
310.949	99.19
311.179	88.19
311.409	101.19
311.639	99.19
311.868	105.19
312.098	104.19
312.328	110.19
312.557	95.19
312.787	98.19
313.017	97.19
313.246	105.19
313.476	100.19
313.706	95.19
313.935	88.19
314.165	98.19
314.394	101.19
314.624	98.19
314.853	97.19
315.083	97.19
315.312	106.19
315.542	99.19
315.771	100.19
316.001	100.19
316.23	99.19
316.46	85.19
316.689	88.19
316.919	80.19
317.148	110.19
317.377	107.19
317.607	98.19
317.836	100.19
318.065	79.19
318.295	102.19
318.524	86.19
318.753	88.19
318.983	95.19
319.212	109.19
319.441	111.19
319.67	110.19
319.9	99.19
320.129	87.19
320.358	90.19
320.587	101.19
320.816	104.19
321.046	96.19
321.275	96.19
321.504	103.19
321.733	80.19
321.962	87.19
322.191	101.19
322.42	98.19
322.649	109.19
322.878	98.19
323.108	103.19
323.337	117.19
323.566	118.19
323.795	124.19
324.024	167.19
324.253	280.19
324.482	568.19
324.71	1133.19
324.939	1520.19
325.168	578.19
325.397	191.19
325.626	123.19
325.855	123.19
326.084	104.19
326.313	117.19
326.542	125.19
326.77	187.19
326.999	317.19
327.228	661.19
327.457	1181.19
327.686	971.19
327.914	285.19
328.143	181.19
328.372	150.19
328.6	111.19
328.829	97.19
329.058	117.19
329.287	112.19
329.515	106.19
329.744	117.19
329.972	120.19
330.201	135.19
330.43	150.19
330.658	122.19
330.887	121.19
331.115	120.19
331.344	94.19
331.572	112.19
331.801	94.19
332.03	96.19
332.258	97.19
332.486	101.19
332.715	98.19
332.943	84.19
333.172	98.19
333.4	92.19
333.629	111.19
333.857	115.19
334.085	126.19
334.314	129.19
334.542	151.19
334.771	152.19
334.999	96.19
335.227	87.19
335.455	99.19
335.684	109.19
335.912	116.19
336.14	108.19
336.369	90.19
336.597	97.19
336.825	120.19
337.053	87.19
337.281	102.19
337.51	99.19
337.738	102.19
337.966	84.19
338.194	92.19
338.422	84.19
338.65	94.19
338.878	93.19
339.106	99.19
339.334	99.19
339.562	98.19
339.79	80.19
340.018	88.19
340.246	88.19
340.474	106.19
340.702	96.19
340.93	96.19
341.158	92.19
341.386	88.19
341.614	105.19
341.842	96.19
342.07	102.19
342.298	92.19
342.526	76.19
342.754	96.19
342.981	88.19
343.209	100.19
343.437	102.19
343.665	79.19
343.893	82.19
344.12	106.19
344.348	99.19
344.576	102.19
344.804	110.19
345.031	89.19
345.259	99.19
345.487	72.19
345.714	99.19
345.942	100.19
346.17	99.19
346.397	106.19
346.625	93.19
346.853	86.19
347.08	90.19
347.308	96.19
347.535	91.19
347.763	95.19
347.99	93.19
348.218	99.19
348.445	101.19
348.673	102.19
348.9	105.19
349.128	94.19
349.355	92.19
349.583	87.19
349.81	106.19
350.037	98.19
350.265	104.19
350.492	103.19
350.72	96.19
350.947	92.19
351.174	108.19
351.402	106.19
351.629	97.19
351.856	101.19
352.083	103.19
352.311	99.19
352.538	107.19
352.765	96.19
352.992	108.19
353.22	122.19
353.447	116.19
353.674	103.19
353.901	80.19
354.128	98.19
354.355	100.19
354.583	98.19
354.81	96.19
355.037	100.19
355.264	99.19
355.491	103.19
355.718	88.19
355.945	96.19
356.172	106.19
356.399	104.19
356.626	79.19
356.853	105.19
357.08	92.19
357.307	99.19
357.534	106.19
357.761	107.19
357.988	87.19
358.215	99.19
358.441	108.19
358.668	103.19
358.895	88.19
359.122	85.19
359.349	86.19
359.576	96.19
359.802	105.19
360.029	100.19
360.256	112.19
360.483	99.19
360.709	98.19
360.936	95.19
361.163	87.19
361.39	99.19
361.616	94.19
361.843	91.19
362.07	96.19
362.296	102.19
362.523	96.19
362.749	96.19
362.976	86.19
363.203	107.19
363.429	110.19
363.656	105.19
363.882	87.19
364.109	105.19
364.335	93.19
364.562	95.19
364.788	89.19
365.015	97.19
365.241	92.19
365.468	96.19
365.694	106.19
365.92	100.19
366.147	88.19
366.373	86.19
366.599	90.19
366.826	91.19
367.052	103.19
367.278	92.19
367.505	86.19
367.731	100.19
367.957	92.19
368.184	93.19
368.41	106.19
368.636	109.19
368.862	103.19
369.089	98.19
369.315	88.19
369.541	106.19
369.767	81.19
369.993	101.19
370.219	103.19
370.445	99.19
370.672	85.19
370.898	96.19
371.124	88.19
371.35	94.19
371.576	80.19
371.802	110.19
372.028	98.19
372.254	86.19
372.48	84.19
372.706	85.19
372.932	100.19
373.158	93.19
373.384	88.19
373.61	105.19
373.835	94.19
374.061	95.19
374.287	87.19
374.513	101.19
374.739	94.19
374.965	91.19
375.191	84.19
375.416	93.19
375.642	100.19
375.868	97.19
376.094	100.19
376.319	90.19
376.545	98.19
376.771	100.19
376.997	102.19
377.222	97.19
377.448	93.19
377.674	94.19
377.899	93.19
378.125	87.19
378.35	102.19
378.576	86.19
378.802	101.19
379.027	101.19
379.253	99.19
379.478	96.19
379.704	97.19
379.929	100.19
380.155	88.19
380.38	100.19
380.606	101.19
380.831	92.19
381.057	91.19
381.282	102.19
381.507	90.19
381.733	104.19
381.958	100.19
382.184	106.19
382.409	107.19
382.634	95.19
382.86	101.19
383.085	96.19
383.31	114.19
383.535	98.19
383.761	94.19
383.986	103.19
384.211	121.19
384.436	93.19
384.662	119.19
384.887	110.19
385.112	107.19
385.337	117.19
385.562	117.19
385.787	102.19
386.013	122.19
386.238	116.19
386.463	108.19
386.688	110.19
386.913	109.19
387.138	116.19
387.363	119.19
387.588	111.19
387.813	98.19
388.038	104.19
388.263	106.19
388.488	123.19
388.713	97.19
388.938	82.19
389.163	106.19
389.387	94.19
389.612	116.19
389.837	104.19
390.062	103.19
390.287	96.19
390.512	104.19
390.736	88.19
390.961	92.19
391.186	104.19
391.411	94.19
391.636	95.19
391.86	85.19
392.085	92.19
392.31	89.19
392.534	84.19
392.759	94.19
392.984	99.19
393.208	106.19
393.433	104.19
393.658	92.19
393.882	84.19
394.107	89.19
394.331	96.19
394.556	97.19
394.78	90.19
395.005	90.19
395.229	87.19
395.454	88.19
395.678	84.19
395.903	93.19
396.127	90.19
396.352	92.19
396.576	89.19
396.801	94.19
397.025	99.19
397.249	99.19
397.474	99.19
397.698	92.19
397.922	94.19
398.147	94.19
398.371	75.19
398.595	82.19
398.82	82.19
399.044	95.19
399.268	92.19
399.492	93.19
399.717	98.19
399.941	99.19
400.165	89.19
400.389	108.19
400.613	101.19
400.837	78.19
401.062	92.19
401.286	96.19
401.51	95.19
401.734	96.19
401.958	105.19
402.182	115.19
402.406	133.19
402.63	107.19
402.854	88.19
403.078	71.19
403.302	85.19
403.526	97.19
403.75	92.19
403.974	92.19
404.198	80.19
404.422	91.19
404.645	98.19
404.869	96.19
405.093	97.19
405.317	95.19
405.541	103.19
405.765	95.19
405.988	115.19
406.212	132.19
406.436	167.19
406.66	118.19
406.883	95.19
407.107	105.19
407.331	94.19
407.555	107.19
407.778	95.19
408.002	103.19
408.226	95.19
408.449	93.19
408.673	89.19
408.896	96.19
409.12	103.19
409.344	78.19
409.567	88.19
409.791	88.19
410.014	98.19
410.238	93.19
410.461	90.19
410.685	94.19
410.908	101.19
411.132	100.19
411.355	86.19
411.578	90.19
411.802	76.19
412.025	90.19
412.249	107.19
412.472	97.19
412.695	123.19
412.919	94.19
413.142	94.19
413.365	96.19
413.589	93.19
413.812	87.19
414.035	90.19
414.258	86.19
414.482	75.19
414.705	102.19
414.928	101.19
415.151	89.19
415.374	90.19
415.597	84.19
415.821	88.19
416.044	94.19
416.267	87.19
416.49	94.19
416.713	106.19
416.936	88.19
417.159	88.19
417.382	102.19
417.605	99.19
417.828	98.19
418.051	107.19
418.274	87.19
418.497	87.19
418.72	91.19
418.943	112.19
419.166	93.19
419.389	95.19
419.611	104.19
419.834	87.19
420.057	92.19
420.28	102.19
420.503	92.19
420.726	89.19
420.948	94.19
421.171	92.19
421.394	106.19
421.617	100.19
421.839	98.19
422.062	90.19
422.285	87.19
422.507	121.19
422.73	107.19
422.953	109.19
423.175	90.19
423.398	97.19
423.621	106.19
423.843	76.19
424.066	92.19
424.288	77.19
424.511	75.19
424.733	92.19
424.956	100.19
425.178	92.19
425.401	91.19
425.623	99.19
425.846	92.19
426.068	89.19
426.291	95.19
426.513	81.19
426.735	91.19
426.958	103.19
427.18	112.19
427.402	137.19
427.625	132.19
427.847	125.19
428.069	101.19
428.292	86.19
428.514	92.19
428.736	101.19
428.958	83.19
429.181	78.19
429.403	83.19
429.625	103.19
429.847	85.19
430.069	106.19
430.292	102.19
430.514	95.19
430.736	82.19
430.958	91.19
431.18	88.19
431.402	85.19
431.624	101.19
431.846	89.19
432.068	78.19
432.29	89.19
432.512	91.19
432.734	92.19
432.956	100.19
433.178	96.19
433.4	105.19
433.622	107.19
433.844	99.19
434.066	104.19
434.287	97.19
434.509	90.19
434.731	98.19
434.953	108.19
435.175	102.19
435.397	89.19
435.618	96.19
435.84	86.19
436.062	113.19
436.284	107.19
436.505	102.19
436.727	96.19
436.949	86.19
437.17	105.19
437.392	97.19
437.614	82.19
437.835	106.19
438.057	86.19
438.278	107.19
438.5	104.19
438.721	117.19
438.943	93.19
439.165	100.19
439.386	95.19
439.608	96.19
439.829	103.19
440.05	113.19
440.272	130.19
440.493	84.19
440.715	97.19
440.936	90.19
441.158	100.19
441.379	100.19
441.6	108.19
441.822	91.19
442.043	91.19
442.264	96.19
442.486	84.19
442.707	91.19
442.928	101.19
443.149	102.19
443.371	107.19
443.592	106.19
443.813	113.19
444.034	108.19
444.255	98.19
444.476	104.19
444.698	89.19
444.919	83.19
445.14	128.19
445.361	120.19
445.582	102.19
445.803	123.19
446.024	119.19
446.245	120.19
446.466	103.19
446.687	103.19
446.908	94.19
447.129	87.19
447.35	90.19
447.571	97.19
447.792	102.19
448.013	95.19
448.234	115.19
448.455	95.19
448.675	98.19
448.896	92.19
449.117	103.19
449.338	94.19
449.559	120.19
449.779	105.19
450	86.19
450.221	87.19
450.442	80.19
450.662	93.19
450.883	112.19
451.104	103.19
451.324	88.19
451.545	92.19
451.766	88.19
451.986	88.19
452.207	85.19
452.428	90.19
452.648	104.19
452.869	111.19
453.089	116.19
453.31	103.19
453.53	97.19
453.751	94.19
453.971	93.19
454.192	87.19
454.412	107.19
454.633	88.19
454.853	75.19
455.073	101.19
455.294	90.19
455.514	98.19
455.734	100.19
455.955	98.19
456.175	77.19
456.395	84.19
456.616	90.19
456.836	86.19
457.056	95.19
457.276	84.19
457.497	85.19
457.717	89.19
457.937	99.19
458.157	97.19
458.377	91.19
458.598	115.19
458.818	128.19
459.038	156.19
459.258	98.19
459.478	86.19
459.698	82.19
459.918	81.19
460.138	87.19
460.358	86.19
460.578	83.19
460.798	100.19
461.018	108.19
461.238	104.19
461.458	100.19
461.678	77.19
461.898	92.19
462.118	94.19
462.338	74.19
462.558	74.19
462.777	92.19
462.997	84.19
463.217	93.19
463.437	90.19
463.657	86.19
463.876	92.19
464.096	92.19
464.316	88.19
464.536	87.19
464.755	102.19
464.975	92.19
465.195	119.19
465.414	135.19
465.634	93.19
465.854	97.19
466.073	85.19
466.293	102.19
466.512	85.19
466.732	94.19
466.951	91.19
467.171	103.19
467.391	74.19
467.61	99.19
467.829	102.19
468.049	108.19
468.268	119.19
468.488	97.19
468.707	92.19
468.927	91.19
469.146	93.19
469.365	95.19
469.585	94.19
469.804	97.19
470.023	103.19
470.243	88.19
470.462	87.19
470.681	106.19
470.901	90.19
471.12	90.19
471.339	80.19
471.558	100.19
471.777	97.19
471.997	97.19
472.216	129.19
472.435	194.19
472.654	107.19
472.873	79.19
473.092	86.19
473.311	87.19
473.53	94.19
473.749	91.19
473.968	95.19
474.187	111.19
474.406	109.19
474.625	103.19
474.844	93.19
475.063	102.19
475.282	111.19
475.501	92.19
475.72	84.19
475.939	85.19
476.158	86.19
476.377	102.19
476.596	87.19
476.814	92.19
477.033	97.19
477.252	85.19
477.471	89.19
477.69	95.19
477.908	89.19
478.127	101.19
478.346	83.19
478.564	107.19
478.783	90.19
479.002	82.19
479.22	88.19
479.439	104.19
479.658	105.19
479.876	100.19
480.095	101.19
480.313	99.19
480.532	95.19
480.751	97.19
480.969	144.19
481.188	290.19
481.406	202.19
481.624	114.19
481.843	104.19
482.061	87.19
482.28	99.19
482.498	86.19
482.717	95.19
482.935	89.19
483.153	90.19
483.372	81.19
483.59	81.19
483.808	103.19
484.027	96.19
484.245	94.19
484.463	93.19
484.681	99.19
484.9	96.19
485.118	107.19
485.336	95.19
485.554	99.19
485.772	111.19
485.99	112.19
486.209	112.19
486.427	107.19
486.645	114.19
486.863	120.19
487.081	108.19
487.299	94.19
487.517	112.19
487.735	105.19
487.953	100.19
488.171	97.19
488.389	106.19
488.607	99.19
488.825	95.19
489.043	82.19
489.261	75.19
489.479	100.19
489.696	100.19
489.914	87.19
490.132	83.19
490.35	96.19
490.568	87.19
490.786	88.19
491.003	94.19
491.221	99.19
491.439	94.19
491.657	92.19
491.874	99.19
492.092	94.19
492.31	93.19
492.527	84.19
492.745	82.19
492.963	92.19
493.18	107.19
493.398	93.19
493.615	100.19
493.833	94.19
494.05	91.19
494.268	80.19
494.485	105.19
494.703	90.19
494.92	100.19
495.138	91.19
495.355	92.19
495.573	87.19
495.79	100.19
496.008	93.19
496.225	89.19
496.442	93.19
496.66	100.19
496.877	86.19
497.094	98.19
497.312	95.19
497.529	106.19
497.746	101.19
497.963	90.19
498.181	78.19
498.398	92.19
498.615	118.19
498.832	99.19
499.049	87.19
499.267	93.19
499.484	90.19
499.701	87.19
499.918	95.19
500.135	93.19
500.352	82.19
500.569	92.19
500.786	88.19
501.003	95.19
501.22	98.19
501.437	91.19
501.654	97.19
501.871	101.19
502.088	104.19
502.305	84.19
502.522	93.19
502.739	97.19
502.956	85.19
503.172	95.19
503.389	104.19
503.606	116.19
503.823	98.19
504.04	84.19
504.256	106.19
504.473	92.19
504.69	95.19
504.907	96.19
505.123	107.19
505.34	89.19
505.557	101.19
505.773	82.19
505.99	86.19
506.207	77.19
506.423	78.19
506.64	103.19
506.856	87.19
507.073	84.19
507.289	108.19
507.506	98.19
507.722	106.19
507.939	105.19
508.155	92.19
508.372	93.19
508.588	86.19
508.805	89.19
509.021	94.19
509.238	100.19
509.454	95.19
509.67	112.19
509.887	103.19
510.103	114.19
510.319	182.19
510.536	566.19
510.752	1689.19
510.968	487.19
511.184	142.19
511.401	105.19
511.617	93.19
511.833	93.19
512.049	90.19
512.265	103.19
512.481	92.19
512.698	90.19
512.914	92.19
513.13	94.19
513.346	80.19
513.562	102.19
513.778	88.19
513.994	94.19
514.21	96.19
514.426	112.19
