Data from Circ_1984_H10_HRD10591_00007.txt Node
Date: Wed Jan 03 12:22:43 EST 2024
User: Yrep
Spectrometer: HR+D1059
Trigger mode: 1
Integration Time (sec): 1.000000E-1
Scans to average: 1
Electric dark correction enabled: true
Nonlinearity correction enabled: false
Boxcar width: 0
XAxis mode: Wavelengths
Number of Pixels in Spectrum: 2048
>>>>>Begin Spectral Data<<<<<
223.165	-15.94
223.4	-15.94
223.635	-15.94
223.869	-33.94
224.104	-21.94
224.338	-11.94
224.573	0.06
224.808	-11.94
225.042	2.06
225.277	-13.94
225.511	6.06
225.746	2.06
225.98	3.06
226.215	21.06
226.449	10.06
226.683	17.06
226.918	22.06
227.152	26.06
227.387	39.06
227.621	49.06
227.856	49.06
228.09	55.06
228.324	56.06
228.559	53.06
228.793	59.06
229.027	66.06
229.262	69.06
229.496	70.06
229.73	83.06
229.964	75.06
230.199	75.06
230.433	74.06
230.667	63.06
230.901	59.06
231.136	71.06
231.37	98.06
231.604	75.06
231.838	72.06
232.072	80.06
232.306	74.06
232.541	83.06
232.775	79.06
233.009	85.06
233.243	82.06
233.477	81.06
233.711	75.06
233.945	81.06
234.179	83.06
234.413	88.06
234.647	84.06
234.881	84.06
235.115	76.06
235.349	76.06
235.583	63.06
235.817	82.06
236.051	67.06
236.285	69.06
236.519	60.06
236.753	81.06
236.987	83.06
237.221	74.06
237.455	89.06
237.689	82.06
237.922	78.06
238.156	57.06
238.39	61.06
238.624	81.06
238.858	88.06
239.091	87.06
239.325	69.06
239.559	63.06
239.793	65.06
240.027	78.06
240.26	85.06
240.494	73.06
240.728	84.06
240.961	71.06
241.195	72.06
241.429	84.06
241.662	70.06
241.896	74.06
242.13	63.06
242.363	81.06
242.597	79.06
242.83	75.06
243.064	79.06
243.298	76.06
243.531	76.06
243.765	77.06
243.998	67.06
244.232	79.06
244.465	70.06
244.699	74.06
244.932	100.06
245.166	74.06
245.399	84.06
245.633	68.06
245.866	87.06
246.099	71.06
246.333	81.06
246.566	72.06
246.8	83.06
247.033	81.06
247.266	85.06
247.5	76.06
247.733	77.06
247.966	70.06
248.2	80.06
248.433	81.06
248.666	73.06
248.899	75.06
249.133	77.06
249.366	96.06
249.599	91.06
249.832	88.06
250.066	79.06
250.299	76.06
250.532	79.06
250.765	81.06
250.998	80.06
251.231	74.06
251.465	65.06
251.698	90.06
251.931	89.06
252.164	80.06
252.397	78.06
252.63	91.06
252.863	78.06
253.096	71.06
253.329	96.06
253.562	83.06
253.795	83.06
254.028	88.06
254.261	82.06
254.494	73.06
254.727	79.06
254.96	91.06
255.193	88.06
255.426	67.06
255.659	81.06
255.892	79.06
256.124	90.06
256.357	69.06
256.59	87.06
256.823	86.06
257.056	72.06
257.289	82.06
257.521	89.06
257.754	87.06
257.987	79.06
258.22	90.06
258.452	88.06
258.685	84.06
258.918	89.06
259.151	94.06
259.383	92.06
259.616	84.06
259.849	87.06
260.081	100.06
260.314	88.06
260.547	86.06
260.779	70.06
261.012	79.06
261.244	73.06
261.477	94.06
261.71	79.06
261.942	109.06
262.175	107.06
262.407	80.06
262.64	75.06
262.872	88.06
263.105	79.06
263.337	83.06
263.57	82.06
263.802	84.06
264.035	91.06
264.267	91.06
264.499	80.06
264.732	81.06
264.964	79.06
265.197	84.06
265.429	89.06
265.661	80.06
265.894	88.06
266.126	90.06
266.358	91.06
266.591	96.06
266.823	79.06
267.055	94.06
267.287	84.06
267.52	70.06
267.752	92.06
267.984	91.06
268.216	94.06
268.448	78.06
268.681	90.06
268.913	72.06
269.145	83.06
269.377	85.06
269.609	97.06
269.841	92.06
270.073	88.06
270.306	79.06
270.538	95.06
270.77	90.06
271.002	91.06
271.234	85.06
271.466	72.06
271.698	77.06
271.93	91.06
272.162	92.06
272.394	89.06
272.626	98.06
272.858	83.06
273.09	83.06
273.322	86.06
273.553	76.06
273.785	78.06
274.017	88.06
274.249	80.06
274.481	90.06
274.713	91.06
274.945	69.06
275.176	87.06
275.408	87.06
275.64	79.06
275.872	85.06
276.104	97.06
276.335	91.06
276.567	85.06
276.799	104.06
277.031	93.06
277.262	93.06
277.494	83.06
277.726	77.06
277.957	85.06
278.189	88.06
278.421	85.06
278.652	85.06
278.884	81.06
279.115	87.06
279.347	82.06
279.579	92.06
279.81	79.06
280.042	96.06
280.273	99.06
280.505	90.06
280.736	87.06
280.968	96.06
281.199	86.06
281.431	95.06
281.662	84.06
281.894	88.06
282.125	91.06
282.356	103.06
282.588	106.06
282.819	103.06
283.051	87.06
283.282	85.06
283.513	83.06
283.745	97.06
283.976	90.06
284.207	91.06
284.439	91.06
284.67	82.06
284.901	97.06
285.132	85.06
285.364	95.06
285.595	89.06
285.826	97.06
286.057	96.06
286.288	83.06
286.52	105.06
286.751	71.06
286.982	93.06
287.213	91.06
287.444	100.06
287.675	103.06
287.906	89.06
288.138	84.06
288.369	86.06
288.6	92.06
288.831	82.06
289.062	91.06
289.293	89.06
289.524	90.06
289.755	94.06
289.986	81.06
290.217	82.06
290.448	75.06
290.679	97.06
290.91	87.06
291.141	86.06
291.371	106.06
291.602	87.06
291.833	86.06
292.064	81.06
292.295	93.06
292.526	90.06
292.757	91.06
292.987	91.06
293.218	89.06
293.449	88.06
293.68	87.06
293.91	71.06
294.141	91.06
294.372	83.06
294.603	85.06
294.833	98.06
295.064	93.06
295.295	96.06
295.525	102.06
295.756	83.06
295.987	97.06
296.217	128.06
296.448	115.06
296.679	94.06
296.909	89.06
297.14	76.06
297.37	92.06
297.601	79.06
297.831	76.06
298.062	82.06
298.292	83.06
298.523	100.06
298.753	99.06
298.984	93.06
299.214	84.06
299.445	86.06
299.675	87.06
299.905	99.06
300.136	85.06
300.366	96.06
300.597	98.06
300.827	111.06
301.057	99.06
301.288	93.06
301.518	91.06
301.748	97.06
301.979	98.06
302.209	72.06
302.439	95.06
302.669	79.06
302.9	69.06
303.13	84.06
303.36	89.06
303.59	103.06
303.82	95.06
304.051	106.06
304.281	96.06
304.511	88.06
304.741	94.06
304.971	86.06
305.201	99.06
305.431	79.06
305.661	81.06
305.891	108.06
306.121	85.06
306.352	95.06
306.582	93.06
306.812	96.06
307.042	103.06
307.272	87.06
307.502	104.06
307.731	97.06
307.961	93.06
308.191	98.06
308.421	91.06
308.651	89.06
308.881	98.06
309.111	97.06
309.341	89.06
309.571	98.06
309.8	87.06
310.03	96.06
310.26	94.06
310.49	92.06
310.72	83.06
310.949	104.06
311.179	104.06
311.409	98.06
311.639	95.06
311.868	89.06
312.098	99.06
312.328	113.06
312.557	114.06
312.787	88.06
313.017	92.06
313.246	98.06
313.476	83.06
313.706	95.06
313.935	90.06
314.165	93.06
314.394	104.06
314.624	97.06
314.853	112.06
315.083	105.06
315.312	92.06
315.542	81.06
315.771	92.06
316.001	85.06
316.23	102.06
316.46	101.06
316.689	83.06
316.919	72.06
317.148	100.06
317.377	97.06
317.607	97.06
317.836	91.06
318.065	90.06
318.295	87.06
318.524	85.06
318.753	95.06
318.983	103.06
319.212	89.06
319.441	91.06
319.67	96.06
319.9	89.06
320.129	97.06
320.358	93.06
320.587	91.06
320.816	90.06
321.046	92.06
321.275	88.06
321.504	106.06
321.733	88.06
321.962	95.06
322.191	104.06
322.42	92.06
322.649	117.06
322.878	111.06
323.108	106.06
323.337	121.06
323.566	127.06
323.795	123.06
324.024	156.06
324.253	308.06
324.482	612.06
324.71	1218.06
324.939	1612.06
325.168	599.06
325.397	200.06
325.626	128.06
325.855	115.06
326.084	90.06
326.313	122.06
326.542	137.06
326.77	193.06
326.999	358.06
327.228	716.06
327.457	1248.06
327.686	1016.06
327.914	283.06
328.143	174.06
328.372	130.06
328.6	136.06
328.829	116.06
329.058	108.06
329.287	110.06
329.515	103.06
329.744	110.06
329.972	97.06
330.201	99.06
330.43	127.06
330.658	102.06
330.887	112.06
331.115	109.06
331.344	99.06
331.572	99.06
331.801	84.06
332.03	88.06
332.258	108.06
332.486	99.06
332.715	76.06
332.943	96.06
333.172	95.06
333.4	102.06
333.629	105.06
333.857	105.06
334.085	110.06
334.314	120.06
334.542	143.06
334.771	128.06
334.999	102.06
335.227	95.06
335.455	104.06
335.684	89.06
335.912	103.06
336.14	93.06
336.369	95.06
336.597	93.06
336.825	91.06
337.053	108.06
337.281	99.06
337.51	92.06
337.738	99.06
337.966	85.06
338.194	100.06
338.422	100.06
338.65	99.06
338.878	84.06
339.106	91.06
339.334	97.06
339.562	102.06
339.79	76.06
340.018	103.06
340.246	89.06
340.474	92.06
340.702	84.06
340.93	87.06
341.158	97.06
341.386	111.06
341.614	97.06
341.842	94.06
342.07	103.06
342.298	101.06
342.526	85.06
342.754	102.06
342.981	100.06
343.209	97.06
343.437	102.06
343.665	97.06
343.893	85.06
344.12	92.06
344.348	83.06
344.576	93.06
344.804	108.06
345.031	95.06
345.259	107.06
345.487	90.06
345.714	108.06
345.942	88.06
346.17	88.06
346.397	94.06
346.625	87.06
346.853	104.06
347.08	91.06
347.308	87.06
347.535	87.06
347.763	93.06
347.99	95.06
348.218	92.06
348.445	100.06
348.673	100.06
348.9	93.06
349.128	84.06
349.355	98.06
349.583	82.06
349.81	103.06
350.037	84.06
350.265	89.06
350.492	91.06
350.72	91.06
350.947	101.06
351.174	107.06
351.402	87.06
351.629	92.06
351.856	107.06
352.083	100.06
352.311	99.06
352.538	104.06
352.765	99.06
352.992	114.06
353.22	106.06
353.447	102.06
353.674	90.06
353.901	84.06
354.128	88.06
354.355	99.06
354.583	98.06
354.81	111.06
355.037	105.06
355.264	95.06
355.491	96.06
355.718	92.06
355.945	103.06
356.172	83.06
356.399	100.06
356.626	81.06
356.853	85.06
357.08	101.06
357.307	91.06
357.534	95.06
357.761	82.06
357.988	95.06
358.215	92.06
358.441	96.06
358.668	103.06
358.895	99.06
359.122	79.06
359.349	84.06
359.576	83.06
359.802	83.06
360.029	92.06
360.256	84.06
360.483	85.06
360.709	75.06
360.936	106.06
361.163	76.06
361.39	79.06
361.616	102.06
361.843	101.06
362.07	86.06
362.296	78.06
362.523	91.06
362.749	87.06
362.976	88.06
363.203	98.06
363.429	99.06
363.656	92.06
363.882	92.06
364.109	84.06
364.335	91.06
364.562	107.06
364.788	83.06
365.015	87.06
365.241	102.06
365.468	106.06
365.694	110.06
365.92	95.06
366.147	83.06
366.373	86.06
366.599	85.06
366.826	92.06
367.052	77.06
367.278	97.06
367.505	84.06
367.731	84.06
367.957	88.06
368.184	92.06
368.41	91.06
368.636	100.06
368.862	101.06
369.089	99.06
369.315	77.06
369.541	93.06
369.767	92.06
369.993	96.06
370.219	96.06
370.445	86.06
370.672	91.06
370.898	91.06
371.124	103.06
371.35	89.06
371.576	95.06
371.802	88.06
372.028	79.06
372.254	81.06
372.48	92.06
372.706	95.06
372.932	79.06
373.158	91.06
373.384	95.06
373.61	89.06
373.835	97.06
374.061	101.06
374.287	89.06
374.513	80.06
374.739	84.06
374.965	93.06
375.191	89.06
375.416	97.06
375.642	83.06
375.868	87.06
376.094	75.06
376.319	91.06
376.545	89.06
376.771	88.06
376.997	104.06
377.222	117.06
377.448	78.06
377.674	92.06
377.899	97.06
378.125	95.06
378.35	88.06
378.576	80.06
378.802	87.06
379.027	93.06
379.253	96.06
379.478	97.06
379.704	96.06
379.929	83.06
380.155	83.06
380.38	82.06
380.606	108.06
380.831	92.06
381.057	100.06
381.282	90.06
381.507	93.06
381.733	91.06
381.958	87.06
382.184	93.06
382.409	102.06
382.634	97.06
382.86	100.06
383.085	104.06
383.31	89.06
383.535	98.06
383.761	101.06
383.986	100.06
384.211	96.06
384.436	94.06
384.662	99.06
384.887	100.06
385.112	105.06
385.337	115.06
385.562	119.06
385.787	106.06
386.013	98.06
386.238	112.06
386.463	111.06
386.688	112.06
386.913	119.06
387.138	116.06
387.363	104.06
387.588	106.06
387.813	100.06
388.038	108.06
388.263	117.06
388.488	108.06
388.713	94.06
388.938	93.06
389.163	97.06
389.387	90.06
389.612	97.06
389.837	88.06
390.062	102.06
390.287	88.06
390.512	93.06
390.736	90.06
390.961	101.06
391.186	105.06
391.411	92.06
391.636	101.06
391.86	92.06
392.085	84.06
392.31	71.06
392.534	89.06
392.759	96.06
392.984	95.06
393.208	106.06
393.433	144.06
393.658	120.06
393.882	82.06
394.107	83.06
394.331	84.06
394.556	94.06
394.78	97.06
395.005	99.06
395.229	87.06
395.454	93.06
395.678	76.06
395.903	88.06
396.127	84.06
396.352	81.06
396.576	84.06
396.801	96.06
397.025	114.06
397.249	111.06
397.474	88.06
397.698	87.06
397.922	93.06
398.147	75.06
398.371	88.06
398.595	95.06
398.82	92.06
399.044	88.06
399.268	81.06
399.492	83.06
399.717	83.06
399.941	84.06
400.165	90.06
400.389	83.06
400.613	83.06
400.837	88.06
401.062	91.06
401.286	93.06
401.51	83.06
401.734	92.06
401.958	83.06
402.182	104.06
402.406	115.06
402.63	113.06
402.854	85.06
403.078	81.06
403.302	89.06
403.526	68.06
403.75	88.06
403.974	87.06
404.198	96.06
404.422	84.06
404.645	89.06
404.869	80.06
405.093	88.06
405.317	88.06
405.541	89.06
405.765	88.06
405.988	108.06
406.212	130.06
406.436	155.06
406.66	127.06
406.883	97.06
407.107	102.06
407.331	94.06
407.555	86.06
407.778	99.06
408.002	89.06
408.226	99.06
408.449	85.06
408.673	95.06
408.896	75.06
409.12	100.06
409.344	92.06
409.567	86.06
409.791	88.06
410.014	94.06
410.238	93.06
410.461	97.06
410.685	92.06
410.908	96.06
411.132	105.06
411.355	100.06
411.578	99.06
411.802	89.06
412.025	84.06
412.249	89.06
412.472	97.06
412.695	90.06
412.919	85.06
413.142	87.06
413.365	89.06
413.589	87.06
413.812	91.06
414.035	84.06
414.258	97.06
414.482	99.06
414.705	103.06
414.928	102.06
415.151	93.06
415.374	101.06
415.597	75.06
415.821	85.06
416.044	89.06
416.267	95.06
416.49	87.06
416.713	94.06
416.936	81.06
417.159	81.06
417.382	90.06
417.605	89.06
417.828	92.06
418.051	96.06
418.274	94.06
418.497	83.06
418.72	96.06
418.943	86.06
419.166	89.06
419.389	81.06
419.611	100.06
419.834	105.06
420.057	76.06
420.28	83.06
420.503	79.06
420.726	92.06
420.948	85.06
421.171	88.06
421.394	80.06
421.617	88.06
421.839	95.06
422.062	85.06
422.285	91.06
422.507	101.06
422.73	114.06
422.953	108.06
423.175	85.06
423.398	84.06
423.621	86.06
423.843	86.06
424.066	90.06
424.288	106.06
424.511	83.06
424.733	99.06
424.956	101.06
425.178	83.06
425.401	87.06
425.623	91.06
425.846	93.06
426.068	79.06
426.291	91.06
426.513	86.06
426.735	96.06
426.958	107.06
427.18	92.06
427.402	120.06
427.625	161.06
427.847	122.06
428.069	101.06
428.292	87.06
428.514	83.06
428.736	91.06
428.958	81.06
429.181	86.06
429.403	85.06
429.625	81.06
429.847	96.06
430.069	92.06
430.292	104.06
430.514	89.06
430.736	91.06
430.958	86.06
431.18	87.06
431.402	76.06
431.624	85.06
431.846	78.06
432.068	100.06
432.29	81.06
432.512	95.06
432.734	92.06
432.956	103.06
433.178	80.06
433.4	85.06
433.622	83.06
433.844	96.06
434.066	88.06
434.287	99.06
434.509	86.06
434.731	87.06
434.953	95.06
435.175	99.06
435.397	103.06
435.618	91.06
435.84	87.06
436.062	104.06
436.284	103.06
436.505	104.06
436.727	90.06
436.949	84.06
437.17	77.06
437.392	92.06
437.614	95.06
437.835	108.06
438.057	98.06
438.278	88.06
438.5	93.06
438.721	108.06
438.943	84.06
439.165	91.06
439.386	97.06
439.608	85.06
439.829	89.06
440.05	113.06
440.272	123.06
440.493	92.06
440.715	93.06
440.936	90.06
441.158	87.06
441.379	91.06
441.6	105.06
441.822	81.06
442.043	88.06
442.264	105.06
442.486	91.06
442.707	92.06
442.928	98.06
443.149	119.06
443.371	102.06
443.592	101.06
443.813	93.06
444.034	96.06
444.255	89.06
444.476	92.06
444.698	83.06
444.919	74.06
445.14	135.06
445.361	116.06
445.582	123.06
445.803	123.06
446.024	123.06
446.245	120.06
446.466	97.06
446.687	86.06
446.908	81.06
447.129	80.06
447.35	112.06
447.571	108.06
447.792	87.06
448.013	87.06
448.234	96.06
448.455	84.06
448.675	93.06
448.896	106.06
449.117	91.06
449.338	111.06
449.559	117.06
449.779	101.06
450	100.06
450.221	96.06
450.442	89.06
450.662	92.06
450.883	101.06
451.104	100.06
451.324	97.06
451.545	98.06
451.766	85.06
451.986	89.06
452.207	89.06
452.428	101.06
452.648	85.06
452.869	94.06
453.089	90.06
453.31	94.06
453.53	100.06
453.751	74.06
453.971	116.06
454.192	102.06
454.412	95.06
454.633	78.06
454.853	75.06
455.073	92.06
455.294	91.06
455.514	94.06
455.734	85.06
455.955	79.06
456.175	89.06
456.395	96.06
456.616	91.06
456.836	90.06
457.056	91.06
457.276	72.06
457.497	88.06
457.717	80.06
457.937	88.06
458.157	79.06
458.377	81.06
458.598	76.06
458.818	113.06
459.038	133.06
459.258	99.06
459.478	98.06
459.698	81.06
459.918	85.06
460.138	77.06
460.358	75.06
460.578	87.06
460.798	72.06
461.018	85.06
461.238	82.06
461.458	74.06
461.678	76.06
461.898	88.06
462.118	85.06
462.338	91.06
462.558	85.06
462.777	77.06
462.997	93.06
463.217	100.06
463.437	76.06
463.657	92.06
463.876	85.06
464.096	84.06
464.316	96.06
464.536	96.06
464.755	93.06
464.975	105.06
465.195	135.06
465.414	127.06
465.634	85.06
465.854	91.06
466.073	82.06
466.293	94.06
466.512	81.06
466.732	105.06
466.951	92.06
467.171	101.06
467.391	95.06
467.61	96.06
467.829	86.06
468.049	105.06
468.268	106.06
468.488	84.06
468.707	98.06
468.927	83.06
469.146	75.06
469.365	88.06
469.585	94.06
469.804	100.06
470.023	99.06
470.243	101.06
470.462	104.06
470.681	100.06
470.901	99.06
471.12	82.06
471.339	84.06
471.558	89.06
471.777	90.06
471.997	89.06
472.216	115.06
472.435	143.06
472.654	105.06
472.873	77.06
473.092	87.06
473.311	70.06
473.53	95.06
473.749	91.06
473.968	95.06
474.187	91.06
474.406	88.06
474.625	85.06
474.844	84.06
475.063	95.06
475.282	89.06
475.501	91.06
475.72	91.06
475.939	76.06
476.158	75.06
476.377	78.06
476.596	77.06
476.814	92.06
477.033	107.06
477.252	97.06
477.471	100.06
477.69	91.06
477.908	95.06
478.127	87.06
478.346	91.06
478.564	86.06
478.783	92.06
479.002	95.06
479.22	90.06
479.439	89.06
479.658	89.06
479.876	83.06
480.095	85.06
480.313	93.06
480.532	99.06
480.751	99.06
480.969	117.06
481.188	220.06
481.406	163.06
481.624	101.06
481.843	96.06
482.061	98.06
482.28	95.06
482.498	89.06
482.717	80.06
482.935	83.06
483.153	86.06
483.372	88.06
483.59	97.06
483.808	81.06
484.027	93.06
484.245	96.06
484.463	85.06
484.681	83.06
484.9	87.06
485.118	85.06
485.336	97.06
485.554	96.06
485.772	105.06
485.99	112.06
486.209	105.06
486.427	96.06
486.645	103.06
486.863	109.06
487.081	104.06
487.299	86.06
487.517	94.06
487.735	97.06
487.953	81.06
488.171	99.06
488.389	91.06
488.607	102.06
488.825	101.06
489.043	91.06
489.261	81.06
489.479	89.06
489.696	91.06
489.914	78.06
490.132	89.06
490.35	91.06
490.568	90.06
490.786	95.06
491.003	96.06
491.221	86.06
491.439	91.06
491.657	95.06
491.874	87.06
492.092	84.06
492.31	86.06
492.527	95.06
492.745	105.06
492.963	88.06
493.18	91.06
493.398	89.06
493.615	114.06
493.833	83.06
494.05	92.06
494.268	91.06
494.485	91.06
494.703	90.06
494.92	86.06
495.138	97.06
495.355	93.06
495.573	92.06
495.79	81.06
496.008	104.06
496.225	98.06
496.442	88.06
496.66	97.06
496.877	93.06
497.094	90.06
497.312	84.06
497.529	90.06
497.746	104.06
497.963	99.06
498.181	87.06
498.398	84.06
498.615	106.06
498.832	85.06
499.049	89.06
499.267	80.06
499.484	90.06
499.701	75.06
499.918	90.06
500.135	109.06
500.352	104.06
500.569	95.06
500.786	82.06
501.003	103.06
501.22	91.06
501.437	92.06
501.654	100.06
501.871	95.06
502.088	81.06
502.305	92.06
502.522	93.06
502.739	98.06
502.956	87.06
503.172	97.06
503.389	90.06
503.606	103.06
503.823	101.06
504.04	95.06
504.256	85.06
504.473	68.06
504.69	88.06
504.907	103.06
505.123	94.06
505.34	95.06
505.557	77.06
505.773	109.06
505.99	84.06
506.207	101.06
506.423	88.06
506.64	95.06
506.856	85.06
507.073	98.06
507.289	96.06
507.506	93.06
507.722	89.06
507.939	105.06
508.155	89.06
508.372	88.06
508.588	90.06
508.805	84.06
509.021	89.06
509.238	94.06
509.454	93.06
509.67	92.06
509.887	113.06
510.103	113.06
510.319	161.06
510.536	520.06
510.752	1657.06
510.968	469.06
511.184	129.06
511.401	117.06
511.617	94.06
511.833	90.06
512.049	99.06
512.265	95.06
512.481	98.06
512.698	83.06
512.914	94.06
513.13	95.06
513.346	97.06
513.562	81.06
513.778	88.06
513.994	85.06
514.21	91.06
514.426	102.06
514.642	99.06
514.858	111.06
515.074	139.06
515.29	318.06
515.506	913.06
515.721	384.06
515.937	131.06
516.153	113.06
