Data from Circ_1984_H10_HRD10591_00063.txt Node
Date: Wed Jan 03 12:22:54 EST 2024
User: Yrep
Spectrometer: HR+D1059
Trigger mode: 1
Integration Time (sec): 1.000000E-1
Scans to average: 1
Electric dark correction enabled: true
Nonlinearity correction enabled: false
Boxcar width: 0
XAxis mode: Wavelengths
Number of Pixels in Spectrum: 2048
>>>>>Begin Spectral Data<<<<<
223.165	-17.56
223.4	-17.56
223.635	-17.56
223.869	-11.56
224.104	-25.56
224.338	-16.56
224.573	-24.56
224.808	-13.56
225.042	-7.56
225.277	-7.56
225.511	-7.56
225.746	18.44
225.98	9.44
226.215	9.44
226.449	9.44
226.683	21.44
226.918	25.44
227.152	38.44
227.387	37.44
227.621	39.44
227.856	44.44
228.09	51.44
228.324	45.44
228.559	50.44
228.793	73.44
229.027	63.44
229.262	56.44
229.496	66.44
229.73	77.44
229.964	80.44
230.199	79.44
230.433	69.44
230.667	80.44
230.901	82.44
231.136	84.44
231.37	87.44
231.604	77.44
231.838	74.44
232.072	67.44
232.306	71.44
232.541	80.44
232.775	77.44
233.009	85.44
233.243	90.44
233.477	75.44
233.711	89.44
233.945	72.44
234.179	80.44
234.413	73.44
234.647	80.44
234.881	77.44
235.115	84.44
235.349	93.44
235.583	89.44
235.817	95.44
236.051	77.44
236.285	76.44
236.519	65.44
236.753	82.44
236.987	84.44
237.221	84.44
237.455	84.44
237.689	86.44
237.922	91.44
238.156	81.44
238.39	76.44
238.624	88.44
238.858	75.44
239.091	78.44
239.325	63.44
239.559	74.44
239.793	88.44
240.027	69.44
240.26	62.44
240.494	73.44
240.728	70.44
240.961	72.44
241.195	70.44
241.429	70.44
241.662	74.44
241.896	87.44
242.13	82.44
242.363	82.44
242.597	77.44
242.83	88.44
243.064	84.44
243.298	63.44
243.531	84.44
243.765	88.44
243.998	71.44
244.232	90.44
244.465	77.44
244.699	85.44
244.932	94.44
245.166	84.44
245.399	79.44
245.633	74.44
245.866	81.44
246.099	86.44
246.333	64.44
246.566	81.44
246.8	63.44
247.033	84.44
247.266	83.44
247.5	75.44
247.733	64.44
247.966	77.44
248.2	85.44
248.433	85.44
248.666	84.44
248.899	91.44
249.133	77.44
249.366	100.44
249.599	88.44
249.832	77.44
250.066	82.44
250.299	74.44
250.532	89.44
250.765	72.44
250.998	80.44
251.231	69.44
251.465	86.44
251.698	75.44
251.931	71.44
252.164	83.44
252.397	80.44
252.63	84.44
252.863	81.44
253.096	77.44
253.329	82.44
253.562	87.44
253.795	79.44
254.028	86.44
254.261	69.44
254.494	96.44
254.727	75.44
254.96	59.44
255.193	77.44
255.426	77.44
255.659	69.44
255.892	88.44
256.124	85.44
256.357	79.44
256.59	81.44
256.823	82.44
257.056	73.44
257.289	82.44
257.521	65.44
257.754	81.44
257.987	78.44
258.22	84.44
258.452	88.44
258.685	74.44
258.918	70.44
259.151	85.44
259.383	82.44
259.616	92.44
259.849	72.44
260.081	85.44
260.314	88.44
260.547	77.44
260.779	91.44
261.012	80.44
261.244	89.44
261.477	81.44
261.71	87.44
261.942	99.44
262.175	112.44
262.407	93.44
262.64	84.44
262.872	83.44
263.105	90.44
263.337	82.44
263.57	86.44
263.802	91.44
264.035	97.44
264.267	70.44
264.499	82.44
264.732	74.44
264.964	76.44
265.197	79.44
265.429	86.44
265.661	78.44
265.894	86.44
266.126	89.44
266.358	81.44
266.591	89.44
266.823	78.44
267.055	82.44
267.287	92.44
267.52	69.44
267.752	90.44
267.984	92.44
268.216	81.44
268.448	91.44
268.681	83.44
268.913	74.44
269.145	80.44
269.377	86.44
269.609	79.44
269.841	90.44
270.073	73.44
270.306	71.44
270.538	76.44
270.77	88.44
271.002	87.44
271.234	93.44
271.466	90.44
271.698	82.44
271.93	85.44
272.162	92.44
272.394	74.44
272.626	89.44
272.858	98.44
273.09	88.44
273.322	86.44
273.553	85.44
273.785	90.44
274.017	80.44
274.249	87.44
274.481	79.44
274.713	81.44
274.945	78.44
275.176	88.44
275.408	98.44
275.64	99.44
275.872	87.44
276.104	88.44
276.335	90.44
276.567	92.44
276.799	114.44
277.031	110.44
277.262	104.44
277.494	85.44
277.726	88.44
277.957	90.44
278.189	89.44
278.421	91.44
278.652	83.44
278.884	75.44
279.115	74.44
279.347	87.44
279.579	91.44
279.81	97.44
280.042	102.44
280.273	98.44
280.505	106.44
280.736	81.44
280.968	78.44
281.199	75.44
281.431	92.44
281.662	77.44
281.894	99.44
282.125	89.44
282.356	117.44
282.588	147.44
282.819	107.44
283.051	96.44
283.282	80.44
283.513	95.44
283.745	68.44
283.976	83.44
284.207	100.44
284.439	92.44
284.67	93.44
284.901	80.44
285.132	95.44
285.364	99.44
285.595	88.44
285.826	88.44
286.057	89.44
286.288	95.44
286.52	91.44
286.751	81.44
286.982	84.44
287.213	85.44
287.444	77.44
287.675	75.44
287.906	98.44
288.138	82.44
288.369	103.44
288.6	96.44
288.831	86.44
289.062	91.44
289.293	84.44
289.524	87.44
289.755	84.44
289.986	89.44
290.217	80.44
290.448	89.44
290.679	81.44
290.91	78.44
291.141	88.44
291.371	88.44
291.602	89.44
291.833	85.44
292.064	89.44
292.295	94.44
292.526	84.44
292.757	89.44
292.987	88.44
293.218	103.44
293.449	95.44
293.68	98.44
293.91	85.44
294.141	92.44
294.372	82.44
294.603	86.44
294.833	88.44
295.064	77.44
295.295	86.44
295.525	89.44
295.756	91.44
295.987	112.44
296.217	119.44
296.448	111.44
296.679	91.44
296.909	94.44
297.14	90.44
297.37	73.44
297.601	88.44
297.831	105.44
298.062	77.44
298.292	105.44
298.523	82.44
298.753	80.44
298.984	82.44
299.214	102.44
299.445	93.44
299.675	88.44
299.905	85.44
300.136	86.44
300.366	87.44
300.597	89.44
300.827	101.44
301.057	107.44
301.288	94.44
301.518	88.44
301.748	89.44
301.979	110.44
302.209	90.44
302.439	89.44
302.669	74.44
302.9	84.44
303.13	87.44
303.36	81.44
303.59	100.44
303.82	96.44
304.051	86.44
304.281	84.44
304.511	91.44
304.741	93.44
304.971	88.44
305.201	104.44
305.431	115.44
305.661	91.44
305.891	86.44
306.121	92.44
306.352	94.44
306.582	104.44
306.812	98.44
307.042	99.44
307.272	107.44
307.502	96.44
307.731	109.44
307.961	101.44
308.191	82.44
308.421	90.44
308.651	78.44
308.881	86.44
309.111	91.44
309.341	90.44
309.571	91.44
309.8	96.44
310.03	94.44
310.26	94.44
310.49	95.44
310.72	99.44
310.949	108.44
311.179	101.44
311.409	99.44
311.639	98.44
311.868	88.44
312.098	96.44
312.328	99.44
312.557	103.44
312.787	104.44
313.017	99.44
313.246	96.44
313.476	101.44
313.706	89.44
313.935	75.44
314.165	99.44
314.394	99.44
314.624	92.44
314.853	106.44
315.083	86.44
315.312	92.44
315.542	92.44
315.771	95.44
316.001	89.44
316.23	103.44
316.46	89.44
316.689	88.44
316.919	100.44
317.148	105.44
317.377	105.44
317.607	86.44
317.836	89.44
318.065	90.44
318.295	95.44
318.524	97.44
318.753	84.44
318.983	104.44
319.212	98.44
319.441	98.44
319.67	110.44
319.9	99.44
320.129	90.44
320.358	98.44
320.587	99.44
320.816	98.44
321.046	99.44
321.275	83.44
321.504	89.44
321.733	88.44
321.962	93.44
322.191	106.44
322.42	105.44
322.649	110.44
322.878	104.44
323.108	109.44
323.337	113.44
323.566	119.44
323.795	129.44
324.024	181.44
324.253	313.44
324.482	658.44
324.71	1365.44
324.939	1804.44
325.168	685.44
325.397	210.44
325.626	124.44
325.855	117.44
326.084	118.44
326.313	120.44
326.542	144.44
326.77	203.44
326.999	370.44
327.228	750.44
327.457	1382.44
327.686	1079.44
327.914	324.44
328.143	199.44
328.372	193.44
328.6	132.44
328.829	107.44
329.058	108.44
329.287	121.44
329.515	114.44
329.744	112.44
329.972	139.44
330.201	212.44
330.43	264.44
330.658	172.44
330.887	148.44
331.115	125.44
331.344	93.44
331.572	110.44
331.801	83.44
332.03	100.44
332.258	93.44
332.486	75.44
332.715	83.44
332.943	84.44
333.172	98.44
333.4	97.44
333.629	96.44
333.857	124.44
334.085	160.44
334.314	212.44
334.542	323.44
334.771	320.44
334.999	136.44
335.227	102.44
335.455	92.44
335.684	90.44
335.912	99.44
336.14	108.44
336.369	94.44
336.597	103.44
336.825	89.44
337.053	102.44
337.281	80.44
337.51	73.44
337.738	95.44
337.966	102.44
338.194	106.44
338.422	92.44
338.65	87.44
338.878	85.44
339.106	109.44
339.334	93.44
339.562	98.44
339.79	98.44
340.018	87.44
340.246	84.44
340.474	91.44
340.702	106.44
340.93	92.44
341.158	97.44
341.386	98.44
341.614	94.44
341.842	95.44
342.07	96.44
342.298	88.44
342.526	85.44
342.754	99.44
342.981	79.44
343.209	93.44
343.437	101.44
343.665	85.44
343.893	90.44
344.12	92.44
344.348	83.44
344.576	92.44
344.804	91.44
345.031	94.44
345.259	100.44
345.487	99.44
345.714	90.44
345.942	104.44
346.17	97.44
346.397	105.44
346.625	85.44
346.853	97.44
347.08	96.44
347.308	95.44
347.535	95.44
347.763	105.44
347.99	100.44
348.218	106.44
348.445	105.44
348.673	97.44
348.9	91.44
349.128	103.44
349.355	93.44
349.583	106.44
349.81	92.44
350.037	89.44
350.265	84.44
350.492	93.44
350.72	84.44
350.947	89.44
351.174	96.44
351.402	98.44
351.629	105.44
351.856	104.44
352.083	116.44
352.311	87.44
352.538	107.44
352.765	103.44
352.992	108.44
353.22	113.44
353.447	108.44
353.674	92.44
353.901	100.44
354.128	93.44
354.355	103.44
354.583	99.44
354.81	107.44
355.037	99.44
355.264	86.44
355.491	94.44
355.718	102.44
355.945	93.44
356.172	106.44
356.399	101.44
356.626	97.44
356.853	103.44
357.08	86.44
357.307	101.44
357.534	102.44
357.761	93.44
357.988	105.44
358.215	83.44
358.441	101.44
358.668	91.44
358.895	84.44
359.122	93.44
359.349	90.44
359.576	93.44
359.802	92.44
360.029	97.44
360.256	97.44
360.483	99.44
360.709	96.44
360.936	97.44
361.163	103.44
361.39	88.44
361.616	88.44
361.843	94.44
362.07	96.44
362.296	88.44
362.523	89.44
362.749	88.44
362.976	90.44
363.203	98.44
363.429	93.44
363.656	90.44
363.882	90.44
364.109	92.44
364.335	88.44
364.562	82.44
364.788	91.44
365.015	96.44
365.241	114.44
365.468	106.44
365.694	109.44
365.92	92.44
366.147	85.44
366.373	81.44
366.599	92.44
366.826	92.44
367.052	84.44
367.278	91.44
367.505	78.44
367.731	97.44
367.957	86.44
368.184	92.44
368.41	98.44
368.636	105.44
368.862	112.44
369.089	99.44
369.315	76.44
369.541	92.44
369.767	84.44
369.993	89.44
370.219	89.44
370.445	90.44
370.672	85.44
370.898	83.44
371.124	99.44
371.35	94.44
371.576	82.44
371.802	80.44
372.028	84.44
372.254	90.44
372.48	88.44
372.706	92.44
372.932	96.44
373.158	92.44
373.384	92.44
373.61	99.44
373.835	103.44
374.061	92.44
374.287	110.44
374.513	90.44
374.739	84.44
374.965	89.44
375.191	104.44
375.416	90.44
375.642	90.44
375.868	103.44
376.094	92.44
376.319	84.44
376.545	77.44
376.771	82.44
376.997	92.44
377.222	92.44
377.448	90.44
377.674	82.44
377.899	92.44
378.125	79.44
378.35	89.44
378.576	100.44
378.802	85.44
379.027	83.44
379.253	98.44
379.478	88.44
379.704	107.44
379.929	105.44
380.155	90.44
380.38	85.44
380.606	90.44
380.831	93.44
381.057	93.44
381.282	99.44
381.507	98.44
381.733	106.44
381.958	83.44
382.184	93.44
382.409	102.44
382.634	93.44
382.86	103.44
383.085	110.44
383.31	84.44
383.535	95.44
383.761	94.44
383.986	92.44
384.211	90.44
384.436	99.44
384.662	104.44
384.887	103.44
385.112	93.44
385.337	102.44
385.562	91.44
385.787	109.44
386.013	106.44
386.238	100.44
386.463	106.44
386.688	96.44
386.913	108.44
387.138	93.44
387.363	110.44
387.588	108.44
387.813	94.44
388.038	112.44
388.263	103.44
388.488	103.44
388.713	107.44
388.938	84.44
389.163	94.44
389.387	82.44
389.612	86.44
389.837	86.44
390.062	94.44
390.287	116.44
390.512	97.44
390.736	77.44
390.961	93.44
391.186	87.44
391.411	100.44
391.636	88.44
391.86	98.44
392.085	75.44
392.31	79.44
392.534	86.44
392.759	80.44
392.984	98.44
393.208	87.44
393.433	112.44
393.658	111.44
393.882	84.44
394.107	84.44
394.331	85.44
394.556	93.44
394.78	92.44
395.005	77.44
395.229	75.44
395.454	80.44
395.678	79.44
395.903	83.44
396.127	98.44
396.352	75.44
396.576	85.44
396.801	99.44
397.025	85.44
397.249	93.44
397.474	107.44
397.698	72.44
397.922	66.44
398.147	91.44
398.371	88.44
398.595	88.44
398.82	101.44
399.044	92.44
399.268	83.44
399.492	77.44
399.717	97.44
399.941	93.44
400.165	74.44
400.389	95.44
400.613	84.44
400.837	93.44
401.062	96.44
401.286	89.44
401.51	87.44
401.734	88.44
401.958	99.44
402.182	119.44
402.406	134.44
402.63	101.44
402.854	90.44
403.078	94.44
403.302	73.44
403.526	99.44
403.75	83.44
403.974	91.44
404.198	83.44
404.422	97.44
404.645	82.44
404.869	97.44
405.093	101.44
405.317	97.44
405.541	107.44
405.765	88.44
405.988	99.44
406.212	147.44
406.436	192.44
406.66	150.44
406.883	105.44
407.107	75.44
407.331	95.44
407.555	104.44
407.778	96.44
408.002	95.44
408.226	91.44
408.449	79.44
408.673	75.44
408.896	92.44
409.12	87.44
409.344	85.44
409.567	88.44
409.791	90.44
410.014	88.44
410.238	98.44
410.461	92.44
410.685	89.44
410.908	100.44
411.132	106.44
411.355	106.44
411.578	84.44
411.802	82.44
412.025	84.44
412.249	98.44
412.472	99.44
412.695	93.44
412.919	87.44
413.142	96.44
413.365	88.44
413.589	84.44
413.812	102.44
414.035	96.44
414.258	94.44
414.482	88.44
414.705	84.44
414.928	92.44
415.151	92.44
415.374	89.44
415.597	101.44
415.821	91.44
416.044	90.44
416.267	88.44
416.49	93.44
416.713	89.44
416.936	88.44
417.159	90.44
417.382	94.44
417.605	96.44
417.828	87.44
418.051	83.44
418.274	88.44
418.497	96.44
418.72	74.44
418.943	86.44
419.166	90.44
419.389	95.44
419.611	83.44
419.834	84.44
420.057	91.44
420.28	84.44
420.503	98.44
420.726	110.44
420.948	77.44
421.171	88.44
421.394	101.44
421.617	87.44
421.839	82.44
422.062	88.44
422.285	90.44
422.507	98.44
422.73	93.44
422.953	85.44
423.175	92.44
423.398	83.44
423.621	89.44
423.843	95.44
424.066	106.44
424.288	90.44
424.511	92.44
424.733	88.44
424.956	90.44
425.178	89.44
425.401	109.44
425.623	97.44
425.846	86.44
426.068	105.44
426.291	86.44
426.513	80.44
426.735	96.44
426.958	94.44
427.18	98.44
427.402	123.44
427.625	138.44
427.847	147.44
428.069	128.44
428.292	89.44
428.514	86.44
428.736	88.44
428.958	81.44
429.181	87.44
429.403	95.44
429.625	89.44
429.847	86.44
430.069	116.44
430.292	96.44
430.514	86.44
430.736	80.44
430.958	97.44
431.18	91.44
431.402	88.44
431.624	82.44
431.846	89.44
432.068	80.44
432.29	83.44
432.512	90.44
432.734	95.44
432.956	92.44
433.178	111.44
433.4	93.44
433.622	88.44
433.844	98.44
434.066	89.44
434.287	106.44
434.509	88.44
434.731	89.44
434.953	91.44
435.175	106.44
435.397	84.44
435.618	88.44
435.84	107.44
436.062	112.44
436.284	98.44
436.505	102.44
436.727	101.44
436.949	88.44
437.17	89.44
437.392	85.44
437.614	87.44
437.835	102.44
438.057	112.44
438.278	105.44
438.5	97.44
438.721	113.44
438.943	84.44
439.165	91.44
439.386	96.44
439.608	75.44
439.829	93.44
440.05	109.44
440.272	133.44
440.493	97.44
440.715	87.44
440.936	96.44
441.158	86.44
441.379	74.44
441.6	84.44
441.822	96.44
442.043	105.44
442.264	97.44
442.486	101.44
442.707	91.44
442.928	99.44
443.149	113.44
443.371	116.44
443.592	98.44
443.813	97.44
444.034	94.44
444.255	92.44
444.476	94.44
444.698	77.44
444.919	81.44
445.14	135.44
445.361	106.44
445.582	103.44
445.803	120.44
446.024	130.44
446.245	141.44
446.466	84.44
446.687	84.44
446.908	100.44
447.129	98.44
447.35	95.44
447.571	90.44
447.792	96.44
448.013	87.44
448.234	109.44
448.455	104.44
448.675	113.44
448.896	127.44
449.117	93.44
449.338	100.44
449.559	116.44
449.779	128.44
450	97.44
450.221	85.44
450.442	74.44
450.662	83.44
450.883	103.44
451.104	110.44
451.324	105.44
451.545	97.44
451.766	72.44
451.986	92.44
452.207	71.44
452.428	115.44
452.648	105.44
452.869	116.44
453.089	116.44
453.31	108.44
453.53	94.44
453.751	76.44
453.971	99.44
454.192	97.44
454.412	92.44
454.633	101.44
454.853	97.44
455.073	99.44
455.294	91.44
455.514	82.44
455.734	74.44
455.955	85.44
456.175	94.44
456.395	89.44
456.616	91.44
456.836	89.44
457.056	71.44
457.276	100.44
457.497	76.44
457.717	87.44
457.937	88.44
458.157	92.44
458.377	101.44
458.598	99.44
458.818	128.44
459.038	144.44
459.258	99.44
459.478	85.44
459.698	87.44
459.918	98.44
460.138	89.44
460.358	88.44
460.578	83.44
460.798	85.44
461.018	86.44
461.238	96.44
461.458	76.44
461.678	92.44
461.898	93.44
462.118	93.44
462.338	85.44
462.558	81.44
462.777	77.44
462.997	93.44
463.217	81.44
463.437	76.44
463.657	89.44
463.876	84.44
464.096	91.44
464.316	89.44
464.536	99.44
464.755	98.44
464.975	105.44
465.195	133.44
465.414	156.44
465.634	86.44
465.854	80.44
466.073	91.44
466.293	76.44
466.512	75.44
466.732	86.44
466.951	75.44
467.171	100.44
467.391	91.44
467.61	93.44
467.829	103.44
468.049	158.44
468.268	174.44
468.488	102.44
468.707	85.44
468.927	80.44
469.146	87.44
469.365	92.44
469.585	92.44
469.804	75.44
470.023	78.44
470.243	101.44
470.462	100.44
470.681	105.44
470.901	94.44
471.12	107.44
471.339	86.44
471.558	88.44
471.777	106.44
471.997	129.44
472.216	243.44
472.435	408.44
472.654	168.44
472.873	105.44
473.092	84.44
473.311	82.44
473.53	80.44
473.749	90.44
473.968	97.44
474.187	106.44
474.406	107.44
474.625	108.44
474.844	76.44
475.063	92.44
475.282	95.44
475.501	86.44
475.72	84.44
475.939	88.44
476.158	101.44
476.377	89.44
476.596	87.44
476.814	87.44
477.033	91.44
477.252	85.44
477.471	90.44
477.69	99.44
477.908	90.44
478.127	96.44
478.346	86.44
478.564	86.44
478.783	89.44
479.002	89.44
479.22	95.44
479.439	92.44
479.658	107.44
479.876	106.44
480.095	88.44
480.313	90.44
480.532	104.44
480.751	107.44
480.969	234.44
481.188	755.44
481.406	455.44
481.624	155.44
481.843	102.44
482.061	92.44
482.28	78.44
482.498	86.44
482.717	91.44
482.935	90.44
483.153	86.44
483.372	93.44
483.59	94.44
483.808	95.44
484.027	96.44
484.245	85.44
484.463	91.44
484.681	100.44
484.9	86.44
485.118	83.44
485.336	98.44
485.554	90.44
485.772	100.44
485.99	118.44
486.209	102.44
486.427	98.44
486.645	115.44
486.863	119.44
487.081	91.44
487.299	100.44
487.517	88.44
487.735	97.44
487.953	85.44
488.171	86.44
488.389	96.44
488.607	98.44
488.825	85.44
489.043	91.44
489.261	91.44
489.479	77.44
489.696	90.44
489.914	107.44
490.132	89.44
490.35	86.44
490.568	93.44
490.786	95.44
491.003	96.44
491.221	93.44
491.439	81.44
491.657	93.44
491.874	89.44
492.092	97.44
492.31	94.44
492.527	98.44
492.745	91.44
492.963	82.44
493.18	85.44
493.398	86.44
493.615	82.44
493.833	92.44
494.05	90.44
494.268	96.44
494.485	82.44
494.703	78.44
494.92	86.44
495.138	80.44
495.355	98.44
495.573	77.44
495.79	83.44
496.008	97.44
496.225	89.44
496.442	85.44
496.66	99.44
496.877	95.44
497.094	87.44
497.312	94.44
497.529	83.44
497.746	86.44
497.963	87.44
498.181	96.44
498.398	92.44
498.615	120.44
498.832	104.44
499.049	91.44
499.267	93.44
499.484	89.44
499.701	77.44
499.918	87.44
500.135	87.44
500.352	93.44
500.569	81.44
500.786	92.44
501.003	106.44
501.22	94.44
501.437	89.44
501.654	92.44
501.871	108.44
502.088	104.44
502.305	103.44
502.522	104.44
502.739	91.44
502.956	90.44
503.172	87.44
503.389	89.44
503.606	97.44
503.823	93.44
504.04	96.44
504.256	96.44
504.473	96.44
504.69	86.44
504.907	86.44
505.123	87.44
505.34	89.44
505.557	85.44
505.773	92.44
505.99	98.44
506.207	84.44
506.423	99.44
506.64	88.44
506.856	84.44
507.073	90.44
507.289	100.44
507.506	89.44
507.722	115.44
507.939	91.44
508.155	92.44
508.372	90.44
508.588	88.44
508.805	75.44
509.021	91.44
509.238	88.44
509.454	92.44
509.67	96.44
509.887	96.44
510.103	117.44
510.319	186.44
510.536	634.44
510.752	2037.44
510.968	548.44
511.184	136.44
511.401	82.44
511.617	84.44
511.833	105.44
512.049	103.44
512.265	90.44
512.481	87.44
512.698	98.44
512.914	96.44
513.13	108.44
513.346	101.44
513.562	96.44
513.778	112.44
513.994	98.44
514.21	103.44
514.426	114.44
514.642	120.44
514.858	114.44
515.074	146.44
515.29	377.44
515.506	1196.44
515.721	464.44
