Data from Circ_1984_H10_HRD10591_00044.txt Node
Date: Wed Jan 03 12:22:50 EST 2024
User: Yrep
Spectrometer: HR+D1059
Trigger mode: 1
Integration Time (sec): 1.000000E-1
Scans to average: 1
Electric dark correction enabled: true
Nonlinearity correction enabled: false
Boxcar width: 0
XAxis mode: Wavelengths
Number of Pixels in Spectrum: 2048
>>>>>Begin Spectral Data<<<<<
223.165	-18.25
223.4	-18.25
223.635	-18.25
223.869	-14.25
224.104	-20.25
224.338	-26.25
224.573	-17.25
224.808	-20.25
225.042	-0.25
225.277	-16.25
225.511	2.75
225.746	-3.25
225.98	10.75
226.215	12.75
226.449	24.75
226.683	17.75
226.918	34.75
227.152	32.75
227.387	22.75
227.621	47.75
227.856	36.75
228.09	49.75
228.324	59.75
228.559	47.75
228.793	59.75
229.027	53.75
229.262	49.75
229.496	85.75
229.73	88.75
229.964	78.75
230.199	72.75
230.433	70.75
230.667	80.75
230.901	73.75
231.136	85.75
231.37	75.75
231.604	90.75
231.838	81.75
232.072	87.75
232.306	84.75
232.541	85.75
232.775	77.75
233.009	66.75
233.243	79.75
233.477	72.75
233.711	82.75
233.945	63.75
234.179	79.75
234.413	84.75
234.647	73.75
234.881	81.75
235.115	95.75
235.349	76.75
235.583	83.75
235.817	78.75
236.051	81.75
236.285	88.75
236.519	79.75
236.753	79.75
236.987	72.75
237.221	81.75
237.455	89.75
237.689	79.75
237.922	78.75
238.156	81.75
238.39	67.75
238.624	68.75
238.858	75.75
239.091	75.75
239.325	77.75
239.559	84.75
239.793	88.75
240.027	77.75
240.26	69.75
240.494	77.75
240.728	72.75
240.961	84.75
241.195	79.75
241.429	98.75
241.662	80.75
241.896	79.75
242.13	79.75
242.363	70.75
242.597	82.75
242.83	72.75
243.064	73.75
243.298	79.75
243.531	66.75
243.765	66.75
243.998	89.75
244.232	67.75
244.465	89.75
244.699	79.75
244.932	90.75
245.166	86.75
245.399	68.75
245.633	68.75
245.866	68.75
246.099	80.75
246.333	68.75
246.566	83.75
246.8	89.75
247.033	95.75
247.266	87.75
247.5	83.75
247.733	79.75
247.966	83.75
248.2	87.75
248.433	80.75
248.666	67.75
248.899	81.75
249.133	93.75
249.366	106.75
249.599	101.75
249.832	80.75
250.066	88.75
250.299	89.75
250.532	85.75
250.765	81.75
250.998	83.75
251.231	85.75
251.465	80.75
251.698	85.75
251.931	77.75
252.164	65.75
252.397	71.75
252.63	85.75
252.863	88.75
253.096	75.75
253.329	89.75
253.562	79.75
253.795	80.75
254.028	79.75
254.261	77.75
254.494	89.75
254.727	88.75
254.96	86.75
255.193	61.75
255.426	88.75
255.659	66.75
255.892	90.75
256.124	78.75
256.357	83.75
256.59	77.75
256.823	87.75
257.056	84.75
257.289	91.75
257.521	97.75
257.754	93.75
257.987	97.75
258.22	81.75
258.452	81.75
258.685	92.75
258.918	87.75
259.151	88.75
259.383	85.75
259.616	81.75
259.849	65.75
260.081	71.75
260.314	84.75
260.547	85.75
260.779	70.75
261.012	79.75
261.244	83.75
261.477	80.75
261.71	84.75
261.942	97.75
262.175	111.75
262.407	87.75
262.64	82.75
262.872	90.75
263.105	90.75
263.337	76.75
263.57	77.75
263.802	95.75
264.035	76.75
264.267	76.75
264.499	85.75
264.732	83.75
264.964	69.75
265.197	87.75
265.429	77.75
265.661	71.75
265.894	96.75
266.126	76.75
266.358	91.75
266.591	82.75
266.823	86.75
267.055	82.75
267.287	85.75
267.52	86.75
267.752	77.75
267.984	79.75
268.216	81.75
268.448	85.75
268.681	87.75
268.913	70.75
269.145	96.75
269.377	76.75
269.609	99.75
269.841	74.75
270.073	91.75
270.306	102.75
270.538	91.75
270.77	77.75
271.002	82.75
271.234	92.75
271.466	87.75
271.698	83.75
271.93	93.75
272.162	98.75
272.394	90.75
272.626	89.75
272.858	79.75
273.09	81.75
273.322	99.75
273.553	85.75
273.785	101.75
274.017	76.75
274.249	77.75
274.481	93.75
274.713	77.75
274.945	83.75
275.176	102.75
275.408	96.75
275.64	81.75
275.872	98.75
276.104	95.75
276.335	89.75
276.567	99.75
276.799	107.75
277.031	85.75
277.262	104.75
277.494	81.75
277.726	106.75
277.957	77.75
278.189	79.75
278.421	83.75
278.652	80.75
278.884	91.75
279.115	88.75
279.347	76.75
279.579	96.75
279.81	76.75
280.042	84.75
280.273	101.75
280.505	106.75
280.736	91.75
280.968	92.75
281.199	95.75
281.431	82.75
281.662	76.75
281.894	81.75
282.125	99.75
282.356	99.75
282.588	116.75
282.819	90.75
283.051	95.75
283.282	86.75
283.513	86.75
283.745	68.75
283.976	73.75
284.207	85.75
284.439	84.75
284.67	92.75
284.901	83.75
285.132	84.75
285.364	76.75
285.595	100.75
285.826	89.75
286.057	93.75
286.288	87.75
286.52	74.75
286.751	85.75
286.982	84.75
287.213	79.75
287.444	86.75
287.675	81.75
287.906	81.75
288.138	85.75
288.369	91.75
288.6	79.75
288.831	91.75
289.062	87.75
289.293	94.75
289.524	83.75
289.755	91.75
289.986	100.75
290.217	86.75
290.448	79.75
290.679	90.75
290.91	88.75
291.141	85.75
291.371	97.75
291.602	70.75
291.833	88.75
292.064	93.75
292.295	82.75
292.526	87.75
292.757	90.75
292.987	95.75
293.218	84.75
293.449	87.75
293.68	87.75
293.91	89.75
294.141	84.75
294.372	86.75
294.603	90.75
294.833	85.75
295.064	89.75
295.295	84.75
295.525	84.75
295.756	97.75
295.987	98.75
296.217	122.75
296.448	111.75
296.679	95.75
296.909	88.75
297.14	93.75
297.37	99.75
297.601	82.75
297.831	94.75
298.062	90.75
298.292	73.75
298.523	95.75
298.753	83.75
298.984	83.75
299.214	76.75
299.445	90.75
299.675	95.75
299.905	94.75
300.136	89.75
300.366	83.75
300.597	72.75
300.827	87.75
301.057	103.75
301.288	90.75
301.518	87.75
301.748	94.75
301.979	106.75
302.209	101.75
302.439	84.75
302.669	91.75
302.9	88.75
303.13	93.75
303.36	87.75
303.59	86.75
303.82	94.75
304.051	100.75
304.281	89.75
304.511	85.75
304.741	76.75
304.971	85.75
305.201	89.75
305.431	81.75
305.661	71.75
305.891	102.75
306.121	90.75
306.352	76.75
306.582	100.75
306.812	101.75
307.042	98.75
307.272	92.75
307.502	86.75
307.731	105.75
307.961	96.75
308.191	88.75
308.421	97.75
308.651	84.75
308.881	97.75
309.111	100.75
309.341	96.75
309.571	85.75
309.8	96.75
310.03	101.75
310.26	93.75
310.49	96.75
310.72	87.75
310.949	109.75
311.179	99.75
311.409	86.75
311.639	88.75
311.868	85.75
312.098	89.75
312.328	94.75
312.557	97.75
312.787	106.75
313.017	92.75
313.246	87.75
313.476	86.75
313.706	91.75
313.935	87.75
314.165	93.75
314.394	103.75
314.624	105.75
314.853	95.75
315.083	93.75
315.312	86.75
315.542	83.75
315.771	92.75
316.001	82.75
316.23	90.75
316.46	101.75
316.689	87.75
316.919	91.75
317.148	108.75
317.377	96.75
317.607	90.75
317.836	95.75
318.065	85.75
318.295	86.75
318.524	96.75
318.753	74.75
318.983	75.75
319.212	65.75
319.441	99.75
319.67	95.75
319.9	92.75
320.129	89.75
320.358	96.75
320.587	99.75
320.816	93.75
321.046	91.75
321.275	86.75
321.504	93.75
321.733	93.75
321.962	94.75
322.191	112.75
322.42	90.75
322.649	108.75
322.878	117.75
323.108	107.75
323.337	97.75
323.566	100.75
323.795	146.75
324.024	175.75
324.253	312.75
324.482	621.75
324.71	1259.75
324.939	1658.75
325.168	624.75
325.397	196.75
325.626	134.75
325.855	116.75
326.084	121.75
326.313	113.75
326.542	134.75
326.77	161.75
326.999	358.75
327.228	701.75
327.457	1271.75
327.686	1023.75
327.914	299.75
328.143	191.75
328.372	178.75
328.6	127.75
328.829	113.75
329.058	103.75
329.287	126.75
329.515	110.75
329.744	114.75
329.972	143.75
330.201	183.75
330.43	221.75
330.658	143.75
330.887	132.75
331.115	106.75
331.344	98.75
331.572	101.75
331.801	93.75
332.03	99.75
332.258	105.75
332.486	99.75
332.715	91.75
332.943	101.75
333.172	93.75
333.4	96.75
333.629	100.75
333.857	120.75
334.085	138.75
334.314	173.75
334.542	261.75
334.771	235.75
334.999	117.75
335.227	103.75
335.455	91.75
335.684	100.75
335.912	95.75
336.14	111.75
336.369	112.75
336.597	87.75
336.825	88.75
337.053	83.75
337.281	97.75
337.51	82.75
337.738	94.75
337.966	94.75
338.194	75.75
338.422	79.75
338.65	101.75
338.878	93.75
339.106	103.75
339.334	84.75
339.562	107.75
339.79	105.75
340.018	104.75
340.246	87.75
340.474	100.75
340.702	89.75
340.93	77.75
341.158	100.75
341.386	89.75
341.614	93.75
341.842	96.75
342.07	103.75
342.298	95.75
342.526	81.75
342.754	93.75
342.981	75.75
343.209	85.75
343.437	91.75
343.665	88.75
343.893	86.75
344.12	87.75
344.348	81.75
344.576	86.75
344.804	105.75
345.031	76.75
345.259	97.75
345.487	85.75
345.714	104.75
345.942	98.75
346.17	100.75
346.397	86.75
346.625	95.75
346.853	99.75
347.08	91.75
347.308	98.75
347.535	101.75
347.763	95.75
347.99	114.75
348.218	97.75
348.445	103.75
348.673	96.75
348.9	99.75
349.128	93.75
349.355	88.75
349.583	99.75
349.81	95.75
350.037	97.75
350.265	108.75
350.492	92.75
350.72	89.75
350.947	114.75
351.174	101.75
351.402	100.75
351.629	87.75
351.856	111.75
352.083	87.75
352.311	102.75
352.538	107.75
352.765	97.75
352.992	105.75
353.22	104.75
353.447	101.75
353.674	107.75
353.901	100.75
354.128	106.75
354.355	103.75
354.583	104.75
354.81	93.75
355.037	101.75
355.264	87.75
355.491	90.75
355.718	83.75
355.945	99.75
356.172	101.75
356.399	97.75
356.626	99.75
356.853	99.75
357.08	82.75
357.307	77.75
357.534	85.75
357.761	83.75
357.988	102.75
358.215	96.75
358.441	105.75
358.668	88.75
358.895	74.75
359.122	73.75
359.349	92.75
359.576	101.75
359.802	107.75
360.029	103.75
360.256	111.75
360.483	98.75
360.709	91.75
360.936	87.75
361.163	95.75
361.39	95.75
361.616	81.75
361.843	103.75
362.07	91.75
362.296	101.75
362.523	90.75
362.749	79.75
362.976	79.75
363.203	97.75
363.429	99.75
363.656	104.75
363.882	101.75
364.109	98.75
364.335	104.75
364.562	87.75
364.788	88.75
365.015	81.75
365.241	103.75
365.468	100.75
365.694	96.75
365.92	89.75
366.147	98.75
366.373	103.75
366.599	86.75
366.826	90.75
367.052	76.75
367.278	98.75
367.505	103.75
367.731	76.75
367.957	64.75
368.184	74.75
368.41	91.75
368.636	104.75
368.862	107.75
369.089	102.75
369.315	91.75
369.541	94.75
369.767	92.75
369.993	103.75
370.219	97.75
370.445	99.75
370.672	79.75
370.898	81.75
371.124	83.75
371.35	75.75
371.576	100.75
371.802	87.75
372.028	85.75
372.254	108.75
372.48	92.75
372.706	81.75
372.932	88.75
373.158	89.75
373.384	90.75
373.61	90.75
373.835	80.75
374.061	82.75
374.287	88.75
374.513	84.75
374.739	92.75
374.965	96.75
375.191	93.75
375.416	98.75
375.642	90.75
375.868	101.75
376.094	90.75
376.319	94.75
376.545	86.75
376.771	71.75
376.997	79.75
377.222	85.75
377.448	101.75
377.674	91.75
377.899	95.75
378.125	92.75
378.35	96.75
378.576	84.75
378.802	82.75
379.027	92.75
379.253	79.75
379.478	79.75
379.704	100.75
379.929	102.75
380.155	91.75
380.38	80.75
380.606	83.75
380.831	92.75
381.057	96.75
381.282	98.75
381.507	81.75
381.733	89.75
381.958	102.75
382.184	96.75
382.409	94.75
382.634	99.75
382.86	81.75
383.085	103.75
383.31	103.75
383.535	108.75
383.761	99.75
383.986	104.75
384.211	95.75
384.436	103.75
384.662	83.75
384.887	85.75
385.112	105.75
385.337	87.75
385.562	103.75
385.787	116.75
386.013	102.75
386.238	113.75
386.463	105.75
386.688	91.75
386.913	105.75
387.138	95.75
387.363	92.75
387.588	104.75
387.813	96.75
388.038	105.75
388.263	103.75
388.488	116.75
388.713	89.75
388.938	98.75
389.163	83.75
389.387	85.75
389.612	84.75
389.837	99.75
390.062	98.75
390.287	85.75
390.512	84.75
390.736	91.75
390.961	97.75
391.186	105.75
391.411	99.75
391.636	90.75
391.86	87.75
392.085	86.75
392.31	85.75
392.534	91.75
392.759	86.75
392.984	86.75
393.208	91.75
393.433	100.75
393.658	90.75
393.882	82.75
394.107	90.75
394.331	98.75
394.556	79.75
394.78	83.75
395.005	84.75
395.229	86.75
395.454	86.75
395.678	91.75
395.903	90.75
396.127	86.75
396.352	82.75
396.576	76.75
396.801	87.75
397.025	83.75
397.249	86.75
397.474	75.75
397.698	92.75
397.922	88.75
398.147	96.75
398.371	103.75
398.595	85.75
398.82	89.75
399.044	83.75
399.268	80.75
399.492	85.75
399.717	113.75
399.941	96.75
400.165	93.75
400.389	87.75
400.613	90.75
400.837	92.75
401.062	86.75
401.286	103.75
401.51	86.75
401.734	90.75
401.958	91.75
402.182	110.75
402.406	135.75
402.63	100.75
402.854	81.75
403.078	86.75
403.302	81.75
403.526	95.75
403.75	83.75
403.974	99.75
404.198	71.75
404.422	75.75
404.645	70.75
404.869	92.75
405.093	105.75
405.317	103.75
405.541	101.75
405.765	88.75
405.988	110.75
406.212	147.75
406.436	173.75
406.66	116.75
406.883	89.75
407.107	72.75
407.331	82.75
407.555	95.75
407.778	107.75
408.002	102.75
408.226	82.75
408.449	95.75
408.673	101.75
408.896	99.75
409.12	106.75
409.344	98.75
409.567	87.75
409.791	88.75
410.014	94.75
410.238	89.75
410.461	93.75
410.685	84.75
410.908	92.75
411.132	101.75
411.355	87.75
411.578	100.75
411.802	91.75
412.025	92.75
412.249	99.75
412.472	85.75
412.695	104.75
412.919	99.75
413.142	87.75
413.365	105.75
413.589	92.75
413.812	94.75
414.035	83.75
414.258	92.75
414.482	88.75
414.705	77.75
414.928	90.75
415.151	113.75
415.374	87.75
415.597	89.75
415.821	101.75
416.044	92.75
416.267	94.75
416.49	77.75
416.713	89.75
416.936	90.75
417.159	83.75
417.382	84.75
417.605	89.75
417.828	93.75
418.051	101.75
418.274	104.75
418.497	81.75
418.72	79.75
418.943	93.75
419.166	88.75
419.389	82.75
419.611	85.75
419.834	99.75
420.057	95.75
420.28	72.75
420.503	88.75
420.726	78.75
420.948	88.75
421.171	99.75
421.394	103.75
421.617	89.75
421.839	93.75
422.062	82.75
422.285	79.75
422.507	90.75
422.73	104.75
422.953	86.75
423.175	101.75
423.398	91.75
423.621	95.75
423.843	89.75
424.066	81.75
424.288	91.75
424.511	92.75
424.733	102.75
424.956	91.75
425.178	103.75
425.401	98.75
425.623	97.75
425.846	99.75
426.068	86.75
426.291	82.75
426.513	86.75
426.735	85.75
426.958	84.75
427.18	96.75
427.402	147.75
427.625	136.75
427.847	126.75
428.069	116.75
428.292	85.75
428.514	80.75
428.736	76.75
428.958	98.75
429.181	87.75
429.403	79.75
429.625	81.75
429.847	95.75
430.069	101.75
430.292	96.75
430.514	82.75
430.736	76.75
430.958	89.75
431.18	77.75
431.402	87.75
431.624	98.75
431.846	83.75
432.068	81.75
432.29	64.75
432.512	99.75
432.734	90.75
432.956	83.75
433.178	101.75
433.4	88.75
433.622	97.75
433.844	100.75
434.066	80.75
434.287	74.75
434.509	92.75
434.731	71.75
434.953	71.75
435.175	79.75
435.397	120.75
435.618	99.75
435.84	89.75
436.062	122.75
436.284	112.75
436.505	96.75
436.727	77.75
436.949	94.75
437.17	79.75
437.392	92.75
437.614	92.75
437.835	104.75
438.057	101.75
438.278	100.75
438.5	105.75
438.721	112.75
438.943	98.75
439.165	79.75
439.386	95.75
439.608	84.75
439.829	96.75
440.05	110.75
440.272	119.75
440.493	118.75
440.715	95.75
440.936	95.75
441.158	72.75
441.379	76.75
441.6	85.75
441.822	80.75
442.043	79.75
442.264	93.75
442.486	98.75
442.707	89.75
442.928	99.75
443.149	115.75
443.371	117.75
443.592	93.75
443.813	111.75
444.034	95.75
444.255	80.75
444.476	81.75
444.698	94.75
444.919	85.75
445.14	134.75
445.361	117.75
445.582	103.75
445.803	125.75
446.024	125.75
446.245	115.75
446.466	113.75
446.687	96.75
446.908	76.75
447.129	105.75
447.35	79.75
447.571	83.75
447.792	89.75
448.013	103.75
448.234	88.75
448.455	89.75
448.675	108.75
448.896	116.75
449.117	97.75
449.338	102.75
449.559	122.75
449.779	125.75
450	99.75
450.221	76.75
450.442	68.75
450.662	88.75
450.883	90.75
451.104	107.75
451.324	93.75
451.545	87.75
451.766	72.75
451.986	78.75
452.207	80.75
452.428	93.75
452.648	97.75
452.869	98.75
453.089	97.75
453.31	108.75
453.53	91.75
453.751	84.75
453.971	100.75
454.192	97.75
454.412	88.75
454.633	105.75
454.853	84.75
455.073	76.75
455.294	91.75
455.514	92.75
455.734	72.75
455.955	80.75
456.175	94.75
456.395	91.75
456.616	87.75
456.836	89.75
457.056	77.75
457.276	80.75
457.497	82.75
457.717	91.75
457.937	95.75
458.157	91.75
458.377	96.75
458.598	92.75
458.818	132.75
459.038	136.75
459.258	101.75
459.478	80.75
459.698	77.75
459.918	100.75
460.138	76.75
460.358	91.75
460.578	83.75
460.798	92.75
461.018	78.75
461.238	97.75
461.458	86.75
461.678	84.75
461.898	92.75
462.118	75.75
462.338	93.75
462.558	87.75
462.777	87.75
462.997	96.75
463.217	69.75
463.437	83.75
463.657	85.75
463.876	83.75
464.096	94.75
464.316	83.75
464.536	98.75
464.755	89.75
464.975	104.75
465.195	158.75
465.414	134.75
465.634	89.75
465.854	94.75
466.073	83.75
466.293	84.75
466.512	85.75
466.732	91.75
466.951	80.75
467.171	84.75
467.391	106.75
467.61	104.75
467.829	98.75
468.049	130.75
468.268	163.75
468.488	97.75
468.707	89.75
468.927	85.75
469.146	87.75
469.365	87.75
469.585	93.75
469.804	96.75
470.023	93.75
470.243	94.75
470.462	84.75
470.681	111.75
470.901	81.75
471.12	80.75
471.339	83.75
471.558	91.75
471.777	93.75
471.997	121.75
472.216	203.75
472.435	321.75
472.654	127.75
472.873	100.75
473.092	85.75
473.311	98.75
473.53	90.75
473.749	95.75
473.968	74.75
474.187	100.75
474.406	95.75
474.625	97.75
474.844	92.75
475.063	76.75
475.282	87.75
475.501	90.75
475.72	93.75
475.939	92.75
476.158	95.75
476.377	85.75
476.596	77.75
476.814	87.75
477.033	91.75
477.252	79.75
477.471	94.75
477.69	96.75
477.908	81.75
478.127	84.75
478.346	81.75
478.564	97.75
478.783	92.75
479.002	96.75
479.22	74.75
479.439	98.75
479.658	91.75
479.876	104.75
480.095	89.75
480.313	89.75
480.532	92.75
480.751	113.75
480.969	181.75
481.188	561.75
481.406	314.75
481.624	120.75
481.843	87.75
482.061	90.75
482.28	87.75
482.498	79.75
482.717	83.75
482.935	85.75
483.153	92.75
483.372	84.75
483.59	88.75
483.808	97.75
484.027	92.75
484.245	92.75
484.463	83.75
484.681	98.75
484.9	106.75
485.118	96.75
485.336	96.75
485.554	99.75
485.772	97.75
485.99	106.75
486.209	103.75
486.427	102.75
486.645	116.75
486.863	116.75
487.081	94.75
487.299	95.75
487.517	92.75
487.735	85.75
487.953	94.75
488.171	93.75
488.389	91.75
488.607	98.75
488.825	100.75
489.043	88.75
489.261	79.75
489.479	91.75
489.696	91.75
489.914	90.75
490.132	82.75
490.35	79.75
490.568	99.75
490.786	85.75
491.003	74.75
491.221	81.75
491.439	76.75
491.657	93.75
491.874	79.75
492.092	83.75
492.31	77.75
492.527	95.75
492.745	81.75
492.963	67.75
493.18	92.75
493.398	88.75
493.615	99.75
493.833	84.75
494.05	99.75
494.268	91.75
494.485	81.75
494.703	81.75
494.92	73.75
495.138	95.75
495.355	98.75
495.573	74.75
495.79	97.75
496.008	100.75
496.225	81.75
496.442	93.75
496.66	86.75
496.877	88.75
497.094	103.75
497.312	103.75
497.529	95.75
497.746	86.75
497.963	83.75
498.181	108.75
498.398	81.75
498.615	117.75
498.832	97.75
499.049	99.75
499.267	98.75
499.484	89.75
499.701	89.75
499.918	102.75
500.135	97.75
500.352	83.75
500.569	89.75
500.786	104.75
501.003	92.75
501.22	87.75
501.437	77.75
501.654	96.75
501.871	112.75
502.088	100.75
502.305	75.75
502.522	79.75
502.739	101.75
502.956	85.75
503.172	95.75
503.389	98.75
503.606	101.75
503.823	94.75
504.04	87.75
504.256	98.75
504.473	75.75
504.69	83.75
504.907	92.75
505.123	104.75
505.34	89.75
505.557	96.75
505.773	85.75
505.99	97.75
506.207	87.75
506.423	95.75
506.64	88.75
506.856	98.75
507.073	87.75
507.289	93.75
507.506	96.75
507.722	93.75
507.939	95.75
508.155	93.75
508.372	99.75
508.588	107.75
508.805	80.75
509.021	93.75
509.238	107.75
509.454	92.75
509.67	110.75
509.887	106.75
510.103	135.75
510.319	179.75
510.536	593.75
510.752	1886.75
510.968	520.75
511.184	137.75
511.401	118.75
511.617	91.75
511.833	80.75
512.049	76.75
512.265	85.75
512.481	90.75
512.698	93.75
512.914	89.75
513.13	98.75
513.346	85.75
513.562	84.75
513.778	107.75
513.994	105.75
514.21	87.75
514.426	99.75
514.642	101.75
514.858	101.75
515.074	152.75
515.29	359.75
515.506	1059.75
515.721	379.75
515.937	119.75
