Data from Circ_1984_H10_HRD10591_00087.txt Node
Date: Wed Jan 03 12:22:59 EST 2024
User: Yrep
Spectrometer: HR+D1059
Trigger mode: 1
Integration Time (sec): 1.000000E-1
Scans to average: 1
Electric dark correction enabled: true
Nonlinearity correction enabled: false
Boxcar width: 0
XAxis mode: Wavelengths
Number of Pixels in Spectrum: 2048
>>>>>Begin Spectral Data<<<<<
223.165	-26.56
223.4	-26.56
223.635	-26.56
223.869	-21.56
224.104	-21.56
224.338	-21.56
224.573	-11.56
224.808	-26.56
225.042	-14.56
225.277	6.44
225.511	17.44
225.746	-7.56
225.98	2.44
226.215	13.44
226.449	21.44
226.683	26.44
226.918	34.44
227.152	29.44
227.387	51.44
227.621	53.44
227.856	50.44
228.09	46.44
228.324	53.44
228.559	62.44
228.793	54.44
229.027	73.44
229.262	64.44
229.496	87.44
229.73	85.44
229.964	93.44
230.199	89.44
230.433	57.44
230.667	68.44
230.901	91.44
231.136	85.44
231.37	95.44
231.604	86.44
231.838	74.44
232.072	87.44
232.306	81.44
232.541	70.44
232.775	67.44
233.009	86.44
233.243	89.44
233.477	70.44
233.711	81.44
233.945	85.44
234.179	82.44
234.413	76.44
234.647	77.44
234.881	72.44
235.115	78.44
235.349	86.44
235.583	88.44
235.817	92.44
236.051	91.44
236.285	89.44
236.519	76.44
236.753	87.44
236.987	80.44
237.221	89.44
237.455	85.44
237.689	79.44
237.922	84.44
238.156	85.44
238.39	85.44
238.624	53.44
238.858	69.44
239.091	87.44
239.325	83.44
239.559	89.44
239.793	92.44
240.027	86.44
240.26	74.44
240.494	74.44
240.728	83.44
240.961	78.44
241.195	84.44
241.429	83.44
241.662	79.44
241.896	83.44
242.13	72.44
242.363	91.44
242.597	83.44
242.83	81.44
243.064	82.44
243.298	74.44
243.531	86.44
243.765	83.44
243.998	81.44
244.232	69.44
244.465	85.44
244.699	89.44
244.932	81.44
245.166	74.44
245.399	81.44
245.633	87.44
245.866	76.44
246.099	86.44
246.333	74.44
246.566	75.44
246.8	77.44
247.033	66.44
247.266	61.44
247.5	81.44
247.733	74.44
247.966	87.44
248.2	70.44
248.433	59.44
248.666	81.44
248.899	87.44
249.133	69.44
249.366	82.44
249.599	94.44
249.832	91.44
250.066	78.44
250.299	94.44
250.532	72.44
250.765	81.44
250.998	91.44
251.231	71.44
251.465	87.44
251.698	74.44
251.931	64.44
252.164	72.44
252.397	83.44
252.63	90.44
252.863	82.44
253.096	92.44
253.329	75.44
253.562	97.44
253.795	91.44
254.028	78.44
254.261	85.44
254.494	87.44
254.727	98.44
254.96	86.44
255.193	64.44
255.426	83.44
255.659	81.44
255.892	87.44
256.124	87.44
256.357	84.44
256.59	83.44
256.823	86.44
257.056	91.44
257.289	78.44
257.521	87.44
257.754	86.44
257.987	91.44
258.22	82.44
258.452	91.44
258.685	73.44
258.918	69.44
259.151	85.44
259.383	78.44
259.616	76.44
259.849	88.44
260.081	86.44
260.314	85.44
260.547	76.44
260.779	77.44
261.012	94.44
261.244	76.44
261.477	81.44
261.71	95.44
261.942	109.44
262.175	99.44
262.407	94.44
262.64	77.44
262.872	83.44
263.105	91.44
263.337	87.44
263.57	75.44
263.802	82.44
264.035	87.44
264.267	86.44
264.499	67.44
264.732	94.44
264.964	78.44
265.197	95.44
265.429	86.44
265.661	88.44
265.894	92.44
266.126	86.44
266.358	78.44
266.591	93.44
266.823	93.44
267.055	106.44
267.287	71.44
267.52	81.44
267.752	96.44
267.984	87.44
268.216	91.44
268.448	86.44
268.681	90.44
268.913	100.44
269.145	101.44
269.377	93.44
269.609	84.44
269.841	68.44
270.073	82.44
270.306	102.44
270.538	94.44
270.77	94.44
271.002	88.44
271.234	82.44
271.466	83.44
271.698	89.44
271.93	103.44
272.162	85.44
272.394	83.44
272.626	84.44
272.858	78.44
273.09	81.44
273.322	76.44
273.553	75.44
273.785	99.44
274.017	76.44
274.249	93.44
274.481	82.44
274.713	87.44
274.945	95.44
275.176	86.44
275.408	88.44
275.64	99.44
275.872	97.44
276.104	85.44
276.335	95.44
276.567	94.44
276.799	103.44
277.031	104.44
277.262	108.44
277.494	97.44
277.726	97.44
277.957	95.44
278.189	91.44
278.421	83.44
278.652	101.44
278.884	81.44
279.115	87.44
279.347	100.44
279.579	102.44
279.81	97.44
280.042	97.44
280.273	100.44
280.505	89.44
280.736	105.44
280.968	97.44
281.199	93.44
281.431	83.44
281.662	95.44
281.894	94.44
282.125	100.44
282.356	108.44
282.588	135.44
282.819	116.44
283.051	89.44
283.282	101.44
283.513	103.44
283.745	88.44
283.976	88.44
284.207	98.44
284.439	91.44
284.67	99.44
284.901	84.44
285.132	100.44
285.364	95.44
285.595	93.44
285.826	74.44
286.057	85.44
286.288	89.44
286.52	89.44
286.751	93.44
286.982	88.44
287.213	102.44
287.444	85.44
287.675	76.44
287.906	86.44
288.138	94.44
288.369	88.44
288.6	97.44
288.831	86.44
289.062	87.44
289.293	99.44
289.524	87.44
289.755	84.44
289.986	104.44
290.217	101.44
290.448	88.44
290.679	94.44
290.91	89.44
291.141	94.44
291.371	85.44
291.602	94.44
291.833	81.44
292.064	85.44
292.295	87.44
292.526	90.44
292.757	93.44
292.987	94.44
293.218	96.44
293.449	87.44
293.68	110.44
293.91	83.44
294.141	89.44
294.372	95.44
294.603	103.44
294.833	90.44
295.064	89.44
295.295	87.44
295.525	89.44
295.756	90.44
295.987	116.44
296.217	130.44
296.448	109.44
296.679	92.44
296.909	82.44
297.14	84.44
297.37	93.44
297.601	96.44
297.831	93.44
298.062	78.44
298.292	90.44
298.523	85.44
298.753	102.44
298.984	89.44
299.214	91.44
299.445	90.44
299.675	102.44
299.905	77.44
300.136	93.44
300.366	93.44
300.597	100.44
300.827	85.44
301.057	96.44
301.288	88.44
301.518	96.44
301.748	100.44
301.979	92.44
302.209	69.44
302.439	77.44
302.669	92.44
302.9	93.44
303.13	92.44
303.36	96.44
303.59	102.44
303.82	114.44
304.051	91.44
304.281	91.44
304.511	83.44
304.741	92.44
304.971	87.44
305.201	93.44
305.431	87.44
305.661	87.44
305.891	94.44
306.121	93.44
306.352	85.44
306.582	107.44
306.812	101.44
307.042	109.44
307.272	109.44
307.502	114.44
307.731	107.44
307.961	97.44
308.191	88.44
308.421	97.44
308.651	104.44
308.881	103.44
309.111	102.44
309.341	86.44
309.571	93.44
309.8	114.44
310.03	92.44
310.26	89.44
310.49	92.44
310.72	113.44
310.949	116.44
311.179	110.44
311.409	93.44
311.639	87.44
311.868	105.44
312.098	87.44
312.328	101.44
312.557	100.44
312.787	112.44
313.017	99.44
313.246	97.44
313.476	87.44
313.706	94.44
313.935	88.44
314.165	100.44
314.394	95.44
314.624	98.44
314.853	104.44
315.083	113.44
315.312	92.44
315.542	89.44
315.771	97.44
316.001	81.44
316.23	90.44
316.46	77.44
316.689	74.44
316.919	88.44
317.148	95.44
317.377	104.44
317.607	96.44
317.836	92.44
318.065	91.44
318.295	85.44
318.524	95.44
318.753	104.44
318.983	94.44
319.212	105.44
319.441	101.44
319.67	98.44
319.9	91.44
320.129	95.44
320.358	102.44
320.587	97.44
320.816	93.44
321.046	91.44
321.275	103.44
321.504	103.44
321.733	102.44
321.962	105.44
322.191	97.44
322.42	95.44
322.649	93.44
322.878	106.44
323.108	124.44
323.337	121.44
323.566	127.44
323.795	139.44
324.024	182.44
324.253	306.44
324.482	667.44
324.71	1348.44
324.939	1774.44
325.168	657.44
325.397	222.44
325.626	136.44
325.855	125.44
326.084	129.44
326.313	125.44
326.542	150.44
326.77	205.44
326.999	380.44
327.228	757.44
327.457	1361.44
327.686	1091.44
327.914	334.44
328.143	222.44
328.372	207.44
328.6	140.44
328.829	105.44
329.058	123.44
329.287	110.44
329.515	125.44
329.744	124.44
329.972	174.44
330.201	227.44
330.43	315.44
330.658	175.44
330.887	136.44
331.115	119.44
331.344	89.44
331.572	114.44
331.801	87.44
332.03	97.44
332.258	87.44
332.486	109.44
332.715	91.44
332.943	101.44
333.172	92.44
333.4	109.44
333.629	99.44
333.857	128.44
334.085	147.44
334.314	237.44
334.542	371.44
334.771	343.44
334.999	139.44
335.227	103.44
335.455	105.44
335.684	98.44
335.912	111.44
336.14	102.44
336.369	119.44
336.597	101.44
336.825	110.44
337.053	91.44
337.281	85.44
337.51	94.44
337.738	98.44
337.966	92.44
338.194	87.44
338.422	86.44
338.65	84.44
338.878	95.44
339.106	90.44
339.334	94.44
339.562	81.44
339.79	98.44
340.018	96.44
340.246	84.44
340.474	89.44
340.702	95.44
340.93	77.44
341.158	109.44
341.386	108.44
341.614	96.44
341.842	97.44
342.07	95.44
342.298	99.44
342.526	91.44
342.754	93.44
342.981	94.44
343.209	98.44
343.437	95.44
343.665	83.44
343.893	95.44
344.12	82.44
344.348	97.44
344.576	85.44
344.804	100.44
345.031	94.44
345.259	102.44
345.487	109.44
345.714	95.44
345.942	81.44
346.17	90.44
346.397	85.44
346.625	100.44
346.853	102.44
347.08	89.44
347.308	77.44
347.535	102.44
347.763	109.44
347.99	102.44
348.218	108.44
348.445	99.44
348.673	96.44
348.9	101.44
349.128	93.44
349.355	103.44
349.583	94.44
349.81	90.44
350.037	88.44
350.265	102.44
350.492	94.44
350.72	92.44
350.947	105.44
351.174	94.44
351.402	102.44
351.629	114.44
351.856	90.44
352.083	102.44
352.311	90.44
352.538	104.44
352.765	100.44
352.992	108.44
353.22	103.44
353.447	107.44
353.674	119.44
353.901	96.44
354.128	79.44
354.355	92.44
354.583	89.44
354.81	91.44
355.037	98.44
355.264	95.44
355.491	81.44
355.718	94.44
355.945	83.44
356.172	92.44
356.399	105.44
356.626	92.44
356.853	97.44
357.08	96.44
357.307	103.44
357.534	99.44
357.761	110.44
357.988	99.44
358.215	93.44
358.441	99.44
358.668	85.44
358.895	98.44
359.122	90.44
359.349	79.44
359.576	89.44
359.802	108.44
360.029	114.44
360.256	97.44
360.483	111.44
360.709	89.44
360.936	98.44
361.163	103.44
361.39	101.44
361.616	91.44
361.843	100.44
362.07	109.44
362.296	99.44
362.523	88.44
362.749	95.44
362.976	100.44
363.203	106.44
363.429	98.44
363.656	92.44
363.882	93.44
364.109	86.44
364.335	95.44
364.562	97.44
364.788	92.44
365.015	95.44
365.241	89.44
365.468	108.44
365.694	93.44
365.92	97.44
366.147	90.44
366.373	100.44
366.599	83.44
366.826	97.44
367.052	94.44
367.278	95.44
367.505	94.44
367.731	96.44
367.957	95.44
368.184	89.44
368.41	89.44
368.636	105.44
368.862	104.44
369.089	95.44
369.315	93.44
369.541	93.44
369.767	93.44
369.993	91.44
370.219	91.44
370.445	88.44
370.672	87.44
370.898	91.44
371.124	88.44
371.35	82.44
371.576	109.44
371.802	84.44
372.028	90.44
372.254	111.44
372.48	67.44
372.706	93.44
372.932	95.44
373.158	84.44
373.384	86.44
373.61	82.44
373.835	93.44
374.061	94.44
374.287	88.44
374.513	86.44
374.739	77.44
374.965	104.44
375.191	81.44
375.416	78.44
375.642	93.44
375.868	93.44
376.094	96.44
376.319	90.44
376.545	90.44
376.771	91.44
376.997	76.44
377.222	81.44
377.448	101.44
377.674	86.44
377.899	86.44
378.125	98.44
378.35	86.44
378.576	96.44
378.802	83.44
379.027	103.44
379.253	95.44
379.478	93.44
379.704	95.44
379.929	90.44
380.155	99.44
380.38	91.44
380.606	94.44
380.831	98.44
381.057	101.44
381.282	105.44
381.507	106.44
381.733	102.44
381.958	82.44
382.184	83.44
382.409	91.44
382.634	98.44
382.86	98.44
383.085	104.44
383.31	84.44
383.535	104.44
383.761	99.44
383.986	106.44
384.211	93.44
384.436	98.44
384.662	105.44
384.887	89.44
385.112	106.44
385.337	100.44
385.562	92.44
385.787	92.44
386.013	105.44
386.238	99.44
386.463	101.44
386.688	95.44
386.913	105.44
387.138	105.44
387.363	93.44
387.588	91.44
387.813	106.44
388.038	105.44
388.263	108.44
388.488	109.44
388.713	102.44
388.938	101.44
389.163	87.44
389.387	101.44
389.612	101.44
389.837	87.44
390.062	84.44
390.287	101.44
390.512	99.44
390.736	92.44
390.961	100.44
391.186	88.44
391.411	97.44
391.636	87.44
391.86	98.44
392.085	85.44
392.31	83.44
392.534	87.44
392.759	108.44
392.984	81.44
393.208	79.44
393.433	99.44
393.658	98.44
393.882	78.44
394.107	91.44
394.331	90.44
394.556	90.44
394.78	82.44
395.005	92.44
395.229	105.44
395.454	97.44
395.678	90.44
395.903	106.44
396.127	93.44
396.352	92.44
396.576	77.44
396.801	93.44
397.025	92.44
397.249	93.44
397.474	101.44
397.698	87.44
397.922	85.44
398.147	91.44
398.371	97.44
398.595	90.44
398.82	85.44
399.044	100.44
399.268	89.44
399.492	97.44
399.717	81.44
399.941	104.44
400.165	109.44
400.389	102.44
400.613	86.44
400.837	85.44
401.062	101.44
401.286	91.44
401.51	97.44
401.734	94.44
401.958	94.44
402.182	112.44
402.406	147.44
402.63	110.44
402.854	98.44
403.078	91.44
403.302	87.44
403.526	84.44
403.75	90.44
403.974	85.44
404.198	93.44
404.422	93.44
404.645	103.44
404.869	92.44
405.093	96.44
405.317	106.44
405.541	100.44
405.765	97.44
405.988	113.44
406.212	158.44
406.436	191.44
406.66	121.44
406.883	103.44
407.107	99.44
407.331	81.44
407.555	100.44
407.778	87.44
408.002	94.44
408.226	89.44
408.449	96.44
408.673	94.44
408.896	97.44
409.12	113.44
409.344	86.44
409.567	92.44
409.791	79.44
410.014	85.44
410.238	106.44
410.461	90.44
410.685	89.44
410.908	88.44
411.132	104.44
411.355	92.44
411.578	94.44
411.802	99.44
412.025	83.44
412.249	91.44
412.472	79.44
412.695	106.44
412.919	107.44
413.142	88.44
413.365	97.44
413.589	98.44
413.812	85.44
414.035	97.44
414.258	80.44
414.482	95.44
414.705	93.44
414.928	103.44
415.151	86.44
415.374	99.44
415.597	94.44
415.821	87.44
416.044	88.44
416.267	95.44
416.49	90.44
416.713	90.44
416.936	101.44
417.159	111.44
417.382	93.44
417.605	92.44
417.828	101.44
418.051	87.44
418.274	75.44
418.497	89.44
418.72	94.44
418.943	87.44
419.166	78.44
419.389	85.44
419.611	89.44
419.834	81.44
420.057	70.44
420.28	77.44
420.503	87.44
420.726	92.44
420.948	96.44
421.171	94.44
421.394	106.44
421.617	83.44
421.839	86.44
422.062	98.44
422.285	91.44
422.507	94.44
422.73	114.44
422.953	90.44
423.175	96.44
423.398	102.44
423.621	84.44
423.843	97.44
424.066	97.44
424.288	87.44
424.511	107.44
424.733	87.44
424.956	104.44
425.178	106.44
425.401	102.44
425.623	92.44
425.846	82.44
426.068	97.44
426.291	90.44
426.513	94.44
426.735	110.44
426.958	89.44
427.18	97.44
427.402	129.44
427.625	142.44
427.847	131.44
428.069	155.44
428.292	104.44
428.514	91.44
428.736	94.44
428.958	94.44
429.181	104.44
429.403	77.44
429.625	73.44
429.847	78.44
430.069	93.44
430.292	91.44
430.514	88.44
430.736	83.44
430.958	84.44
431.18	80.44
431.402	86.44
431.624	78.44
431.846	81.44
432.068	87.44
432.29	81.44
432.512	89.44
432.734	86.44
432.956	94.44
433.178	98.44
433.4	102.44
433.622	85.44
433.844	93.44
434.066	85.44
434.287	92.44
434.509	104.44
434.731	98.44
434.953	78.44
435.175	89.44
435.397	94.44
435.618	91.44
435.84	98.44
436.062	106.44
436.284	113.44
436.505	96.44
436.727	103.44
436.949	93.44
437.17	97.44
437.392	101.44
437.614	84.44
437.835	105.44
438.057	102.44
438.278	98.44
438.5	100.44
438.721	122.44
438.943	89.44
439.165	83.44
439.386	89.44
439.608	97.44
439.829	85.44
440.05	114.44
440.272	125.44
440.493	100.44
440.715	87.44
440.936	76.44
441.158	79.44
441.379	87.44
441.6	96.44
441.822	105.44
442.043	91.44
442.264	97.44
442.486	108.44
442.707	102.44
442.928	91.44
443.149	127.44
443.371	108.44
443.592	112.44
443.813	101.44
444.034	108.44
444.255	95.44
444.476	89.44
444.698	95.44
444.919	86.44
445.14	118.44
445.361	114.44
445.582	123.44
445.803	125.44
446.024	123.44
446.245	128.44
446.466	107.44
446.687	91.44
446.908	105.44
447.129	96.44
447.35	87.44
447.571	91.44
447.792	83.44
448.013	102.44
448.234	95.44
448.455	99.44
448.675	120.44
448.896	114.44
449.117	110.44
449.338	99.44
449.559	117.44
449.779	117.44
450	107.44
450.221	97.44
450.442	83.44
450.662	96.44
450.883	106.44
451.104	98.44
451.324	95.44
451.545	74.44
451.766	83.44
451.986	97.44
452.207	87.44
452.428	84.44
452.648	88.44
452.869	123.44
453.089	113.44
453.31	120.44
453.53	96.44
453.751	92.44
453.971	99.44
454.192	104.44
454.412	97.44
454.633	87.44
454.853	84.44
455.073	90.44
455.294	102.44
455.514	107.44
455.734	105.44
455.955	106.44
456.175	83.44
456.395	100.44
456.616	97.44
456.836	75.44
457.056	72.44
457.276	98.44
457.497	90.44
457.717	87.44
457.937	88.44
458.157	99.44
458.377	99.44
458.598	96.44
458.818	131.44
459.038	124.44
459.258	115.44
459.478	90.44
459.698	89.44
459.918	83.44
460.138	97.44
460.358	81.44
460.578	87.44
460.798	90.44
461.018	92.44
461.238	90.44
461.458	99.44
461.678	78.44
461.898	76.44
462.118	87.44
462.338	88.44
462.558	93.44
462.777	91.44
462.997	82.44
463.217	85.44
463.437	89.44
463.657	94.44
463.876	91.44
464.096	97.44
464.316	97.44
464.536	93.44
464.755	90.44
464.975	102.44
465.195	145.44
465.414	134.44
465.634	100.44
465.854	83.44
466.073	92.44
466.293	99.44
466.512	89.44
466.732	74.44
466.951	99.44
467.171	92.44
467.391	107.44
467.61	98.44
467.829	108.44
468.049	173.44
468.268	192.44
468.488	92.44
468.707	91.44
468.927	78.44
469.146	93.44
469.365	86.44
469.585	94.44
469.804	90.44
470.023	99.44
470.243	98.44
470.462	94.44
470.681	96.44
470.901	94.44
471.12	77.44
471.339	87.44
471.558	97.44
471.777	108.44
471.997	139.44
472.216	263.44
472.435	482.44
472.654	172.44
472.873	99.44
473.092	86.44
473.311	86.44
473.53	93.44
473.749	73.44
473.968	89.44
474.187	113.44
474.406	94.44
474.625	95.44
474.844	95.44
475.063	83.44
475.282	77.44
475.501	87.44
475.72	90.44
475.939	82.44
476.158	99.44
476.377	77.44
476.596	77.44
476.814	88.44
477.033	100.44
477.252	99.44
477.471	90.44
477.69	91.44
477.908	93.44
478.127	78.44
478.346	91.44
478.564	99.44
478.783	94.44
479.002	94.44
479.22	91.44
479.439	100.44
479.658	107.44
479.876	97.44
480.095	104.44
480.313	104.44
480.532	106.44
480.751	128.44
480.969	250.44
481.188	847.44
481.406	535.44
481.624	142.44
481.843	100.44
482.061	89.44
482.28	97.44
482.498	91.44
482.717	98.44
482.935	92.44
483.153	94.44
483.372	91.44
483.59	89.44
483.808	89.44
484.027	97.44
484.245	98.44
484.463	86.44
484.681	105.44
484.9	114.44
485.118	100.44
485.336	99.44
485.554	89.44
485.772	88.44
485.99	111.44
486.209	109.44
486.427	104.44
486.645	99.44
486.863	105.44
487.081	106.44
487.299	96.44
487.517	100.44
487.735	95.44
487.953	92.44
488.171	84.44
488.389	93.44
488.607	102.44
488.825	79.44
489.043	91.44
489.261	85.44
489.479	99.44
489.696	81.44
489.914	99.44
490.132	93.44
490.35	109.44
490.568	87.44
490.786	97.44
491.003	91.44
491.221	90.44
491.439	94.44
491.657	88.44
491.874	98.44
492.092	101.44
492.31	96.44
492.527	81.44
492.745	87.44
492.963	101.44
493.18	92.44
493.398	93.44
493.615	103.44
493.833	100.44
494.05	76.44
494.268	103.44
494.485	113.44
494.703	83.44
494.92	87.44
495.138	94.44
495.355	95.44
495.573	97.44
495.79	99.44
496.008	101.44
496.225	95.44
496.442	85.44
496.66	88.44
496.877	98.44
497.094	100.44
497.312	104.44
497.529	91.44
497.746	93.44
497.963	79.44
498.181	104.44
498.398	102.44
498.615	111.44
498.832	98.44
499.049	92.44
499.267	87.44
499.484	86.44
499.701	93.44
499.918	101.44
500.135	95.44
500.352	88.44
500.569	95.44
500.786	89.44
501.003	99.44
501.22	97.44
501.437	78.44
501.654	93.44
501.871	95.44
502.088	91.44
502.305	86.44
502.522	92.44
502.739	78.44
502.956	92.44
503.172	87.44
503.389	97.44
503.606	104.44
503.823	102.44
504.04	85.44
504.256	85.44
504.473	93.44
504.69	77.44
504.907	87.44
505.123	88.44
505.34	97.44
505.557	96.44
505.773	93.44
505.99	81.44
506.207	96.44
506.423	73.44
506.64	73.44
506.856	95.44
507.073	84.44
507.289	91.44
507.506	85.44
507.722	102.44
507.939	101.44
508.155	108.44
508.372	95.44
508.588	101.44
508.805	104.44
509.021	80.44
509.238	90.44
509.454	101.44
509.67	99.44
509.887	107.44
510.103	106.44
510.319	190.44
510.536	580.44
510.752	1826.44
510.968	516.44
511.184	141.44
511.401	97.44
511.617	93.44
511.833	111.44
512.049	91.44
512.265	85.44
512.481	92.44
512.698	101.44
512.914	90.44
513.13	103.44
513.346	89.44
513.562	107.44
513.778	98.44
513.994	86.44
514.21	102.44
514.426	119.44
514.642	117.44
514.858	111.44
515.074	153.44
