Data from Circ_1984_H10_HRD10591_00072.txt Node
Date: Wed Jan 03 12:22:56 EST 2024
User: Yrep
Spectrometer: HR+D1059
Trigger mode: 1
Integration Time (sec): 1.000000E-1
Scans to average: 1
Electric dark correction enabled: true
Nonlinearity correction enabled: false
Boxcar width: 0
XAxis mode: Wavelengths
Number of Pixels in Spectrum: 2048
>>>>>Begin Spectral Data<<<<<
223.165	-19
223.4	-19
223.635	-19
223.869	-21
224.104	-22
224.338	-29
224.573	-11
224.808	-7
225.042	-11
225.277	10
225.511	3
225.746	3
225.98	-4
226.215	6
226.449	24
226.683	28
226.918	14
227.152	36
227.387	34
227.621	44
227.856	44
228.09	52
228.324	44
228.559	50
228.793	68
229.027	68
229.262	67
229.496	70
229.73	80
229.964	77
230.199	71
230.433	56
230.667	83
230.901	83
231.136	76
231.37	76
231.604	98
231.838	76
232.072	77
232.306	87
232.541	90
232.775	84
233.009	78
233.243	75
233.477	82
233.711	83
233.945	89
234.179	87
234.413	93
234.647	80
234.881	89
235.115	85
235.349	82
235.583	83
235.817	79
236.051	89
236.285	86
236.519	82
236.753	77
236.987	74
237.221	83
237.455	88
237.689	75
237.922	96
238.156	68
238.39	70
238.624	70
238.858	76
239.091	90
239.325	93
239.559	96
239.793	64
240.027	69
240.26	58
240.494	81
240.728	69
240.961	81
241.195	65
241.429	75
241.662	57
241.896	62
242.13	67
242.363	67
242.597	73
242.83	74
243.064	67
243.298	78
243.531	85
243.765	93
243.998	88
244.232	82
244.465	80
244.699	86
244.932	69
245.166	81
245.399	82
245.633	85
245.866	87
246.099	88
246.333	84
246.566	66
246.8	69
247.033	80
247.266	94
247.5	85
247.733	85
247.966	90
248.2	78
248.433	75
248.666	74
248.899	100
249.133	92
249.366	87
249.599	97
249.832	86
250.066	98
250.299	81
250.532	91
250.765	86
250.998	80
251.231	90
251.465	81
251.698	75
251.931	84
252.164	90
252.397	82
252.63	78
252.863	70
253.096	91
253.329	90
253.562	94
253.795	80
254.028	80
254.261	82
254.494	78
254.727	77
254.96	84
255.193	78
255.426	91
255.659	80
255.892	78
256.124	81
256.357	73
256.59	100
256.823	89
257.056	87
257.289	90
257.521	83
257.754	87
257.987	85
258.22	89
258.452	87
258.685	76
258.918	81
259.151	94
259.383	85
259.616	84
259.849	93
260.081	83
260.314	93
260.547	93
260.779	71
261.012	101
261.244	73
261.477	88
261.71	97
261.942	117
262.175	122
262.407	74
262.64	83
262.872	84
263.105	85
263.337	76
263.57	90
263.802	85
264.035	86
264.267	71
264.499	73
264.732	74
264.964	83
265.197	84
265.429	93
265.661	85
265.894	85
266.126	92
266.358	92
266.591	96
266.823	99
267.055	77
267.287	87
267.52	80
267.752	82
267.984	90
268.216	91
268.448	98
268.681	86
268.913	91
269.145	75
269.377	84
269.609	71
269.841	77
270.073	84
270.306	87
270.538	94
270.77	65
271.002	88
271.234	91
271.466	88
271.698	82
271.93	74
272.162	75
272.394	94
272.626	90
272.858	82
273.09	80
273.322	81
273.553	81
273.785	92
274.017	84
274.249	73
274.481	72
274.713	88
274.945	91
275.176	83
275.408	89
275.64	87
275.872	99
276.104	86
276.335	82
276.567	102
276.799	120
277.031	114
277.262	96
277.494	93
277.726	96
277.957	92
278.189	88
278.421	88
278.652	88
278.884	98
279.115	99
279.347	93
279.579	98
279.81	85
280.042	86
280.273	103
280.505	103
280.736	90
280.968	76
281.199	77
281.431	77
281.662	69
281.894	88
282.125	103
282.356	120
282.588	130
282.819	117
283.051	88
283.282	82
283.513	84
283.745	93
283.976	87
284.207	90
284.439	84
284.67	92
284.901	69
285.132	96
285.364	80
285.595	90
285.826	91
286.057	90
286.288	98
286.52	90
286.751	82
286.982	85
287.213	100
287.444	67
287.675	88
287.906	97
288.138	95
288.369	85
288.6	96
288.831	91
289.062	96
289.293	98
289.524	88
289.755	96
289.986	88
290.217	91
290.448	97
290.679	75
290.91	85
291.141	89
291.371	98
291.602	99
291.833	99
292.064	97
292.295	89
292.526	92
292.757	86
292.987	98
293.218	91
293.449	113
293.68	82
293.91	91
294.141	82
294.372	84
294.603	95
294.833	90
295.064	92
295.295	86
295.525	94
295.756	100
295.987	108
296.217	139
296.448	136
296.679	97
296.909	102
297.14	82
297.37	87
297.601	97
297.831	89
298.062	100
298.292	98
298.523	94
298.753	100
298.984	94
299.214	71
299.445	89
299.675	92
299.905	106
300.136	71
300.366	84
300.597	89
300.827	92
301.057	105
301.288	116
301.518	96
301.748	92
301.979	94
302.209	86
302.439	95
302.669	91
302.9	101
303.13	93
303.36	109
303.59	97
303.82	98
304.051	98
304.281	97
304.511	90
304.741	92
304.971	86
305.201	97
305.431	90
305.661	98
305.891	92
306.121	108
306.352	107
306.582	93
306.812	85
307.042	91
307.272	97
307.502	107
307.731	104
307.961	87
308.191	99
308.421	89
308.651	96
308.881	93
309.111	92
309.341	81
309.571	101
309.8	100
310.03	102
310.26	102
310.49	94
310.72	84
310.949	94
311.179	98
311.409	102
311.639	90
311.868	109
312.098	104
312.328	92
312.557	99
312.787	99
313.017	97
313.246	89
313.476	97
313.706	98
313.935	99
314.165	107
314.394	117
314.624	98
314.853	93
315.083	96
315.312	86
315.542	101
315.771	111
316.001	100
316.23	95
316.46	84
316.689	101
316.919	90
317.148	103
317.377	102
317.607	83
317.836	98
318.065	102
318.295	104
318.524	88
318.753	94
318.983	106
319.212	103
319.441	103
319.67	105
319.9	104
320.129	91
320.358	88
320.587	106
320.816	103
321.046	108
321.275	88
321.504	99
321.733	95
321.962	107
322.191	98
322.42	105
322.649	107
322.878	130
323.108	103
323.337	119
323.566	128
323.795	156
324.024	226
324.253	387
324.482	803
324.71	1687
324.939	2299
325.168	815
325.397	242
325.626	155
325.855	122
326.084	116
326.313	129
326.542	157
326.77	248
326.999	455
327.228	941
327.457	1734
327.686	1362
327.914	389
328.143	234
328.372	242
328.6	173
328.829	125
329.058	130
329.287	147
329.515	133
329.744	132
329.972	177
330.201	245
330.43	339
330.658	212
330.887	162
331.115	126
331.344	98
331.572	93
331.801	90
332.03	100
332.258	104
332.486	83
332.715	91
332.943	97
333.172	110
333.4	103
333.629	127
333.857	134
334.085	178
334.314	258
334.542	428
334.771	402
334.999	167
335.227	114
335.455	104
335.684	103
335.912	110
336.14	90
336.369	95
336.597	94
336.825	95
337.053	85
337.281	91
337.51	92
337.738	80
337.966	82
338.194	93
338.422	93
338.65	100
338.878	89
339.106	92
339.334	85
339.562	95
339.79	96
340.018	80
340.246	93
340.474	100
340.702	107
340.93	93
341.158	75
341.386	104
341.614	98
341.842	108
342.07	97
342.298	103
342.526	98
342.754	107
342.981	98
343.209	90
343.437	110
343.665	85
343.893	92
344.12	84
344.348	89
344.576	100
344.804	84
345.031	107
345.259	92
345.487	84
345.714	94
345.942	92
346.17	87
346.397	92
346.625	93
346.853	97
347.08	89
347.308	98
347.535	95
347.763	110
347.99	93
348.218	104
348.445	97
348.673	97
348.9	93
349.128	104
349.355	71
349.583	81
349.81	104
350.037	98
350.265	97
350.492	101
350.72	100
350.947	94
351.174	110
351.402	110
351.629	98
351.856	103
352.083	109
352.311	104
352.538	112
352.765	118
352.992	108
353.22	113
353.447	106
353.674	105
353.901	104
354.128	102
354.355	104
354.583	98
354.81	102
355.037	102
355.264	108
355.491	102
355.718	101
355.945	108
356.172	90
356.399	102
356.626	90
356.853	86
357.08	100
357.307	101
357.534	88
357.761	98
357.988	101
358.215	85
358.441	93
358.668	95
358.895	106
359.122	87
359.349	86
359.576	94
359.802	107
360.029	107
360.256	106
360.483	101
360.709	96
360.936	72
361.163	99
361.39	90
361.616	101
361.843	100
362.07	90
362.296	98
362.523	99
362.749	88
362.976	101
363.203	98
363.429	98
363.656	89
363.882	91
364.109	99
364.335	97
364.562	96
364.788	92
365.015	87
365.241	105
365.468	115
365.694	106
365.92	80
366.147	82
366.373	83
366.599	105
366.826	96
367.052	94
367.278	90
367.505	98
367.731	90
367.957	96
368.184	96
368.41	101
368.636	102
368.862	114
369.089	109
369.315	100
369.541	98
369.767	90
369.993	87
370.219	90
370.445	86
370.672	72
370.898	77
371.124	93
371.35	92
371.576	104
371.802	83
372.028	81
372.254	90
372.48	83
372.706	83
372.932	84
373.158	91
373.384	96
373.61	80
373.835	85
374.061	75
374.287	84
374.513	86
374.739	88
374.965	93
375.191	83
375.416	77
375.642	80
375.868	98
376.094	99
376.319	82
376.545	94
376.771	87
376.997	90
377.222	85
377.448	83
377.674	83
377.899	93
378.125	91
378.35	89
378.576	91
378.802	92
379.027	86
379.253	85
379.478	92
379.704	98
379.929	89
380.155	90
380.38	89
380.606	90
380.831	80
381.057	89
381.282	82
381.507	98
381.733	86
381.958	87
382.184	85
382.409	102
382.634	96
382.86	98
383.085	94
383.31	96
383.535	96
383.761	74
383.986	108
384.211	95
384.436	100
384.662	89
384.887	100
385.112	97
385.337	84
385.562	104
385.787	95
386.013	103
386.238	100
386.463	105
386.688	104
386.913	112
387.138	100
387.363	103
387.588	115
387.813	105
388.038	99
388.263	116
388.488	103
388.713	83
388.938	87
389.163	104
389.387	104
389.612	86
389.837	94
390.062	102
390.287	98
390.512	85
390.736	96
390.961	90
391.186	94
391.411	97
391.636	94
391.86	74
392.085	96
392.31	81
392.534	85
392.759	87
392.984	105
393.208	86
393.433	104
393.658	98
393.882	88
394.107	90
394.331	80
394.556	84
394.78	94
395.005	91
395.229	92
395.454	87
395.678	80
395.903	76
396.127	88
396.352	88
396.576	92
396.801	111
397.025	98
397.249	103
397.474	89
397.698	100
397.922	92
398.147	77
398.371	81
398.595	88
398.82	85
399.044	96
399.268	90
399.492	87
399.717	104
399.941	95
400.165	90
400.389	91
400.613	83
400.837	97
401.062	90
401.286	85
401.51	86
401.734	90
401.958	93
402.182	102
402.406	169
402.63	101
402.854	93
403.078	87
403.302	82
403.526	103
403.75	92
403.974	89
404.198	84
404.422	88
404.645	92
404.869	97
405.093	126
405.317	93
405.541	108
405.765	97
405.988	113
406.212	170
406.436	235
406.66	134
406.883	97
407.107	90
407.331	96
407.555	113
407.778	101
408.002	95
408.226	92
408.449	101
408.673	84
408.896	90
409.12	100
409.344	94
409.567	76
409.791	91
410.014	100
410.238	87
410.461	90
410.685	91
410.908	118
411.132	110
411.355	92
411.578	86
411.802	84
412.025	89
412.249	92
412.472	101
412.695	113
412.919	90
413.142	85
413.365	91
413.589	70
413.812	84
414.035	89
414.258	95
414.482	88
414.705	80
414.928	81
415.151	92
415.374	83
415.597	87
415.821	88
416.044	88
416.267	99
416.49	77
416.713	87
416.936	96
417.159	87
417.382	93
417.605	98
417.828	93
418.051	96
418.274	81
418.497	100
418.72	82
418.943	98
419.166	100
419.389	89
419.611	80
419.834	84
420.057	92
420.28	94
420.503	88
420.726	93
420.948	84
421.171	100
421.394	89
421.617	90
421.839	100
422.062	93
422.285	97
422.507	93
422.73	95
422.953	104
423.175	75
423.398	99
423.621	78
423.843	78
424.066	88
424.288	91
424.511	93
424.733	96
424.956	97
425.178	96
425.401	98
425.623	88
425.846	91
426.068	97
426.291	84
426.513	103
426.735	99
426.958	89
427.18	117
427.402	120
427.625	177
427.847	144
428.069	141
428.292	100
428.514	90
428.736	97
428.958	75
429.181	86
429.403	86
429.625	98
429.847	89
430.069	111
430.292	101
430.514	97
430.736	88
430.958	95
431.18	84
431.402	87
431.624	67
431.846	73
432.068	95
432.29	85
432.512	86
432.734	82
432.956	97
433.178	104
433.4	93
433.622	97
433.844	89
434.066	96
434.287	112
434.509	102
434.731	86
434.953	96
435.175	73
435.397	86
435.618	101
435.84	97
436.062	131
436.284	112
436.505	105
436.727	89
436.949	93
437.17	99
437.392	87
437.614	98
437.835	102
438.057	116
438.278	129
438.5	110
438.721	116
438.943	106
439.165	85
439.386	92
439.608	88
439.829	105
440.05	124
440.272	143
440.493	108
440.715	87
440.936	85
441.158	98
441.379	90
441.6	88
441.822	93
442.043	103
442.264	117
442.486	105
442.707	105
442.928	108
443.149	142
443.371	131
443.592	112
443.813	124
444.034	107
444.255	84
444.476	91
444.698	103
444.919	94
445.14	126
445.361	127
445.582	116
445.803	138
446.024	154
446.245	137
446.466	115
446.687	90
446.908	78
447.129	100
447.35	70
447.571	111
447.792	105
448.013	108
448.234	117
448.455	106
448.675	111
448.896	114
449.117	97
449.338	97
449.559	113
449.779	123
450	101
450.221	105
450.442	96
450.662	76
450.883	97
451.104	119
451.324	99
451.545	105
451.766	99
451.986	93
452.207	90
452.428	93
452.648	93
452.869	109
453.089	120
453.31	100
453.53	93
453.751	100
453.971	100
454.192	110
454.412	94
454.633	94
454.853	81
455.073	89
455.294	85
455.514	97
455.734	88
455.955	86
456.175	94
456.395	92
456.616	73
456.836	96
457.056	77
457.276	100
457.497	81
457.717	84
457.937	74
458.157	80
458.377	91
458.598	100
458.818	142
459.038	161
459.258	123
459.478	84
459.698	91
459.918	85
460.138	81
460.358	102
460.578	91
460.798	103
461.018	80
461.238	100
461.458	80
461.678	84
461.898	104
462.118	74
462.338	85
462.558	80
462.777	87
462.997	94
463.217	82
463.437	105
463.657	104
463.876	82
464.096	81
464.316	88
464.536	82
464.755	88
464.975	104
465.195	160
465.414	170
465.634	105
465.854	96
466.073	94
466.293	87
466.512	81
466.732	84
466.951	91
467.171	92
467.391	91
467.61	110
467.829	114
468.049	174
468.268	217
468.488	108
468.707	85
468.927	97
469.146	96
469.365	86
469.585	88
469.804	99
470.023	86
470.243	84
470.462	103
470.681	103
470.901	94
471.12	98
471.339	83
471.558	85
471.777	109
471.997	114
472.216	294
472.435	552
472.654	186
472.873	109
473.092	99
473.311	93
473.53	83
473.749	82
473.968	101
474.187	115
474.406	96
474.625	94
474.844	75
475.063	83
475.282	86
475.501	88
475.72	88
475.939	81
476.158	75
476.377	95
476.596	93
476.814	102
477.033	93
477.252	93
477.471	81
477.69	107
477.908	82
478.127	98
478.346	75
478.564	105
478.783	96
479.002	102
479.22	91
479.439	100
479.658	109
479.876	113
480.095	99
480.313	98
480.532	109
480.751	135
480.969	297
481.188	951
481.406	578
481.624	134
481.843	90
482.061	93
482.28	85
482.498	102
482.717	88
482.935	90
483.153	86
483.372	88
483.59	86
483.808	102
484.027	104
484.245	99
484.463	92
484.681	87
484.9	95
485.118	88
485.336	100
485.554	97
485.772	103
485.99	98
486.209	95
486.427	99
486.645	117
486.863	106
487.081	93
487.299	103
487.517	86
487.735	98
487.953	93
488.171	98
488.389	98
488.607	105
488.825	98
489.043	100
489.261	105
489.479	101
489.696	94
489.914	84
490.132	93
490.35	108
490.568	89
490.786	77
491.003	94
491.221	85
491.439	109
491.657	94
491.874	93
492.092	97
492.31	95
492.527	81
492.745	101
492.963	85
493.18	91
493.398	93
493.615	85
493.833	98
494.05	93
494.268	90
494.485	86
494.703	84
494.92	88
495.138	83
495.355	85
495.573	91
495.79	87
496.008	91
496.225	80
496.442	88
496.66	88
496.877	104
497.094	104
497.312	95
497.529	103
497.746	104
497.963	90
498.181	103
498.398	97
498.615	108
498.832	103
499.049	70
499.267	92
499.484	80
499.701	88
499.918	91
500.135	84
500.352	88
500.569	94
500.786	95
501.003	79
501.22	87
501.437	97
501.654	84
501.871	107
502.088	97
502.305	80
502.522	81
502.739	96
502.956	96
503.172	93
503.389	101
503.606	103
503.823	92
504.04	93
504.256	84
504.473	95
504.69	107
504.907	82
505.123	98
505.34	89
505.557	80
505.773	82
505.99	81
506.207	91
506.423	92
506.64	85
506.856	88
507.073	92
507.289	78
507.506	111
507.722	120
507.939	98
508.155	102
508.372	110
508.588	101
508.805	86
509.021	97
509.238	101
509.454	102
509.67	85
509.887	102
510.103	121
510.319	209
510.536	725
510.752	2343
510.968	648
511.184	150
511.401	107
511.617	96
511.833	110
512.049	96
512.265	92
512.481	91
512.698	89
512.914	95
513.13	90
513.346	90
513.562	89
513.778	98
513.994	102
514.21	91
514.426	113
514.642	141
514.858	138
515.074	160
515.29	451
515.506	1465
515.721	541
515.937	164
516.153	114
516.369	99
516.585	107
516.801	92
517.016	98
517.232	107
517.448	100
517.664	97
517.879	101
518.095	85
518.311	97
518.527	91
518.742	92
518.958	97
519.173	100
519.389	96
519.605	114
519.82	98
520.036	105
520.251	123
520.467	113
520.682	117
520.898	109
521.113	127
521.329	136
521.544	216
521.76	557
521.975	2418
522.19	1460
522.406	298
522.621	122
522.836	106
523.052	110
523.267	105
523.482	112
523.698	108
523.913	115
524.128	110
524.343	97
524.559	101
524.774	104
524.989	83
525.204	105
525.419	103
525.634	87
525.849	96
526.064	82
526.28	101
526.495	96
526.71	91
526.925	82
527.14	107
527.355	101
527.57	86
527.785	90
527.999	86
528.214	99
528.429	109
528.644	99
528.859	91
529.074	105
529.289	133
529.503	171
529.718	114
529.933	101
530.148	95
530.363	89
530.577	92
530.792	90
531.007	100
531.221	97
531.436	89
531.651	90
531.865	95
532.08	106
532.295	87
532.509	92
532.724	101
532.938	104
533.153	101
533.367	107
533.582	90
533.796	92
534.011	88
534.225	94
534.44	94
534.654	88
534.868	92
535.083	96
535.297	85
535.511	106
535.726	99
535.94	100
536.154	100
536.369	92
536.583	96
536.797	96
537.011	91
537.225	93
537.44	96
537.654	88
537.868	95
538.082	86
538.296	82
538.51	77
538.724	80
538.938	96
539.153	102
539.367	99
539.581	94
539.795	83
540.009	105
540.222	89
540.436	92
540.65	87
540.864	82
541.078	97
541.292	97
541.506	102
541.72	94
541.934	88
542.147	73
542.361	100
542.575	77
542.789	89
543.002	92
543.216	94
543.43	116
543.644	89
543.857	100
544.071	101
544.285	98
544.498	76
544.712	90
544.925	96
545.139	100
545.352	88
545.566	104
545.779	99
545.993	85
546.206	87
546.42	77
546.633	81
546.847	90
547.06	98
547.274	103
547.487	90
547.7	97
547.914	88
548.127	91
548.34	98
548.554	85
548.767	90
548.98	100
549.193	87
549.407	101
549.62	103
549.833	97
550.046	76
550.259	98
550.473	83
550.686	98
550.899	85
551.112	99
551.325	88
551.538	84
551.751	88
551.964	103
552.177	96
552.39	87
552.603	96
552.816	90
553.029	100
553.242	96
553.455	96
553.667	99
553.88	112
554.093	90
554.306	96
554.519	100
554.732	112
554.944	93
555.157	97
555.37	94
555.583	101
555.795	72
556.008	94
556.221	82
556.433	90
556.646	101
556.859	92
557.071	100
557.284	93
557.496	86
557.709	90
557.921	85
558.134	77
558.346	94
558.559	90
558.771	94
558.984	72
559.196	95
559.409	85
559.621	102
559.833	102
560.046	85
560.258	100
560.47	84
560.683	91
560.895	99
561.107	98
561.32	89
561.532	77
561.744	99
561.956	81
562.168	96
562.381	83
562.593	90
562.805	100
563.017	98
563.229	102
563.441	95
563.653	102
563.865	90
564.077	95
564.289	84
564.501	99
564.713	84
564.925	86
565.137	98
565.349	98
565.561	89
565.773	85
565.985	96
566.197	88
566.408	93
566.62	95
566.832	84
567.044	85
567.255	89
567.467	85
567.679	74
567.891	92
568.102	99
568.314	90
568.526	100
568.737	92
568.949	92
569.161	90
569.372	90
569.584	91
569.795	106
570.007	107
570.218	252
570.43	132
570.641	88
570.853	90
571.064	84
571.276	97
571.487	88
571.698	80
571.91	85
572.121	93
572.333	90
572.544	97
572.755	99
572.966	92
573.178	84
573.389	108
573.6	92
573.811	88
574.023	101
574.234	76
574.445	92
574.656	92
574.867	88
575.078	73
575.289	101
575.501	93
575.712	86
575.923	91
576.134	88
576.345	77
576.556	96
576.767	88
576.978	86
577.188	88
577.399	81
577.61	92
577.821	101
578.032	115
578.243	255
578.454	697
578.665	188
578.875	107
579.086	94
579.297	93
579.508	93
579.718	92
579.929	91
580.14	92
580.35	88
580.561	97
580.772	72
580.982	77
581.193	86
581.403	92
581.614	89
581.825	90
582.035	76
582.246	88
582.456	80
582.667	87
