Data from Circ_1984_H10_HRD10591_00023.txt Node
Date: Wed Jan 03 12:22:46 EST 2024
User: Yrep
Spectrometer: HR+D1059
Trigger mode: 1
Integration Time (sec): 1.000000E-1
Scans to average: 1
Electric dark correction enabled: true
Nonlinearity correction enabled: false
Boxcar width: 0
XAxis mode: Wavelengths
Number of Pixels in Spectrum: 2048
>>>>>Begin Spectral Data<<<<<
223.165	-19
223.4	-19
223.635	-19
223.869	-16
224.104	-20
224.338	-22
224.573	-15
224.808	-15
225.042	-13
225.277	-12
225.511	7
225.746	18
225.98	17
226.215	12
226.449	8
226.683	28
226.918	23
227.152	19
227.387	33
227.621	31
227.856	40
228.09	45
228.324	55
228.559	59
228.793	60
229.027	71
229.262	69
229.496	78
229.73	83
229.964	78
230.199	61
230.433	67
230.667	60
230.901	83
231.136	61
231.37	79
231.604	77
231.838	79
232.072	87
232.306	89
232.541	83
232.775	62
233.009	88
233.243	66
233.477	67
233.711	82
233.945	90
234.179	73
234.413	87
234.647	65
234.881	62
235.115	68
235.349	73
235.583	84
235.817	75
236.051	89
236.285	79
236.519	79
236.753	82
236.987	85
237.221	72
237.455	71
237.689	101
237.922	64
238.156	75
238.39	85
238.624	57
238.858	66
239.091	60
239.325	67
239.559	87
239.793	85
240.027	83
240.26	79
240.494	86
240.728	83
240.961	88
241.195	84
241.429	79
241.662	76
241.896	85
242.13	56
242.363	75
242.597	74
242.83	67
243.064	70
243.298	67
243.531	83
243.765	69
243.998	86
244.232	101
244.465	83
244.699	94
244.932	84
245.166	71
245.399	60
245.633	76
245.866	80
246.099	71
246.333	79
246.566	89
246.8	72
247.033	88
247.266	83
247.5	61
247.733	74
247.966	63
248.2	80
248.433	91
248.666	86
248.899	79
249.133	73
249.366	108
249.599	79
249.832	87
250.066	95
250.299	75
250.532	88
250.765	76
250.998	83
251.231	93
251.465	71
251.698	87
251.931	72
252.164	80
252.397	87
252.63	81
252.863	80
253.096	70
253.329	87
253.562	75
253.795	81
254.028	85
254.261	78
254.494	79
254.727	80
254.96	73
255.193	93
255.426	87
255.659	94
255.892	84
256.124	83
256.357	93
256.59	86
256.823	75
257.056	79
257.289	74
257.521	65
257.754	85
257.987	77
258.22	99
258.452	83
258.685	88
258.918	87
259.151	92
259.383	91
259.616	84
259.849	82
260.081	80
260.314	60
260.547	80
260.779	84
261.012	84
261.244	70
261.477	71
261.71	104
261.942	81
262.175	117
262.407	83
262.64	80
262.872	83
263.105	75
263.337	91
263.57	87
263.802	84
264.035	75
264.267	72
264.499	75
264.732	79
264.964	89
265.197	85
265.429	95
265.661	81
265.894	79
266.126	87
266.358	82
266.591	68
266.823	88
267.055	62
267.287	92
267.52	79
267.752	96
267.984	86
268.216	85
268.448	83
268.681	91
268.913	78
269.145	87
269.377	89
269.609	95
269.841	83
270.073	75
270.306	83
270.538	98
270.77	76
271.002	84
271.234	88
271.466	83
271.698	85
271.93	84
272.162	91
272.394	83
272.626	88
272.858	87
273.09	90
273.322	83
273.553	84
273.785	89
274.017	80
274.249	97
274.481	85
274.713	84
274.945	91
275.176	86
275.408	87
275.64	82
275.872	76
276.104	95
276.335	93
276.567	98
276.799	93
277.031	102
277.262	85
277.494	85
277.726	95
277.957	98
278.189	79
278.421	89
278.652	94
278.884	88
279.115	98
279.347	82
279.579	81
279.81	84
280.042	84
280.273	96
280.505	79
280.736	90
280.968	92
281.199	84
281.431	88
281.662	96
281.894	88
282.125	77
282.356	108
282.588	116
282.819	93
283.051	94
283.282	77
283.513	102
283.745	69
283.976	89
284.207	76
284.439	80
284.67	89
284.901	86
285.132	98
285.364	85
285.595	97
285.826	91
286.057	91
286.288	92
286.52	86
286.751	80
286.982	86
287.213	91
287.444	91
287.675	97
287.906	69
288.138	81
288.369	86
288.6	90
288.831	81
289.062	97
289.293	91
289.524	81
289.755	90
289.986	103
290.217	87
290.448	94
290.679	96
290.91	90
291.141	97
291.371	77
291.602	84
291.833	84
292.064	69
292.295	93
292.526	86
292.757	91
292.987	87
293.218	98
293.449	91
293.68	88
293.91	93
294.141	90
294.372	88
294.603	89
294.833	84
295.064	83
295.295	83
295.525	78
295.756	92
295.987	100
296.217	120
296.448	107
296.679	83
296.909	91
297.14	85
297.37	79
297.601	93
297.831	79
298.062	89
298.292	68
298.523	82
298.753	88
298.984	95
299.214	93
299.445	101
299.675	84
299.905	100
300.136	94
300.366	92
300.597	87
300.827	86
301.057	98
301.288	99
301.518	87
301.748	83
301.979	95
302.209	87
302.439	96
302.669	88
302.9	95
303.13	108
303.36	90
303.59	91
303.82	92
304.051	91
304.281	90
304.511	102
304.741	96
304.971	86
305.201	81
305.431	87
305.661	97
305.891	103
306.121	90
306.352	103
306.582	96
306.812	92
307.042	103
307.272	106
307.502	106
307.731	92
307.961	85
308.191	88
308.421	83
308.651	72
308.881	85
309.111	109
309.341	111
309.571	100
309.8	95
310.03	96
310.26	89
310.49	93
310.72	83
310.949	88
311.179	92
311.409	90
311.639	92
311.868	89
312.098	83
312.328	101
312.557	97
312.787	85
313.017	93
313.246	79
313.476	79
313.706	93
313.935	86
314.165	96
314.394	88
314.624	93
314.853	79
315.083	91
315.312	86
315.542	80
315.771	90
316.001	90
316.23	84
316.46	92
316.689	91
316.919	94
317.148	99
317.377	83
317.607	94
317.836	96
318.065	99
318.295	85
318.524	87
318.753	85
318.983	105
319.212	99
319.441	95
319.67	109
319.9	87
320.129	85
320.358	99
320.587	71
320.816	78
321.046	92
321.275	93
321.504	93
321.733	97
321.962	101
322.191	95
322.42	99
322.649	107
322.878	104
323.108	109
323.337	101
323.566	123
323.795	126
324.024	157
324.253	291
324.482	601
324.71	1174
324.939	1514
325.168	595
325.397	199
325.626	141
325.855	113
326.084	110
326.313	109
326.542	125
326.77	180
326.999	330
327.228	667
327.457	1230
327.686	984
327.914	286
328.143	161
328.372	145
328.6	113
328.829	99
329.058	120
329.287	116
329.515	105
329.744	103
329.972	112
330.201	146
330.43	172
330.658	127
330.887	100
331.115	103
331.344	107
331.572	103
331.801	97
332.03	96
332.258	88
332.486	95
332.715	81
332.943	92
333.172	93
333.4	87
333.629	116
333.857	116
334.085	112
334.314	147
334.542	193
334.771	188
334.999	119
335.227	102
335.455	98
335.684	105
335.912	99
336.14	99
336.369	87
336.597	90
336.825	109
337.053	91
337.281	83
337.51	100
337.738	99
337.966	76
338.194	103
338.422	115
338.65	91
338.878	84
339.106	89
339.334	100
339.562	89
339.79	83
340.018	101
340.246	79
340.474	84
340.702	101
340.93	97
341.158	92
341.386	91
341.614	84
341.842	100
342.07	90
342.298	90
342.526	88
342.754	75
342.981	81
343.209	88
343.437	106
343.665	102
343.893	107
344.12	80
344.348	92
344.576	95
344.804	95
345.031	85
345.259	96
345.487	89
345.714	83
345.942	88
346.17	95
346.397	97
346.625	95
346.853	88
347.08	88
347.308	92
347.535	101
347.763	102
347.99	92
348.218	85
348.445	95
348.673	77
348.9	87
349.128	104
349.355	88
349.583	86
349.81	88
350.037	79
350.265	91
350.492	89
350.72	97
350.947	96
351.174	90
351.402	107
351.629	116
351.856	103
352.083	79
352.311	84
352.538	89
352.765	101
352.992	107
353.22	98
353.447	95
353.674	89
353.901	100
354.128	104
354.355	104
354.583	87
354.81	82
355.037	96
355.264	82
355.491	100
355.718	83
355.945	102
356.172	113
356.399	98
356.626	85
356.853	97
357.08	82
357.307	92
357.534	89
357.761	108
357.988	94
358.215	106
358.441	83
358.668	96
358.895	91
359.122	95
359.349	97
359.576	106
359.802	95
360.029	98
360.256	96
360.483	102
360.709	75
360.936	99
361.163	83
361.39	85
361.616	95
361.843	87
362.07	81
362.296	91
362.523	91
362.749	97
362.976	89
363.203	82
363.429	101
363.656	85
363.882	90
364.109	90
364.335	82
364.562	89
364.788	77
365.015	88
365.241	86
365.468	106
365.694	96
365.92	94
366.147	83
366.373	88
366.599	78
366.826	76
367.052	101
367.278	94
367.505	81
367.731	83
367.957	81
368.184	94
368.41	104
368.636	97
368.862	99
369.089	87
369.315	96
369.541	95
369.767	90
369.993	95
370.219	95
370.445	100
370.672	97
370.898	92
371.124	81
371.35	82
371.576	85
371.802	85
372.028	94
372.254	98
372.48	89
372.706	96
372.932	83
373.158	75
373.384	94
373.61	102
373.835	104
374.061	88
374.287	87
374.513	83
374.739	90
374.965	96
375.191	81
375.416	90
375.642	81
375.868	90
376.094	91
376.319	76
376.545	79
376.771	79
376.997	81
377.222	88
377.448	112
377.674	89
377.899	83
378.125	80
378.35	89
378.576	85
378.802	93
379.027	87
379.253	98
379.478	93
379.704	84
379.929	87
380.155	103
380.38	87
380.606	92
380.831	92
381.057	107
381.282	106
381.507	112
381.733	91
381.958	92
382.184	100
382.409	99
382.634	93
382.86	85
383.085	102
383.31	92
383.535	99
383.761	107
383.986	82
384.211	88
384.436	97
384.662	105
384.887	112
385.112	116
385.337	101
385.562	99
385.787	114
386.013	109
386.238	118
386.463	98
386.688	111
386.913	99
387.138	108
387.363	112
387.588	90
387.813	100
388.038	105
388.263	119
388.488	108
388.713	103
388.938	95
389.163	95
389.387	87
389.612	86
389.837	82
390.062	97
390.287	85
390.512	86
390.736	87
390.961	73
391.186	89
391.411	91
391.636	90
391.86	90
392.085	73
392.31	81
392.534	81
392.759	95
392.984	88
393.208	105
393.433	88
393.658	93
393.882	90
394.107	83
394.331	73
394.556	84
394.78	95
395.005	103
395.229	72
395.454	97
395.678	94
395.903	64
396.127	97
396.352	87
396.576	93
396.801	79
397.025	95
397.249	87
397.474	81
397.698	76
397.922	81
398.147	89
398.371	84
398.595	94
398.82	98
399.044	72
399.268	84
399.492	90
399.717	89
399.941	86
400.165	110
400.389	87
400.613	81
400.837	92
401.062	83
401.286	88
401.51	96
401.734	98
401.958	85
402.182	99
402.406	117
402.63	103
402.854	100
403.078	96
403.302	83
403.526	87
403.75	86
403.974	98
404.198	89
404.422	72
404.645	90
404.869	86
405.093	76
405.317	95
405.541	87
405.765	90
405.988	110
406.212	144
406.436	191
406.66	122
406.883	88
407.107	87
407.331	89
407.555	84
407.778	95
408.002	98
408.226	84
408.449	92
408.673	86
408.896	89
409.12	84
409.344	79
409.567	94
409.791	95
410.014	85
410.238	99
410.461	95
410.685	98
410.908	92
411.132	79
411.355	91
411.578	99
411.802	92
412.025	90
412.249	94
412.472	96
412.695	95
412.919	85
413.142	90
413.365	92
413.589	91
413.812	97
414.035	90
414.258	84
414.482	87
414.705	99
414.928	106
415.151	99
415.374	84
415.597	78
415.821	93
416.044	89
416.267	95
416.49	78
416.713	75
416.936	93
417.159	100
417.382	87
417.605	91
417.828	91
418.051	85
418.274	83
418.497	76
418.72	78
418.943	81
419.166	81
419.389	84
419.611	89
419.834	87
420.057	87
420.28	98
420.503	87
420.726	89
420.948	100
421.171	85
421.394	94
421.617	92
421.839	92
422.062	85
422.285	95
422.507	85
422.73	93
422.953	107
423.175	96
423.398	100
423.621	89
423.843	82
424.066	85
424.288	91
424.511	83
424.733	87
424.956	83
425.178	103
425.401	112
425.623	90
425.846	93
426.068	84
426.291	89
426.513	93
426.735	90
426.958	80
427.18	103
427.402	107
427.625	131
427.847	114
428.069	90
428.292	95
428.514	77
428.736	92
428.958	87
429.181	90
429.403	85
429.625	88
429.847	96
430.069	101
430.292	83
430.514	76
430.736	83
430.958	75
431.18	86
431.402	89
431.624	86
431.846	76
432.068	93
432.29	94
432.512	100
432.734	92
432.956	99
433.178	93
433.4	87
433.622	94
433.844	90
434.066	85
434.287	76
434.509	84
434.731	84
434.953	101
435.175	90
435.397	72
435.618	95
435.84	100
436.062	97
436.284	88
436.505	95
436.727	93
436.949	99
437.17	91
437.392	78
437.614	88
437.835	108
438.057	117
438.278	102
438.5	107
438.721	122
438.943	105
439.165	81
439.386	90
439.608	90
439.829	103
440.05	121
440.272	134
440.493	97
440.715	92
440.936	71
441.158	85
441.379	86
441.6	92
441.822	89
442.043	87
442.264	93
442.486	83
442.707	101
442.928	101
443.149	113
443.371	105
443.592	95
443.813	104
444.034	90
444.255	90
444.476	86
444.698	94
444.919	92
445.14	118
445.361	122
445.582	106
445.803	125
446.024	117
446.245	115
446.466	108
446.687	102
446.908	92
447.129	86
447.35	87
447.571	77
447.792	79
448.013	90
448.234	102
448.455	96
448.675	94
448.896	104
449.117	101
449.338	92
449.559	120
449.779	114
450	91
450.221	83
450.442	99
450.662	76
450.883	85
451.104	104
451.324	93
451.545	92
451.766	89
451.986	79
452.207	83
452.428	88
452.648	93
452.869	90
453.089	92
453.31	107
453.53	83
453.751	99
453.971	108
454.192	88
454.412	77
454.633	86
454.853	80
455.073	63
455.294	93
455.514	90
455.734	86
455.955	88
456.175	73
456.395	74
456.616	73
456.836	104
457.056	80
457.276	85
457.497	95
457.717	72
457.937	88
458.157	80
458.377	85
458.598	96
458.818	108
459.038	115
459.258	108
459.478	91
459.698	66
459.918	93
460.138	79
460.358	74
460.578	93
460.798	80
461.018	69
461.238	88
461.458	96
461.678	88
461.898	104
462.118	95
462.338	96
462.558	95
462.777	77
462.997	88
463.217	82
463.437	71
463.657	87
463.876	99
464.096	88
464.316	82
464.536	90
464.755	88
464.975	95
465.195	143
465.414	136
465.634	102
465.854	97
466.073	87
466.293	85
466.512	96
466.732	75
466.951	79
467.171	101
467.391	99
467.61	86
467.829	83
468.049	113
468.268	134
468.488	91
468.707	84
468.927	88
469.146	88
469.365	88
469.585	88
469.804	89
470.023	95
470.243	77
470.462	76
470.681	95
470.901	89
471.12	92
471.339	99
471.558	92
471.777	83
471.997	113
472.216	173
472.435	253
472.654	119
472.873	90
473.092	85
473.311	76
473.53	97
473.749	96
473.968	88
474.187	105
474.406	94
474.625	86
474.844	91
475.063	85
475.282	88
475.501	100
475.72	89
475.939	80
476.158	85
476.377	74
476.596	80
476.814	84
477.033	83
477.252	82
477.471	88
477.69	93
477.908	95
478.127	95
478.346	74
478.564	80
478.783	85
479.002	85
479.22	95
479.439	92
479.658	100
479.876	100
480.095	88
480.313	96
480.532	95
480.751	100
480.969	154
481.188	365
481.406	235
481.624	102
481.843	81
482.061	87
482.28	82
482.498	92
482.717	85
482.935	84
483.153	93
483.372	96
483.59	75
483.808	96
484.027	97
484.245	102
484.463	81
484.681	112
484.9	104
485.118	96
485.336	92
485.554	86
485.772	107
485.99	85
486.209	106
486.427	101
486.645	108
486.863	110
487.081	95
487.299	106
487.517	102
487.735	107
487.953	102
488.171	98
488.389	99
488.607	103
488.825	97
489.043	88
489.261	89
489.479	91
489.696	89
489.914	92
490.132	75
490.35	91
490.568	74
490.786	83
491.003	76
491.221	100
491.439	93
491.657	79
491.874	71
492.092	79
492.31	88
492.527	88
492.745	88
492.963	84
493.18	97
493.398	104
493.615	96
493.833	117
494.05	95
494.268	96
494.485	79
494.703	104
494.92	90
495.138	93
495.355	87
495.573	95
495.79	87
496.008	98
496.225	84
496.442	99
496.66	92
496.877	82
497.094	90
497.312	97
497.529	93
497.746	87
497.963	100
498.181	89
498.398	101
498.615	104
498.832	102
499.049	92
499.267	90
499.484	77
499.701	89
499.918	89
500.135	91
500.352	93
500.569	81
500.786	84
501.003	82
501.22	93
501.437	99
501.654	87
501.871	98
502.088	91
502.305	97
502.522	109
502.739	98
502.956	85
503.172	88
503.389	96
503.606	117
503.823	101
504.04	99
504.256	99
504.473	104
504.69	79
504.907	103
505.123	77
505.34	77
505.557	69
505.773	90
505.99	88
506.207	94
506.423	88
506.64	97
506.856	91
507.073	79
507.289	87
507.506	88
507.722	95
507.939	83
508.155	97
508.372	99
508.588	99
508.805	84
509.021	88
509.238	109
509.454	94
509.67	92
509.887	107
510.103	110
510.319	167
510.536	551
510.752	1673
510.968	493
511.184	112
511.401	88
511.617	102
511.833	93
512.049	97
512.265	93
512.481	86
512.698	98
512.914	86
513.13	95
513.346	95
513.562	83
513.778	104
513.994	97
514.21	103
514.426	110
514.642	123
514.858	116
515.074	133
515.29	312
515.506	968
515.721	359
515.937	126
516.153	107
516.369	89
516.585	100
516.801	75
517.016	83
517.232	97
517.448	91
517.664	97
517.879	98
518.095	89
518.311	80
518.527	81
518.742	90
518.958	91
519.173	90
519.389	100
519.605	97
519.82	103
520.036	101
520.251	112
520.467	106
520.682	96
520.898	87
521.113	100
521.329	117
521.544	149
521.76	387
521.975	1598
522.19	983
522.406	238
522.621	107
522.836	99
523.052	86
523.267	101
523.482	79
523.698	98
523.913	114
524.128	90
524.343	71
524.559	87
524.774	75
524.989	81
525.204	106
525.419	93
525.634	96
525.849	84
526.064	88
526.28	76
526.495	83
526.71	88
526.925	87
527.14	77
527.355	91
527.57	96
527.785	95
527.999	103
528.214	89
528.429	92
528.644	90
528.859	87
529.074	102
529.289	100
529.503	135
529.718	99
529.933	84
530.148	89
530.363	76
530.577	93
530.792	92
531.007	94
531.221	88
531.436	90
531.651	77
531.865	94
532.08	71
532.295	81
532.509	80
532.724	97
532.938	92
533.153	97
533.367	81
533.582	90
533.796	91
534.011	88
534.225	90
534.44	95
534.654	77
534.868	105
535.083	96
535.297	90
535.511	93
535.726	90
535.94	89
536.154	88
536.369	91
536.583	89
536.797	92
537.011	94
537.225	73
537.44	85
537.654	82
537.868	86
538.082	84
538.296	103
538.51	93
538.724	80
538.938	83
539.153	81
539.367	103
539.581	94
539.795	89
540.009	93
540.222	96
540.436	82
540.65	82
540.864	87
541.078	91
541.292	87
541.506	92
541.72	84
541.934	108
542.147	70
542.361	93
542.575	91
542.789	83
543.002	97
543.216	84
543.43	90
543.644	97
543.857	95
544.071	79
544.285	89
544.498	86
544.712	91
544.925	89
545.139	82
545.352	95
545.566	90
545.779	88
545.993	95
546.206	92
546.42	81
546.633	104
546.847	92
547.06	98
547.274	90
547.487	87
547.7	93
547.914	85
548.127	82
548.34	82
548.554	107
548.767	89
548.98	76
549.193	98
549.407	83
549.62	96
549.833	95
550.046	80
550.259	90
550.473	92
550.686	102
550.899	97
551.112	102
551.325	89
551.538	89
551.751	84
551.964	81
552.177	86
552.39	89
552.603	93
552.816	77
553.029	80
553.242	83
553.455	104
553.667	120
553.88	87
554.093	99
554.306	94
554.519	105
554.732	87
554.944	90
555.157	90
555.37	93
555.583	98
555.795	93
556.008	86
556.221	83
556.433	86
556.646	99
556.859	100
557.071	103
557.284	90
557.496	98
557.709	105
557.921	92
558.134	84
558.346	81
558.559	94
558.771	84
558.984	89
559.196	81
559.409	77
559.621	91
559.833	92
560.046	82
560.258	85
560.47	82
560.683	85
560.895	115
561.107	96
561.32	105
561.532	89
561.744	89
561.956	99
562.168	99
562.381	88
562.593	95
562.805	99
563.017	87
563.229	88
563.441	83
563.653	89
563.865	88
564.077	97
564.289	89
564.501	86
564.713	89
564.925	99
565.137	95
565.349	98
565.561	99
565.773	88
565.985	84
566.197	96
566.408	85
566.62	91
566.832	93
567.044	86
567.255	91
567.467	89
567.679	80
567.891	87
568.102	87
568.314	83
568.526	100
568.737	87
568.949	79
569.161	96
569.372	72
569.584	81
569.795	101
570.007	108
570.218	189
570.43	108
570.641	75
570.853	80
571.064	106
571.276	86
571.487	82
571.698	89
571.91	95
572.121	99
572.333	75
572.544	79
572.755	95
572.966	88
573.178	85
573.389	73
573.6	88
573.811	76
574.023	92
574.234	77
574.445	98
574.656	89
574.867	90
575.078	86
575.289	72
575.501	80
575.712	98
575.923	84
576.134	87
576.345	97
576.556	81
576.767	98
576.978	88
577.188	82
577.399	89
577.61	88
577.821	92
578.032	103
578.243	194
578.454	508
578.665	154
578.875	111
579.086	92
579.297	85
579.508	97
579.718	95
579.929	99
580.14	88
580.35	84
580.561	93
580.772	98
580.982	83
581.193	93
581.403	83
581.614	95
581.825	99
582.035	85
582.246	97
582.456	84
582.667	100
582.877	91
583.087	103
583.298	83
583.508	100
583.719	88
583.929	90
584.139	100
584.35	94
584.56	98
584.77	92
584.981	92
585.191	105
585.401	88
