Data from Circ_1984_H10_HRD10591_00053.txt Node
Date: Wed Jan 03 12:22:52 EST 2024
User: Yrep
Spectrometer: HR+D1059
Trigger mode: 1
Integration Time (sec): 1.000000E-1
Scans to average: 1
Electric dark correction enabled: true
Nonlinearity correction enabled: false
Boxcar width: 0
XAxis mode: Wavelengths
Number of Pixels in Spectrum: 2048
>>>>>Begin Spectral Data<<<<<
223.165	-9.44
223.4	-9.44
223.635	-9.44
223.869	-23.44
224.104	-14.44
224.338	-10.44
224.573	-24.44
224.808	-18.44
225.042	-21.44
225.277	-8.44
225.511	0.56
225.746	3.56
225.98	3.56
226.215	7.56
226.449	27.56
226.683	15.56
226.918	29.56
227.152	42.56
227.387	42.56
227.621	33.56
227.856	42.56
228.09	42.56
228.324	59.56
228.559	46.56
228.793	51.56
229.027	65.56
229.262	73.56
229.496	54.56
229.73	80.56
229.964	88.56
230.199	82.56
230.433	86.56
230.667	82.56
230.901	77.56
231.136	78.56
231.37	81.56
231.604	73.56
231.838	83.56
232.072	70.56
232.306	91.56
232.541	77.56
232.775	87.56
233.009	85.56
233.243	97.56
233.477	86.56
233.711	74.56
233.945	81.56
234.179	75.56
234.413	85.56
234.647	83.56
234.881	84.56
235.115	67.56
235.349	67.56
235.583	80.56
235.817	79.56
236.051	75.56
236.285	82.56
236.519	72.56
236.753	71.56
236.987	68.56
237.221	73.56
237.455	80.56
237.689	85.56
237.922	69.56
238.156	71.56
238.39	75.56
238.624	82.56
238.858	85.56
239.091	90.56
239.325	85.56
239.559	91.56
239.793	79.56
240.027	81.56
240.26	89.56
240.494	91.56
240.728	67.56
240.961	74.56
241.195	71.56
241.429	76.56
241.662	84.56
241.896	68.56
242.13	80.56
242.363	90.56
242.597	88.56
242.83	74.56
243.064	77.56
243.298	80.56
243.531	71.56
243.765	70.56
243.998	72.56
244.232	83.56
244.465	77.56
244.699	81.56
244.932	83.56
245.166	87.56
245.399	101.56
245.633	74.56
245.866	79.56
246.099	74.56
246.333	92.56
246.566	83.56
246.8	88.56
247.033	89.56
247.266	82.56
247.5	75.56
247.733	88.56
247.966	68.56
248.2	80.56
248.433	75.56
248.666	68.56
248.899	86.56
249.133	89.56
249.366	99.56
249.599	89.56
249.832	93.56
250.066	81.56
250.299	88.56
250.532	72.56
250.765	81.56
250.998	85.56
251.231	85.56
251.465	71.56
251.698	85.56
251.931	69.56
252.164	75.56
252.397	75.56
252.63	86.56
252.863	103.56
253.096	84.56
253.329	87.56
253.562	81.56
253.795	82.56
254.028	87.56
254.261	83.56
254.494	90.56
254.727	87.56
254.96	102.56
255.193	73.56
255.426	85.56
255.659	72.56
255.892	84.56
256.124	84.56
256.357	89.56
256.59	100.56
256.823	88.56
257.056	75.56
257.289	83.56
257.521	76.56
257.754	67.56
257.987	75.56
258.22	96.56
258.452	89.56
258.685	81.56
258.918	76.56
259.151	87.56
259.383	81.56
259.616	75.56
259.849	72.56
260.081	91.56
260.314	93.56
260.547	95.56
260.779	75.56
261.012	81.56
261.244	85.56
261.477	98.56
261.71	95.56
261.942	91.56
262.175	88.56
262.407	83.56
262.64	93.56
262.872	99.56
263.105	88.56
263.337	85.56
263.57	89.56
263.802	73.56
264.035	92.56
264.267	92.56
264.499	75.56
264.732	77.56
264.964	80.56
265.197	80.56
265.429	79.56
265.661	89.56
265.894	96.56
266.126	91.56
266.358	83.56
266.591	81.56
266.823	85.56
267.055	81.56
267.287	79.56
267.52	83.56
267.752	79.56
267.984	79.56
268.216	96.56
268.448	79.56
268.681	81.56
268.913	86.56
269.145	72.56
269.377	113.56
269.609	91.56
269.841	71.56
270.073	81.56
270.306	83.56
270.538	91.56
270.77	80.56
271.002	81.56
271.234	95.56
271.466	85.56
271.698	83.56
271.93	80.56
272.162	81.56
272.394	100.56
272.626	84.56
272.858	74.56
273.09	73.56
273.322	98.56
273.553	99.56
273.785	94.56
274.017	94.56
274.249	93.56
274.481	86.56
274.713	75.56
274.945	85.56
275.176	86.56
275.408	81.56
275.64	86.56
275.872	95.56
276.104	79.56
276.335	99.56
276.567	104.56
276.799	92.56
277.031	97.56
277.262	113.56
277.494	91.56
277.726	88.56
277.957	96.56
278.189	79.56
278.421	88.56
278.652	83.56
278.884	83.56
279.115	92.56
279.347	98.56
279.579	95.56
279.81	85.56
280.042	104.56
280.273	98.56
280.505	105.56
280.736	90.56
280.968	87.56
281.199	82.56
281.431	75.56
281.662	84.56
281.894	81.56
282.125	91.56
282.356	105.56
282.588	124.56
282.819	115.56
283.051	97.56
283.282	96.56
283.513	93.56
283.745	76.56
283.976	99.56
284.207	90.56
284.439	83.56
284.67	95.56
284.901	89.56
285.132	97.56
285.364	73.56
285.595	84.56
285.826	78.56
286.057	81.56
286.288	82.56
286.52	72.56
286.751	89.56
286.982	89.56
287.213	75.56
287.444	91.56
287.675	80.56
287.906	91.56
288.138	108.56
288.369	101.56
288.6	95.56
288.831	95.56
289.062	80.56
289.293	81.56
289.524	87.56
289.755	97.56
289.986	92.56
290.217	90.56
290.448	103.56
290.679	87.56
290.91	76.56
291.141	83.56
291.371	100.56
291.602	88.56
291.833	84.56
292.064	81.56
292.295	92.56
292.526	102.56
292.757	76.56
292.987	77.56
293.218	89.56
293.449	85.56
293.68	85.56
293.91	80.56
294.141	90.56
294.372	84.56
294.603	81.56
294.833	88.56
295.064	81.56
295.295	83.56
295.525	89.56
295.756	91.56
295.987	103.56
296.217	113.56
296.448	107.56
296.679	99.56
296.909	88.56
297.14	80.56
297.37	89.56
297.601	89.56
297.831	87.56
298.062	84.56
298.292	83.56
298.523	84.56
298.753	94.56
298.984	99.56
299.214	86.56
299.445	96.56
299.675	95.56
299.905	96.56
300.136	104.56
300.366	88.56
300.597	89.56
300.827	79.56
301.057	105.56
301.288	93.56
301.518	92.56
301.748	98.56
301.979	116.56
302.209	102.56
302.439	100.56
302.669	102.56
302.9	91.56
303.13	90.56
303.36	90.56
303.59	103.56
303.82	108.56
304.051	101.56
304.281	100.56
304.511	95.56
304.741	90.56
304.971	85.56
305.201	87.56
305.431	96.56
305.661	91.56
305.891	95.56
306.121	105.56
306.352	105.56
306.582	98.56
306.812	97.56
307.042	104.56
307.272	98.56
307.502	111.56
307.731	98.56
307.961	96.56
308.191	96.56
308.421	95.56
308.651	90.56
308.881	97.56
309.111	87.56
309.341	91.56
309.571	105.56
309.8	92.56
310.03	98.56
310.26	101.56
310.49	83.56
310.72	103.56
310.949	87.56
311.179	97.56
311.409	88.56
311.639	96.56
311.868	97.56
312.098	107.56
312.328	116.56
312.557	101.56
312.787	103.56
313.017	103.56
313.246	87.56
313.476	100.56
313.706	95.56
313.935	83.56
314.165	100.56
314.394	94.56
314.624	89.56
314.853	89.56
315.083	86.56
315.312	87.56
315.542	88.56
315.771	96.56
316.001	92.56
316.23	96.56
316.46	105.56
316.689	92.56
316.919	105.56
317.148	99.56
317.377	95.56
317.607	88.56
317.836	92.56
318.065	98.56
318.295	98.56
318.524	83.56
318.753	89.56
318.983	88.56
319.212	90.56
319.441	108.56
319.67	98.56
319.9	100.56
320.129	90.56
320.358	92.56
320.587	99.56
320.816	90.56
321.046	112.56
321.275	104.56
321.504	100.56
321.733	99.56
321.962	77.56
322.191	90.56
322.42	104.56
322.649	108.56
322.878	100.56
323.108	103.56
323.337	111.56
323.566	128.56
323.795	143.56
324.024	172.56
324.253	304.56
324.482	651.56
324.71	1318.56
324.939	1751.56
325.168	667.56
325.397	197.56
325.626	146.56
325.855	106.56
326.084	133.56
326.313	130.56
326.542	142.56
326.77	179.56
326.999	375.56
327.228	748.56
327.457	1324.56
327.686	1083.56
327.914	331.56
328.143	200.56
328.372	191.56
328.6	136.56
328.829	123.56
329.058	98.56
329.287	111.56
329.515	91.56
329.744	133.56
329.972	145.56
330.201	199.56
330.43	233.56
330.658	156.56
330.887	124.56
331.115	119.56
331.344	108.56
331.572	100.56
331.801	115.56
332.03	99.56
332.258	93.56
332.486	93.56
332.715	99.56
332.943	92.56
333.172	89.56
333.4	92.56
333.629	113.56
333.857	114.56
334.085	139.56
334.314	202.56
334.542	301.56
334.771	276.56
334.999	146.56
335.227	104.56
335.455	95.56
335.684	98.56
335.912	102.56
336.14	100.56
336.369	75.56
336.597	92.56
336.825	97.56
337.053	92.56
337.281	84.56
337.51	95.56
337.738	80.56
337.966	88.56
338.194	108.56
338.422	99.56
338.65	84.56
338.878	87.56
339.106	85.56
339.334	87.56
339.562	84.56
339.79	93.56
340.018	77.56
340.246	77.56
340.474	91.56
340.702	75.56
340.93	96.56
341.158	89.56
341.386	91.56
341.614	89.56
341.842	87.56
342.07	102.56
342.298	80.56
342.526	83.56
342.754	85.56
342.981	97.56
343.209	98.56
343.437	108.56
343.665	96.56
343.893	80.56
344.12	93.56
344.348	102.56
344.576	98.56
344.804	91.56
345.031	96.56
345.259	99.56
345.487	98.56
345.714	101.56
345.942	108.56
346.17	101.56
346.397	93.56
346.625	91.56
346.853	91.56
347.08	84.56
347.308	92.56
347.535	101.56
347.763	106.56
347.99	97.56
348.218	92.56
348.445	90.56
348.673	106.56
348.9	94.56
349.128	95.56
349.355	85.56
349.583	103.56
349.81	103.56
350.037	96.56
350.265	95.56
350.492	95.56
350.72	92.56
350.947	100.56
351.174	92.56
351.402	103.56
351.629	85.56
351.856	100.56
352.083	92.56
352.311	111.56
352.538	102.56
352.765	97.56
352.992	106.56
353.22	105.56
353.447	96.56
353.674	93.56
353.901	100.56
354.128	100.56
354.355	89.56
354.583	103.56
354.81	87.56
355.037	96.56
355.264	88.56
355.491	80.56
355.718	98.56
355.945	92.56
356.172	111.56
356.399	101.56
356.626	95.56
356.853	88.56
357.08	81.56
357.307	102.56
357.534	97.56
357.761	102.56
357.988	95.56
358.215	93.56
358.441	102.56
358.668	101.56
358.895	93.56
359.122	91.56
359.349	94.56
359.576	81.56
359.802	107.56
360.029	97.56
360.256	111.56
360.483	96.56
360.709	96.56
360.936	85.56
361.163	86.56
361.39	106.56
361.616	92.56
361.843	86.56
362.07	93.56
362.296	90.56
362.523	93.56
362.749	82.56
362.976	94.56
363.203	86.56
363.429	81.56
363.656	81.56
363.882	81.56
364.109	84.56
364.335	96.56
364.562	83.56
364.788	91.56
365.015	89.56
365.241	97.56
365.468	101.56
365.694	100.56
365.92	109.56
366.147	91.56
366.373	75.56
366.599	90.56
366.826	104.56
367.052	95.56
367.278	91.56
367.505	96.56
367.731	83.56
367.957	106.56
368.184	96.56
368.41	89.56
368.636	111.56
368.862	108.56
369.089	87.56
369.315	97.56
369.541	86.56
369.767	77.56
369.993	80.56
370.219	87.56
370.445	81.56
370.672	76.56
370.898	75.56
371.124	99.56
371.35	91.56
371.576	92.56
371.802	76.56
372.028	91.56
372.254	101.56
372.48	107.56
372.706	82.56
372.932	98.56
373.158	91.56
373.384	95.56
373.61	83.56
373.835	80.56
374.061	91.56
374.287	91.56
374.513	93.56
374.739	79.56
374.965	85.56
375.191	79.56
375.416	91.56
375.642	85.56
375.868	79.56
376.094	87.56
376.319	89.56
376.545	94.56
376.771	86.56
376.997	86.56
377.222	95.56
377.448	72.56
377.674	100.56
377.899	92.56
378.125	89.56
378.35	93.56
378.576	93.56
378.802	89.56
379.027	97.56
379.253	89.56
379.478	91.56
379.704	95.56
379.929	95.56
380.155	102.56
380.38	83.56
380.606	102.56
380.831	91.56
381.057	88.56
381.282	106.56
381.507	102.56
381.733	91.56
381.958	91.56
382.184	92.56
382.409	104.56
382.634	103.56
382.86	91.56
383.085	97.56
383.31	99.56
383.535	91.56
383.761	98.56
383.986	90.56
384.211	108.56
384.436	102.56
384.662	92.56
384.887	101.56
385.112	87.56
385.337	101.56
385.562	103.56
385.787	97.56
386.013	104.56
386.238	113.56
386.463	103.56
386.688	112.56
386.913	97.56
387.138	96.56
387.363	107.56
387.588	100.56
387.813	98.56
388.038	100.56
388.263	104.56
388.488	102.56
388.713	99.56
388.938	100.56
389.163	104.56
389.387	88.56
389.612	90.56
389.837	87.56
390.062	84.56
390.287	93.56
390.512	85.56
390.736	108.56
390.961	75.56
391.186	90.56
391.411	97.56
391.636	93.56
391.86	81.56
392.085	80.56
392.31	85.56
392.534	87.56
392.759	77.56
392.984	95.56
393.208	86.56
393.433	104.56
393.658	88.56
393.882	77.56
394.107	79.56
394.331	87.56
394.556	87.56
394.78	92.56
395.005	67.56
395.229	76.56
395.454	78.56
395.678	83.56
395.903	96.56
396.127	92.56
396.352	82.56
396.576	84.56
396.801	86.56
397.025	95.56
397.249	87.56
397.474	97.56
397.698	108.56
397.922	90.56
398.147	90.56
398.371	84.56
398.595	91.56
398.82	72.56
399.044	74.56
399.268	107.56
399.492	87.56
399.717	91.56
399.941	82.56
400.165	96.56
400.389	89.56
400.613	87.56
400.837	73.56
401.062	84.56
401.286	79.56
401.51	92.56
401.734	88.56
401.958	89.56
402.182	116.56
402.406	147.56
402.63	99.56
402.854	75.56
403.078	83.56
403.302	81.56
403.526	84.56
403.75	90.56
403.974	83.56
404.198	93.56
404.422	83.56
404.645	103.56
404.869	97.56
405.093	80.56
405.317	95.56
405.541	99.56
405.765	92.56
405.988	99.56
406.212	139.56
406.436	198.56
406.66	135.56
406.883	97.56
407.107	94.56
407.331	96.56
407.555	97.56
407.778	90.56
408.002	90.56
408.226	87.56
408.449	88.56
408.673	88.56
408.896	100.56
409.12	88.56
409.344	72.56
409.567	99.56
409.791	90.56
410.014	91.56
410.238	95.56
410.461	91.56
410.685	87.56
410.908	98.56
411.132	105.56
411.355	95.56
411.578	63.56
411.802	85.56
412.025	88.56
412.249	95.56
412.472	99.56
412.695	85.56
412.919	81.56
413.142	95.56
413.365	84.56
413.589	88.56
413.812	81.56
414.035	87.56
414.258	85.56
414.482	93.56
414.705	88.56
414.928	81.56
415.151	95.56
415.374	92.56
415.597	83.56
415.821	83.56
416.044	102.56
416.267	81.56
416.49	87.56
416.713	75.56
416.936	83.56
417.159	83.56
417.382	88.56
417.605	90.56
417.828	103.56
418.051	89.56
418.274	76.56
418.497	75.56
418.72	101.56
418.943	75.56
419.166	85.56
419.389	80.56
419.611	82.56
419.834	90.56
420.057	95.56
420.28	81.56
420.503	82.56
420.726	81.56
420.948	77.56
421.171	95.56
421.394	75.56
421.617	105.56
421.839	104.56
422.062	87.56
422.285	81.56
422.507	104.56
422.73	97.56
422.953	88.56
423.175	84.56
423.398	78.56
423.621	86.56
423.843	77.56
424.066	93.56
424.288	77.56
424.511	89.56
424.733	95.56
424.956	92.56
425.178	96.56
425.401	95.56
425.623	97.56
425.846	92.56
426.068	91.56
426.291	95.56
426.513	99.56
426.735	82.56
426.958	90.56
427.18	101.56
427.402	119.56
427.625	141.56
427.847	129.56
428.069	114.56
428.292	82.56
428.514	80.56
428.736	90.56
428.958	88.56
429.181	89.56
429.403	85.56
429.625	93.56
429.847	93.56
430.069	94.56
430.292	85.56
430.514	95.56
430.736	83.56
430.958	90.56
431.18	83.56
431.402	87.56
431.624	72.56
431.846	88.56
432.068	104.56
432.29	86.56
432.512	99.56
432.734	89.56
432.956	91.56
433.178	99.56
433.4	107.56
433.622	84.56
433.844	84.56
434.066	85.56
434.287	61.56
434.509	80.56
434.731	92.56
434.953	69.56
435.175	103.56
435.397	109.56
435.618	86.56
435.84	97.56
436.062	108.56
436.284	88.56
436.505	83.56
436.727	109.56
436.949	90.56
437.17	72.56
437.392	86.56
437.614	96.56
437.835	102.56
438.057	109.56
438.278	103.56
438.5	92.56
438.721	99.56
438.943	104.56
439.165	93.56
439.386	89.56
439.608	86.56
439.829	94.56
440.05	106.56
440.272	128.56
440.493	106.56
440.715	100.56
440.936	85.56
441.158	80.56
441.379	95.56
441.6	87.56
441.822	95.56
442.043	90.56
442.264	93.56
442.486	99.56
442.707	102.56
442.928	100.56
443.149	122.56
443.371	121.56
443.592	109.56
443.813	100.56
444.034	101.56
444.255	87.56
444.476	84.56
444.698	86.56
444.919	97.56
445.14	132.56
445.361	118.56
445.582	99.56
445.803	120.56
446.024	130.56
446.245	104.56
446.466	101.56
446.687	99.56
446.908	89.56
447.129	82.56
447.35	93.56
447.571	93.56
447.792	91.56
448.013	104.56
448.234	106.56
448.455	90.56
448.675	102.56
448.896	102.56
449.117	93.56
449.338	115.56
449.559	124.56
449.779	115.56
450	94.56
450.221	89.56
450.442	83.56
450.662	87.56
450.883	101.56
451.104	113.56
451.324	109.56
451.545	69.56
451.766	90.56
451.986	83.56
452.207	85.56
452.428	93.56
452.648	97.56
452.869	105.56
453.089	104.56
453.31	109.56
453.53	86.56
453.751	88.56
453.971	94.56
454.192	104.56
454.412	85.56
454.633	96.56
454.853	100.56
455.073	88.56
455.294	92.56
455.514	91.56
455.734	84.56
455.955	77.56
456.175	95.56
456.395	80.56
456.616	83.56
456.836	78.56
457.056	88.56
457.276	73.56
457.497	92.56
457.717	84.56
457.937	95.56
458.157	86.56
458.377	90.56
458.598	104.56
458.818	132.56
459.038	127.56
459.258	101.56
459.478	92.56
459.698	85.56
459.918	82.56
460.138	75.56
460.358	74.56
460.578	91.56
460.798	108.56
461.018	88.56
461.238	89.56
461.458	84.56
461.678	74.56
461.898	95.56
462.118	84.56
462.338	91.56
462.558	87.56
462.777	98.56
462.997	89.56
463.217	93.56
463.437	72.56
463.657	88.56
463.876	79.56
464.096	81.56
464.316	91.56
464.536	88.56
464.755	96.56
464.975	106.56
465.195	137.56
465.414	136.56
465.634	79.56
465.854	87.56
466.073	86.56
466.293	80.56
466.512	85.56
466.732	90.56
466.951	80.56
467.171	104.56
467.391	96.56
467.61	112.56
467.829	107.56
468.049	142.56
468.268	173.56
468.488	95.56
468.707	93.56
468.927	83.56
469.146	90.56
469.365	100.56
469.585	91.56
469.804	91.56
470.023	98.56
470.243	92.56
470.462	92.56
470.681	93.56
470.901	92.56
471.12	75.56
471.339	96.56
471.558	87.56
471.777	100.56
471.997	115.56
472.216	214.56
472.435	368.56
472.654	148.56
472.873	91.56
473.092	85.56
473.311	82.56
473.53	100.56
473.749	91.56
473.968	92.56
474.187	98.56
474.406	104.56
474.625	81.56
474.844	90.56
475.063	73.56
475.282	89.56
475.501	95.56
475.72	95.56
475.939	83.56
476.158	100.56
476.377	86.56
476.596	86.56
476.814	101.56
477.033	97.56
477.252	82.56
477.471	85.56
477.69	100.56
477.908	112.56
478.127	96.56
478.346	85.56
478.564	84.56
478.783	90.56
479.002	90.56
479.22	98.56
479.439	100.56
479.658	93.56
479.876	98.56
480.095	88.56
480.313	95.56
480.532	105.56
480.751	98.56
480.969	207.56
481.188	609.56
481.406	380.56
481.624	127.56
481.843	109.56
482.061	104.56
482.28	79.56
482.498	94.56
482.717	74.56
482.935	76.56
483.153	106.56
483.372	98.56
483.59	88.56
483.808	94.56
484.027	95.56
484.245	106.56
484.463	86.56
484.681	90.56
484.9	97.56
485.118	91.56
485.336	81.56
485.554	111.56
485.772	98.56
485.99	97.56
486.209	105.56
486.427	99.56
486.645	100.56
486.863	104.56
487.081	100.56
487.299	92.56
487.517	80.56
487.735	97.56
487.953	74.56
488.171	93.56
488.389	82.56
488.607	84.56
488.825	91.56
489.043	87.56
489.261	108.56
489.479	93.56
489.696	85.56
489.914	91.56
490.132	72.56
490.35	73.56
490.568	95.56
490.786	100.56
491.003	75.56
491.221	88.56
491.439	83.56
491.657	79.56
491.874	84.56
492.092	81.56
492.31	85.56
492.527	93.56
492.745	88.56
492.963	86.56
493.18	101.56
493.398	99.56
493.615	95.56
493.833	85.56
494.05	91.56
494.268	89.56
494.485	86.56
494.703	90.56
494.92	103.56
495.138	84.56
495.355	93.56
495.573	103.56
495.79	72.56
496.008	90.56
496.225	88.56
496.442	92.56
496.66	95.56
496.877	76.56
497.094	91.56
497.312	102.56
497.529	76.56
497.746	96.56
497.963	87.56
498.181	88.56
498.398	101.56
498.615	97.56
498.832	107.56
499.049	97.56
499.267	109.56
499.484	86.56
499.701	76.56
499.918	76.56
500.135	81.56
500.352	89.56
500.569	76.56
500.786	87.56
501.003	83.56
501.22	97.56
501.437	93.56
501.654	104.56
501.871	111.56
502.088	93.56
502.305	91.56
502.522	84.56
502.739	92.56
502.956	87.56
503.172	93.56
503.389	74.56
503.606	98.56
503.823	93.56
504.04	81.56
504.256	98.56
504.473	91.56
504.69	93.56
504.907	97.56
505.123	95.56
505.34	81.56
505.557	84.56
505.773	85.56
505.99	101.56
506.207	83.56
506.423	74.56
506.64	91.56
506.856	99.56
507.073	96.56
507.289	99.56
507.506	93.56
507.722	107.56
507.939	95.56
508.155	96.56
508.372	92.56
508.588	93.56
508.805	88.56
509.021	80.56
509.238	81.56
509.454	97.56
509.67	104.56
509.887	111.56
510.103	121.56
510.319	191.56
510.536	587.56
510.752	1834.56
510.968	513.56
511.184	131.56
511.401	105.56
511.617	99.56
511.833	97.56
512.049	83.56
512.265	106.56
512.481	91.56
512.698	100.56
512.914	104.56
513.13	98.56
513.346	94.56
513.562	94.56
513.778	96.56
513.994	92.56
514.21	106.56
514.426	116.56
514.642	119.56
514.858	123.56
515.074	130.56
515.29	320.56
515.506	1088.56
515.721	404.56
