Data from Circ_1984_H10_HRD10591_00003.txt Node
Date: Wed Jan 03 12:22:42 EST 2024
User: Yrep
Spectrometer: HR+D1059
Trigger mode: 1
Integration Time (sec): 1.000000E-1
Scans to average: 1
Electric dark correction enabled: true
Nonlinearity correction enabled: false
Boxcar width: 0
XAxis mode: Wavelengths
Number of Pixels in Spectrum: 2048
>>>>>Begin Spectral Data<<<<<
223.165	-26.12
223.4	-26.12
223.635	-26.12
223.869	-28.12
224.104	-19.12
224.338	-22.12
224.573	-22.12
224.808	-5.12
225.042	-0.12
225.277	1.88
225.511	-9.12
225.746	-0.12
225.98	18.88
226.215	4.88
226.449	27.88
226.683	11.88
226.918	32.88
227.152	33.88
227.387	31.88
227.621	27.88
227.856	43.88
228.09	64.88
228.324	64.88
228.559	52.88
228.793	58.88
229.027	69.88
229.262	45.88
229.496	64.88
229.73	72.88
229.964	69.88
230.199	62.88
230.433	76.88
230.667	81.88
230.901	71.88
231.136	82.88
231.37	83.88
231.604	82.88
231.838	88.88
232.072	70.88
232.306	88.88
232.541	71.88
232.775	77.88
233.009	72.88
233.243	84.88
233.477	75.88
233.711	93.88
233.945	78.88
234.179	71.88
234.413	70.88
234.647	72.88
234.881	76.88
235.115	85.88
235.349	78.88
235.583	83.88
235.817	87.88
236.051	80.88
236.285	76.88
236.519	81.88
236.753	79.88
236.987	78.88
237.221	87.88
237.455	91.88
237.689	64.88
237.922	70.88
238.156	84.88
238.39	73.88
238.624	71.88
238.858	68.88
239.091	77.88
239.325	56.88
239.559	62.88
239.793	76.88
240.027	79.88
240.26	68.88
240.494	83.88
240.728	73.88
240.961	84.88
241.195	78.88
241.429	72.88
241.662	83.88
241.896	72.88
242.13	77.88
242.363	81.88
242.597	77.88
242.83	79.88
243.064	76.88
243.298	78.88
243.531	88.88
243.765	82.88
243.998	82.88
244.232	75.88
244.465	69.88
244.699	81.88
244.932	74.88
245.166	79.88
245.399	89.88
245.633	80.88
245.866	86.88
246.099	81.88
246.333	81.88
246.566	79.88
246.8	73.88
247.033	75.88
247.266	80.88
247.5	62.88
247.733	84.88
247.966	69.88
248.2	80.88
248.433	70.88
248.666	76.88
248.899	85.88
249.133	79.88
249.366	90.88
249.599	81.88
249.832	69.88
250.066	77.88
250.299	67.88
250.532	68.88
250.765	72.88
250.998	79.88
251.231	85.88
251.465	83.88
251.698	79.88
251.931	82.88
252.164	79.88
252.397	88.88
252.63	91.88
252.863	73.88
253.096	79.88
253.329	76.88
253.562	78.88
253.795	78.88
254.028	69.88
254.261	83.88
254.494	77.88
254.727	83.88
254.96	76.88
255.193	85.88
255.426	73.88
255.659	83.88
255.892	70.88
256.124	66.88
256.357	72.88
256.59	78.88
256.823	67.88
257.056	77.88
257.289	70.88
257.521	80.88
257.754	71.88
257.987	85.88
258.22	94.88
258.452	70.88
258.685	71.88
258.918	76.88
259.151	78.88
259.383	71.88
259.616	92.88
259.849	68.88
260.081	83.88
260.314	75.88
260.547	73.88
260.779	80.88
261.012	70.88
261.244	78.88
261.477	78.88
261.71	100.88
261.942	105.88
262.175	87.88
262.407	81.88
262.64	78.88
262.872	71.88
263.105	77.88
263.337	86.88
263.57	84.88
263.802	82.88
264.035	78.88
264.267	81.88
264.499	77.88
264.732	78.88
264.964	71.88
265.197	66.88
265.429	89.88
265.661	77.88
265.894	84.88
266.126	87.88
266.358	75.88
266.591	80.88
266.823	68.88
267.055	87.88
267.287	91.88
267.52	68.88
267.752	81.88
267.984	80.88
268.216	88.88
268.448	91.88
268.681	83.88
268.913	64.88
269.145	68.88
269.377	68.88
269.609	71.88
269.841	81.88
270.073	88.88
270.306	91.88
270.538	86.88
270.77	80.88
271.002	75.88
271.234	84.88
271.466	83.88
271.698	73.88
271.93	80.88
272.162	101.88
272.394	74.88
272.626	84.88
272.858	81.88
273.09	75.88
273.322	86.88
273.553	89.88
273.785	79.88
274.017	90.88
274.249	81.88
274.481	59.88
274.713	91.88
274.945	82.88
275.176	82.88
275.408	82.88
275.64	94.88
275.872	89.88
276.104	80.88
276.335	89.88
276.567	97.88
276.799	93.88
277.031	87.88
277.262	80.88
277.494	88.88
277.726	90.88
277.957	78.88
278.189	70.88
278.421	87.88
278.652	87.88
278.884	78.88
279.115	79.88
279.347	87.88
279.579	85.88
279.81	89.88
280.042	80.88
280.273	80.88
280.505	97.88
280.736	79.88
280.968	80.88
281.199	83.88
281.431	70.88
281.662	83.88
281.894	84.88
282.125	100.88
282.356	92.88
282.588	118.88
282.819	98.88
283.051	78.88
283.282	84.88
283.513	97.88
283.745	75.88
283.976	70.88
284.207	77.88
284.439	72.88
284.67	86.88
284.901	72.88
285.132	81.88
285.364	100.88
285.595	85.88
285.826	74.88
286.057	82.88
286.288	84.88
286.52	100.88
286.751	83.88
286.982	81.88
287.213	69.88
287.444	81.88
287.675	89.88
287.906	82.88
288.138	88.88
288.369	91.88
288.6	92.88
288.831	93.88
289.062	84.88
289.293	77.88
289.524	84.88
289.755	81.88
289.986	67.88
290.217	77.88
290.448	83.88
290.679	82.88
290.91	85.88
291.141	77.88
291.371	93.88
291.602	77.88
291.833	83.88
292.064	89.88
292.295	80.88
292.526	90.88
292.757	72.88
292.987	84.88
293.218	83.88
293.449	94.88
293.68	87.88
293.91	95.88
294.141	83.88
294.372	82.88
294.603	84.88
294.833	95.88
295.064	91.88
295.295	76.88
295.525	75.88
295.756	86.88
295.987	105.88
296.217	121.88
296.448	113.88
296.679	83.88
296.909	79.88
297.14	78.88
297.37	81.88
297.601	87.88
297.831	85.88
298.062	71.88
298.292	78.88
298.523	86.88
298.753	89.88
298.984	90.88
299.214	79.88
299.445	98.88
299.675	77.88
299.905	98.88
300.136	86.88
300.366	88.88
300.597	89.88
300.827	95.88
301.057	79.88
301.288	80.88
301.518	77.88
301.748	76.88
301.979	98.88
302.209	94.88
302.439	90.88
302.669	92.88
302.9	85.88
303.13	85.88
303.36	80.88
303.59	88.88
303.82	100.88
304.051	89.88
304.281	86.88
304.511	98.88
304.741	83.88
304.971	96.88
305.201	89.88
305.431	80.88
305.661	72.88
305.891	85.88
306.121	99.88
306.352	84.88
306.582	92.88
306.812	95.88
307.042	93.88
307.272	93.88
307.502	83.88
307.731	92.88
307.961	87.88
308.191	87.88
308.421	96.88
308.651	90.88
308.881	89.88
309.111	82.88
309.341	94.88
309.571	96.88
309.8	91.88
310.03	92.88
310.26	99.88
310.49	86.88
310.72	100.88
310.949	113.88
311.179	91.88
311.409	99.88
311.639	96.88
311.868	106.88
312.098	87.88
312.328	104.88
312.557	98.88
312.787	92.88
313.017	100.88
313.246	92.88
313.476	84.88
313.706	85.88
313.935	82.88
314.165	88.88
314.394	89.88
314.624	105.88
314.853	101.88
315.083	85.88
315.312	73.88
315.542	75.88
315.771	96.88
316.001	79.88
316.23	88.88
316.46	93.88
316.689	100.88
316.919	98.88
317.148	79.88
317.377	81.88
317.607	88.88
317.836	78.88
318.065	84.88
318.295	80.88
318.524	64.88
318.753	81.88
318.983	96.88
319.212	99.88
319.441	80.88
319.67	87.88
319.9	84.88
320.129	88.88
320.358	95.88
320.587	84.88
320.816	94.88
321.046	87.88
321.275	101.88
321.504	80.88
321.733	102.88
321.962	76.88
322.191	88.88
322.42	103.88
322.649	87.88
322.878	111.88
323.108	104.88
323.337	109.88
323.566	110.88
323.795	131.88
324.024	166.88
324.253	291.88
324.482	603.88
324.71	1219.88
324.939	1627.88
325.168	600.88
325.397	205.88
325.626	131.88
325.855	122.88
326.084	111.88
326.313	125.88
326.542	123.88
326.77	190.88
326.999	329.88
327.228	674.88
327.457	1247.88
327.686	1008.88
327.914	285.88
328.143	165.88
328.372	118.88
328.6	122.88
328.829	99.88
329.058	115.88
329.287	106.88
329.515	105.88
329.744	113.88
329.972	102.88
330.201	115.88
330.43	130.88
330.658	109.88
330.887	105.88
331.115	98.88
331.344	99.88
331.572	97.88
331.801	84.88
332.03	95.88
332.258	89.88
332.486	88.88
332.715	95.88
332.943	81.88
333.172	89.88
333.4	87.88
333.629	85.88
333.857	104.88
334.085	98.88
334.314	100.88
334.542	131.88
334.771	121.88
334.999	96.88
335.227	93.88
335.455	99.88
335.684	87.88
335.912	101.88
336.14	99.88
336.369	91.88
336.597	92.88
336.825	96.88
337.053	83.88
337.281	91.88
337.51	82.88
337.738	99.88
337.966	90.88
338.194	80.88
338.422	93.88
338.65	87.88
338.878	91.88
339.106	91.88
339.334	85.88
339.562	95.88
339.79	95.88
340.018	95.88
340.246	97.88
340.474	87.88
340.702	88.88
340.93	105.88
341.158	92.88
341.386	85.88
341.614	90.88
341.842	94.88
342.07	92.88
342.298	88.88
342.526	95.88
342.754	88.88
342.981	97.88
343.209	85.88
343.437	107.88
343.665	79.88
343.893	87.88
344.12	84.88
344.348	93.88
344.576	87.88
344.804	78.88
345.031	82.88
345.259	106.88
345.487	89.88
345.714	80.88
345.942	73.88
346.17	107.88
346.397	84.88
346.625	94.88
346.853	100.88
347.08	86.88
347.308	95.88
347.535	81.88
347.763	90.88
347.99	95.88
348.218	89.88
348.445	89.88
348.673	93.88
348.9	79.88
349.128	95.88
349.355	84.88
349.583	75.88
349.81	83.88
350.037	96.88
350.265	101.88
350.492	93.88
350.72	97.88
350.947	88.88
351.174	95.88
351.402	124.88
351.629	83.88
351.856	100.88
352.083	85.88
352.311	89.88
352.538	103.88
352.765	111.88
352.992	98.88
353.22	94.88
353.447	101.88
353.674	105.88
353.901	90.88
354.128	77.88
354.355	80.88
354.583	96.88
354.81	102.88
355.037	97.88
355.264	84.88
355.491	78.88
355.718	89.88
355.945	87.88
356.172	102.88
356.399	89.88
356.626	76.88
356.853	97.88
357.08	83.88
357.307	88.88
357.534	87.88
357.761	99.88
357.988	87.88
358.215	91.88
358.441	101.88
358.668	91.88
358.895	102.88
359.122	88.88
359.349	92.88
359.576	94.88
359.802	95.88
360.029	88.88
360.256	103.88
360.483	96.88
360.709	88.88
360.936	103.88
361.163	92.88
361.39	91.88
361.616	101.88
361.843	80.88
362.07	93.88
362.296	83.88
362.523	71.88
362.749	102.88
362.976	99.88
363.203	85.88
363.429	96.88
363.656	87.88
363.882	88.88
364.109	89.88
364.335	86.88
364.562	83.88
364.788	85.88
365.015	81.88
365.241	102.88
365.468	90.88
365.694	96.88
365.92	95.88
366.147	81.88
366.373	74.88
366.599	83.88
366.826	90.88
367.052	80.88
367.278	92.88
367.505	97.88
367.731	89.88
367.957	82.88
368.184	83.88
368.41	95.88
368.636	104.88
368.862	98.88
369.089	102.88
369.315	90.88
369.541	85.88
369.767	85.88
369.993	96.88
370.219	92.88
370.445	69.88
370.672	65.88
370.898	75.88
371.124	72.88
371.35	87.88
371.576	79.88
371.802	88.88
372.028	93.88
372.254	89.88
372.48	85.88
372.706	80.88
372.932	86.88
373.158	94.88
373.384	86.88
373.61	79.88
373.835	93.88
374.061	94.88
374.287	98.88
374.513	89.88
374.739	73.88
374.965	93.88
375.191	82.88
375.416	95.88
375.642	89.88
375.868	87.88
376.094	90.88
376.319	91.88
376.545	81.88
376.771	79.88
376.997	72.88
377.222	89.88
377.448	85.88
377.674	94.88
377.899	76.88
378.125	87.88
378.35	103.88
378.576	87.88
378.802	69.88
379.027	89.88
379.253	81.88
379.478	96.88
379.704	86.88
379.929	77.88
380.155	96.88
380.38	106.88
380.606	112.88
380.831	80.88
381.057	107.88
381.282	89.88
381.507	89.88
381.733	81.88
381.958	100.88
382.184	94.88
382.409	94.88
382.634	81.88
382.86	96.88
383.085	109.88
383.31	109.88
383.535	93.88
383.761	113.88
383.986	90.88
384.211	96.88
384.436	111.88
384.662	90.88
384.887	116.88
385.112	130.88
385.337	120.88
385.562	102.88
385.787	108.88
386.013	121.88
386.238	113.88
386.463	115.88
386.688	110.88
386.913	113.88
387.138	113.88
387.363	96.88
387.588	96.88
387.813	106.88
388.038	107.88
388.263	121.88
388.488	109.88
388.713	98.88
388.938	86.88
389.163	81.88
389.387	98.88
389.612	91.88
389.837	98.88
390.062	97.88
390.287	77.88
390.512	91.88
390.736	85.88
390.961	84.88
391.186	106.88
391.411	85.88
391.636	75.88
391.86	72.88
392.085	77.88
392.31	79.88
392.534	84.88
392.759	78.88
392.984	88.88
393.208	93.88
393.433	100.88
393.658	102.88
393.882	92.88
394.107	86.88
394.331	92.88
394.556	89.88
394.78	89.88
395.005	86.88
395.229	97.88
395.454	86.88
395.678	76.88
395.903	93.88
396.127	85.88
396.352	94.88
396.576	95.88
396.801	89.88
397.025	111.88
397.249	79.88
397.474	80.88
397.698	87.88
397.922	88.88
398.147	85.88
398.371	83.88
398.595	89.88
398.82	75.88
399.044	87.88
399.268	86.88
399.492	78.88
399.717	66.88
399.941	86.88
400.165	94.88
400.389	74.88
400.613	69.88
400.837	83.88
401.062	79.88
401.286	79.88
401.51	102.88
401.734	73.88
401.958	92.88
402.182	96.88
402.406	118.88
402.63	91.88
402.854	80.88
403.078	83.88
403.302	92.88
403.526	79.88
403.75	87.88
403.974	86.88
404.198	79.88
404.422	73.88
404.645	85.88
404.869	80.88
405.093	92.88
405.317	91.88
405.541	91.88
405.765	79.88
405.988	103.88
406.212	127.88
406.436	170.88
406.66	126.88
406.883	93.88
407.107	93.88
407.331	76.88
407.555	83.88
407.778	95.88
408.002	87.88
408.226	82.88
408.449	83.88
408.673	84.88
408.896	83.88
409.12	89.88
409.344	93.88
409.567	85.88
409.791	85.88
410.014	82.88
410.238	88.88
410.461	98.88
410.685	100.88
410.908	92.88
411.132	91.88
411.355	84.88
411.578	93.88
411.802	99.88
412.025	95.88
412.249	76.88
412.472	90.88
412.695	83.88
412.919	91.88
413.142	90.88
413.365	90.88
413.589	78.88
413.812	85.88
414.035	89.88
414.258	69.88
414.482	79.88
414.705	93.88
414.928	76.88
415.151	89.88
415.374	95.88
415.597	71.88
415.821	91.88
416.044	87.88
416.267	79.88
416.49	89.88
416.713	91.88
416.936	83.88
417.159	78.88
417.382	73.88
417.605	90.88
417.828	91.88
418.051	80.88
418.274	87.88
418.497	71.88
418.72	78.88
418.943	83.88
419.166	75.88
419.389	88.88
419.611	75.88
419.834	87.88
420.057	88.88
420.28	91.88
420.503	84.88
420.726	92.88
420.948	90.88
421.171	88.88
421.394	85.88
421.617	101.88
421.839	96.88
422.062	86.88
422.285	76.88
422.507	89.88
422.73	99.88
422.953	101.88
423.175	96.88
423.398	96.88
423.621	99.88
423.843	86.88
424.066	70.88
424.288	67.88
424.511	89.88
424.733	88.88
424.956	87.88
425.178	83.88
425.401	107.88
425.623	104.88
425.846	92.88
426.068	92.88
426.291	88.88
426.513	78.88
426.735	88.88
426.958	101.88
427.18	85.88
427.402	118.88
427.625	122.88
427.847	108.88
428.069	108.88
428.292	82.88
428.514	80.88
428.736	88.88
428.958	79.88
429.181	80.88
429.403	70.88
429.625	82.88
429.847	80.88
430.069	88.88
430.292	97.88
430.514	81.88
430.736	97.88
430.958	80.88
431.18	75.88
431.402	92.88
431.624	85.88
431.846	77.88
432.068	73.88
432.29	84.88
432.512	90.88
432.734	90.88
432.956	80.88
433.178	79.88
433.4	84.88
433.622	97.88
433.844	92.88
434.066	96.88
434.287	98.88
434.509	92.88
434.731	81.88
434.953	79.88
435.175	83.88
435.397	75.88
435.618	81.88
435.84	89.88
436.062	109.88
436.284	106.88
436.505	110.88
436.727	96.88
436.949	79.88
437.17	73.88
437.392	86.88
437.614	85.88
437.835	93.88
438.057	101.88
438.278	97.88
438.5	95.88
438.721	101.88
438.943	98.88
439.165	90.88
439.386	78.88
439.608	73.88
439.829	89.88
440.05	104.88
440.272	112.88
440.493	100.88
440.715	71.88
440.936	86.88
441.158	78.88
441.379	80.88
441.6	87.88
441.822	79.88
442.043	95.88
442.264	97.88
442.486	89.88
442.707	89.88
442.928	88.88
443.149	92.88
443.371	91.88
443.592	92.88
443.813	94.88
444.034	91.88
444.255	96.88
444.476	87.88
444.698	79.88
444.919	89.88
445.14	127.88
445.361	95.88
445.582	102.88
445.803	105.88
446.024	120.88
446.245	108.88
446.466	100.88
446.687	100.88
446.908	91.88
447.129	95.88
447.35	88.88
447.571	85.88
447.792	78.88
448.013	92.88
448.234	89.88
448.455	103.88
448.675	94.88
448.896	111.88
449.117	82.88
449.338	83.88
449.559	101.88
449.779	123.88
450	97.88
450.221	85.88
450.442	93.88
450.662	78.88
450.883	97.88
451.104	87.88
451.324	86.88
451.545	87.88
451.766	88.88
451.986	72.88
452.207	88.88
452.428	91.88
452.648	85.88
452.869	87.88
453.089	99.88
453.31	97.88
453.53	95.88
453.751	79.88
453.971	104.88
454.192	85.88
454.412	93.88
454.633	79.88
454.853	76.88
455.073	84.88
455.294	88.88
455.514	77.88
455.734	95.88
455.955	79.88
456.175	90.88
456.395	89.88
456.616	63.88
456.836	68.88
457.056	73.88
457.276	72.88
457.497	83.88
457.717	83.88
457.937	91.88
458.157	87.88
458.377	86.88
458.598	96.88
458.818	108.88
459.038	132.88
459.258	96.88
459.478	80.88
459.698	79.88
459.918	75.88
460.138	77.88
460.358	82.88
460.578	84.88
460.798	89.88
461.018	81.88
461.238	87.88
461.458	78.88
461.678	88.88
461.898	87.88
462.118	69.88
462.338	78.88
462.558	82.88
462.777	69.88
462.997	72.88
463.217	84.88
463.437	92.88
463.657	67.88
463.876	76.88
464.096	84.88
464.316	72.88
464.536	81.88
464.755	82.88
464.975	72.88
465.195	111.88
465.414	121.88
465.634	96.88
465.854	93.88
466.073	79.88
466.293	68.88
466.512	71.88
466.732	77.88
466.951	79.88
467.171	87.88
467.391	87.88
467.61	98.88
467.829	90.88
468.049	93.88
468.268	88.88
468.488	84.88
468.707	66.88
468.927	81.88
469.146	77.88
469.365	91.88
469.585	83.88
469.804	83.88
470.023	81.88
470.243	77.88
470.462	92.88
470.681	89.88
470.901	75.88
471.12	83.88
471.339	88.88
471.558	91.88
471.777	85.88
471.997	84.88
472.216	104.88
472.435	143.88
472.654	93.88
472.873	77.88
473.092	88.88
473.311	93.88
473.53	89.88
473.749	86.88
473.968	87.88
474.187	65.88
474.406	80.88
474.625	83.88
474.844	72.88
475.063	73.88
475.282	88.88
475.501	83.88
475.72	92.88
475.939	85.88
476.158	83.88
476.377	76.88
476.596	81.88
476.814	91.88
477.033	85.88
477.252	90.88
477.471	96.88
477.69	71.88
477.908	93.88
478.127	81.88
478.346	80.88
478.564	92.88
478.783	77.88
479.002	75.88
479.22	82.88
479.439	86.88
479.658	89.88
479.876	89.88
480.095	84.88
480.313	80.88
480.532	91.88
480.751	85.88
480.969	112.88
481.188	189.88
481.406	147.88
481.624	72.88
481.843	79.88
482.061	84.88
482.28	83.88
482.498	86.88
482.717	81.88
482.935	89.88
483.153	80.88
483.372	96.88
483.59	79.88
483.808	77.88
484.027	90.88
484.245	77.88
484.463	84.88
484.681	109.88
484.9	78.88
485.118	95.88
485.336	94.88
485.554	85.88
485.772	112.88
485.99	89.88
486.209	111.88
486.427	108.88
486.645	103.88
486.863	93.88
487.081	101.88
487.299	99.88
487.517	73.88
487.735	89.88
487.953	94.88
488.171	97.88
488.389	87.88
488.607	85.88
488.825	75.88
489.043	90.88
489.261	94.88
489.479	95.88
489.696	86.88
489.914	86.88
490.132	79.88
490.35	90.88
490.568	81.88
490.786	89.88
491.003	76.88
491.221	89.88
491.439	79.88
491.657	87.88
491.874	84.88
492.092	94.88
492.31	83.88
492.527	90.88
492.745	75.88
492.963	84.88
493.18	69.88
493.398	86.88
493.615	107.88
493.833	97.88
494.05	76.88
494.268	86.88
494.485	81.88
494.703	80.88
494.92	77.88
495.138	82.88
495.355	82.88
495.573	89.88
495.79	83.88
496.008	96.88
496.225	85.88
496.442	57.88
496.66	77.88
496.877	87.88
497.094	92.88
497.312	71.88
497.529	91.88
497.746	88.88
497.963	83.88
498.181	91.88
498.398	87.88
498.615	88.88
498.832	80.88
499.049	89.88
499.267	77.88
499.484	96.88
499.701	79.88
499.918	92.88
500.135	88.88
500.352	89.88
500.569	85.88
500.786	84.88
501.003	86.88
501.22	95.88
501.437	88.88
501.654	87.88
501.871	83.88
502.088	79.88
502.305	94.88
502.522	87.88
502.739	79.88
502.956	79.88
503.172	94.88
503.389	89.88
503.606	102.88
503.823	101.88
504.04	91.88
504.256	99.88
504.473	93.88
504.69	86.88
504.907	82.88
505.123	80.88
505.34	71.88
505.557	85.88
505.773	95.88
505.99	73.88
506.207	80.88
506.423	85.88
506.64	80.88
506.856	102.88
507.073	86.88
507.289	95.88
507.506	96.88
507.722	83.88
507.939	93.88
508.155	90.88
508.372	83.88
508.588	80.88
508.805	100.88
509.021	89.88
509.238	96.88
509.454	86.88
509.67	102.88
509.887	89.88
510.103	110.88
510.319	177.88
510.536	555.88
510.752	1625.88
510.968	452.88
511.184	126.88
511.401	99.88
511.617	102.88
511.833	76.88
512.049	73.88
512.265	90.88
512.481	92.88
512.698	96.88
512.914	92.88
513.13	105.88
513.346	85.88
513.562	79.88
513.778	86.88
513.994	95.88
514.21	88.88
514.426	96.88
514.642	114.88
514.858	96.88
515.074	126.88
515.29	292.88
515.506	894.88
515.721	356.88
515.937	109.88
516.153	95.88
516.369	85.88
516.585	93.88
516.801	80.88
517.016	83.88
517.232	89.88
517.448	87.88
