Data from Circ_1984_H10_HRD10591_00026.txt Node
Date: Wed Jan 03 12:22:47 EST 2024
User: Yrep
Spectrometer: HR+D1059
Trigger mode: 1
Integration Time (sec): 1.000000E-1
Scans to average: 1
Electric dark correction enabled: true
Nonlinearity correction enabled: false
Boxcar width: 0
XAxis mode: Wavelengths
Number of Pixels in Spectrum: 2048
>>>>>Begin Spectral Data<<<<<
223.165	-7.81
223.4	-7.81
223.635	-7.81
223.869	-16.81
224.104	-19.81
224.338	-14.81
224.573	-18.81
224.808	-17.81
225.042	-0.81
225.277	6.19
225.511	-23.81
225.746	-8.81
225.98	-12.81
226.215	17.19
226.449	18.19
226.683	23.19
226.918	32.19
227.152	45.19
227.387	30.19
227.621	32.19
227.856	35.19
228.09	42.19
228.324	56.19
228.559	64.19
228.793	56.19
229.027	48.19
229.262	62.19
229.496	66.19
229.73	77.19
229.964	74.19
230.199	72.19
230.433	82.19
230.667	80.19
230.901	83.19
231.136	82.19
231.37	71.19
231.604	82.19
231.838	79.19
232.072	91.19
232.306	90.19
232.541	81.19
232.775	84.19
233.009	93.19
233.243	84.19
233.477	82.19
233.711	71.19
233.945	73.19
234.179	74.19
234.413	72.19
234.647	79.19
234.881	66.19
235.115	86.19
235.349	88.19
235.583	83.19
235.817	84.19
236.051	64.19
236.285	79.19
236.519	80.19
236.753	83.19
236.987	76.19
237.221	77.19
237.455	74.19
237.689	82.19
237.922	100.19
238.156	66.19
238.39	80.19
238.624	74.19
238.858	87.19
239.091	84.19
239.325	84.19
239.559	68.19
239.793	82.19
240.027	79.19
240.26	93.19
240.494	85.19
240.728	82.19
240.961	70.19
241.195	79.19
241.429	75.19
241.662	72.19
241.896	68.19
242.13	70.19
242.363	74.19
242.597	74.19
242.83	98.19
243.064	68.19
243.298	61.19
243.531	70.19
243.765	67.19
243.998	67.19
244.232	91.19
244.465	80.19
244.699	73.19
244.932	67.19
245.166	70.19
245.399	66.19
245.633	75.19
245.866	67.19
246.099	74.19
246.333	73.19
246.566	60.19
246.8	66.19
247.033	78.19
247.266	75.19
247.5	70.19
247.733	67.19
247.966	74.19
248.2	78.19
248.433	73.19
248.666	68.19
248.899	84.19
249.133	69.19
249.366	78.19
249.599	95.19
249.832	88.19
250.066	90.19
250.299	82.19
250.532	78.19
250.765	75.19
250.998	86.19
251.231	66.19
251.465	86.19
251.698	83.19
251.931	69.19
252.164	84.19
252.397	64.19
252.63	75.19
252.863	75.19
253.096	63.19
253.329	71.19
253.562	78.19
253.795	92.19
254.028	76.19
254.261	72.19
254.494	71.19
254.727	101.19
254.96	94.19
255.193	85.19
255.426	68.19
255.659	90.19
255.892	92.19
256.124	70.19
256.357	68.19
256.59	78.19
256.823	77.19
257.056	80.19
257.289	75.19
257.521	85.19
257.754	88.19
257.987	84.19
258.22	83.19
258.452	86.19
258.685	99.19
258.918	90.19
259.151	82.19
259.383	86.19
259.616	86.19
259.849	80.19
260.081	67.19
260.314	67.19
260.547	83.19
260.779	68.19
261.012	84.19
261.244	87.19
261.477	82.19
261.71	90.19
261.942	107.19
262.175	118.19
262.407	84.19
262.64	76.19
262.872	81.19
263.105	85.19
263.337	74.19
263.57	97.19
263.802	78.19
264.035	82.19
264.267	79.19
264.499	78.19
264.732	96.19
264.964	83.19
265.197	86.19
265.429	68.19
265.661	94.19
265.894	62.19
266.126	84.19
266.358	87.19
266.591	70.19
266.823	72.19
267.055	83.19
267.287	86.19
267.52	66.19
267.752	83.19
267.984	71.19
268.216	78.19
268.448	84.19
268.681	76.19
268.913	86.19
269.145	89.19
269.377	76.19
269.609	77.19
269.841	88.19
270.073	74.19
270.306	80.19
270.538	94.19
270.77	88.19
271.002	84.19
271.234	85.19
271.466	82.19
271.698	83.19
271.93	106.19
272.162	96.19
272.394	82.19
272.626	87.19
272.858	76.19
273.09	86.19
273.322	83.19
273.553	88.19
273.785	74.19
274.017	94.19
274.249	78.19
274.481	81.19
274.713	83.19
274.945	82.19
275.176	71.19
275.408	90.19
275.64	83.19
275.872	94.19
276.104	96.19
276.335	74.19
276.567	102.19
276.799	114.19
277.031	88.19
277.262	89.19
277.494	90.19
277.726	81.19
277.957	80.19
278.189	78.19
278.421	84.19
278.652	88.19
278.884	76.19
279.115	78.19
279.347	99.19
279.579	76.19
279.81	83.19
280.042	75.19
280.273	102.19
280.505	80.19
280.736	87.19
280.968	93.19
281.199	71.19
281.431	92.19
281.662	99.19
281.894	91.19
282.125	97.19
282.356	113.19
282.588	123.19
282.819	104.19
283.051	96.19
283.282	74.19
283.513	86.19
283.745	72.19
283.976	94.19
284.207	77.19
284.439	95.19
284.67	86.19
284.901	94.19
285.132	84.19
285.364	91.19
285.595	84.19
285.826	90.19
286.057	91.19
286.288	90.19
286.52	89.19
286.751	91.19
286.982	82.19
287.213	88.19
287.444	91.19
287.675	88.19
287.906	107.19
288.138	87.19
288.369	88.19
288.6	80.19
288.831	89.19
289.062	88.19
289.293	95.19
289.524	78.19
289.755	86.19
289.986	90.19
290.217	84.19
290.448	82.19
290.679	83.19
290.91	76.19
291.141	70.19
291.371	90.19
291.602	97.19
291.833	80.19
292.064	92.19
292.295	82.19
292.526	88.19
292.757	86.19
292.987	90.19
293.218	85.19
293.449	90.19
293.68	97.19
293.91	86.19
294.141	87.19
294.372	73.19
294.603	82.19
294.833	96.19
295.064	95.19
295.295	91.19
295.525	78.19
295.756	89.19
295.987	92.19
296.217	111.19
296.448	119.19
296.679	81.19
296.909	97.19
297.14	79.19
297.37	90.19
297.601	85.19
297.831	69.19
298.062	83.19
298.292	68.19
298.523	86.19
298.753	82.19
298.984	85.19
299.214	75.19
299.445	83.19
299.675	97.19
299.905	82.19
300.136	88.19
300.366	85.19
300.597	96.19
300.827	92.19
301.057	80.19
301.288	91.19
301.518	85.19
301.748	88.19
301.979	99.19
302.209	76.19
302.439	85.19
302.669	94.19
302.9	90.19
303.13	80.19
303.36	81.19
303.59	92.19
303.82	81.19
304.051	88.19
304.281	86.19
304.511	99.19
304.741	99.19
304.971	76.19
305.201	106.19
305.431	102.19
305.661	74.19
305.891	83.19
306.121	88.19
306.352	104.19
306.582	88.19
306.812	88.19
307.042	105.19
307.272	81.19
307.502	89.19
307.731	97.19
307.961	95.19
308.191	102.19
308.421	83.19
308.651	81.19
308.881	89.19
309.111	89.19
309.341	83.19
309.571	102.19
309.8	92.19
310.03	103.19
310.26	74.19
310.49	86.19
310.72	90.19
310.949	105.19
311.179	101.19
311.409	76.19
311.639	86.19
311.868	101.19
312.098	90.19
312.328	91.19
312.557	99.19
312.787	105.19
313.017	99.19
313.246	89.19
313.476	91.19
313.706	80.19
313.935	103.19
314.165	103.19
314.394	102.19
314.624	83.19
314.853	82.19
315.083	95.19
315.312	75.19
315.542	90.19
315.771	80.19
316.001	76.19
316.23	82.19
316.46	83.19
316.689	100.19
316.919	93.19
317.148	88.19
317.377	103.19
317.607	80.19
317.836	73.19
318.065	96.19
318.295	89.19
318.524	93.19
318.753	88.19
318.983	101.19
319.212	83.19
319.441	104.19
319.67	111.19
319.9	100.19
320.129	101.19
320.358	99.19
320.587	110.19
320.816	87.19
321.046	102.19
321.275	87.19
321.504	94.19
321.733	86.19
321.962	74.19
322.191	81.19
322.42	91.19
322.649	121.19
322.878	118.19
323.108	107.19
323.337	106.19
323.566	121.19
323.795	118.19
324.024	175.19
324.253	346.19
324.482	670.19
324.71	1358.19
324.939	1817.19
325.168	678.19
325.397	212.19
325.626	134.19
325.855	116.19
326.084	113.19
326.313	112.19
326.542	143.19
326.77	186.19
326.999	364.19
327.228	730.19
327.457	1386.19
327.686	1116.19
327.914	307.19
328.143	190.19
328.372	166.19
328.6	131.19
328.829	110.19
329.058	127.19
329.287	130.19
329.515	103.19
329.744	111.19
329.972	125.19
330.201	160.19
330.43	188.19
330.658	150.19
330.887	137.19
331.115	116.19
331.344	99.19
331.572	92.19
331.801	101.19
332.03	92.19
332.258	95.19
332.486	83.19
332.715	107.19
332.943	91.19
333.172	93.19
333.4	96.19
333.629	98.19
333.857	109.19
334.085	126.19
334.314	154.19
334.542	220.19
334.771	217.19
334.999	115.19
335.227	97.19
335.455	91.19
335.684	101.19
335.912	90.19
336.14	90.19
336.369	88.19
336.597	85.19
336.825	89.19
337.053	93.19
337.281	82.19
337.51	79.19
337.738	69.19
337.966	98.19
338.194	91.19
338.422	98.19
338.65	94.19
338.878	98.19
339.106	85.19
339.334	86.19
339.562	78.19
339.79	90.19
340.018	102.19
340.246	106.19
340.474	92.19
340.702	94.19
340.93	106.19
341.158	95.19
341.386	96.19
341.614	106.19
341.842	87.19
342.07	90.19
342.298	94.19
342.526	88.19
342.754	86.19
342.981	86.19
343.209	88.19
343.437	103.19
343.665	88.19
343.893	88.19
344.12	92.19
344.348	96.19
344.576	94.19
344.804	89.19
345.031	100.19
345.259	89.19
345.487	88.19
345.714	76.19
345.942	84.19
346.17	102.19
346.397	91.19
346.625	88.19
346.853	99.19
347.08	86.19
347.308	88.19
347.535	97.19
347.763	94.19
347.99	95.19
348.218	101.19
348.445	96.19
348.673	94.19
348.9	95.19
349.128	91.19
349.355	89.19
349.583	79.19
349.81	86.19
350.037	95.19
350.265	85.19
350.492	73.19
350.72	88.19
350.947	98.19
351.174	97.19
351.402	102.19
351.629	92.19
351.856	108.19
352.083	95.19
352.311	95.19
352.538	102.19
352.765	108.19
352.992	121.19
353.22	104.19
353.447	91.19
353.674	95.19
353.901	100.19
354.128	99.19
354.355	84.19
354.583	103.19
354.81	104.19
355.037	96.19
355.264	88.19
355.491	94.19
355.718	97.19
355.945	84.19
356.172	95.19
356.399	92.19
356.626	88.19
356.853	108.19
357.08	89.19
357.307	93.19
357.534	104.19
357.761	82.19
357.988	88.19
358.215	104.19
358.441	104.19
358.668	89.19
358.895	91.19
359.122	78.19
359.349	82.19
359.576	94.19
359.802	93.19
360.029	95.19
360.256	106.19
360.483	112.19
360.709	91.19
360.936	86.19
361.163	88.19
361.39	96.19
361.616	73.19
361.843	81.19
362.07	93.19
362.296	93.19
362.523	92.19
362.749	101.19
362.976	92.19
363.203	104.19
363.429	100.19
363.656	94.19
363.882	86.19
364.109	105.19
364.335	90.19
364.562	85.19
364.788	86.19
365.015	80.19
365.241	90.19
365.468	102.19
365.694	94.19
365.92	84.19
366.147	88.19
366.373	84.19
366.599	97.19
366.826	84.19
367.052	82.19
367.278	93.19
367.505	102.19
367.731	88.19
367.957	83.19
368.184	99.19
368.41	92.19
368.636	107.19
368.862	98.19
369.089	93.19
369.315	80.19
369.541	72.19
369.767	80.19
369.993	86.19
370.219	83.19
370.445	91.19
370.672	75.19
370.898	97.19
371.124	106.19
371.35	79.19
371.576	91.19
371.802	85.19
372.028	93.19
372.254	96.19
372.48	83.19
372.706	71.19
372.932	82.19
373.158	78.19
373.384	103.19
373.61	91.19
373.835	86.19
374.061	83.19
374.287	73.19
374.513	88.19
374.739	99.19
374.965	87.19
375.191	89.19
375.416	83.19
375.642	85.19
375.868	86.19
376.094	98.19
376.319	72.19
376.545	86.19
376.771	82.19
376.997	86.19
377.222	75.19
377.448	85.19
377.674	86.19
377.899	71.19
378.125	82.19
378.35	92.19
378.576	90.19
378.802	104.19
379.027	103.19
379.253	85.19
379.478	98.19
379.704	81.19
379.929	103.19
380.155	89.19
380.38	98.19
380.606	92.19
380.831	108.19
381.057	85.19
381.282	86.19
381.507	87.19
381.733	107.19
381.958	93.19
382.184	80.19
382.409	95.19
382.634	112.19
382.86	98.19
383.085	91.19
383.31	110.19
383.535	103.19
383.761	95.19
383.986	91.19
384.211	97.19
384.436	105.19
384.662	102.19
384.887	104.19
385.112	105.19
385.337	103.19
385.562	92.19
385.787	116.19
386.013	118.19
386.238	125.19
386.463	99.19
386.688	117.19
386.913	106.19
387.138	107.19
387.363	103.19
387.588	97.19
387.813	106.19
388.038	100.19
388.263	110.19
388.488	100.19
388.713	108.19
388.938	93.19
389.163	88.19
389.387	89.19
389.612	95.19
389.837	82.19
390.062	88.19
390.287	87.19
390.512	70.19
390.736	79.19
390.961	82.19
391.186	90.19
391.411	92.19
391.636	97.19
391.86	92.19
392.085	87.19
392.31	82.19
392.534	88.19
392.759	101.19
392.984	92.19
393.208	89.19
393.433	95.19
393.658	111.19
393.882	90.19
394.107	99.19
394.331	84.19
394.556	95.19
394.78	80.19
395.005	105.19
395.229	87.19
395.454	82.19
395.678	86.19
395.903	87.19
396.127	106.19
396.352	100.19
396.576	86.19
396.801	87.19
397.025	108.19
397.249	83.19
397.474	95.19
397.698	100.19
397.922	80.19
398.147	94.19
398.371	86.19
398.595	92.19
398.82	92.19
399.044	70.19
399.268	88.19
399.492	92.19
399.717	80.19
399.941	91.19
400.165	88.19
400.389	83.19
400.613	99.19
400.837	80.19
401.062	80.19
401.286	84.19
401.51	96.19
401.734	96.19
401.958	81.19
402.182	114.19
402.406	150.19
402.63	97.19
402.854	95.19
403.078	86.19
403.302	83.19
403.526	77.19
403.75	82.19
403.974	83.19
404.198	86.19
404.422	88.19
404.645	84.19
404.869	101.19
405.093	102.19
405.317	110.19
405.541	100.19
405.765	105.19
405.988	111.19
406.212	137.19
406.436	201.19
406.66	130.19
406.883	94.19
407.107	72.19
407.331	98.19
407.555	89.19
407.778	85.19
408.002	99.19
408.226	93.19
408.449	102.19
408.673	78.19
408.896	90.19
409.12	102.19
409.344	77.19
409.567	91.19
409.791	75.19
410.014	97.19
410.238	88.19
410.461	100.19
410.685	90.19
410.908	83.19
411.132	88.19
411.355	93.19
411.578	85.19
411.802	85.19
412.025	68.19
412.249	91.19
412.472	90.19
412.695	97.19
412.919	96.19
413.142	81.19
413.365	84.19
413.589	95.19
413.812	105.19
414.035	73.19
414.258	86.19
414.482	94.19
414.705	87.19
414.928	107.19
415.151	77.19
415.374	94.19
415.597	84.19
415.821	86.19
416.044	87.19
416.267	98.19
416.49	84.19
416.713	84.19
416.936	82.19
417.159	72.19
417.382	82.19
417.605	81.19
417.828	84.19
418.051	84.19
418.274	88.19
418.497	83.19
418.72	103.19
418.943	85.19
419.166	94.19
419.389	86.19
419.611	92.19
419.834	91.19
420.057	85.19
420.28	80.19
420.503	89.19
420.726	85.19
420.948	92.19
421.171	91.19
421.394	85.19
421.617	95.19
421.839	82.19
422.062	83.19
422.285	81.19
422.507	95.19
422.73	103.19
422.953	94.19
423.175	105.19
423.398	98.19
423.621	85.19
423.843	84.19
424.066	88.19
424.288	79.19
424.511	100.19
424.733	81.19
424.956	103.19
425.178	101.19
425.401	107.19
425.623	112.19
425.846	84.19
426.068	79.19
426.291	98.19
426.513	99.19
426.735	79.19
426.958	86.19
427.18	105.19
427.402	118.19
427.625	154.19
427.847	121.19
428.069	121.19
428.292	94.19
428.514	88.19
428.736	80.19
428.958	79.19
429.181	82.19
429.403	92.19
429.625	94.19
429.847	85.19
430.069	78.19
430.292	96.19
430.514	82.19
430.736	89.19
430.958	90.19
431.18	102.19
431.402	89.19
431.624	89.19
431.846	83.19
432.068	82.19
432.29	90.19
432.512	85.19
432.734	72.19
432.956	90.19
433.178	91.19
433.4	98.19
433.622	68.19
433.844	96.19
434.066	100.19
434.287	81.19
434.509	80.19
434.731	74.19
434.953	86.19
435.175	91.19
435.397	95.19
435.618	95.19
435.84	96.19
436.062	127.19
436.284	103.19
436.505	91.19
436.727	82.19
436.949	77.19
437.17	82.19
437.392	83.19
437.614	97.19
437.835	102.19
438.057	109.19
438.278	98.19
438.5	91.19
438.721	120.19
438.943	95.19
439.165	89.19
439.386	79.19
439.608	84.19
439.829	97.19
440.05	117.19
440.272	127.19
440.493	98.19
440.715	88.19
440.936	90.19
441.158	88.19
441.379	84.19
441.6	87.19
441.822	87.19
442.043	83.19
442.264	88.19
442.486	106.19
442.707	86.19
442.928	85.19
443.149	127.19
443.371	120.19
443.592	104.19
443.813	106.19
444.034	102.19
444.255	69.19
444.476	91.19
444.698	81.19
444.919	81.19
445.14	130.19
445.361	135.19
445.582	97.19
445.803	111.19
446.024	122.19
446.245	112.19
446.466	98.19
446.687	84.19
446.908	94.19
447.129	78.19
447.35	80.19
447.571	89.19
447.792	94.19
448.013	105.19
448.234	98.19
448.455	111.19
448.675	92.19
448.896	104.19
449.117	87.19
449.338	107.19
449.559	120.19
449.779	127.19
450	88.19
450.221	86.19
450.442	89.19
450.662	87.19
450.883	91.19
451.104	88.19
451.324	98.19
451.545	75.19
451.766	86.19
451.986	81.19
452.207	78.19
452.428	94.19
452.648	95.19
452.869	104.19
453.089	107.19
453.31	102.19
453.53	99.19
453.751	82.19
453.971	105.19
454.192	100.19
454.412	89.19
454.633	86.19
454.853	79.19
455.073	99.19
455.294	95.19
455.514	85.19
455.734	74.19
455.955	88.19
456.175	71.19
456.395	75.19
456.616	81.19
456.836	100.19
457.056	89.19
457.276	90.19
457.497	96.19
457.717	94.19
457.937	82.19
458.157	91.19
458.377	76.19
458.598	98.19
458.818	126.19
459.038	134.19
459.258	107.19
459.478	80.19
459.698	80.19
459.918	79.19
460.138	78.19
460.358	83.19
460.578	98.19
460.798	99.19
461.018	81.19
461.238	103.19
461.458	89.19
461.678	80.19
461.898	83.19
462.118	89.19
462.338	92.19
462.558	82.19
462.777	79.19
462.997	82.19
463.217	84.19
463.437	83.19
463.657	80.19
463.876	81.19
464.096	79.19
464.316	79.19
464.536	79.19
464.755	97.19
464.975	94.19
465.195	135.19
465.414	131.19
465.634	102.19
465.854	82.19
466.073	94.19
466.293	86.19
466.512	94.19
466.732	92.19
466.951	90.19
467.171	100.19
467.391	98.19
467.61	97.19
467.829	95.19
468.049	126.19
468.268	136.19
468.488	72.19
468.707	76.19
468.927	90.19
469.146	70.19
469.365	92.19
469.585	87.19
469.804	92.19
470.023	97.19
470.243	79.19
470.462	100.19
470.681	110.19
470.901	99.19
471.12	88.19
471.339	84.19
471.558	83.19
471.777	85.19
471.997	102.19
472.216	170.19
472.435	272.19
472.654	123.19
472.873	90.19
473.092	89.19
473.311	87.19
473.53	83.19
473.749	88.19
473.968	92.19
474.187	100.19
474.406	80.19
474.625	86.19
474.844	86.19
475.063	75.19
475.282	82.19
475.501	73.19
475.72	95.19
475.939	98.19
476.158	90.19
476.377	95.19
476.596	84.19
476.814	93.19
477.033	83.19
477.252	87.19
477.471	92.19
477.69	86.19
477.908	91.19
478.127	83.19
478.346	103.19
478.564	83.19
478.783	95.19
479.002	85.19
479.22	96.19
479.439	107.19
479.658	100.19
479.876	86.19
480.095	86.19
480.313	93.19
480.532	105.19
480.751	91.19
480.969	157.19
481.188	424.19
481.406	280.19
481.624	111.19
481.843	83.19
482.061	81.19
482.28	99.19
482.498	87.19
482.717	86.19
482.935	94.19
483.153	94.19
483.372	79.19
483.59	75.19
483.808	83.19
484.027	99.19
484.245	93.19
484.463	99.19
484.681	96.19
484.9	85.19
485.118	89.19
485.336	85.19
485.554	83.19
485.772	91.19
485.99	95.19
486.209	90.19
486.427	103.19
486.645	111.19
486.863	111.19
487.081	104.19
487.299	87.19
487.517	101.19
487.735	87.19
487.953	97.19
488.171	108.19
488.389	98.19
488.607	88.19
488.825	80.19
489.043	97.19
489.261	86.19
489.479	77.19
489.696	78.19
489.914	78.19
490.132	93.19
490.35	78.19
490.568	83.19
490.786	78.19
491.003	90.19
491.221	83.19
491.439	86.19
491.657	99.19
491.874	94.19
492.092	93.19
492.31	86.19
492.527	74.19
492.745	83.19
492.963	84.19
493.18	95.19
493.398	89.19
493.615	87.19
493.833	85.19
494.05	83.19
494.268	75.19
494.485	85.19
494.703	94.19
494.92	85.19
495.138	80.19
495.355	89.19
495.573	78.19
495.79	90.19
496.008	80.19
496.225	74.19
496.442	94.19
496.66	82.19
496.877	86.19
497.094	105.19
497.312	86.19
497.529	96.19
497.746	86.19
497.963	86.19
498.181	91.19
498.398	100.19
498.615	96.19
498.832	95.19
499.049	88.19
499.267	95.19
499.484	80.19
499.701	102.19
499.918	89.19
500.135	90.19
500.352	79.19
500.569	90.19
500.786	97.19
501.003	95.19
501.22	83.19
501.437	92.19
501.654	79.19
501.871	102.19
502.088	107.19
502.305	84.19
502.522	77.19
502.739	93.19
502.956	99.19
503.172	84.19
503.389	83.19
503.606	89.19
503.823	105.19
504.04	86.19
504.256	75.19
504.473	82.19
504.69	93.19
504.907	103.19
505.123	83.19
505.34	97.19
505.557	89.19
505.773	91.19
505.99	83.19
506.207	89.19
506.423	78.19
506.64	82.19
506.856	104.19
507.073	104.19
507.289	74.19
507.506	94.19
507.722	96.19
507.939	100.19
508.155	88.19
508.372	89.19
508.588	97.19
508.805	82.19
509.021	97.19
509.238	86.19
509.454	93.19
509.67	102.19
509.887	93.19
510.103	106.19
510.319	194.19
510.536	652.19
510.752	2042.19
510.968	552.19
511.184	130.19
511.401	103.19
511.617	87.19
511.833	97.19
512.049	96.19
512.265	102.19
512.481	86.19
512.698	94.19
512.914	87.19
513.13	83.19
513.346	92.19
513.562	90.19
513.778	87.19
513.994	102.19
514.21	101.19
514.426	120.19
514.642	111.19
514.858	114.19
515.074	128.19
515.29	390.19
515.506	1192.19
515.721	444.19
515.937	138.19
516.153	113.19
