Data from Circ_1984_H10_HRD10591_00021.txt Node
Date: Wed Jan 03 12:22:46 EST 2024
User: Yrep
Spectrometer: HR+D1059
Trigger mode: 1
Integration Time (sec): 1.000000E-1
Scans to average: 1
Electric dark correction enabled: true
Nonlinearity correction enabled: false
Boxcar width: 0
XAxis mode: Wavelengths
Number of Pixels in Spectrum: 2048
>>>>>Begin Spectral Data<<<<<
223.165	-38.31
223.4	-38.31
223.635	-38.31
223.869	-19.31
224.104	-12.31
224.338	-15.31
224.573	-13.31
224.808	-9.31
225.042	-9.31
225.277	-9.31
225.511	-15.31
225.746	-1.31
225.98	22.69
226.215	14.69
226.449	18.69
226.683	25.69
226.918	33.69
227.152	27.69
227.387	27.69
227.621	34.69
227.856	57.69
228.09	46.69
228.324	51.69
228.559	58.69
228.793	63.69
229.027	68.69
229.262	67.69
229.496	74.69
229.73	73.69
229.964	74.69
230.199	70.69
230.433	90.69
230.667	72.69
230.901	70.69
231.136	76.69
231.37	60.69
231.604	78.69
231.838	71.69
232.072	76.69
232.306	71.69
232.541	87.69
232.775	84.69
233.009	70.69
233.243	82.69
233.477	78.69
233.711	89.69
233.945	87.69
234.179	88.69
234.413	66.69
234.647	86.69
234.881	89.69
235.115	91.69
235.349	90.69
235.583	78.69
235.817	72.69
236.051	79.69
236.285	82.69
236.519	83.69
236.753	82.69
236.987	74.69
237.221	78.69
237.455	81.69
237.689	69.69
237.922	84.69
238.156	76.69
238.39	88.69
238.624	81.69
238.858	79.69
239.091	78.69
239.325	84.69
239.559	74.69
239.793	75.69
240.027	69.69
240.26	76.69
240.494	81.69
240.728	88.69
240.961	70.69
241.195	69.69
241.429	81.69
241.662	52.69
241.896	95.69
242.13	80.69
242.363	57.69
242.597	80.69
242.83	86.69
243.064	82.69
243.298	90.69
243.531	84.69
243.765	77.69
243.998	71.69
244.232	72.69
244.465	79.69
244.699	72.69
244.932	68.69
245.166	73.69
245.399	74.69
245.633	81.69
245.866	82.69
246.099	76.69
246.333	84.69
246.566	75.69
246.8	74.69
247.033	73.69
247.266	75.69
247.5	76.69
247.733	88.69
247.966	73.69
248.2	78.69
248.433	58.69
248.666	75.69
248.899	80.69
249.133	95.69
249.366	79.69
249.599	87.69
249.832	71.69
250.066	78.69
250.299	68.69
250.532	82.69
250.765	82.69
250.998	77.69
251.231	78.69
251.465	76.69
251.698	69.69
251.931	78.69
252.164	86.69
252.397	81.69
252.63	73.69
252.863	81.69
253.096	88.69
253.329	76.69
253.562	73.69
253.795	85.69
254.028	69.69
254.261	69.69
254.494	79.69
254.727	83.69
254.96	87.69
255.193	78.69
255.426	82.69
255.659	83.69
255.892	80.69
256.124	88.69
256.357	75.69
256.59	78.69
256.823	92.69
257.056	85.69
257.289	84.69
257.521	88.69
257.754	89.69
257.987	84.69
258.22	81.69
258.452	92.69
258.685	75.69
258.918	90.69
259.151	76.69
259.383	88.69
259.616	94.69
259.849	68.69
260.081	66.69
260.314	82.69
260.547	88.69
260.779	81.69
261.012	76.69
261.244	95.69
261.477	89.69
261.71	87.69
261.942	97.69
262.175	104.69
262.407	92.69
262.64	86.69
262.872	84.69
263.105	94.69
263.337	80.69
263.57	82.69
263.802	83.69
264.035	89.69
264.267	84.69
264.499	80.69
264.732	83.69
264.964	78.69
265.197	92.69
265.429	68.69
265.661	70.69
265.894	90.69
266.126	78.69
266.358	83.69
266.591	79.69
266.823	82.69
267.055	78.69
267.287	80.69
267.52	83.69
267.752	71.69
267.984	86.69
268.216	70.69
268.448	79.69
268.681	81.69
268.913	80.69
269.145	88.69
269.377	77.69
269.609	82.69
269.841	74.69
270.073	74.69
270.306	84.69
270.538	75.69
270.77	90.69
271.002	83.69
271.234	79.69
271.466	79.69
271.698	97.69
271.93	84.69
272.162	84.69
272.394	92.69
272.626	70.69
272.858	78.69
273.09	78.69
273.322	75.69
273.553	91.69
273.785	76.69
274.017	85.69
274.249	82.69
274.481	76.69
274.713	90.69
274.945	85.69
275.176	80.69
275.408	69.69
275.64	86.69
275.872	79.69
276.104	83.69
276.335	82.69
276.567	91.69
276.799	101.69
277.031	98.69
277.262	93.69
277.494	82.69
277.726	82.69
277.957	85.69
278.189	82.69
278.421	71.69
278.652	94.69
278.884	84.69
279.115	91.69
279.347	85.69
279.579	78.69
279.81	99.69
280.042	97.69
280.273	92.69
280.505	98.69
280.736	90.69
280.968	85.69
281.199	83.69
281.431	81.69
281.662	96.69
281.894	94.69
282.125	95.69
282.356	101.69
282.588	132.69
282.819	103.69
283.051	87.69
283.282	88.69
283.513	91.69
283.745	87.69
283.976	76.69
284.207	84.69
284.439	79.69
284.67	72.69
284.901	83.69
285.132	92.69
285.364	90.69
285.595	82.69
285.826	82.69
286.057	88.69
286.288	79.69
286.52	84.69
286.751	92.69
286.982	92.69
287.213	90.69
287.444	99.69
287.675	75.69
287.906	102.69
288.138	102.69
288.369	101.69
288.6	66.69
288.831	83.69
289.062	91.69
289.293	88.69
289.524	93.69
289.755	90.69
289.986	90.69
290.217	88.69
290.448	89.69
290.679	89.69
290.91	98.69
291.141	90.69
291.371	93.69
291.602	83.69
291.833	84.69
292.064	79.69
292.295	86.69
292.526	95.69
292.757	84.69
292.987	92.69
293.218	97.69
293.449	90.69
293.68	73.69
293.91	94.69
294.141	92.69
294.372	95.69
294.603	78.69
294.833	82.69
295.064	73.69
295.295	86.69
295.525	93.69
295.756	102.69
295.987	107.69
296.217	117.69
296.448	112.69
296.679	96.69
296.909	81.69
297.14	87.69
297.37	89.69
297.601	84.69
297.831	85.69
298.062	87.69
298.292	103.69
298.523	83.69
298.753	87.69
298.984	94.69
299.214	99.69
299.445	88.69
299.675	92.69
299.905	84.69
300.136	105.69
300.366	72.69
300.597	83.69
300.827	113.69
301.057	90.69
301.288	89.69
301.518	92.69
301.748	97.69
301.979	97.69
302.209	104.69
302.439	95.69
302.669	76.69
302.9	97.69
303.13	89.69
303.36	98.69
303.59	100.69
303.82	101.69
304.051	93.69
304.281	97.69
304.511	80.69
304.741	89.69
304.971	95.69
305.201	103.69
305.431	86.69
305.661	92.69
305.891	75.69
306.121	93.69
306.352	95.69
306.582	97.69
306.812	94.69
307.042	94.69
307.272	99.69
307.502	97.69
307.731	94.69
307.961	90.69
308.191	97.69
308.421	96.69
308.651	91.69
308.881	87.69
309.111	85.69
309.341	94.69
309.571	89.69
309.8	93.69
310.03	92.69
310.26	97.69
310.49	102.69
310.72	87.69
310.949	107.69
311.179	105.69
311.409	87.69
311.639	96.69
311.868	96.69
312.098	89.69
312.328	99.69
312.557	84.69
312.787	108.69
313.017	92.69
313.246	99.69
313.476	106.69
313.706	94.69
313.935	105.69
314.165	103.69
314.394	98.69
314.624	104.69
314.853	100.69
315.083	92.69
315.312	94.69
315.542	87.69
315.771	90.69
316.001	116.69
316.23	95.69
316.46	80.69
316.689	96.69
316.919	85.69
317.148	90.69
317.377	89.69
317.607	88.69
317.836	88.69
318.065	94.69
318.295	96.69
318.524	91.69
318.753	74.69
318.983	87.69
319.212	88.69
319.441	97.69
319.67	103.69
319.9	88.69
320.129	88.69
320.358	95.69
320.587	94.69
320.816	99.69
321.046	102.69
321.275	90.69
321.504	106.69
321.733	96.69
321.962	85.69
322.191	108.69
322.42	106.69
322.649	96.69
322.878	112.69
323.108	111.69
323.337	106.69
323.566	116.69
323.795	130.69
324.024	159.69
324.253	321.69
324.482	644.69
324.71	1270.69
324.939	1665.69
325.168	626.69
325.397	206.69
325.626	135.69
325.855	105.69
326.084	120.69
326.313	126.69
326.542	130.69
326.77	198.69
326.999	355.69
327.228	715.69
327.457	1296.69
327.686	1028.69
327.914	292.69
328.143	186.69
328.372	135.69
328.6	110.69
328.829	102.69
329.058	118.69
329.287	129.69
329.515	117.69
329.744	112.69
329.972	101.69
330.201	144.69
330.43	179.69
330.658	130.69
330.887	123.69
331.115	114.69
331.344	103.69
331.572	105.69
331.801	94.69
332.03	87.69
332.258	87.69
332.486	82.69
332.715	93.69
332.943	98.69
333.172	91.69
333.4	85.69
333.629	106.69
333.857	112.69
334.085	123.69
334.314	158.69
334.542	214.69
334.771	178.69
334.999	100.69
335.227	99.69
335.455	104.69
335.684	111.69
335.912	90.69
336.14	100.69
336.369	102.69
336.597	90.69
336.825	102.69
337.053	95.69
337.281	111.69
337.51	84.69
337.738	104.69
337.966	98.69
338.194	95.69
338.422	97.69
338.65	96.69
338.878	80.69
339.106	96.69
339.334	70.69
339.562	80.69
339.79	89.69
340.018	92.69
340.246	83.69
340.474	88.69
340.702	70.69
340.93	81.69
341.158	82.69
341.386	92.69
341.614	103.69
341.842	104.69
342.07	83.69
342.298	90.69
342.526	82.69
342.754	92.69
342.981	83.69
343.209	98.69
343.437	92.69
343.665	97.69
343.893	85.69
344.12	103.69
344.348	105.69
344.576	98.69
344.804	84.69
345.031	99.69
345.259	88.69
345.487	91.69
345.714	87.69
345.942	96.69
346.17	89.69
346.397	84.69
346.625	98.69
346.853	90.69
347.08	106.69
347.308	94.69
347.535	82.69
347.763	112.69
347.99	96.69
348.218	104.69
348.445	86.69
348.673	101.69
348.9	90.69
349.128	84.69
349.355	101.69
349.583	85.69
349.81	98.69
350.037	93.69
350.265	99.69
350.492	88.69
350.72	92.69
350.947	87.69
351.174	102.69
351.402	99.69
351.629	98.69
351.856	98.69
352.083	97.69
352.311	98.69
352.538	103.69
352.765	97.69
352.992	107.69
353.22	117.69
353.447	115.69
353.674	107.69
353.901	95.69
354.128	84.69
354.355	108.69
354.583	98.69
354.81	102.69
355.037	95.69
355.264	91.69
355.491	113.69
355.718	98.69
355.945	95.69
356.172	90.69
356.399	99.69
356.626	98.69
356.853	90.69
357.08	81.69
357.307	75.69
357.534	98.69
357.761	111.69
357.988	90.69
358.215	78.69
358.441	91.69
358.668	99.69
358.895	101.69
359.122	87.69
359.349	87.69
359.576	97.69
359.802	99.69
360.029	112.69
360.256	93.69
360.483	100.69
360.709	82.69
360.936	84.69
361.163	90.69
361.39	99.69
361.616	93.69
361.843	89.69
362.07	96.69
362.296	89.69
362.523	82.69
362.749	84.69
362.976	83.69
363.203	92.69
363.429	82.69
363.656	87.69
363.882	80.69
364.109	84.69
364.335	83.69
364.562	85.69
364.788	68.69
365.015	87.69
365.241	99.69
365.468	106.69
365.694	110.69
365.92	104.69
366.147	81.69
366.373	90.69
366.599	95.69
366.826	87.69
367.052	79.69
367.278	83.69
367.505	79.69
367.731	98.69
367.957	94.69
368.184	87.69
368.41	96.69
368.636	104.69
368.862	115.69
369.089	94.69
369.315	96.69
369.541	104.69
369.767	91.69
369.993	85.69
370.219	96.69
370.445	85.69
370.672	78.69
370.898	88.69
371.124	100.69
371.35	91.69
371.576	86.69
371.802	104.69
372.028	98.69
372.254	85.69
372.48	88.69
372.706	105.69
372.932	96.69
373.158	74.69
373.384	107.69
373.61	90.69
373.835	96.69
374.061	90.69
374.287	86.69
374.513	74.69
374.739	91.69
374.965	86.69
375.191	82.69
375.416	82.69
375.642	87.69
375.868	90.69
376.094	85.69
376.319	87.69
376.545	80.69
376.771	84.69
376.997	87.69
377.222	87.69
377.448	90.69
377.674	94.69
377.899	94.69
378.125	92.69
378.35	105.69
378.576	90.69
378.802	93.69
379.027	92.69
379.253	86.69
379.478	87.69
379.704	86.69
379.929	94.69
380.155	96.69
380.38	101.69
380.606	119.69
380.831	97.69
381.057	103.69
381.282	86.69
381.507	106.69
381.733	99.69
381.958	95.69
382.184	92.69
382.409	89.69
382.634	107.69
382.86	90.69
383.085	95.69
383.31	83.69
383.535	93.69
383.761	96.69
383.986	110.69
384.211	104.69
384.436	100.69
384.662	94.69
384.887	88.69
385.112	97.69
385.337	102.69
385.562	98.69
385.787	102.69
386.013	116.69
386.238	114.69
386.463	117.69
386.688	117.69
386.913	110.69
387.138	112.69
387.363	98.69
387.588	89.69
387.813	100.69
388.038	101.69
388.263	118.69
388.488	114.69
388.713	92.69
388.938	97.69
389.163	89.69
389.387	81.69
389.612	86.69
389.837	81.69
390.062	101.69
390.287	88.69
390.512	88.69
390.736	95.69
390.961	89.69
391.186	89.69
391.411	105.69
391.636	103.69
391.86	82.69
392.085	104.69
392.31	98.69
392.534	86.69
392.759	94.69
392.984	85.69
393.208	100.69
393.433	116.69
393.658	108.69
393.882	75.69
394.107	80.69
394.331	82.69
394.556	93.69
394.78	91.69
395.005	87.69
395.229	81.69
395.454	79.69
395.678	68.69
395.903	93.69
396.127	90.69
396.352	87.69
396.576	84.69
396.801	100.69
397.025	96.69
397.249	95.69
397.474	78.69
397.698	78.69
397.922	81.69
398.147	91.69
398.371	85.69
398.595	93.69
398.82	84.69
399.044	80.69
399.268	92.69
399.492	97.69
399.717	88.69
399.941	91.69
400.165	85.69
400.389	87.69
400.613	79.69
400.837	91.69
401.062	72.69
401.286	90.69
401.51	95.69
401.734	80.69
401.958	92.69
402.182	106.69
402.406	128.69
402.63	111.69
402.854	90.69
403.078	93.69
403.302	78.69
403.526	87.69
403.75	87.69
403.974	99.69
404.198	98.69
404.422	88.69
404.645	73.69
404.869	92.69
405.093	72.69
405.317	108.69
405.541	101.69
405.765	90.69
405.988	111.69
406.212	156.69
406.436	189.69
406.66	132.69
406.883	106.69
407.107	84.69
407.331	86.69
407.555	96.69
407.778	89.69
408.002	92.69
408.226	98.69
408.449	83.69
408.673	93.69
408.896	93.69
409.12	83.69
409.344	84.69
409.567	90.69
409.791	84.69
410.014	98.69
410.238	100.69
410.461	82.69
410.685	78.69
410.908	87.69
411.132	95.69
411.355	98.69
411.578	93.69
411.802	106.69
412.025	83.69
412.249	96.69
412.472	93.69
412.695	92.69
412.919	92.69
413.142	93.69
413.365	89.69
413.589	88.69
413.812	83.69
414.035	82.69
414.258	95.69
414.482	85.69
414.705	88.69
414.928	87.69
415.151	82.69
415.374	103.69
415.597	83.69
415.821	86.69
416.044	91.69
416.267	82.69
416.49	91.69
416.713	96.69
416.936	103.69
417.159	96.69
417.382	84.69
417.605	79.69
417.828	93.69
418.051	94.69
418.274	67.69
418.497	72.69
418.72	90.69
418.943	101.69
419.166	84.69
419.389	82.69
419.611	87.69
419.834	86.69
420.057	91.69
420.28	87.69
420.503	93.69
420.726	96.69
420.948	84.69
421.171	98.69
421.394	78.69
421.617	95.69
421.839	88.69
422.062	91.69
422.285	100.69
422.507	94.69
422.73	98.69
422.953	93.69
423.175	106.69
423.398	97.69
423.621	73.69
423.843	90.69
424.066	80.69
424.288	68.69
424.511	71.69
424.733	96.69
424.956	104.69
425.178	87.69
425.401	96.69
425.623	93.69
425.846	88.69
426.068	99.69
426.291	94.69
426.513	99.69
426.735	80.69
426.958	97.69
427.18	94.69
427.402	101.69
427.625	154.69
427.847	129.69
428.069	121.69
428.292	87.69
428.514	73.69
428.736	74.69
428.958	89.69
429.181	80.69
429.403	72.69
429.625	92.69
429.847	83.69
430.069	84.69
430.292	87.69
430.514	86.69
430.736	72.69
430.958	88.69
431.18	91.69
431.402	84.69
431.624	79.69
431.846	91.69
432.068	99.69
432.29	90.69
432.512	89.69
432.734	90.69
432.956	88.69
433.178	109.69
433.4	104.69
433.622	88.69
433.844	82.69
434.066	91.69
434.287	89.69
434.509	93.69
434.731	88.69
434.953	75.69
435.175	84.69
435.397	93.69
435.618	100.69
435.84	87.69
436.062	105.69
436.284	95.69
436.505	89.69
436.727	93.69
436.949	88.69
437.17	83.69
437.392	70.69
437.614	82.69
437.835	93.69
438.057	113.69
438.278	87.69
438.5	106.69
438.721	104.69
438.943	87.69
439.165	89.69
439.386	92.69
439.608	90.69
439.829	84.69
440.05	103.69
440.272	121.69
440.493	111.69
440.715	89.69
440.936	84.69
441.158	89.69
441.379	85.69
441.6	102.69
441.822	72.69
442.043	81.69
442.264	94.69
442.486	107.69
442.707	93.69
442.928	94.69
443.149	92.69
443.371	118.69
443.592	111.69
443.813	100.69
444.034	104.69
444.255	89.69
444.476	90.69
444.698	90.69
444.919	85.69
445.14	149.69
445.361	106.69
445.582	83.69
445.803	106.69
446.024	113.69
446.245	122.69
446.466	100.69
446.687	80.69
446.908	79.69
447.129	84.69
447.35	81.69
447.571	93.69
447.792	81.69
448.013	89.69
448.234	102.69
448.455	95.69
448.675	106.69
448.896	98.69
449.117	104.69
449.338	88.69
449.559	97.69
449.779	126.69
450	78.69
450.221	79.69
450.442	67.69
450.662	86.69
450.883	98.69
451.104	86.69
451.324	89.69
451.545	95.69
451.766	92.69
451.986	94.69
452.207	96.69
452.428	82.69
452.648	87.69
452.869	98.69
453.089	99.69
453.31	113.69
453.53	90.69
453.751	90.69
453.971	88.69
454.192	99.69
454.412	96.69
454.633	85.69
454.853	94.69
455.073	98.69
455.294	86.69
455.514	83.69
455.734	94.69
455.955	82.69
456.175	79.69
456.395	68.69
456.616	96.69
456.836	80.69
457.056	74.69
457.276	92.69
457.497	75.69
457.717	77.69
457.937	91.69
458.157	87.69
458.377	71.69
458.598	97.69
458.818	123.69
459.038	131.69
459.258	99.69
459.478	92.69
459.698	75.69
459.918	82.69
460.138	80.69
460.358	82.69
460.578	90.69
460.798	82.69
461.018	87.69
461.238	78.69
461.458	89.69
461.678	77.69
461.898	64.69
462.118	98.69
462.338	96.69
462.558	84.69
462.777	94.69
462.997	79.69
463.217	84.69
463.437	80.69
463.657	88.69
463.876	95.69
464.096	96.69
464.316	92.69
464.536	94.69
464.755	109.69
464.975	92.69
465.195	129.69
465.414	128.69
465.634	86.69
465.854	89.69
466.073	88.69
466.293	104.69
466.512	76.69
466.732	86.69
466.951	78.69
467.171	97.69
467.391	75.69
467.61	83.69
467.829	89.69
468.049	127.69
468.268	126.69
468.488	69.69
468.707	74.69
468.927	101.69
469.146	86.69
469.365	90.69
469.585	77.69
469.804	104.69
470.023	82.69
470.243	94.69
470.462	94.69
470.681	92.69
470.901	86.69
471.12	62.69
471.339	84.69
471.558	80.69
471.777	93.69
471.997	87.69
472.216	143.69
472.435	232.69
472.654	118.69
472.873	95.69
473.092	92.69
473.311	84.69
473.53	85.69
473.749	95.69
473.968	106.69
474.187	84.69
474.406	102.69
474.625	92.69
474.844	96.69
475.063	82.69
475.282	88.69
475.501	80.69
475.72	89.69
475.939	72.69
476.158	92.69
476.377	78.69
476.596	91.69
476.814	90.69
477.033	91.69
477.252	101.69
477.471	89.69
477.69	80.69
477.908	90.69
478.127	88.69
478.346	90.69
478.564	98.69
478.783	94.69
479.002	90.69
479.22	78.69
479.439	103.69
479.658	94.69
479.876	87.69
480.095	88.69
480.313	90.69
480.532	96.69
480.751	106.69
480.969	132.69
481.188	360.69
481.406	249.69
481.624	96.69
481.843	79.69
482.061	92.69
482.28	106.69
482.498	92.69
482.717	95.69
482.935	88.69
483.153	78.69
483.372	87.69
483.59	90.69
483.808	80.69
484.027	78.69
484.245	85.69
484.463	100.69
484.681	99.69
484.9	98.69
485.118	92.69
485.336	100.69
485.554	88.69
485.772	99.69
485.99	116.69
486.209	100.69
486.427	92.69
486.645	114.69
486.863	103.69
487.081	105.69
487.299	86.69
487.517	82.69
487.735	85.69
487.953	105.69
488.171	97.69
488.389	89.69
488.607	92.69
488.825	83.69
489.043	78.69
489.261	87.69
489.479	100.69
489.696	88.69
489.914	101.69
490.132	89.69
490.35	89.69
490.568	85.69
490.786	80.69
491.003	85.69
491.221	79.69
491.439	82.69
491.657	92.69
491.874	106.69
492.092	87.69
492.31	86.69
492.527	74.69
492.745	98.69
492.963	83.69
493.18	88.69
493.398	97.69
493.615	83.69
493.833	98.69
494.05	93.69
494.268	78.69
494.485	84.69
494.703	89.69
494.92	78.69
495.138	93.69
495.355	91.69
495.573	105.69
495.79	76.69
496.008	86.69
496.225	75.69
496.442	103.69
496.66	98.69
496.877	88.69
497.094	90.69
497.312	82.69
497.529	84.69
497.746	82.69
497.963	84.69
498.181	97.69
498.398	103.69
498.615	100.69
498.832	98.69
499.049	74.69
499.267	73.69
499.484	92.69
499.701	88.69
499.918	85.69
500.135	81.69
500.352	80.69
500.569	92.69
500.786	89.69
501.003	92.69
501.22	98.69
501.437	92.69
501.654	106.69
501.871	98.69
502.088	84.69
502.305	102.69
502.522	78.69
502.739	85.69
502.956	92.69
503.172	87.69
503.389	78.69
503.606	95.69
503.823	105.69
504.04	75.69
504.256	96.69
504.473	81.69
504.69	93.69
504.907	91.69
505.123	92.69
505.34	81.69
505.557	87.69
505.773	90.69
505.99	84.69
506.207	86.69
506.423	69.69
506.64	98.69
506.856	90.69
507.073	91.69
507.289	102.69
507.506	96.69
507.722	90.69
507.939	86.69
508.155	82.69
508.372	98.69
508.588	82.69
508.805	102.69
509.021	97.69
509.238	101.69
509.454	94.69
509.67	88.69
509.887	100.69
510.103	118.69
510.319	182.69
510.536	598.69
510.752	1891.69
510.968	532.69
511.184	132.69
511.401	99.69
511.617	104.69
511.833	99.69
512.049	82.69
512.265	67.69
512.481	99.69
512.698	100.69
512.914	97.69
513.13	84.69
513.346	95.69
513.562	75.69
513.778	98.69
513.994	98.69
514.21	91.69
514.426	109.69
514.642	112.69
514.858	113.69
515.074	151.69
515.29	340.69
515.506	1082.69
515.721	440.69
515.937	143.69
516.153	110.69
516.369	95.69
