Data from BG_HRD10591_096.txt Node
Date: Fri May 16 15:21:41 EDT 2025
User: Yrep
Spectrometer: HR+D1059
Trigger mode: 1
Integration Time (sec): 1.000000E-1
Scans to average: 1
Electric dark correction enabled: true
Nonlinearity correction enabled: false
Boxcar width: 0
XAxis mode: Wavelengths
Number of Pixels in Spectrum: 2048
>>>>>Begin Spectral Data<<<<<
223.165	-18.44
223.4	-18.44
223.635	-18.44
223.869	-14.44
224.104	-26.44
224.338	-9.44
224.573	-20.44
224.808	-8.44
225.042	-10.44
225.277	-10.44
225.511	8.56
225.746	0.56
225.98	4.56
226.215	16.56
226.449	16.56
226.683	24.56
226.918	22.56
227.152	24.56
227.387	33.56
227.621	32.56
227.856	37.56
228.09	48.56
228.324	39.56
228.559	61.56
228.793	60.56
229.027	55.56
229.262	69.56
229.496	67.56
229.73	53.56
229.964	58.56
230.199	72.56
230.433	73.56
230.667	90.56
230.901	69.56
231.136	79.56
231.37	80.56
231.604	83.56
231.838	77.56
232.072	76.56
232.306	71.56
232.541	69.56
232.775	73.56
233.009	79.56
233.243	83.56
233.477	71.56
233.711	75.56
233.945	86.56
234.179	73.56
234.413	76.56
234.647	65.56
234.881	80.56
235.115	100.56
235.349	86.56
235.583	76.56
235.817	74.56
236.051	93.56
236.285	72.56
236.519	73.56
236.753	79.56
236.987	73.56
237.221	66.56
237.455	66.56
237.689	72.56
237.922	67.56
238.156	82.56
238.39	78.56
238.624	77.56
238.858	73.56
239.091	83.56
239.325	83.56
239.559	73.56
239.793	78.56
240.027	67.56
240.26	75.56
240.494	75.56
240.728	79.56
240.961	77.56
241.195	87.56
241.429	71.56
241.662	70.56
241.896	67.56
242.13	59.56
242.363	77.56
242.597	79.56
242.83	74.56
243.064	64.56
243.298	86.56
243.531	81.56
243.765	65.56
243.998	88.56
244.232	71.56
244.465	75.56
244.699	77.56
244.932	92.56
245.166	77.56
245.399	85.56
245.633	80.56
245.866	79.56
246.099	61.56
246.333	69.56
246.566	77.56
246.8	87.56
247.033	85.56
247.266	83.56
247.5	80.56
247.733	76.56
247.966	82.56
248.2	87.56
248.433	76.56
248.666	79.56
248.899	88.56
249.133	85.56
249.366	85.56
249.599	93.56
249.832	80.56
250.066	72.56
250.299	80.56
250.532	71.56
250.765	79.56
250.998	92.56
251.231	77.56
251.465	79.56
251.698	83.56
251.931	85.56
252.164	79.56
252.397	85.56
252.63	79.56
252.863	73.56
253.096	88.56
253.329	83.56
253.562	79.56
253.795	86.56
254.028	81.56
254.261	75.56
254.494	75.56
254.727	80.56
254.96	73.56
255.193	73.56
255.426	74.56
255.659	72.56
255.892	102.56
256.124	85.56
256.357	80.56
256.59	92.56
256.823	75.56
257.056	71.56
257.289	100.56
257.521	92.56
257.754	85.56
257.987	74.56
258.22	80.56
258.452	67.56
258.685	83.56
258.918	70.56
259.151	86.56
259.383	76.56
259.616	78.56
259.849	97.56
260.081	90.56
260.314	83.56
260.547	102.56
260.779	83.56
261.012	75.56
261.244	81.56
261.477	87.56
261.71	87.56
261.942	81.56
262.175	85.56
262.407	83.56
262.64	70.56
262.872	81.56
263.105	79.56
263.337	80.56
263.57	83.56
263.802	80.56
264.035	82.56
264.267	99.56
264.499	75.56
264.732	89.56
264.964	101.56
265.197	83.56
265.429	71.56
265.661	78.56
265.894	77.56
266.126	92.56
266.358	79.56
266.591	81.56
266.823	72.56
267.055	82.56
267.287	79.56
267.52	78.56
267.752	89.56
267.984	74.56
268.216	75.56
268.448	89.56
268.681	84.56
268.913	80.56
269.145	84.56
269.377	92.56
269.609	87.56
269.841	77.56
270.073	85.56
270.306	82.56
270.538	79.56
270.77	73.56
271.002	75.56
271.234	77.56
271.466	85.56
271.698	100.56
271.93	92.56
272.162	84.56
272.394	87.56
272.626	76.56
272.858	88.56
273.09	80.56
273.322	89.56
273.553	99.56
273.785	71.56
274.017	71.56
274.249	96.56
274.481	81.56
274.713	83.56
274.945	80.56
275.176	87.56
275.408	87.56
275.64	102.56
275.872	75.56
276.104	87.56
276.335	104.56
276.567	75.56
276.799	95.56
277.031	94.56
277.262	80.56
277.494	86.56
277.726	94.56
277.957	79.56
278.189	86.56
278.421	83.56
278.652	80.56
278.884	88.56
279.115	99.56
279.347	85.56
279.579	84.56
279.81	85.56
280.042	69.56
280.273	89.56
280.505	79.56
280.736	73.56
280.968	80.56
281.199	92.56
281.431	83.56
281.662	85.56
281.894	86.56
282.125	99.56
282.356	69.56
282.588	83.56
282.819	93.56
283.051	91.56
283.282	79.56
283.513	92.56
283.745	101.56
283.976	91.56
284.207	95.56
284.439	88.56
284.67	95.56
284.901	88.56
285.132	78.56
285.364	87.56
285.595	89.56
285.826	76.56
286.057	80.56
286.288	85.56
286.52	83.56
286.751	96.56
286.982	76.56
287.213	77.56
287.444	92.56
287.675	76.56
287.906	79.56
288.138	77.56
288.369	92.56
288.6	81.56
288.831	86.56
289.062	87.56
289.293	69.56
289.524	75.56
289.755	74.56
289.986	87.56
290.217	89.56
290.448	99.56
290.679	93.56
290.91	87.56
291.141	76.56
291.371	93.56
291.602	84.56
291.833	87.56
292.064	84.56
292.295	109.56
292.526	84.56
292.757	87.56
292.987	84.56
293.218	74.56
293.449	90.56
293.68	95.56
293.91	72.56
294.141	85.56
294.372	88.56
294.603	92.56
294.833	99.56
295.064	77.56
295.295	92.56
295.525	87.56
295.756	97.56
295.987	79.56
296.217	95.56
296.448	100.56
296.679	87.56
296.909	88.56
297.14	97.56
297.37	90.56
297.601	99.56
297.831	94.56
298.062	75.56
298.292	91.56
298.523	92.56
298.753	78.56
298.984	80.56
299.214	89.56
299.445	91.56
299.675	87.56
299.905	98.56
300.136	75.56
300.366	82.56
300.597	93.56
300.827	88.56
301.057	107.56
301.288	107.56
301.518	83.56
301.748	88.56
301.979	103.56
302.209	85.56
302.439	89.56
302.669	83.56
302.9	87.56
303.13	91.56
303.36	78.56
303.59	83.56
303.82	79.56
304.051	91.56
304.281	77.56
304.511	89.56
304.741	80.56
304.971	93.56
305.201	87.56
305.431	93.56
305.661	92.56
305.891	69.56
306.121	91.56
306.352	82.56
306.582	88.56
306.812	91.56
307.042	78.56
307.272	91.56
307.502	101.56
307.731	95.56
307.961	90.56
308.191	96.56
308.421	72.56
308.651	82.56
308.881	85.56
309.111	87.56
309.341	81.56
309.571	87.56
309.8	95.56
310.03	73.56
310.26	78.56
310.49	80.56
310.72	93.56
310.949	93.56
311.179	96.56
311.409	85.56
311.639	93.56
311.868	102.56
312.098	87.56
312.328	96.56
312.557	82.56
312.787	89.56
313.017	102.56
313.246	88.56
313.476	92.56
313.706	101.56
313.935	81.56
314.165	67.56
314.394	101.56
314.624	92.56
314.853	88.56
315.083	82.56
315.312	101.56
315.542	83.56
315.771	89.56
316.001	80.56
316.23	80.56
316.46	93.56
316.689	85.56
316.919	87.56
317.148	78.56
317.377	91.56
317.607	103.56
317.836	92.56
318.065	87.56
318.295	84.56
318.524	77.56
318.753	86.56
318.983	76.56
319.212	87.56
319.441	96.56
319.67	76.56
319.9	80.56
320.129	77.56
320.358	82.56
320.587	84.56
320.816	96.56
321.046	83.56
321.275	81.56
321.504	86.56
321.733	77.56
321.962	85.56
322.191	104.56
322.42	87.56
322.649	102.56
322.878	87.56
323.108	96.56
323.337	79.56
323.566	85.56
323.795	82.56
324.024	76.56
324.253	95.56
324.482	76.56
324.71	84.56
324.939	89.56
325.168	88.56
325.397	78.56
325.626	80.56
325.855	93.56
326.084	95.56
326.313	86.56
326.542	86.56
326.77	86.56
326.999	81.56
327.228	88.56
327.457	87.56
327.686	90.56
327.914	77.56
328.143	101.56
328.372	96.56
328.6	89.56
328.829	76.56
329.058	107.56
329.287	89.56
329.515	86.56
329.744	86.56
329.972	93.56
330.201	76.56
330.43	73.56
330.658	72.56
330.887	85.56
331.115	90.56
331.344	96.56
331.572	94.56
331.801	92.56
332.03	83.56
332.258	76.56
332.486	85.56
332.715	83.56
332.943	79.56
333.172	96.56
333.4	95.56
333.629	79.56
333.857	92.56
334.085	95.56
334.314	88.56
334.542	95.56
334.771	83.56
334.999	87.56
335.227	93.56
335.455	64.56
335.684	89.56
335.912	81.56
336.14	79.56
336.369	85.56
336.597	83.56
336.825	81.56
337.053	92.56
337.281	105.56
337.51	77.56
337.738	88.56
337.966	97.56
338.194	87.56
338.422	69.56
338.65	77.56
338.878	83.56
339.106	85.56
339.334	90.56
339.562	85.56
339.79	84.56
340.018	87.56
340.246	87.56
340.474	89.56
340.702	79.56
340.93	86.56
341.158	88.56
341.386	83.56
341.614	75.56
341.842	80.56
342.07	88.56
342.298	81.56
342.526	89.56
342.754	88.56
342.981	96.56
343.209	91.56
343.437	89.56
343.665	100.56
343.893	85.56
344.12	94.56
344.348	79.56
344.576	87.56
344.804	89.56
345.031	88.56
345.259	90.56
345.487	85.56
345.714	99.56
345.942	85.56
346.17	86.56
346.397	89.56
346.625	90.56
346.853	94.56
347.08	80.56
347.308	91.56
347.535	90.56
347.763	79.56
347.99	72.56
348.218	88.56
348.445	90.56
348.673	81.56
348.9	81.56
349.128	89.56
349.355	97.56
349.583	95.56
349.81	91.56
350.037	89.56
350.265	92.56
350.492	95.56
350.72	67.56
350.947	80.56
351.174	83.56
351.402	87.56
351.629	86.56
351.856	71.56
352.083	85.56
352.311	79.56
352.538	95.56
352.765	76.56
352.992	93.56
353.22	83.56
353.447	91.56
353.674	67.56
353.901	74.56
354.128	89.56
354.355	92.56
354.583	93.56
354.81	103.56
355.037	84.56
355.264	86.56
355.491	73.56
355.718	90.56
355.945	94.56
356.172	88.56
356.399	80.56
356.626	91.56
356.853	69.56
357.08	87.56
357.307	69.56
357.534	93.56
357.761	92.56
357.988	94.56
358.215	95.56
358.441	104.56
358.668	82.56
358.895	76.56
359.122	74.56
359.349	75.56
359.576	82.56
359.802	93.56
360.029	91.56
360.256	99.56
360.483	92.56
360.709	83.56
360.936	77.56
361.163	91.56
361.39	85.56
361.616	81.56
361.843	84.56
362.07	85.56
362.296	87.56
362.523	90.56
362.749	81.56
362.976	80.56
363.203	87.56
363.429	75.56
363.656	90.56
363.882	86.56
364.109	96.56
364.335	83.56
364.562	74.56
364.788	83.56
365.015	77.56
365.241	92.56
365.468	75.56
365.694	100.56
365.92	81.56
366.147	83.56
366.373	76.56
366.599	79.56
366.826	84.56
367.052	77.56
367.278	88.56
367.505	85.56
367.731	95.56
367.957	92.56
368.184	84.56
368.41	88.56
368.636	89.56
368.862	81.56
369.089	81.56
369.315	104.56
369.541	90.56
369.767	87.56
369.993	89.56
370.219	82.56
370.445	83.56
370.672	90.56
370.898	94.56
371.124	94.56
371.35	83.56
371.576	87.56
371.802	80.56
372.028	72.56
372.254	79.56
372.48	85.56
372.706	88.56
372.932	81.56
373.158	93.56
373.384	95.56
373.61	83.56
373.835	83.56
374.061	92.56
374.287	95.56
374.513	110.56
374.739	75.56
374.965	87.56
375.191	84.56
375.416	78.56
375.642	86.56
375.868	90.56
376.094	110.56
376.319	83.56
376.545	96.56
376.771	79.56
376.997	85.56
377.222	77.56
377.448	74.56
377.674	81.56
377.899	87.56
378.125	77.56
378.35	83.56
378.576	70.56
378.802	84.56
379.027	88.56
379.253	94.56
379.478	86.56
379.704	73.56
379.929	78.56
380.155	84.56
380.38	80.56
380.606	89.56
380.831	90.56
381.057	105.56
381.282	83.56
381.507	79.56
381.733	90.56
381.958	78.56
382.184	88.56
382.409	84.56
382.634	90.56
382.86	69.56
383.085	83.56
383.31	84.56
383.535	95.56
383.761	90.56
383.986	95.56
384.211	110.56
384.436	87.56
384.662	79.56
384.887	89.56
385.112	80.56
385.337	80.56
385.562	84.56
385.787	84.56
386.013	101.56
386.238	83.56
386.463	85.56
386.688	93.56
386.913	78.56
387.138	76.56
387.363	83.56
387.588	85.56
387.813	92.56
388.038	92.56
388.263	81.56
388.488	80.56
388.713	85.56
388.938	83.56
389.163	78.56
389.387	71.56
389.612	84.56
389.837	84.56
390.062	79.56
390.287	89.56
390.512	88.56
390.736	81.56
390.961	66.56
391.186	88.56
391.411	87.56
391.636	87.56
391.86	94.56
392.085	92.56
392.31	100.56
392.534	89.56
392.759	97.56
392.984	88.56
393.208	91.56
393.433	108.56
393.658	83.56
393.882	88.56
394.107	85.56
394.331	95.56
394.556	85.56
394.78	93.56
395.005	76.56
395.229	74.56
395.454	80.56
395.678	85.56
395.903	93.56
396.127	88.56
396.352	83.56
396.576	84.56
396.801	90.56
397.025	95.56
397.249	83.56
397.474	81.56
397.698	87.56
397.922	84.56
398.147	71.56
398.371	88.56
398.595	80.56
398.82	85.56
399.044	87.56
399.268	88.56
399.492	79.56
399.717	89.56
399.941	86.56
400.165	80.56
400.389	91.56
400.613	92.56
400.837	96.56
401.062	92.56
401.286	94.56
401.51	85.56
401.734	81.56
401.958	96.56
402.182	85.56
402.406	94.56
402.63	83.56
402.854	94.56
403.078	92.56
403.302	91.56
403.526	86.56
403.75	81.56
403.974	87.56
404.198	93.56
404.422	87.56
404.645	93.56
404.869	99.56
405.093	92.56
405.317	71.56
405.541	94.56
405.765	79.56
405.988	88.56
406.212	92.56
406.436	85.56
406.66	96.56
406.883	101.56
407.107	91.56
407.331	85.56
407.555	72.56
407.778	100.56
408.002	92.56
408.226	93.56
408.449	97.56
408.673	93.56
408.896	95.56
409.12	82.56
409.344	98.56
409.567	87.56
409.791	77.56
410.014	92.56
410.238	87.56
410.461	77.56
410.685	93.56
410.908	86.56
411.132	81.56
411.355	105.56
411.578	99.56
411.802	87.56
412.025	78.56
412.249	84.56
412.472	76.56
412.695	78.56
412.919	79.56
413.142	93.56
413.365	96.56
413.589	84.56
413.812	88.56
414.035	81.56
414.258	92.56
414.482	89.56
414.705	85.56
414.928	69.56
415.151	90.56
415.374	83.56
415.597	92.56
415.821	96.56
416.044	87.56
416.267	97.56
416.49	90.56
416.713	101.56
416.936	95.56
417.159	87.56
417.382	76.56
417.605	70.56
417.828	97.56
418.051	97.56
418.274	89.56
418.497	101.56
418.72	75.56
418.943	95.56
419.166	95.56
419.389	80.56
419.611	73.56
419.834	85.56
420.057	105.56
420.28	95.56
420.503	99.56
420.726	96.56
420.948	82.56
421.171	83.56
421.394	80.56
421.617	83.56
421.839	94.56
422.062	93.56
422.285	91.56
422.507	91.56
422.73	79.56
422.953	93.56
423.175	83.56
423.398	94.56
423.621	102.56
423.843	86.56
424.066	74.56
424.288	78.56
424.511	85.56
424.733	80.56
424.956	83.56
425.178	82.56
425.401	72.56
425.623	90.56
425.846	83.56
426.068	87.56
426.291	93.56
426.513	91.56
426.735	75.56
426.958	84.56
427.18	91.56
427.402	80.56
427.625	93.56
427.847	89.56
428.069	74.56
428.292	86.56
428.514	68.56
428.736	80.56
428.958	86.56
429.181	91.56
429.403	84.56
429.625	96.56
429.847	78.56
430.069	90.56
430.292	87.56
430.514	94.56
430.736	91.56
430.958	95.56
431.18	88.56
431.402	88.56
431.624	82.56
431.846	92.56
432.068	84.56
432.29	83.56
432.512	97.56
432.734	88.56
432.956	83.56
433.178	97.56
433.4	75.56
433.622	85.56
433.844	86.56
434.066	75.56
434.287	89.56
434.509	99.56
434.731	87.56
434.953	85.56
435.175	87.56
435.397	88.56
435.618	76.56
435.84	77.56
436.062	87.56
436.284	97.56
436.505	80.56
436.727	84.56
436.949	73.56
437.17	93.56
437.392	92.56
437.614	80.56
437.835	77.56
438.057	64.56
438.278	82.56
438.5	80.56
438.721	91.56
438.943	89.56
439.165	87.56
439.386	81.56
439.608	74.56
439.829	94.56
440.05	84.56
440.272	91.56
440.493	80.56
440.715	74.56
440.936	82.56
441.158	88.56
441.379	89.56
441.6	86.56
441.822	71.56
442.043	95.56
442.264	72.56
442.486	83.56
442.707	76.56
442.928	87.56
443.149	81.56
443.371	79.56
443.592	85.56
443.813	86.56
444.034	84.56
444.255	76.56
444.476	95.56
444.698	70.56
444.919	99.56
445.14	167.56
445.361	131.56
445.582	89.56
445.803	90.56
446.024	87.56
446.245	85.56
446.466	82.56
446.687	75.56
446.908	79.56
447.129	87.56
447.35	84.56
447.571	97.56
447.792	88.56
448.013	99.56
448.234	89.56
448.455	78.56
448.675	90.56
448.896	83.56
449.117	83.56
449.338	74.56
449.559	82.56
449.779	80.56
450	81.56
450.221	81.56
450.442	95.56
450.662	79.56
450.883	85.56
451.104	91.56
451.324	91.56
451.545	69.56
451.766	85.56
451.986	88.56
452.207	88.56
452.428	80.56
452.648	81.56
452.869	86.56
453.089	74.56
453.31	87.56
453.53	87.56
453.751	77.56
453.971	86.56
454.192	73.56
454.412	86.56
454.633	75.56
454.853	79.56
455.073	79.56
455.294	76.56
455.514	80.56
455.734	82.56
455.955	80.56
456.175	80.56
456.395	59.56
456.616	88.56
456.836	86.56
457.056	103.56
457.276	90.56
457.497	86.56
457.717	96.56
457.937	90.56
458.157	85.56
458.377	97.56
458.598	84.56
458.818	79.56
459.038	83.56
459.258	77.56
459.478	76.56
459.698	76.56
459.918	92.56
460.138	92.56
460.358	89.56
460.578	92.56
460.798	87.56
461.018	83.56
461.238	88.56
461.458	81.56
461.678	94.56
461.898	75.56
462.118	89.56
462.338	94.56
462.558	78.56
462.777	83.56
462.997	93.56
463.217	85.56
463.437	94.56
463.657	89.56
463.876	66.56
464.096	105.56
464.316	93.56
464.536	86.56
464.755	79.56
464.975	95.56
465.195	96.56
465.414	90.56
465.634	88.56
465.854	80.56
466.073	69.56
466.293	83.56
466.512	83.56
466.732	78.56
466.951	87.56
467.171	87.56
467.391	92.56
467.61	79.56
467.829	93.56
468.049	97.56
468.268	76.56
468.488	85.56
468.707	83.56
468.927	99.56
469.146	83.56
469.365	77.56
469.585	84.56
469.804	76.56
470.023	72.56
470.243	79.56
470.462	84.56
470.681	83.56
470.901	100.56
471.12	92.56
471.339	74.56
471.558	87.56
471.777	86.56
471.997	93.56
472.216	101.56
472.435	93.56
472.654	84.56
472.873	94.56
473.092	90.56
473.311	92.56
473.53	94.56
473.749	91.56
473.968	84.56
474.187	79.56
474.406	66.56
474.625	83.56
474.844	93.56
475.063	83.56
475.282	86.56
475.501	82.56
475.72	87.56
475.939	86.56
476.158	78.56
476.377	89.56
476.596	71.56
476.814	86.56
477.033	97.56
477.252	87.56
477.471	100.56
477.69	85.56
477.908	75.56
478.127	80.56
478.346	85.56
478.564	80.56
478.783	82.56
479.002	92.56
479.22	96.56
479.439	92.56
479.658	100.56
479.876	100.56
480.095	77.56
480.313	82.56
480.532	73.56
480.751	81.56
480.969	93.56
481.188	87.56
481.406	88.56
481.624	67.56
481.843	58.56
482.061	92.56
482.28	91.56
482.498	88.56
482.717	91.56
482.935	94.56
483.153	90.56
483.372	90.56
483.59	81.56
483.808	88.56
484.027	82.56
484.245	90.56
484.463	74.56
484.681	87.56
484.9	93.56
485.118	99.56
485.336	95.56
485.554	83.56
485.772	81.56
485.99	81.56
486.209	85.56
486.427	74.56
486.645	91.56
486.863	83.56
487.081	96.56
487.299	78.56
487.517	83.56
487.735	87.56
487.953	86.56
488.171	98.56
488.389	89.56
488.607	80.56
488.825	88.56
489.043	94.56
489.261	91.56
489.479	93.56
489.696	83.56
489.914	104.56
490.132	87.56
490.35	94.56
490.568	114.56
490.786	93.56
491.003	68.56
491.221	88.56
491.439	71.56
491.657	82.56
491.874	92.56
492.092	84.56
492.31	88.56
492.527	89.56
492.745	78.56
492.963	83.56
493.18	79.56
493.398	76.56
493.615	83.56
493.833	88.56
494.05	101.56
494.268	92.56
494.485	91.56
494.703	90.56
494.92	95.56
495.138	87.56
495.355	91.56
495.573	95.56
495.79	80.56
496.008	90.56
496.225	88.56
496.442	81.56
496.66	100.56
496.877	91.56
497.094	93.56
497.312	100.56
497.529	91.56
497.746	87.56
497.963	89.56
498.181	72.56
498.398	87.56
498.615	98.56
498.832	91.56
499.049	103.56
499.267	104.56
499.484	97.56
499.701	103.56
499.918	104.56
500.135	99.56
500.352	103.56
500.569	117.56
500.786	109.56
501.003	102.56
501.22	97.56
501.437	87.56
501.654	86.56
501.871	78.56
502.088	88.56
502.305	94.56
502.522	112.56
502.739	93.56
502.956	88.56
503.172	92.56
503.389	85.56
503.606	85.56
503.823	104.56
504.04	85.56
504.256	91.56
504.473	117.56
504.69	112.56
504.907	93.56
505.123	85.56
505.34	81.56
505.557	99.56
505.773	89.56
505.99	99.56
506.207	90.56
506.423	99.56
506.64	86.56
506.856	83.56
507.073	96.56
507.289	84.56
507.506	94.56
507.722	89.56
507.939	109.56
508.155	110.56
508.372	85.56
508.588	83.56
508.805	75.56
509.021	87.56
509.238	83.56
509.454	80.56
509.67	87.56
509.887	90.56
510.103	90.56
510.319	85.56
510.536	83.56
510.752	81.56
510.968	72.56
511.184	80.56
511.401	66.56
511.617	85.56
511.833	87.56
512.049	88.56
512.265	82.56
512.481	92.56
512.698	103.56
512.914	84.56
513.13	103.56
513.346	70.56
513.562	86.56
513.778	108.56
513.994	87.56
514.21	101.56
514.426	99.56
514.642	93.56
514.858	87.56
515.074	76.56
515.29	99.56
515.506	90.56
515.721	82.56
515.937	80.56
516.153	89.56
516.369	88.56
516.585	88.56
516.801	81.56
517.016	82.56
517.232	91.56
517.448	86.56
517.664	91.56
517.879	93.56
518.095	82.56
518.311	79.56
518.527	82.56
518.742	93.56
518.958	99.56
519.173	100.56
519.389	95.56
