Data from BG_HRD10591_022.txt Node
Date: Fri May 16 15:21:05 EDT 2025
User: Yrep
Spectrometer: HR+D1059
Trigger mode: 1
Integration Time (sec): 1.000000E-1
Scans to average: 1
Electric dark correction enabled: true
Nonlinearity correction enabled: false
Boxcar width: 0
XAxis mode: Wavelengths
Number of Pixels in Spectrum: 2048
>>>>>Begin Spectral Data<<<<<
223.165	-2.25
223.4	-2.25
223.635	-2.25
223.869	-18.25
224.104	-18.25
224.338	-8.25
224.573	-9.25
224.808	-13.25
225.042	-11.25
225.277	-11.25
225.511	-10.25
225.746	1.75
225.98	2.75
226.215	8.75
226.449	13.75
226.683	9.75
226.918	32.75
227.152	32.75
227.387	37.75
227.621	48.75
227.856	29.75
228.09	52.75
228.324	58.75
228.559	55.75
228.793	49.75
229.027	57.75
229.262	57.75
229.496	67.75
229.73	74.75
229.964	77.75
230.199	72.75
230.433	88.75
230.667	71.75
230.901	64.75
231.136	82.75
231.37	89.75
231.604	89.75
231.838	85.75
232.072	76.75
232.306	86.75
232.541	70.75
232.775	84.75
233.009	85.75
233.243	74.75
233.477	73.75
233.711	70.75
233.945	69.75
234.179	72.75
234.413	96.75
234.647	85.75
234.881	72.75
235.115	73.75
235.349	77.75
235.583	77.75
235.817	77.75
236.051	81.75
236.285	84.75
236.519	81.75
236.753	71.75
236.987	86.75
237.221	78.75
237.455	84.75
237.689	71.75
237.922	70.75
238.156	74.75
238.39	67.75
238.624	83.75
238.858	76.75
239.091	83.75
239.325	88.75
239.559	71.75
239.793	61.75
240.027	77.75
240.26	84.75
240.494	88.75
240.728	61.75
240.961	73.75
241.195	88.75
241.429	78.75
241.662	78.75
241.896	88.75
242.13	70.75
242.363	89.75
242.597	81.75
242.83	92.75
243.064	65.75
243.298	72.75
243.531	80.75
243.765	59.75
243.998	80.75
244.232	76.75
244.465	68.75
244.699	74.75
244.932	80.75
245.166	81.75
245.399	93.75
245.633	92.75
245.866	66.75
246.099	88.75
246.333	81.75
246.566	86.75
246.8	79.75
247.033	91.75
247.266	74.75
247.5	84.75
247.733	84.75
247.966	88.75
248.2	79.75
248.433	77.75
248.666	84.75
248.899	82.75
249.133	76.75
249.366	62.75
249.599	70.75
249.832	88.75
250.066	75.75
250.299	77.75
250.532	90.75
250.765	72.75
250.998	90.75
251.231	81.75
251.465	74.75
251.698	78.75
251.931	90.75
252.164	73.75
252.397	79.75
252.63	89.75
252.863	76.75
253.096	78.75
253.329	81.75
253.562	61.75
253.795	74.75
254.028	72.75
254.261	72.75
254.494	76.75
254.727	76.75
254.96	78.75
255.193	87.75
255.426	87.75
255.659	76.75
255.892	94.75
256.124	69.75
256.357	69.75
256.59	80.75
256.823	79.75
257.056	84.75
257.289	89.75
257.521	81.75
257.754	58.75
257.987	77.75
258.22	90.75
258.452	74.75
258.685	103.75
258.918	92.75
259.151	71.75
259.383	82.75
259.616	84.75
259.849	92.75
260.081	88.75
260.314	88.75
260.547	68.75
260.779	81.75
261.012	77.75
261.244	84.75
261.477	87.75
261.71	87.75
261.942	79.75
262.175	88.75
262.407	77.75
262.64	82.75
262.872	72.75
263.105	85.75
263.337	79.75
263.57	77.75
263.802	79.75
264.035	92.75
264.267	81.75
264.499	97.75
264.732	73.75
264.964	74.75
265.197	81.75
265.429	96.75
265.661	85.75
265.894	72.75
266.126	89.75
266.358	96.75
266.591	92.75
266.823	77.75
267.055	95.75
267.287	96.75
267.52	82.75
267.752	75.75
267.984	74.75
268.216	80.75
268.448	80.75
268.681	95.75
268.913	80.75
269.145	75.75
269.377	78.75
269.609	71.75
269.841	71.75
270.073	90.75
270.306	85.75
270.538	92.75
270.77	72.75
271.002	71.75
271.234	92.75
271.466	88.75
271.698	89.75
271.93	93.75
272.162	94.75
272.394	88.75
272.626	80.75
272.858	74.75
273.09	90.75
273.322	88.75
273.553	84.75
273.785	93.75
274.017	77.75
274.249	78.75
274.481	91.75
274.713	88.75
274.945	69.75
275.176	96.75
275.408	79.75
275.64	95.75
275.872	72.75
276.104	92.75
276.335	79.75
276.567	94.75
276.799	92.75
277.031	82.75
277.262	113.75
277.494	92.75
277.726	74.75
277.957	97.75
278.189	91.75
278.421	96.75
278.652	80.75
278.884	80.75
279.115	87.75
279.347	89.75
279.579	89.75
279.81	93.75
280.042	91.75
280.273	88.75
280.505	73.75
280.736	78.75
280.968	81.75
281.199	93.75
281.431	84.75
281.662	96.75
281.894	93.75
282.125	72.75
282.356	76.75
282.588	94.75
282.819	80.75
283.051	81.75
283.282	79.75
283.513	74.75
283.745	86.75
283.976	93.75
284.207	89.75
284.439	81.75
284.67	96.75
284.901	90.75
285.132	90.75
285.364	84.75
285.595	95.75
285.826	88.75
286.057	84.75
286.288	91.75
286.52	75.75
286.751	92.75
286.982	78.75
287.213	86.75
287.444	112.75
287.675	104.75
287.906	90.75
288.138	86.75
288.369	75.75
288.6	81.75
288.831	78.75
289.062	89.75
289.293	87.75
289.524	86.75
289.755	77.75
289.986	85.75
290.217	100.75
290.448	95.75
290.679	89.75
290.91	88.75
291.141	84.75
291.371	79.75
291.602	100.75
291.833	84.75
292.064	98.75
292.295	104.75
292.526	96.75
292.757	79.75
292.987	89.75
293.218	89.75
293.449	92.75
293.68	102.75
293.91	95.75
294.141	94.75
294.372	97.75
294.603	96.75
294.833	74.75
295.064	73.75
295.295	101.75
295.525	105.75
295.756	81.75
295.987	97.75
296.217	86.75
296.448	98.75
296.679	87.75
296.909	86.75
297.14	102.75
297.37	84.75
297.601	89.75
297.831	92.75
298.062	87.75
298.292	89.75
298.523	93.75
298.753	77.75
298.984	93.75
299.214	86.75
299.445	102.75
299.675	85.75
299.905	84.75
300.136	87.75
300.366	92.75
300.597	88.75
300.827	89.75
301.057	74.75
301.288	91.75
301.518	77.75
301.748	87.75
301.979	89.75
302.209	96.75
302.439	82.75
302.669	102.75
302.9	86.75
303.13	96.75
303.36	87.75
303.59	86.75
303.82	85.75
304.051	101.75
304.281	98.75
304.511	95.75
304.741	85.75
304.971	93.75
305.201	82.75
305.431	84.75
305.661	90.75
305.891	88.75
306.121	81.75
306.352	95.75
306.582	92.75
306.812	85.75
307.042	87.75
307.272	69.75
307.502	85.75
307.731	85.75
307.961	95.75
308.191	86.75
308.421	93.75
308.651	90.75
308.881	89.75
309.111	86.75
309.341	86.75
309.571	91.75
309.8	96.75
310.03	97.75
310.26	100.75
310.49	85.75
310.72	92.75
310.949	89.75
311.179	89.75
311.409	88.75
311.639	84.75
311.868	90.75
312.098	94.75
312.328	91.75
312.557	94.75
312.787	78.75
313.017	96.75
313.246	77.75
313.476	100.75
313.706	94.75
313.935	86.75
314.165	86.75
314.394	97.75
314.624	92.75
314.853	92.75
315.083	88.75
315.312	84.75
315.542	90.75
315.771	84.75
316.001	67.75
316.23	83.75
316.46	91.75
316.689	81.75
316.919	88.75
317.148	86.75
317.377	82.75
317.607	84.75
317.836	86.75
318.065	96.75
318.295	87.75
318.524	92.75
318.753	94.75
318.983	98.75
319.212	92.75
319.441	90.75
319.67	85.75
319.9	88.75
320.129	92.75
320.358	86.75
320.587	89.75
320.816	93.75
321.046	88.75
321.275	88.75
321.504	87.75
321.733	83.75
321.962	95.75
322.191	93.75
322.42	100.75
322.649	78.75
322.878	93.75
323.108	93.75
323.337	96.75
323.566	96.75
323.795	92.75
324.024	90.75
324.253	87.75
324.482	92.75
324.71	90.75
324.939	87.75
325.168	85.75
325.397	95.75
325.626	104.75
325.855	100.75
326.084	74.75
326.313	90.75
326.542	88.75
326.77	89.75
326.999	97.75
327.228	92.75
327.457	83.75
327.686	72.75
327.914	100.75
328.143	82.75
328.372	88.75
328.6	89.75
328.829	88.75
329.058	97.75
329.287	84.75
329.515	84.75
329.744	93.75
329.972	88.75
330.201	90.75
330.43	89.75
330.658	104.75
330.887	90.75
331.115	96.75
331.344	94.75
331.572	91.75
331.801	78.75
332.03	97.75
332.258	91.75
332.486	97.75
332.715	103.75
332.943	101.75
333.172	91.75
333.4	86.75
333.629	80.75
333.857	88.75
334.085	88.75
334.314	102.75
334.542	91.75
334.771	78.75
334.999	93.75
335.227	80.75
335.455	112.75
335.684	88.75
335.912	102.75
336.14	90.75
336.369	87.75
336.597	86.75
336.825	85.75
337.053	82.75
337.281	102.75
337.51	95.75
337.738	79.75
337.966	100.75
338.194	91.75
338.422	94.75
338.65	94.75
338.878	104.75
339.106	92.75
339.334	84.75
339.562	96.75
339.79	111.75
340.018	79.75
340.246	80.75
340.474	93.75
340.702	96.75
340.93	95.75
341.158	96.75
341.386	79.75
341.614	86.75
341.842	90.75
342.07	98.75
342.298	97.75
342.526	72.75
342.754	92.75
342.981	84.75
343.209	101.75
343.437	104.75
343.665	104.75
343.893	81.75
344.12	94.75
344.348	103.75
344.576	95.75
344.804	92.75
345.031	93.75
345.259	96.75
345.487	88.75
345.714	86.75
345.942	78.75
346.17	101.75
346.397	84.75
346.625	90.75
346.853	91.75
347.08	84.75
347.308	88.75
347.535	96.75
347.763	96.75
347.99	90.75
348.218	102.75
348.445	85.75
348.673	82.75
348.9	96.75
349.128	94.75
349.355	86.75
349.583	91.75
349.81	88.75
350.037	103.75
350.265	85.75
350.492	97.75
350.72	93.75
350.947	102.75
351.174	86.75
351.402	80.75
351.629	81.75
351.856	95.75
352.083	77.75
352.311	87.75
352.538	93.75
352.765	102.75
352.992	92.75
353.22	96.75
353.447	84.75
353.674	78.75
353.901	103.75
354.128	104.75
354.355	89.75
354.583	82.75
354.81	92.75
355.037	86.75
355.264	92.75
355.491	78.75
355.718	87.75
355.945	95.75
356.172	77.75
356.399	98.75
356.626	88.75
356.853	87.75
357.08	86.75
357.307	90.75
357.534	89.75
357.761	72.75
357.988	80.75
358.215	92.75
358.441	87.75
358.668	80.75
358.895	94.75
359.122	78.75
359.349	80.75
359.576	69.75
359.802	90.75
360.029	81.75
360.256	82.75
360.483	84.75
360.709	80.75
360.936	93.75
361.163	100.75
361.39	70.75
361.616	93.75
361.843	95.75
362.07	92.75
362.296	85.75
362.523	95.75
362.749	93.75
362.976	89.75
363.203	89.75
363.429	89.75
363.656	100.75
363.882	94.75
364.109	107.75
364.335	90.75
364.562	76.75
364.788	86.75
365.015	86.75
365.241	82.75
365.468	85.75
365.694	88.75
365.92	89.75
366.147	85.75
366.373	85.75
366.599	80.75
366.826	95.75
367.052	109.75
367.278	88.75
367.505	80.75
367.731	87.75
367.957	85.75
368.184	91.75
368.41	79.75
368.636	90.75
368.862	82.75
369.089	82.75
369.315	85.75
369.541	81.75
369.767	88.75
369.993	77.75
370.219	80.75
370.445	93.75
370.672	78.75
370.898	87.75
371.124	88.75
371.35	70.75
371.576	84.75
371.802	86.75
372.028	80.75
372.254	96.75
372.48	88.75
372.706	91.75
372.932	94.75
373.158	81.75
373.384	84.75
373.61	90.75
373.835	91.75
374.061	78.75
374.287	77.75
374.513	89.75
374.739	87.75
374.965	104.75
375.191	93.75
375.416	90.75
375.642	87.75
375.868	85.75
376.094	97.75
376.319	100.75
376.545	91.75
376.771	88.75
376.997	94.75
377.222	91.75
377.448	91.75
377.674	94.75
377.899	81.75
378.125	79.75
378.35	85.75
378.576	93.75
378.802	82.75
379.027	83.75
379.253	81.75
379.478	93.75
379.704	94.75
379.929	100.75
380.155	88.75
380.38	105.75
380.606	78.75
380.831	88.75
381.057	80.75
381.282	86.75
381.507	82.75
381.733	88.75
381.958	82.75
382.184	79.75
382.409	82.75
382.634	88.75
382.86	98.75
383.085	87.75
383.31	87.75
383.535	83.75
383.761	100.75
383.986	88.75
384.211	92.75
384.436	105.75
384.662	94.75
384.887	96.75
385.112	84.75
385.337	100.75
385.562	88.75
385.787	86.75
386.013	79.75
386.238	73.75
386.463	91.75
386.688	89.75
386.913	109.75
387.138	84.75
387.363	100.75
387.588	91.75
387.813	93.75
388.038	87.75
388.263	97.75
388.488	93.75
388.713	81.75
388.938	74.75
389.163	101.75
389.387	97.75
389.612	90.75
389.837	96.75
390.062	88.75
390.287	93.75
390.512	81.75
390.736	84.75
390.961	91.75
391.186	86.75
391.411	95.75
391.636	100.75
391.86	89.75
392.085	89.75
392.31	86.75
392.534	88.75
392.759	92.75
392.984	96.75
393.208	78.75
393.433	92.75
393.658	89.75
393.882	86.75
394.107	73.75
394.331	87.75
394.556	89.75
394.78	92.75
395.005	88.75
395.229	97.75
395.454	97.75
395.678	82.75
395.903	73.75
396.127	89.75
396.352	91.75
396.576	90.75
396.801	90.75
397.025	92.75
397.249	80.75
397.474	90.75
397.698	83.75
397.922	76.75
398.147	85.75
398.371	88.75
398.595	79.75
398.82	84.75
399.044	83.75
399.268	94.75
399.492	89.75
399.717	84.75
399.941	94.75
400.165	98.75
400.389	95.75
400.613	90.75
400.837	104.75
401.062	95.75
401.286	92.75
401.51	89.75
401.734	100.75
401.958	88.75
402.182	92.75
402.406	80.75
402.63	100.75
402.854	94.75
403.078	81.75
403.302	78.75
403.526	96.75
403.75	84.75
403.974	87.75
404.198	92.75
404.422	89.75
404.645	96.75
404.869	88.75
405.093	96.75
405.317	97.75
405.541	96.75
405.765	90.75
405.988	73.75
406.212	91.75
406.436	88.75
406.66	90.75
406.883	86.75
407.107	97.75
407.331	99.75
407.555	90.75
407.778	91.75
408.002	89.75
408.226	92.75
408.449	92.75
408.673	90.75
408.896	86.75
409.12	109.75
409.344	78.75
409.567	75.75
409.791	89.75
410.014	87.75
410.238	77.75
410.461	99.75
410.685	78.75
410.908	93.75
411.132	93.75
411.355	89.75
411.578	107.75
411.802	78.75
412.025	92.75
412.249	80.75
412.472	104.75
412.695	95.75
412.919	88.75
413.142	93.75
413.365	85.75
413.589	94.75
413.812	90.75
414.035	96.75
414.258	77.75
414.482	96.75
414.705	86.75
414.928	108.75
415.151	105.75
415.374	77.75
415.597	86.75
415.821	95.75
416.044	82.75
416.267	93.75
416.49	84.75
416.713	86.75
416.936	92.75
417.159	95.75
417.382	91.75
417.605	84.75
417.828	77.75
418.051	76.75
418.274	94.75
418.497	101.75
418.72	75.75
418.943	92.75
419.166	105.75
419.389	84.75
419.611	91.75
419.834	102.75
420.057	88.75
420.28	85.75
420.503	77.75
420.726	103.75
420.948	99.75
421.171	93.75
421.394	81.75
421.617	79.75
421.839	88.75
422.062	84.75
422.285	91.75
422.507	87.75
422.73	101.75
422.953	98.75
423.175	86.75
423.398	79.75
423.621	80.75
423.843	96.75
424.066	91.75
424.288	90.75
424.511	94.75
424.733	96.75
424.956	80.75
425.178	85.75
425.401	94.75
425.623	91.75
425.846	88.75
426.068	100.75
426.291	100.75
426.513	89.75
426.735	100.75
426.958	97.75
427.18	92.75
427.402	86.75
427.625	82.75
427.847	84.75
428.069	74.75
428.292	72.75
428.514	77.75
428.736	91.75
428.958	83.75
429.181	92.75
429.403	86.75
429.625	83.75
429.847	80.75
430.069	76.75
430.292	96.75
430.514	81.75
430.736	101.75
430.958	86.75
431.18	91.75
431.402	77.75
431.624	80.75
431.846	85.75
432.068	90.75
432.29	89.75
432.512	93.75
432.734	96.75
432.956	91.75
433.178	102.75
433.4	82.75
433.622	90.75
433.844	112.75
434.066	82.75
434.287	86.75
434.509	94.75
434.731	81.75
434.953	84.75
435.175	94.75
435.397	68.75
435.618	95.75
435.84	107.75
436.062	91.75
436.284	85.75
436.505	101.75
436.727	91.75
436.949	84.75
437.17	95.75
437.392	91.75
437.614	85.75
437.835	88.75
438.057	75.75
438.278	85.75
438.5	90.75
438.721	100.75
438.943	89.75
439.165	76.75
439.386	83.75
439.608	100.75
439.829	88.75
440.05	89.75
440.272	96.75
440.493	85.75
440.715	84.75
440.936	88.75
441.158	92.75
441.379	89.75
441.6	84.75
441.822	84.75
442.043	90.75
442.264	88.75
442.486	104.75
442.707	94.75
442.928	87.75
443.149	71.75
443.371	93.75
443.592	76.75
443.813	97.75
444.034	93.75
444.255	88.75
444.476	84.75
444.698	95.75
444.919	94.75
445.14	175.75
445.361	116.75
445.582	85.75
445.803	100.75
446.024	64.75
446.245	90.75
446.466	94.75
446.687	96.75
446.908	76.75
447.129	85.75
447.35	88.75
447.571	89.75
447.792	94.75
448.013	88.75
448.234	78.75
448.455	103.75
448.675	88.75
448.896	89.75
449.117	91.75
449.338	84.75
449.559	81.75
449.779	79.75
450	80.75
450.221	92.75
450.442	94.75
450.662	96.75
450.883	86.75
451.104	94.75
451.324	96.75
451.545	98.75
451.766	89.75
451.986	95.75
452.207	90.75
452.428	83.75
452.648	92.75
452.869	87.75
453.089	87.75
453.31	82.75
453.53	80.75
453.751	81.75
453.971	77.75
454.192	85.75
454.412	84.75
454.633	85.75
454.853	92.75
455.073	73.75
455.294	86.75
455.514	93.75
455.734	73.75
455.955	77.75
456.175	84.75
456.395	75.75
456.616	97.75
456.836	91.75
457.056	80.75
457.276	95.75
457.497	70.75
457.717	72.75
457.937	84.75
458.157	87.75
458.377	92.75
458.598	90.75
458.818	94.75
459.038	89.75
459.258	88.75
459.478	106.75
459.698	93.75
459.918	92.75
460.138	89.75
460.358	86.75
460.578	88.75
460.798	87.75
461.018	91.75
461.238	100.75
461.458	81.75
461.678	76.75
461.898	83.75
462.118	98.75
462.338	92.75
462.558	93.75
462.777	82.75
462.997	97.75
463.217	80.75
463.437	102.75
463.657	109.75
463.876	85.75
464.096	85.75
464.316	90.75
464.536	105.75
464.755	77.75
464.975	101.75
465.195	95.75
465.414	86.75
465.634	84.75
465.854	89.75
466.073	91.75
466.293	83.75
466.512	90.75
466.732	85.75
466.951	93.75
467.171	89.75
467.391	93.75
467.61	80.75
467.829	81.75
468.049	86.75
468.268	87.75
468.488	78.75
468.707	94.75
468.927	82.75
469.146	90.75
469.365	89.75
469.585	81.75
469.804	83.75
470.023	84.75
470.243	95.75
470.462	68.75
470.681	81.75
470.901	76.75
471.12	81.75
471.339	86.75
471.558	80.75
471.777	93.75
471.997	90.75
472.216	74.75
472.435	101.75
472.654	90.75
472.873	77.75
473.092	96.75
473.311	85.75
473.53	65.75
473.749	88.75
473.968	86.75
474.187	89.75
474.406	90.75
474.625	79.75
474.844	110.75
475.063	75.75
475.282	84.75
475.501	88.75
475.72	100.75
475.939	81.75
476.158	93.75
476.377	88.75
476.596	90.75
476.814	96.75
477.033	91.75
477.252	100.75
477.471	89.75
477.69	103.75
477.908	92.75
478.127	81.75
478.346	93.75
478.564	93.75
478.783	92.75
479.002	84.75
479.22	83.75
479.439	102.75
479.658	89.75
479.876	97.75
480.095	94.75
480.313	94.75
480.532	88.75
480.751	86.75
480.969	95.75
481.188	88.75
481.406	95.75
481.624	78.75
481.843	86.75
482.061	86.75
482.28	95.75
482.498	97.75
482.717	89.75
482.935	104.75
483.153	90.75
483.372	94.75
483.59	106.75
483.808	106.75
484.027	85.75
484.245	90.75
484.463	89.75
484.681	95.75
484.9	78.75
485.118	93.75
485.336	85.75
485.554	103.75
485.772	99.75
485.99	91.75
486.209	92.75
486.427	89.75
486.645	92.75
486.863	92.75
487.081	77.75
487.299	80.75
487.517	100.75
487.735	90.75
487.953	94.75
488.171	87.75
488.389	97.75
488.607	90.75
488.825	91.75
489.043	85.75
489.261	98.75
489.479	92.75
489.696	80.75
489.914	97.75
490.132	98.75
490.35	107.75
490.568	87.75
490.786	98.75
491.003	88.75
491.221	88.75
491.439	93.75
491.657	98.75
491.874	78.75
492.092	102.75
492.31	92.75
492.527	98.75
492.745	90.75
492.963	102.75
493.18	95.75
493.398	109.75
493.615	97.75
493.833	85.75
494.05	94.75
494.268	77.75
494.485	114.75
494.703	102.75
494.92	89.75
495.138	97.75
495.355	92.75
495.573	74.75
495.79	91.75
496.008	100.75
496.225	91.75
496.442	90.75
496.66	92.75
496.877	94.75
497.094	111.75
497.312	83.75
497.529	97.75
497.746	87.75
497.963	99.75
498.181	102.75
498.398	96.75
498.615	104.75
498.832	95.75
499.049	84.75
499.267	98.75
499.484	97.75
499.701	96.75
499.918	103.75
500.135	98.75
500.352	110.75
500.569	115.75
500.786	96.75
501.003	104.75
501.22	94.75
501.437	112.75
501.654	102.75
501.871	79.75
502.088	93.75
502.305	83.75
502.522	92.75
502.739	100.75
502.956	102.75
503.172	99.75
503.389	100.75
503.606	96.75
503.823	95.75
504.04	96.75
504.256	90.75
504.473	88.75
504.69	80.75
504.907	96.75
505.123	97.75
505.34	95.75
505.557	84.75
505.773	84.75
505.99	88.75
506.207	99.75
506.423	80.75
506.64	74.75
506.856	81.75
507.073	90.75
507.289	93.75
507.506	82.75
507.722	88.75
507.939	89.75
508.155	91.75
508.372	88.75
508.588	90.75
508.805	74.75
509.021	105.75
509.238	86.75
509.454	86.75
509.67	85.75
509.887	83.75
510.103	80.75
510.319	64.75
510.536	87.75
510.752	91.75
510.968	89.75
511.184	97.75
511.401	94.75
511.617	98.75
511.833	99.75
512.049	102.75
512.265	96.75
512.481	87.75
512.698	83.75
512.914	87.75
513.13	92.75
513.346	72.75
513.562	92.75
513.778	110.75
513.994	93.75
514.21	81.75
514.426	100.75
514.642	105.75
514.858	97.75
515.074	84.75
515.29	94.75
515.506	97.75
515.721	88.75
515.937	90.75
516.153	80.75
516.369	87.75
516.585	86.75
516.801	78.75
517.016	83.75
517.232	93.75
517.448	100.75
517.664	88.75
517.879	90.75
518.095	95.75
518.311	99.75
518.527	73.75
518.742	94.75
