Data from BG_HRD10591_079.txt Node
Date: Fri May 16 15:21:33 EDT 2025
User: Yrep
Spectrometer: HR+D1059
Trigger mode: 1
Integration Time (sec): 1.000000E-1
Scans to average: 1
Electric dark correction enabled: true
Nonlinearity correction enabled: false
Boxcar width: 0
XAxis mode: Wavelengths
Number of Pixels in Spectrum: 2048
>>>>>Begin Spectral Data<<<<<
223.165	-5.88
223.4	-5.88
223.635	-5.88
223.869	-26.88
224.104	-23.88
224.338	-12.88
224.573	-3.88
224.808	-8.88
225.042	-2.88
225.277	-5.88
225.511	1.12
225.746	-5.88
225.98	9.12
226.215	15.12
226.449	9.12
226.683	15.12
226.918	24.12
227.152	23.12
227.387	24.12
227.621	45.12
227.856	48.12
228.09	57.12
228.324	38.12
228.559	53.12
228.793	62.12
229.027	70.12
229.262	63.12
229.496	78.12
229.73	62.12
229.964	73.12
230.199	62.12
230.433	71.12
230.667	74.12
230.901	74.12
231.136	70.12
231.37	87.12
231.604	74.12
231.838	77.12
232.072	76.12
232.306	75.12
232.541	84.12
232.775	75.12
233.009	90.12
233.243	78.12
233.477	80.12
233.711	93.12
233.945	68.12
234.179	89.12
234.413	78.12
234.647	70.12
234.881	81.12
235.115	82.12
235.349	83.12
235.583	70.12
235.817	73.12
236.051	78.12
236.285	82.12
236.519	76.12
236.753	80.12
236.987	72.12
237.221	77.12
237.455	64.12
237.689	82.12
237.922	83.12
238.156	66.12
238.39	72.12
238.624	82.12
238.858	74.12
239.091	95.12
239.325	82.12
239.559	70.12
239.793	79.12
240.027	74.12
240.26	70.12
240.494	78.12
240.728	76.12
240.961	72.12
241.195	75.12
241.429	76.12
241.662	63.12
241.896	82.12
242.13	75.12
242.363	79.12
242.597	68.12
242.83	81.12
243.064	76.12
243.298	72.12
243.531	64.12
243.765	70.12
243.998	90.12
244.232	74.12
244.465	77.12
244.699	80.12
244.932	74.12
245.166	82.12
245.399	70.12
245.633	80.12
245.866	84.12
246.099	78.12
246.333	78.12
246.566	67.12
246.8	76.12
247.033	69.12
247.266	81.12
247.5	87.12
247.733	94.12
247.966	96.12
248.2	95.12
248.433	62.12
248.666	71.12
248.899	77.12
249.133	74.12
249.366	77.12
249.599	67.12
249.832	87.12
250.066	67.12
250.299	65.12
250.532	80.12
250.765	66.12
250.998	73.12
251.231	64.12
251.465	87.12
251.698	83.12
251.931	71.12
252.164	69.12
252.397	76.12
252.63	76.12
252.863	69.12
253.096	86.12
253.329	94.12
253.562	76.12
253.795	84.12
254.028	73.12
254.261	87.12
254.494	80.12
254.727	88.12
254.96	80.12
255.193	77.12
255.426	72.12
255.659	78.12
255.892	79.12
256.124	78.12
256.357	85.12
256.59	67.12
256.823	90.12
257.056	80.12
257.289	78.12
257.521	79.12
257.754	80.12
257.987	75.12
258.22	83.12
258.452	86.12
258.685	83.12
258.918	90.12
259.151	82.12
259.383	88.12
259.616	82.12
259.849	92.12
260.081	76.12
260.314	69.12
260.547	78.12
260.779	83.12
261.012	92.12
261.244	82.12
261.477	85.12
261.71	77.12
261.942	85.12
262.175	82.12
262.407	81.12
262.64	80.12
262.872	84.12
263.105	100.12
263.337	100.12
263.57	78.12
263.802	78.12
264.035	83.12
264.267	81.12
264.499	71.12
264.732	88.12
264.964	77.12
265.197	84.12
265.429	80.12
265.661	88.12
265.894	79.12
266.126	85.12
266.358	90.12
266.591	86.12
266.823	71.12
267.055	85.12
267.287	86.12
267.52	83.12
267.752	77.12
267.984	71.12
268.216	80.12
268.448	83.12
268.681	81.12
268.913	75.12
269.145	83.12
269.377	75.12
269.609	87.12
269.841	84.12
270.073	76.12
270.306	80.12
270.538	78.12
270.77	72.12
271.002	93.12
271.234	79.12
271.466	91.12
271.698	88.12
271.93	80.12
272.162	74.12
272.394	79.12
272.626	88.12
272.858	81.12
273.09	79.12
273.322	82.12
273.553	88.12
273.785	93.12
274.017	88.12
274.249	86.12
274.481	82.12
274.713	82.12
274.945	72.12
275.176	80.12
275.408	88.12
275.64	96.12
275.872	85.12
276.104	87.12
276.335	95.12
276.567	81.12
276.799	79.12
277.031	80.12
277.262	71.12
277.494	95.12
277.726	86.12
277.957	86.12
278.189	75.12
278.421	74.12
278.652	92.12
278.884	90.12
279.115	93.12
279.347	92.12
279.579	86.12
279.81	87.12
280.042	79.12
280.273	88.12
280.505	76.12
280.736	83.12
280.968	75.12
281.199	74.12
281.431	80.12
281.662	92.12
281.894	86.12
282.125	92.12
282.356	72.12
282.588	80.12
282.819	86.12
283.051	79.12
283.282	72.12
283.513	98.12
283.745	82.12
283.976	85.12
284.207	94.12
284.439	90.12
284.67	98.12
284.901	80.12
285.132	91.12
285.364	92.12
285.595	107.12
285.826	82.12
286.057	89.12
286.288	93.12
286.52	90.12
286.751	97.12
286.982	91.12
287.213	82.12
287.444	88.12
287.675	100.12
287.906	89.12
288.138	91.12
288.369	83.12
288.6	89.12
288.831	83.12
289.062	88.12
289.293	99.12
289.524	76.12
289.755	92.12
289.986	89.12
290.217	80.12
290.448	82.12
290.679	99.12
290.91	92.12
291.141	77.12
291.371	93.12
291.602	63.12
291.833	85.12
292.064	85.12
292.295	85.12
292.526	97.12
292.757	78.12
292.987	81.12
293.218	87.12
293.449	78.12
293.68	96.12
293.91	92.12
294.141	67.12
294.372	76.12
294.603	80.12
294.833	100.12
295.064	67.12
295.295	76.12
295.525	93.12
295.756	80.12
295.987	90.12
296.217	83.12
296.448	84.12
296.679	73.12
296.909	85.12
297.14	95.12
297.37	87.12
297.601	78.12
297.831	92.12
298.062	91.12
298.292	95.12
298.523	95.12
298.753	90.12
298.984	91.12
299.214	73.12
299.445	100.12
299.675	86.12
299.905	83.12
300.136	90.12
300.366	77.12
300.597	94.12
300.827	95.12
301.057	78.12
301.288	80.12
301.518	82.12
301.748	86.12
301.979	90.12
302.209	76.12
302.439	76.12
302.669	93.12
302.9	92.12
303.13	77.12
303.36	83.12
303.59	86.12
303.82	84.12
304.051	96.12
304.281	92.12
304.511	88.12
304.741	81.12
304.971	92.12
305.201	69.12
305.431	91.12
305.661	83.12
305.891	86.12
306.121	90.12
306.352	84.12
306.582	90.12
306.812	87.12
307.042	64.12
307.272	85.12
307.502	80.12
307.731	92.12
307.961	100.12
308.191	80.12
308.421	88.12
308.651	80.12
308.881	94.12
309.111	98.12
309.341	79.12
309.571	98.12
309.8	88.12
310.03	80.12
310.26	90.12
310.49	108.12
310.72	77.12
310.949	91.12
311.179	76.12
311.409	88.12
311.639	85.12
311.868	89.12
312.098	77.12
312.328	83.12
312.557	83.12
312.787	96.12
313.017	82.12
313.246	82.12
313.476	73.12
313.706	90.12
313.935	82.12
314.165	67.12
314.394	78.12
314.624	86.12
314.853	80.12
315.083	85.12
315.312	85.12
315.542	90.12
315.771	91.12
316.001	90.12
316.23	94.12
316.46	84.12
316.689	92.12
316.919	85.12
317.148	80.12
317.377	88.12
317.607	88.12
317.836	72.12
318.065	86.12
318.295	94.12
318.524	103.12
318.753	75.12
318.983	82.12
319.212	96.12
319.441	83.12
319.67	81.12
319.9	90.12
320.129	88.12
320.358	93.12
320.587	89.12
320.816	98.12
321.046	86.12
321.275	90.12
321.504	87.12
321.733	94.12
321.962	72.12
322.191	84.12
322.42	93.12
322.649	86.12
322.878	87.12
323.108	91.12
323.337	81.12
323.566	84.12
323.795	84.12
324.024	79.12
324.253	69.12
324.482	92.12
324.71	82.12
324.939	100.12
325.168	98.12
325.397	97.12
325.626	102.12
325.855	85.12
326.084	80.12
326.313	91.12
326.542	90.12
326.77	89.12
326.999	86.12
327.228	79.12
327.457	90.12
327.686	78.12
327.914	87.12
328.143	91.12
328.372	79.12
328.6	74.12
328.829	90.12
329.058	77.12
329.287	86.12
329.515	80.12
329.744	86.12
329.972	99.12
330.201	89.12
330.43	80.12
330.658	84.12
330.887	90.12
331.115	69.12
331.344	84.12
331.572	90.12
331.801	78.12
332.03	80.12
332.258	84.12
332.486	80.12
332.715	95.12
332.943	90.12
333.172	89.12
333.4	85.12
333.629	86.12
333.857	86.12
334.085	72.12
334.314	102.12
334.542	84.12
334.771	102.12
334.999	85.12
335.227	77.12
335.455	85.12
335.684	94.12
335.912	90.12
336.14	90.12
336.369	106.12
336.597	80.12
336.825	94.12
337.053	82.12
337.281	86.12
337.51	92.12
337.738	86.12
337.966	82.12
338.194	83.12
338.422	92.12
338.65	78.12
338.878	80.12
339.106	78.12
339.334	97.12
339.562	88.12
339.79	89.12
340.018	84.12
340.246	99.12
340.474	101.12
340.702	104.12
340.93	84.12
341.158	73.12
341.386	87.12
341.614	87.12
341.842	91.12
342.07	87.12
342.298	84.12
342.526	103.12
342.754	93.12
342.981	84.12
343.209	86.12
343.437	96.12
343.665	93.12
343.893	100.12
344.12	85.12
344.348	87.12
344.576	87.12
344.804	83.12
345.031	88.12
345.259	98.12
345.487	88.12
345.714	89.12
345.942	92.12
346.17	92.12
346.397	94.12
346.625	70.12
346.853	79.12
347.08	73.12
347.308	88.12
347.535	90.12
347.763	92.12
347.99	94.12
348.218	85.12
348.445	76.12
348.673	80.12
348.9	80.12
349.128	99.12
349.355	85.12
349.583	102.12
349.81	84.12
350.037	82.12
350.265	75.12
350.492	75.12
350.72	76.12
350.947	84.12
351.174	79.12
351.402	94.12
351.629	82.12
351.856	69.12
352.083	82.12
352.311	80.12
352.538	83.12
352.765	80.12
352.992	88.12
353.22	82.12
353.447	82.12
353.674	75.12
353.901	91.12
354.128	90.12
354.355	86.12
354.583	77.12
354.81	90.12
355.037	87.12
355.264	83.12
355.491	80.12
355.718	92.12
355.945	87.12
356.172	92.12
356.399	80.12
356.626	81.12
356.853	74.12
357.08	89.12
357.307	82.12
357.534	82.12
357.761	87.12
357.988	76.12
358.215	96.12
358.441	98.12
358.668	89.12
358.895	83.12
359.122	78.12
359.349	82.12
359.576	86.12
359.802	79.12
360.029	84.12
360.256	86.12
360.483	85.12
360.709	80.12
360.936	95.12
361.163	87.12
361.39	94.12
361.616	72.12
361.843	76.12
362.07	84.12
362.296	82.12
362.523	84.12
362.749	86.12
362.976	94.12
363.203	99.12
363.429	73.12
363.656	86.12
363.882	89.12
364.109	85.12
364.335	86.12
364.562	79.12
364.788	100.12
365.015	80.12
365.241	100.12
365.468	85.12
365.694	94.12
365.92	98.12
366.147	94.12
366.373	94.12
366.599	81.12
366.826	75.12
367.052	79.12
367.278	79.12
367.505	95.12
367.731	96.12
367.957	77.12
368.184	81.12
368.41	106.12
368.636	82.12
368.862	62.12
369.089	95.12
369.315	92.12
369.541	72.12
369.767	92.12
369.993	81.12
370.219	84.12
370.445	77.12
370.672	91.12
370.898	85.12
371.124	89.12
371.35	86.12
371.576	90.12
371.802	86.12
372.028	95.12
372.254	92.12
372.48	85.12
372.706	82.12
372.932	85.12
373.158	83.12
373.384	93.12
373.61	92.12
373.835	85.12
374.061	80.12
374.287	83.12
374.513	95.12
374.739	95.12
374.965	86.12
375.191	81.12
375.416	86.12
375.642	91.12
375.868	88.12
376.094	92.12
376.319	78.12
376.545	82.12
376.771	92.12
376.997	93.12
377.222	106.12
377.448	78.12
377.674	93.12
377.899	86.12
378.125	80.12
378.35	94.12
378.576	77.12
378.802	86.12
379.027	80.12
379.253	80.12
379.478	96.12
379.704	92.12
379.929	73.12
380.155	83.12
380.38	91.12
380.606	88.12
380.831	87.12
381.057	86.12
381.282	102.12
381.507	90.12
381.733	80.12
381.958	83.12
382.184	86.12
382.409	85.12
382.634	87.12
382.86	87.12
383.085	83.12
383.31	87.12
383.535	76.12
383.761	98.12
383.986	89.12
384.211	98.12
384.436	88.12
384.662	82.12
384.887	79.12
385.112	80.12
385.337	70.12
385.562	86.12
385.787	94.12
386.013	91.12
386.238	84.12
386.463	74.12
386.688	89.12
386.913	84.12
387.138	84.12
387.363	69.12
387.588	93.12
387.813	82.12
388.038	78.12
388.263	93.12
388.488	78.12
388.713	95.12
388.938	87.12
389.163	86.12
389.387	94.12
389.612	91.12
389.837	80.12
390.062	91.12
390.287	76.12
390.512	79.12
390.736	80.12
390.961	82.12
391.186	79.12
391.411	87.12
391.636	83.12
391.86	87.12
392.085	94.12
392.31	78.12
392.534	83.12
392.759	74.12
392.984	86.12
393.208	88.12
393.433	76.12
393.658	91.12
393.882	81.12
394.107	86.12
394.331	89.12
394.556	83.12
394.78	77.12
395.005	86.12
395.229	80.12
395.454	93.12
395.678	82.12
395.903	83.12
396.127	78.12
396.352	90.12
396.576	95.12
396.801	83.12
397.025	104.12
397.249	95.12
397.474	86.12
397.698	106.12
397.922	90.12
398.147	88.12
398.371	90.12
398.595	86.12
398.82	96.12
399.044	87.12
399.268	86.12
399.492	90.12
399.717	100.12
399.941	95.12
400.165	88.12
400.389	91.12
400.613	88.12
400.837	87.12
401.062	83.12
401.286	80.12
401.51	92.12
401.734	99.12
401.958	94.12
402.182	99.12
402.406	93.12
402.63	95.12
402.854	74.12
403.078	100.12
403.302	84.12
403.526	84.12
403.75	99.12
403.974	98.12
404.198	90.12
404.422	94.12
404.645	91.12
404.869	57.12
405.093	84.12
405.317	80.12
405.541	82.12
405.765	82.12
405.988	106.12
406.212	94.12
406.436	92.12
406.66	106.12
406.883	96.12
407.107	91.12
407.331	73.12
407.555	90.12
407.778	95.12
408.002	77.12
408.226	98.12
408.449	102.12
408.673	103.12
408.896	91.12
409.12	94.12
409.344	89.12
409.567	76.12
409.791	94.12
410.014	82.12
410.238	86.12
410.461	87.12
410.685	79.12
410.908	71.12
411.132	89.12
411.355	80.12
411.578	83.12
411.802	90.12
412.025	81.12
412.249	90.12
412.472	89.12
412.695	98.12
412.919	86.12
413.142	82.12
413.365	88.12
413.589	91.12
413.812	90.12
414.035	84.12
414.258	83.12
414.482	99.12
414.705	79.12
414.928	85.12
415.151	83.12
415.374	78.12
415.597	82.12
415.821	83.12
416.044	81.12
416.267	79.12
416.49	94.12
416.713	93.12
416.936	102.12
417.159	93.12
417.382	87.12
417.605	89.12
417.828	89.12
418.051	86.12
418.274	94.12
418.497	101.12
418.72	85.12
418.943	87.12
419.166	89.12
419.389	80.12
419.611	76.12
419.834	86.12
420.057	84.12
420.28	100.12
420.503	82.12
420.726	87.12
420.948	83.12
421.171	81.12
421.394	84.12
421.617	87.12
421.839	82.12
422.062	87.12
422.285	75.12
422.507	96.12
422.73	85.12
422.953	77.12
423.175	95.12
423.398	77.12
423.621	85.12
423.843	92.12
424.066	86.12
424.288	83.12
424.511	90.12
424.733	88.12
424.956	91.12
425.178	78.12
425.401	72.12
425.623	79.12
425.846	83.12
426.068	95.12
426.291	84.12
426.513	84.12
426.735	89.12
426.958	93.12
427.18	82.12
427.402	92.12
427.625	78.12
427.847	82.12
428.069	98.12
428.292	91.12
428.514	87.12
428.736	86.12
428.958	86.12
429.181	78.12
429.403	96.12
429.625	86.12
429.847	91.12
430.069	94.12
430.292	91.12
430.514	93.12
430.736	95.12
430.958	73.12
431.18	88.12
431.402	82.12
431.624	96.12
431.846	72.12
432.068	74.12
432.29	89.12
432.512	87.12
432.734	89.12
432.956	94.12
433.178	101.12
433.4	86.12
433.622	86.12
433.844	91.12
434.066	79.12
434.287	90.12
434.509	99.12
434.731	82.12
434.953	96.12
435.175	82.12
435.397	88.12
435.618	82.12
435.84	82.12
436.062	99.12
436.284	86.12
436.505	66.12
436.727	85.12
436.949	89.12
437.17	86.12
437.392	88.12
437.614	85.12
437.835	80.12
438.057	94.12
438.278	88.12
438.5	77.12
438.721	76.12
438.943	84.12
439.165	84.12
439.386	85.12
439.608	84.12
439.829	95.12
440.05	91.12
440.272	65.12
440.493	74.12
440.715	90.12
440.936	81.12
441.158	80.12
441.379	88.12
441.6	92.12
441.822	88.12
442.043	91.12
442.264	91.12
442.486	77.12
442.707	76.12
442.928	76.12
443.149	98.12
443.371	91.12
443.592	96.12
443.813	94.12
444.034	75.12
444.255	86.12
444.476	99.12
444.698	93.12
444.919	98.12
445.14	166.12
445.361	123.12
445.582	91.12
445.803	90.12
446.024	87.12
446.245	89.12
446.466	68.12
446.687	84.12
446.908	100.12
447.129	95.12
447.35	86.12
447.571	81.12
447.792	87.12
448.013	76.12
448.234	83.12
448.455	80.12
448.675	90.12
448.896	89.12
449.117	94.12
449.338	96.12
449.559	89.12
449.779	87.12
450	104.12
450.221	96.12
450.442	82.12
450.662	93.12
450.883	88.12
451.104	87.12
451.324	72.12
451.545	84.12
451.766	67.12
451.986	87.12
452.207	89.12
452.428	78.12
452.648	72.12
452.869	83.12
453.089	77.12
453.31	75.12
453.53	106.12
453.751	90.12
453.971	89.12
454.192	91.12
454.412	71.12
454.633	86.12
454.853	86.12
455.073	90.12
455.294	95.12
455.514	90.12
455.734	85.12
455.955	64.12
456.175	78.12
456.395	70.12
456.616	95.12
456.836	82.12
457.056	75.12
457.276	84.12
457.497	79.12
457.717	77.12
457.937	83.12
458.157	87.12
458.377	86.12
458.598	82.12
458.818	69.12
459.038	81.12
459.258	81.12
459.478	76.12
459.698	87.12
459.918	88.12
460.138	85.12
460.358	92.12
460.578	84.12
460.798	83.12
461.018	74.12
461.238	86.12
461.458	86.12
461.678	91.12
461.898	92.12
462.118	102.12
462.338	92.12
462.558	86.12
462.777	99.12
462.997	87.12
463.217	97.12
463.437	96.12
463.657	79.12
463.876	75.12
464.096	96.12
464.316	100.12
464.536	86.12
464.755	91.12
464.975	96.12
465.195	90.12
465.414	93.12
465.634	84.12
465.854	94.12
466.073	101.12
466.293	77.12
466.512	75.12
466.732	76.12
466.951	86.12
467.171	102.12
467.391	93.12
467.61	75.12
467.829	94.12
468.049	82.12
468.268	77.12
468.488	87.12
468.707	108.12
468.927	86.12
469.146	86.12
469.365	90.12
469.585	86.12
469.804	88.12
470.023	73.12
470.243	88.12
470.462	73.12
470.681	94.12
470.901	89.12
471.12	86.12
471.339	86.12
471.558	82.12
471.777	90.12
471.997	97.12
472.216	75.12
472.435	88.12
472.654	107.12
472.873	98.12
473.092	87.12
473.311	93.12
473.53	90.12
473.749	85.12
473.968	87.12
474.187	87.12
474.406	80.12
474.625	82.12
474.844	82.12
475.063	81.12
475.282	94.12
475.501	75.12
475.72	80.12
475.939	83.12
476.158	84.12
476.377	82.12
476.596	78.12
476.814	84.12
477.033	96.12
477.252	82.12
477.471	91.12
477.69	91.12
477.908	78.12
478.127	98.12
478.346	81.12
478.564	105.12
478.783	79.12
479.002	86.12
479.22	93.12
479.439	88.12
479.658	96.12
479.876	82.12
480.095	80.12
480.313	81.12
480.532	82.12
480.751	80.12
480.969	91.12
481.188	93.12
481.406	84.12
481.624	86.12
481.843	80.12
482.061	79.12
482.28	87.12
482.498	88.12
482.717	83.12
482.935	92.12
483.153	81.12
483.372	86.12
483.59	79.12
483.808	76.12
484.027	89.12
484.245	93.12
484.463	88.12
484.681	89.12
484.9	88.12
485.118	90.12
485.336	89.12
485.554	79.12
485.772	92.12
485.99	84.12
486.209	101.12
486.427	92.12
486.645	92.12
486.863	79.12
487.081	82.12
487.299	95.12
487.517	94.12
487.735	86.12
487.953	104.12
488.171	84.12
488.389	98.12
488.607	84.12
488.825	93.12
489.043	94.12
489.261	90.12
489.479	76.12
489.696	87.12
489.914	82.12
490.132	88.12
490.35	95.12
490.568	77.12
490.786	85.12
491.003	94.12
491.221	78.12
491.439	83.12
491.657	77.12
491.874	78.12
492.092	79.12
492.31	89.12
492.527	83.12
492.745	87.12
492.963	91.12
493.18	95.12
493.398	83.12
493.615	77.12
493.833	93.12
494.05	95.12
494.268	94.12
494.485	83.12
494.703	89.12
494.92	80.12
495.138	99.12
495.355	92.12
495.573	79.12
495.79	86.12
496.008	82.12
496.225	85.12
496.442	87.12
496.66	102.12
496.877	90.12
497.094	91.12
497.312	88.12
497.529	89.12
497.746	98.12
497.963	85.12
498.181	76.12
498.398	102.12
498.615	99.12
498.832	106.12
499.049	83.12
499.267	90.12
499.484	89.12
499.701	89.12
499.918	110.12
500.135	86.12
500.352	118.12
500.569	113.12
500.786	112.12
501.003	100.12
501.22	94.12
501.437	94.12
501.654	85.12
501.871	105.12
502.088	94.12
502.305	91.12
502.522	96.12
502.739	110.12
502.956	90.12
503.172	92.12
503.389	101.12
503.606	100.12
503.823	74.12
504.04	96.12
504.256	81.12
504.473	87.12
504.69	108.12
504.907	91.12
505.123	87.12
505.34	79.12
505.557	87.12
505.773	89.12
505.99	103.12
506.207	91.12
506.423	87.12
506.64	84.12
506.856	91.12
507.073	82.12
507.289	83.12
507.506	87.12
507.722	74.12
507.939	89.12
508.155	86.12
508.372	90.12
508.588	78.12
508.805	91.12
509.021	86.12
509.238	92.12
509.454	76.12
509.67	76.12
509.887	90.12
510.103	84.12
510.319	101.12
510.536	76.12
510.752	98.12
510.968	96.12
511.184	88.12
511.401	88.12
511.617	82.12
511.833	82.12
512.049	84.12
512.265	92.12
512.481	90.12
512.698	86.12
512.914	83.12
513.13	81.12
513.346	81.12
513.562	90.12
513.778	76.12
513.994	77.12
514.21	94.12
514.426	96.12
514.642	90.12
514.858	87.12
515.074	71.12
515.29	96.12
515.506	87.12
515.721	81.12
515.937	92.12
516.153	76.12
516.369	88.12
516.585	79.12
516.801	98.12
517.016	83.12
517.232	79.12
517.448	77.12
517.664	96.12
517.879	91.12
518.095	95.12
518.311	81.12
518.527	91.12
518.742	85.12
518.958	89.12
519.173	88.12
519.389	88.12
519.605	91.12
