Data from BG_HRD10591_026.txt Node
Date: Fri May 16 15:21:07 EDT 2025
User: Yrep
Spectrometer: HR+D1059
Trigger mode: 1
Integration Time (sec): 1.000000E-1
Scans to average: 1
Electric dark correction enabled: true
Nonlinearity correction enabled: false
Boxcar width: 0
XAxis mode: Wavelengths
Number of Pixels in Spectrum: 2048
>>>>>Begin Spectral Data<<<<<
223.165	-11.88
223.4	-11.88
223.635	-11.88
223.869	-42.88
224.104	-16.88
224.338	-6.88
224.573	-5.88
224.808	-14.88
225.042	-7.88
225.277	-6.88
225.511	1.12
225.746	1.12
225.98	12.12
226.215	6.12
226.449	22.12
226.683	4.12
226.918	30.12
227.152	37.12
227.387	27.12
227.621	41.12
227.856	53.12
228.09	41.12
228.324	49.12
228.559	58.12
228.793	58.12
229.027	65.12
229.262	64.12
229.496	62.12
229.73	76.12
229.964	65.12
230.199	68.12
230.433	83.12
230.667	73.12
230.901	81.12
231.136	80.12
231.37	77.12
231.604	71.12
231.838	95.12
232.072	74.12
232.306	80.12
232.541	77.12
232.775	87.12
233.009	81.12
233.243	69.12
233.477	78.12
233.711	75.12
233.945	86.12
234.179	57.12
234.413	71.12
234.647	91.12
234.881	71.12
235.115	89.12
235.349	82.12
235.583	88.12
235.817	92.12
236.051	73.12
236.285	75.12
236.519	75.12
236.753	67.12
236.987	78.12
237.221	78.12
237.455	80.12
237.689	83.12
237.922	82.12
238.156	77.12
238.39	56.12
238.624	61.12
238.858	71.12
239.091	78.12
239.325	77.12
239.559	84.12
239.793	90.12
240.027	71.12
240.26	81.12
240.494	73.12
240.728	84.12
240.961	60.12
241.195	73.12
241.429	77.12
241.662	89.12
241.896	76.12
242.13	58.12
242.363	83.12
242.597	81.12
242.83	94.12
243.064	79.12
243.298	79.12
243.531	56.12
243.765	89.12
243.998	70.12
244.232	81.12
244.465	77.12
244.699	64.12
244.932	82.12
245.166	94.12
245.399	94.12
245.633	86.12
245.866	80.12
246.099	84.12
246.333	75.12
246.566	81.12
246.8	76.12
247.033	83.12
247.266	83.12
247.5	84.12
247.733	72.12
247.966	75.12
248.2	61.12
248.433	75.12
248.666	65.12
248.899	81.12
249.133	74.12
249.366	80.12
249.599	98.12
249.832	78.12
250.066	92.12
250.299	87.12
250.532	79.12
250.765	86.12
250.998	71.12
251.231	72.12
251.465	97.12
251.698	87.12
251.931	79.12
252.164	82.12
252.397	85.12
252.63	80.12
252.863	79.12
253.096	73.12
253.329	69.12
253.562	77.12
253.795	96.12
254.028	83.12
254.261	92.12
254.494	78.12
254.727	61.12
254.96	76.12
255.193	66.12
255.426	85.12
255.659	89.12
255.892	72.12
256.124	84.12
256.357	80.12
256.59	77.12
256.823	87.12
257.056	79.12
257.289	79.12
257.521	77.12
257.754	91.12
257.987	78.12
258.22	76.12
258.452	81.12
258.685	82.12
258.918	73.12
259.151	77.12
259.383	89.12
259.616	83.12
259.849	88.12
260.081	84.12
260.314	85.12
260.547	74.12
260.779	83.12
261.012	80.12
261.244	81.12
261.477	92.12
261.71	67.12
261.942	81.12
262.175	85.12
262.407	83.12
262.64	79.12
262.872	78.12
263.105	67.12
263.337	81.12
263.57	83.12
263.802	74.12
264.035	83.12
264.267	72.12
264.499	86.12
264.732	80.12
264.964	84.12
265.197	81.12
265.429	80.12
265.661	91.12
265.894	71.12
266.126	85.12
266.358	97.12
266.591	92.12
266.823	75.12
267.055	83.12
267.287	76.12
267.52	83.12
267.752	80.12
267.984	86.12
268.216	87.12
268.448	81.12
268.681	81.12
268.913	83.12
269.145	79.12
269.377	88.12
269.609	77.12
269.841	82.12
270.073	88.12
270.306	84.12
270.538	73.12
270.77	82.12
271.002	81.12
271.234	87.12
271.466	83.12
271.698	74.12
271.93	76.12
272.162	99.12
272.394	83.12
272.626	91.12
272.858	74.12
273.09	72.12
273.322	75.12
273.553	78.12
273.785	83.12
274.017	80.12
274.249	88.12
274.481	85.12
274.713	91.12
274.945	93.12
275.176	75.12
275.408	72.12
275.64	80.12
275.872	74.12
276.104	68.12
276.335	81.12
276.567	96.12
276.799	83.12
277.031	77.12
277.262	89.12
277.494	75.12
277.726	87.12
277.957	81.12
278.189	86.12
278.421	85.12
278.652	82.12
278.884	76.12
279.115	89.12
279.347	81.12
279.579	92.12
279.81	85.12
280.042	81.12
280.273	88.12
280.505	86.12
280.736	83.12
280.968	91.12
281.199	84.12
281.431	88.12
281.662	90.12
281.894	95.12
282.125	96.12
282.356	87.12
282.588	85.12
282.819	87.12
283.051	91.12
283.282	76.12
283.513	85.12
283.745	95.12
283.976	75.12
284.207	81.12
284.439	99.12
284.67	90.12
284.901	84.12
285.132	97.12
285.364	89.12
285.595	84.12
285.826	95.12
286.057	86.12
286.288	105.12
286.52	85.12
286.751	66.12
286.982	69.12
287.213	88.12
287.444	91.12
287.675	84.12
287.906	81.12
288.138	95.12
288.369	87.12
288.6	85.12
288.831	82.12
289.062	93.12
289.293	72.12
289.524	86.12
289.755	73.12
289.986	83.12
290.217	87.12
290.448	80.12
290.679	84.12
290.91	101.12
291.141	77.12
291.371	97.12
291.602	107.12
291.833	93.12
292.064	93.12
292.295	91.12
292.526	83.12
292.757	91.12
292.987	88.12
293.218	89.12
293.449	72.12
293.68	86.12
293.91	78.12
294.141	86.12
294.372	82.12
294.603	92.12
294.833	77.12
295.064	81.12
295.295	82.12
295.525	93.12
295.756	95.12
295.987	80.12
296.217	97.12
296.448	91.12
296.679	82.12
296.909	77.12
297.14	90.12
297.37	96.12
297.601	76.12
297.831	91.12
298.062	84.12
298.292	79.12
298.523	90.12
298.753	84.12
298.984	84.12
299.214	78.12
299.445	93.12
299.675	98.12
299.905	85.12
300.136	86.12
300.366	80.12
300.597	90.12
300.827	96.12
301.057	73.12
301.288	97.12
301.518	79.12
301.748	81.12
301.979	96.12
302.209	80.12
302.439	105.12
302.669	93.12
302.9	90.12
303.13	101.12
303.36	87.12
303.59	90.12
303.82	85.12
304.051	88.12
304.281	96.12
304.511	102.12
304.741	83.12
304.971	101.12
305.201	72.12
305.431	85.12
305.661	93.12
305.891	74.12
306.121	87.12
306.352	95.12
306.582	88.12
306.812	76.12
307.042	92.12
307.272	83.12
307.502	95.12
307.731	69.12
307.961	93.12
308.191	78.12
308.421	89.12
308.651	93.12
308.881	86.12
309.111	72.12
309.341	91.12
309.571	82.12
309.8	73.12
310.03	85.12
310.26	87.12
310.49	77.12
310.72	77.12
310.949	89.12
311.179	84.12
311.409	97.12
311.639	87.12
311.868	107.12
312.098	89.12
312.328	94.12
312.557	84.12
312.787	93.12
313.017	87.12
313.246	86.12
313.476	92.12
313.706	104.12
313.935	95.12
314.165	95.12
314.394	100.12
314.624	84.12
314.853	84.12
315.083	99.12
315.312	99.12
315.542	94.12
315.771	97.12
316.001	74.12
316.23	89.12
316.46	82.12
316.689	76.12
316.919	82.12
317.148	86.12
317.377	87.12
317.607	86.12
317.836	79.12
318.065	78.12
318.295	77.12
318.524	86.12
318.753	90.12
318.983	76.12
319.212	97.12
319.441	87.12
319.67	73.12
319.9	85.12
320.129	91.12
320.358	89.12
320.587	83.12
320.816	77.12
321.046	92.12
321.275	85.12
321.504	81.12
321.733	87.12
321.962	80.12
322.191	89.12
322.42	85.12
322.649	99.12
322.878	83.12
323.108	93.12
323.337	90.12
323.566	88.12
323.795	79.12
324.024	93.12
324.253	70.12
324.482	89.12
324.71	84.12
324.939	94.12
325.168	78.12
325.397	88.12
325.626	84.12
325.855	87.12
326.084	69.12
326.313	87.12
326.542	85.12
326.77	91.12
326.999	84.12
327.228	95.12
327.457	96.12
327.686	80.12
327.914	93.12
328.143	75.12
328.372	81.12
328.6	77.12
328.829	82.12
329.058	88.12
329.287	85.12
329.515	79.12
329.744	93.12
329.972	95.12
330.201	82.12
330.43	68.12
330.658	84.12
330.887	92.12
331.115	97.12
331.344	88.12
331.572	89.12
331.801	92.12
332.03	87.12
332.258	105.12
332.486	85.12
332.715	78.12
332.943	89.12
333.172	91.12
333.4	103.12
333.629	98.12
333.857	108.12
334.085	85.12
334.314	91.12
334.542	73.12
334.771	89.12
334.999	89.12
335.227	93.12
335.455	84.12
335.684	86.12
335.912	92.12
336.14	91.12
336.369	85.12
336.597	89.12
336.825	73.12
337.053	90.12
337.281	80.12
337.51	88.12
337.738	94.12
337.966	87.12
338.194	83.12
338.422	86.12
338.65	91.12
338.878	79.12
339.106	88.12
339.334	81.12
339.562	84.12
339.79	91.12
340.018	102.12
340.246	99.12
340.474	97.12
340.702	92.12
340.93	106.12
341.158	85.12
341.386	95.12
341.614	76.12
341.842	99.12
342.07	81.12
342.298	91.12
342.526	87.12
342.754	90.12
342.981	100.12
343.209	86.12
343.437	103.12
343.665	84.12
343.893	83.12
344.12	104.12
344.348	90.12
344.576	83.12
344.804	95.12
345.031	88.12
345.259	97.12
345.487	85.12
345.714	89.12
345.942	83.12
346.17	97.12
346.397	81.12
346.625	82.12
346.853	92.12
347.08	110.12
347.308	87.12
347.535	93.12
347.763	90.12
347.99	80.12
348.218	94.12
348.445	74.12
348.673	92.12
348.9	82.12
349.128	80.12
349.355	77.12
349.583	80.12
349.81	100.12
350.037	93.12
350.265	83.12
350.492	87.12
350.72	89.12
350.947	95.12
351.174	77.12
351.402	92.12
351.629	81.12
351.856	81.12
352.083	87.12
352.311	86.12
352.538	86.12
352.765	92.12
352.992	94.12
353.22	89.12
353.447	81.12
353.674	89.12
353.901	90.12
354.128	91.12
354.355	75.12
354.583	83.12
354.81	85.12
355.037	86.12
355.264	78.12
355.491	95.12
355.718	88.12
355.945	102.12
356.172	80.12
356.399	85.12
356.626	83.12
356.853	88.12
357.08	83.12
357.307	81.12
357.534	95.12
357.761	84.12
357.988	83.12
358.215	93.12
358.441	77.12
358.668	79.12
358.895	84.12
359.122	91.12
359.349	81.12
359.576	79.12
359.802	91.12
360.029	77.12
360.256	91.12
360.483	111.12
360.709	73.12
360.936	94.12
361.163	103.12
361.39	92.12
361.616	95.12
361.843	87.12
362.07	81.12
362.296	76.12
362.523	93.12
362.749	91.12
362.976	77.12
363.203	103.12
363.429	86.12
363.656	92.12
363.882	83.12
364.109	96.12
364.335	86.12
364.562	83.12
364.788	80.12
365.015	88.12
365.241	103.12
365.468	100.12
365.694	79.12
365.92	89.12
366.147	96.12
366.373	88.12
366.599	97.12
366.826	78.12
367.052	79.12
367.278	88.12
367.505	92.12
367.731	90.12
367.957	71.12
368.184	73.12
368.41	88.12
368.636	97.12
368.862	72.12
369.089	83.12
369.315	86.12
369.541	89.12
369.767	80.12
369.993	85.12
370.219	81.12
370.445	84.12
370.672	93.12
370.898	92.12
371.124	90.12
371.35	87.12
371.576	75.12
371.802	86.12
372.028	86.12
372.254	87.12
372.48	85.12
372.706	89.12
372.932	91.12
373.158	104.12
373.384	90.12
373.61	96.12
373.835	93.12
374.061	77.12
374.287	87.12
374.513	93.12
374.739	85.12
374.965	88.12
375.191	81.12
375.416	63.12
375.642	87.12
375.868	94.12
376.094	88.12
376.319	77.12
376.545	85.12
376.771	77.12
376.997	89.12
377.222	76.12
377.448	89.12
377.674	87.12
377.899	73.12
378.125	90.12
378.35	91.12
378.576	99.12
378.802	83.12
379.027	93.12
379.253	85.12
379.478	80.12
379.704	85.12
379.929	91.12
380.155	78.12
380.38	107.12
380.606	91.12
380.831	78.12
381.057	95.12
381.282	97.12
381.507	78.12
381.733	105.12
381.958	76.12
382.184	89.12
382.409	81.12
382.634	89.12
382.86	89.12
383.085	92.12
383.31	91.12
383.535	78.12
383.761	86.12
383.986	84.12
384.211	89.12
384.436	87.12
384.662	85.12
384.887	76.12
385.112	85.12
385.337	80.12
385.562	80.12
385.787	96.12
386.013	92.12
386.238	88.12
386.463	89.12
386.688	89.12
386.913	96.12
387.138	74.12
387.363	97.12
387.588	83.12
387.813	90.12
388.038	98.12
388.263	99.12
388.488	82.12
388.713	90.12
388.938	89.12
389.163	96.12
389.387	93.12
389.612	91.12
389.837	84.12
390.062	88.12
390.287	90.12
390.512	97.12
390.736	88.12
390.961	81.12
391.186	93.12
391.411	82.12
391.636	84.12
391.86	92.12
392.085	92.12
392.31	86.12
392.534	79.12
392.759	96.12
392.984	83.12
393.208	103.12
393.433	81.12
393.658	84.12
393.882	95.12
394.107	86.12
394.331	96.12
394.556	81.12
394.78	89.12
395.005	86.12
395.229	90.12
395.454	99.12
395.678	87.12
395.903	90.12
396.127	96.12
396.352	89.12
396.576	81.12
396.801	83.12
397.025	85.12
397.249	89.12
397.474	87.12
397.698	92.12
397.922	99.12
398.147	89.12
398.371	95.12
398.595	81.12
398.82	77.12
399.044	87.12
399.268	94.12
399.492	85.12
399.717	107.12
399.941	84.12
400.165	83.12
400.389	77.12
400.613	83.12
400.837	96.12
401.062	85.12
401.286	86.12
401.51	87.12
401.734	83.12
401.958	79.12
402.182	85.12
402.406	96.12
402.63	77.12
402.854	85.12
403.078	88.12
403.302	85.12
403.526	86.12
403.75	83.12
403.974	99.12
404.198	104.12
404.422	102.12
404.645	92.12
404.869	85.12
405.093	89.12
405.317	89.12
405.541	77.12
405.765	89.12
405.988	88.12
406.212	78.12
406.436	80.12
406.66	87.12
406.883	89.12
407.107	93.12
407.331	75.12
407.555	82.12
407.778	90.12
408.002	85.12
408.226	87.12
408.449	92.12
408.673	91.12
408.896	92.12
409.12	90.12
409.344	100.12
409.567	87.12
409.791	91.12
410.014	89.12
410.238	75.12
410.461	88.12
410.685	83.12
410.908	78.12
411.132	95.12
411.355	79.12
411.578	93.12
411.802	101.12
412.025	96.12
412.249	78.12
412.472	90.12
412.695	78.12
412.919	86.12
413.142	88.12
413.365	94.12
413.589	91.12
413.812	84.12
414.035	87.12
414.258	97.12
414.482	92.12
414.705	89.12
414.928	87.12
415.151	91.12
415.374	76.12
415.597	88.12
415.821	90.12
416.044	103.12
416.267	90.12
416.49	84.12
416.713	81.12
416.936	89.12
417.159	77.12
417.382	86.12
417.605	70.12
417.828	85.12
418.051	91.12
418.274	104.12
418.497	77.12
418.72	84.12
418.943	71.12
419.166	104.12
419.389	94.12
419.611	87.12
419.834	83.12
420.057	81.12
420.28	82.12
420.503	91.12
420.726	81.12
420.948	102.12
421.171	72.12
421.394	79.12
421.617	91.12
421.839	101.12
422.062	92.12
422.285	90.12
422.507	94.12
422.73	79.12
422.953	90.12
423.175	91.12
423.398	90.12
423.621	91.12
423.843	97.12
424.066	73.12
424.288	73.12
424.511	95.12
424.733	82.12
424.956	96.12
425.178	90.12
425.401	84.12
425.623	92.12
425.846	92.12
426.068	82.12
426.291	100.12
426.513	75.12
426.735	93.12
426.958	81.12
427.18	77.12
427.402	95.12
427.625	87.12
427.847	85.12
428.069	94.12
428.292	80.12
428.514	79.12
428.736	77.12
428.958	83.12
429.181	94.12
429.403	95.12
429.625	70.12
429.847	83.12
430.069	66.12
430.292	87.12
430.514	91.12
430.736	88.12
430.958	81.12
431.18	95.12
431.402	85.12
431.624	78.12
431.846	103.12
432.068	97.12
432.29	97.12
432.512	89.12
432.734	90.12
432.956	80.12
433.178	102.12
433.4	103.12
433.622	93.12
433.844	101.12
434.066	85.12
434.287	90.12
434.509	87.12
434.731	77.12
434.953	89.12
435.175	82.12
435.397	87.12
435.618	88.12
435.84	83.12
436.062	84.12
436.284	89.12
436.505	83.12
436.727	87.12
436.949	100.12
437.17	105.12
437.392	97.12
437.614	103.12
437.835	91.12
438.057	91.12
438.278	93.12
438.5	87.12
438.721	84.12
438.943	81.12
439.165	86.12
439.386	84.12
439.608	81.12
439.829	82.12
440.05	91.12
440.272	92.12
440.493	90.12
440.715	78.12
440.936	72.12
441.158	79.12
441.379	83.12
441.6	93.12
441.822	83.12
442.043	88.12
442.264	78.12
442.486	69.12
442.707	73.12
442.928	90.12
443.149	86.12
443.371	79.12
443.592	84.12
443.813	79.12
444.034	73.12
444.255	95.12
444.476	87.12
444.698	92.12
444.919	81.12
445.14	160.12
445.361	103.12
445.582	98.12
445.803	87.12
446.024	79.12
446.245	108.12
446.466	83.12
446.687	87.12
446.908	80.12
447.129	97.12
447.35	104.12
447.571	90.12
447.792	85.12
448.013	93.12
448.234	75.12
448.455	80.12
448.675	92.12
448.896	85.12
449.117	90.12
449.338	85.12
449.559	89.12
449.779	90.12
450	89.12
450.221	85.12
450.442	81.12
450.662	67.12
450.883	107.12
451.104	93.12
451.324	84.12
451.545	81.12
451.766	79.12
451.986	81.12
452.207	101.12
452.428	85.12
452.648	90.12
452.869	89.12
453.089	89.12
453.31	77.12
453.53	63.12
453.751	87.12
453.971	97.12
454.192	93.12
454.412	91.12
454.633	86.12
454.853	83.12
455.073	74.12
455.294	75.12
455.514	88.12
455.734	85.12
455.955	86.12
456.175	103.12
456.395	96.12
456.616	94.12
456.836	86.12
457.056	84.12
457.276	89.12
457.497	87.12
457.717	85.12
457.937	80.12
458.157	93.12
458.377	79.12
458.598	96.12
458.818	81.12
459.038	75.12
459.258	82.12
459.478	75.12
459.698	84.12
459.918	95.12
460.138	91.12
460.358	83.12
460.578	85.12
460.798	95.12
461.018	97.12
461.238	95.12
461.458	92.12
461.678	94.12
461.898	96.12
462.118	87.12
462.338	101.12
462.558	94.12
462.777	99.12
462.997	100.12
463.217	113.12
463.437	103.12
463.657	91.12
463.876	82.12
464.096	93.12
464.316	75.12
464.536	81.12
464.755	93.12
464.975	78.12
465.195	89.12
465.414	72.12
465.634	90.12
465.854	95.12
466.073	78.12
466.293	89.12
466.512	90.12
466.732	92.12
466.951	85.12
467.171	74.12
467.391	78.12
467.61	95.12
467.829	95.12
468.049	91.12
468.268	84.12
468.488	87.12
468.707	81.12
468.927	85.12
469.146	93.12
469.365	90.12
469.585	74.12
469.804	85.12
470.023	76.12
470.243	72.12
470.462	81.12
470.681	79.12
470.901	95.12
471.12	91.12
471.339	81.12
471.558	92.12
471.777	89.12
471.997	85.12
472.216	90.12
472.435	93.12
472.654	96.12
472.873	90.12
473.092	90.12
473.311	90.12
473.53	81.12
473.749	81.12
473.968	72.12
474.187	88.12
474.406	86.12
474.625	92.12
474.844	84.12
475.063	90.12
475.282	83.12
475.501	87.12
475.72	75.12
475.939	87.12
476.158	85.12
476.377	80.12
476.596	92.12
476.814	93.12
477.033	86.12
477.252	85.12
477.471	78.12
477.69	86.12
477.908	85.12
478.127	87.12
478.346	86.12
478.564	94.12
478.783	90.12
479.002	86.12
479.22	106.12
479.439	94.12
479.658	81.12
479.876	90.12
480.095	83.12
480.313	80.12
480.532	90.12
480.751	95.12
480.969	94.12
481.188	84.12
481.406	88.12
481.624	103.12
481.843	85.12
482.061	88.12
482.28	91.12
482.498	90.12
482.717	91.12
482.935	84.12
483.153	80.12
483.372	86.12
483.59	99.12
483.808	85.12
484.027	100.12
484.245	83.12
484.463	91.12
484.681	96.12
484.9	84.12
485.118	103.12
485.336	99.12
485.554	93.12
485.772	88.12
485.99	98.12
486.209	90.12
486.427	78.12
486.645	89.12
486.863	88.12
487.081	84.12
487.299	100.12
487.517	94.12
487.735	84.12
487.953	94.12
488.171	77.12
488.389	77.12
488.607	78.12
488.825	79.12
489.043	79.12
489.261	87.12
489.479	91.12
489.696	81.12
489.914	83.12
490.132	89.12
490.35	99.12
490.568	88.12
490.786	79.12
491.003	83.12
491.221	99.12
491.439	78.12
491.657	84.12
491.874	95.12
492.092	83.12
492.31	107.12
492.527	86.12
492.745	87.12
492.963	96.12
493.18	92.12
493.398	91.12
493.615	90.12
493.833	78.12
494.05	92.12
494.268	90.12
494.485	84.12
494.703	95.12
494.92	89.12
495.138	81.12
495.355	81.12
495.573	76.12
495.79	76.12
496.008	85.12
496.225	96.12
496.442	93.12
496.66	104.12
496.877	91.12
497.094	97.12
497.312	94.12
497.529	86.12
497.746	96.12
497.963	102.12
498.181	81.12
498.398	91.12
498.615	80.12
498.832	109.12
499.049	100.12
499.267	101.12
499.484	97.12
499.701	100.12
499.918	111.12
500.135	112.12
500.352	112.12
500.569	119.12
500.786	101.12
501.003	106.12
501.22	80.12
501.437	92.12
501.654	86.12
501.871	101.12
502.088	96.12
502.305	99.12
502.522	103.12
502.739	91.12
502.956	87.12
503.172	89.12
503.389	94.12
503.606	88.12
503.823	87.12
504.04	105.12
504.256	92.12
504.473	85.12
504.69	85.12
504.907	101.12
505.123	77.12
505.34	91.12
505.557	101.12
505.773	95.12
505.99	79.12
506.207	97.12
506.423	101.12
506.64	99.12
506.856	86.12
507.073	82.12
507.289	93.12
507.506	83.12
507.722	84.12
507.939	87.12
508.155	96.12
508.372	88.12
508.588	85.12
508.805	88.12
509.021	110.12
509.238	89.12
509.454	96.12
509.67	101.12
509.887	88.12
510.103	79.12
510.319	93.12
510.536	77.12
510.752	92.12
510.968	85.12
511.184	93.12
511.401	77.12
511.617	89.12
511.833	87.12
512.049	85.12
512.265	87.12
512.481	82.12
512.698	88.12
512.914	96.12
513.13	88.12
513.346	94.12
513.562	81.12
513.778	83.12
513.994	93.12
514.21	97.12
514.426	90.12
514.642	94.12
514.858	90.12
515.074	85.12
515.29	82.12
515.506	90.12
515.721	95.12
515.937	90.12
516.153	75.12
516.369	99.12
516.585	97.12
516.801	101.12
517.016	88.12
517.232	85.12
517.448	94.12
517.664	101.12
517.879	95.12
518.095	93.12
518.311	96.12
518.527	96.12
518.742	96.12
518.958	86.12
519.173	93.12
