Data from BG_HRD10591_043.txt Node
Date: Fri May 16 15:21:15 EDT 2025
User: Yrep
Spectrometer: HR+D1059
Trigger mode: 1
Integration Time (sec): 1.000000E-1
Scans to average: 1
Electric dark correction enabled: true
Nonlinearity correction enabled: false
Boxcar width: 0
XAxis mode: Wavelengths
Number of Pixels in Spectrum: 2048
>>>>>Begin Spectral Data<<<<<
223.165	-21.56
223.4	-21.56
223.635	-21.56
223.869	-12.56
224.104	-18.56
224.338	-15.56
224.573	-6.56
224.808	-13.56
225.042	-9.56
225.277	0.44
225.511	-8.56
225.746	5.44
225.98	8.44
226.215	14.44
226.449	6.44
226.683	24.44
226.918	26.44
227.152	20.44
227.387	29.44
227.621	60.44
227.856	46.44
228.09	50.44
228.324	52.44
228.559	67.44
228.793	68.44
229.027	65.44
229.262	72.44
229.496	78.44
229.73	63.44
229.964	67.44
230.199	79.44
230.433	75.44
230.667	75.44
230.901	68.44
231.136	74.44
231.37	64.44
231.604	77.44
231.838	80.44
232.072	78.44
232.306	94.44
232.541	81.44
232.775	79.44
233.009	82.44
233.243	67.44
233.477	87.44
233.711	88.44
233.945	86.44
234.179	62.44
234.413	103.44
234.647	78.44
234.881	81.44
235.115	82.44
235.349	95.44
235.583	84.44
235.817	78.44
236.051	84.44
236.285	74.44
236.519	86.44
236.753	73.44
236.987	83.44
237.221	74.44
237.455	70.44
237.689	80.44
237.922	86.44
238.156	83.44
238.39	76.44
238.624	81.44
238.858	83.44
239.091	87.44
239.325	94.44
239.559	81.44
239.793	80.44
240.027	78.44
240.26	67.44
240.494	74.44
240.728	74.44
240.961	87.44
241.195	86.44
241.429	66.44
241.662	74.44
241.896	80.44
242.13	86.44
242.363	91.44
242.597	70.44
242.83	87.44
243.064	87.44
243.298	84.44
243.531	74.44
243.765	90.44
243.998	84.44
244.232	80.44
244.465	90.44
244.699	87.44
244.932	81.44
245.166	72.44
245.399	83.44
245.633	85.44
245.866	75.44
246.099	71.44
246.333	80.44
246.566	76.44
246.8	78.44
247.033	62.44
247.266	87.44
247.5	67.44
247.733	83.44
247.966	94.44
248.2	74.44
248.433	75.44
248.666	74.44
248.899	90.44
249.133	87.44
249.366	82.44
249.599	74.44
249.832	75.44
250.066	95.44
250.299	80.44
250.532	86.44
250.765	66.44
250.998	88.44
251.231	93.44
251.465	86.44
251.698	80.44
251.931	75.44
252.164	73.44
252.397	75.44
252.63	84.44
252.863	85.44
253.096	81.44
253.329	92.44
253.562	96.44
253.795	80.44
254.028	78.44
254.261	85.44
254.494	91.44
254.727	76.44
254.96	82.44
255.193	72.44
255.426	69.44
255.659	92.44
255.892	78.44
256.124	98.44
256.357	74.44
256.59	78.44
256.823	79.44
257.056	87.44
257.289	74.44
257.521	75.44
257.754	78.44
257.987	90.44
258.22	82.44
258.452	87.44
258.685	82.44
258.918	96.44
259.151	89.44
259.383	74.44
259.616	90.44
259.849	82.44
260.081	100.44
260.314	88.44
260.547	74.44
260.779	77.44
261.012	86.44
261.244	88.44
261.477	83.44
261.71	76.44
261.942	94.44
262.175	80.44
262.407	79.44
262.64	72.44
262.872	79.44
263.105	75.44
263.337	103.44
263.57	79.44
263.802	87.44
264.035	83.44
264.267	86.44
264.499	94.44
264.732	83.44
264.964	77.44
265.197	87.44
265.429	87.44
265.661	75.44
265.894	95.44
266.126	91.44
266.358	86.44
266.591	77.44
266.823	102.44
267.055	89.44
267.287	99.44
267.52	82.44
267.752	95.44
267.984	84.44
268.216	85.44
268.448	86.44
268.681	102.44
268.913	95.44
269.145	86.44
269.377	79.44
269.609	80.44
269.841	86.44
270.073	87.44
270.306	89.44
270.538	78.44
270.77	86.44
271.002	94.44
271.234	99.44
271.466	86.44
271.698	83.44
271.93	65.44
272.162	83.44
272.394	82.44
272.626	90.44
272.858	76.44
273.09	89.44
273.322	78.44
273.553	74.44
273.785	66.44
274.017	73.44
274.249	89.44
274.481	89.44
274.713	81.44
274.945	68.44
275.176	84.44
275.408	68.44
275.64	68.44
275.872	91.44
276.104	69.44
276.335	101.44
276.567	85.44
276.799	77.44
277.031	82.44
277.262	95.44
277.494	93.44
277.726	73.44
277.957	93.44
278.189	84.44
278.421	86.44
278.652	79.44
278.884	93.44
279.115	88.44
279.347	74.44
279.579	91.44
279.81	84.44
280.042	93.44
280.273	83.44
280.505	84.44
280.736	88.44
280.968	87.44
281.199	86.44
281.431	104.44
281.662	77.44
281.894	68.44
282.125	95.44
282.356	77.44
282.588	78.44
282.819	83.44
283.051	87.44
283.282	95.44
283.513	102.44
283.745	90.44
283.976	87.44
284.207	96.44
284.439	98.44
284.67	78.44
284.901	73.44
285.132	92.44
285.364	81.44
285.595	74.44
285.826	84.44
286.057	68.44
286.288	91.44
286.52	90.44
286.751	80.44
286.982	81.44
287.213	82.44
287.444	92.44
287.675	82.44
287.906	80.44
288.138	88.44
288.369	82.44
288.6	85.44
288.831	80.44
289.062	95.44
289.293	88.44
289.524	88.44
289.755	90.44
289.986	88.44
290.217	86.44
290.448	79.44
290.679	92.44
290.91	92.44
291.141	88.44
291.371	79.44
291.602	81.44
291.833	87.44
292.064	78.44
292.295	84.44
292.526	96.44
292.757	94.44
292.987	89.44
293.218	81.44
293.449	103.44
293.68	80.44
293.91	97.44
294.141	92.44
294.372	91.44
294.603	81.44
294.833	88.44
295.064	93.44
295.295	87.44
295.525	90.44
295.756	89.44
295.987	80.44
296.217	79.44
296.448	78.44
296.679	83.44
296.909	80.44
297.14	76.44
297.37	79.44
297.601	89.44
297.831	87.44
298.062	100.44
298.292	88.44
298.523	90.44
298.753	82.44
298.984	89.44
299.214	70.44
299.445	90.44
299.675	106.44
299.905	76.44
300.136	75.44
300.366	69.44
300.597	97.44
300.827	84.44
301.057	84.44
301.288	92.44
301.518	79.44
301.748	102.44
301.979	102.44
302.209	83.44
302.439	72.44
302.669	87.44
302.9	90.44
303.13	83.44
303.36	89.44
303.59	90.44
303.82	106.44
304.051	78.44
304.281	81.44
304.511	82.44
304.741	80.44
304.971	91.44
305.201	99.44
305.431	97.44
305.661	88.44
305.891	87.44
306.121	80.44
306.352	86.44
306.582	79.44
306.812	80.44
307.042	79.44
307.272	78.44
307.502	84.44
307.731	82.44
307.961	97.44
308.191	71.44
308.421	91.44
308.651	86.44
308.881	90.44
309.111	79.44
309.341	84.44
309.571	85.44
309.8	90.44
310.03	86.44
310.26	86.44
310.49	79.44
310.72	97.44
310.949	89.44
311.179	75.44
311.409	89.44
311.639	69.44
311.868	90.44
312.098	86.44
312.328	91.44
312.557	78.44
312.787	77.44
313.017	89.44
313.246	86.44
313.476	100.44
313.706	87.44
313.935	86.44
314.165	81.44
314.394	80.44
314.624	94.44
314.853	86.44
315.083	85.44
315.312	84.44
315.542	90.44
315.771	83.44
316.001	102.44
316.23	85.44
316.46	75.44
316.689	94.44
316.919	73.44
317.148	70.44
317.377	83.44
317.607	99.44
317.836	85.44
318.065	64.44
318.295	88.44
318.524	79.44
318.753	83.44
318.983	87.44
319.212	98.44
319.441	81.44
319.67	94.44
319.9	77.44
320.129	96.44
320.358	94.44
320.587	97.44
320.816	81.44
321.046	76.44
321.275	92.44
321.504	98.44
321.733	78.44
321.962	87.44
322.191	92.44
322.42	86.44
322.649	96.44
322.878	86.44
323.108	91.44
323.337	106.44
323.566	76.44
323.795	83.44
324.024	95.44
324.253	92.44
324.482	83.44
324.71	72.44
324.939	96.44
325.168	91.44
325.397	102.44
325.626	86.44
325.855	99.44
326.084	82.44
326.313	88.44
326.542	74.44
326.77	73.44
326.999	83.44
327.228	88.44
327.457	94.44
327.686	88.44
327.914	88.44
328.143	82.44
328.372	89.44
328.6	82.44
328.829	86.44
329.058	86.44
329.287	76.44
329.515	92.44
329.744	101.44
329.972	84.44
330.201	82.44
330.43	78.44
330.658	71.44
330.887	83.44
331.115	108.44
331.344	74.44
331.572	100.44
331.801	92.44
332.03	107.44
332.258	103.44
332.486	84.44
332.715	85.44
332.943	92.44
333.172	80.44
333.4	80.44
333.629	93.44
333.857	76.44
334.085	82.44
334.314	88.44
334.542	82.44
334.771	80.44
334.999	93.44
335.227	79.44
335.455	86.44
335.684	83.44
335.912	90.44
336.14	81.44
336.369	70.44
336.597	82.44
336.825	86.44
337.053	95.44
337.281	74.44
337.51	70.44
337.738	86.44
337.966	74.44
338.194	87.44
338.422	88.44
338.65	92.44
338.878	80.44
339.106	69.44
339.334	88.44
339.562	85.44
339.79	77.44
340.018	86.44
340.246	76.44
340.474	87.44
340.702	97.44
340.93	74.44
341.158	94.44
341.386	85.44
341.614	86.44
341.842	75.44
342.07	80.44
342.298	86.44
342.526	91.44
342.754	93.44
342.981	99.44
343.209	90.44
343.437	91.44
343.665	85.44
343.893	85.44
344.12	89.44
344.348	79.44
344.576	94.44
344.804	85.44
345.031	83.44
345.259	82.44
345.487	86.44
345.714	86.44
345.942	78.44
346.17	80.44
346.397	79.44
346.625	90.44
346.853	80.44
347.08	86.44
347.308	91.44
347.535	83.44
347.763	89.44
347.99	87.44
348.218	87.44
348.445	85.44
348.673	88.44
348.9	95.44
349.128	92.44
349.355	85.44
349.583	89.44
349.81	101.44
350.037	92.44
350.265	86.44
350.492	94.44
350.72	80.44
350.947	80.44
351.174	95.44
351.402	88.44
351.629	78.44
351.856	83.44
352.083	81.44
352.311	93.44
352.538	77.44
352.765	78.44
352.992	97.44
353.22	89.44
353.447	96.44
353.674	81.44
353.901	88.44
354.128	98.44
354.355	74.44
354.583	75.44
354.81	88.44
355.037	92.44
355.264	80.44
355.491	82.44
355.718	90.44
355.945	90.44
356.172	93.44
356.399	80.44
356.626	80.44
356.853	86.44
357.08	78.44
357.307	80.44
357.534	80.44
357.761	86.44
357.988	79.44
358.215	95.44
358.441	77.44
358.668	81.44
358.895	87.44
359.122	93.44
359.349	72.44
359.576	79.44
359.802	84.44
360.029	89.44
360.256	96.44
360.483	84.44
360.709	91.44
360.936	103.44
361.163	89.44
361.39	80.44
361.616	83.44
361.843	75.44
362.07	77.44
362.296	74.44
362.523	103.44
362.749	97.44
362.976	94.44
363.203	86.44
363.429	85.44
363.656	81.44
363.882	78.44
364.109	103.44
364.335	86.44
364.562	80.44
364.788	84.44
365.015	77.44
365.241	78.44
365.468	93.44
365.694	82.44
365.92	80.44
366.147	86.44
366.373	83.44
366.599	97.44
366.826	89.44
367.052	78.44
367.278	102.44
367.505	72.44
367.731	94.44
367.957	101.44
368.184	78.44
368.41	84.44
368.636	86.44
368.862	86.44
369.089	90.44
369.315	86.44
369.541	90.44
369.767	97.44
369.993	90.44
370.219	83.44
370.445	84.44
370.672	86.44
370.898	76.44
371.124	85.44
371.35	86.44
371.576	79.44
371.802	73.44
372.028	79.44
372.254	93.44
372.48	78.44
372.706	86.44
372.932	96.44
373.158	83.44
373.384	75.44
373.61	95.44
373.835	83.44
374.061	88.44
374.287	93.44
374.513	87.44
374.739	85.44
374.965	94.44
375.191	80.44
375.416	82.44
375.642	86.44
375.868	73.44
376.094	78.44
376.319	84.44
376.545	100.44
376.771	70.44
376.997	89.44
377.222	89.44
377.448	100.44
377.674	90.44
377.899	97.44
378.125	73.44
378.35	80.44
378.576	86.44
378.802	83.44
379.027	75.44
379.253	96.44
379.478	95.44
379.704	86.44
379.929	102.44
380.155	86.44
380.38	90.44
380.606	81.44
380.831	90.44
381.057	95.44
381.282	91.44
381.507	94.44
381.733	81.44
381.958	79.44
382.184	81.44
382.409	87.44
382.634	82.44
382.86	88.44
383.085	95.44
383.31	90.44
383.535	86.44
383.761	71.44
383.986	94.44
384.211	105.44
384.436	97.44
384.662	86.44
384.887	80.44
385.112	82.44
385.337	95.44
385.562	93.44
385.787	102.44
386.013	91.44
386.238	82.44
386.463	88.44
386.688	98.44
386.913	83.44
387.138	92.44
387.363	86.44
387.588	89.44
387.813	88.44
388.038	86.44
388.263	88.44
388.488	82.44
388.713	84.44
388.938	89.44
389.163	86.44
389.387	85.44
389.612	97.44
389.837	86.44
390.062	86.44
390.287	79.44
390.512	88.44
390.736	76.44
390.961	92.44
391.186	86.44
391.411	76.44
391.636	88.44
391.86	84.44
392.085	76.44
392.31	87.44
392.534	87.44
392.759	87.44
392.984	84.44
393.208	77.44
393.433	83.44
393.658	78.44
393.882	78.44
394.107	91.44
394.331	86.44
394.556	78.44
394.78	82.44
395.005	100.44
395.229	82.44
395.454	87.44
395.678	82.44
395.903	93.44
396.127	85.44
396.352	78.44
396.576	91.44
396.801	81.44
397.025	74.44
397.249	74.44
397.474	76.44
397.698	85.44
397.922	78.44
398.147	78.44
398.371	61.44
398.595	90.44
398.82	73.44
399.044	83.44
399.268	90.44
399.492	71.44
399.717	92.44
399.941	83.44
400.165	77.44
400.389	74.44
400.613	82.44
400.837	85.44
401.062	91.44
401.286	81.44
401.51	92.44
401.734	68.44
401.958	82.44
402.182	83.44
402.406	90.44
402.63	85.44
402.854	79.44
403.078	77.44
403.302	91.44
403.526	97.44
403.75	77.44
403.974	77.44
404.198	78.44
404.422	76.44
404.645	90.44
404.869	92.44
405.093	75.44
405.317	92.44
405.541	74.44
405.765	86.44
405.988	78.44
406.212	80.44
406.436	82.44
406.66	81.44
406.883	71.44
407.107	77.44
407.331	79.44
407.555	94.44
407.778	86.44
408.002	77.44
408.226	78.44
408.449	88.44
408.673	73.44
408.896	71.44
409.12	83.44
409.344	73.44
409.567	75.44
409.791	86.44
410.014	83.44
410.238	68.44
410.461	73.44
410.685	85.44
410.908	87.44
411.132	95.44
411.355	84.44
411.578	86.44
411.802	88.44
412.025	79.44
412.249	82.44
412.472	84.44
412.695	73.44
412.919	88.44
413.142	89.44
413.365	88.44
413.589	83.44
413.812	75.44
414.035	93.44
414.258	74.44
414.482	68.44
414.705	75.44
414.928	83.44
415.151	92.44
415.374	81.44
415.597	83.44
415.821	78.44
416.044	101.44
416.267	97.44
416.49	83.44
416.713	77.44
416.936	85.44
417.159	81.44
417.382	79.44
417.605	66.44
417.828	76.44
418.051	76.44
418.274	63.44
418.497	64.44
418.72	79.44
418.943	95.44
419.166	90.44
419.389	78.44
419.611	64.44
419.834	82.44
420.057	71.44
420.28	80.44
420.503	90.44
420.726	82.44
420.948	90.44
421.171	83.44
421.394	83.44
421.617	80.44
421.839	84.44
422.062	75.44
422.285	91.44
422.507	74.44
422.73	84.44
422.953	66.44
423.175	74.44
423.398	84.44
423.621	88.44
423.843	87.44
424.066	80.44
424.288	79.44
424.511	85.44
424.733	92.44
424.956	94.44
425.178	75.44
425.401	89.44
425.623	72.44
425.846	94.44
426.068	88.44
426.291	85.44
426.513	71.44
426.735	88.44
426.958	82.44
427.18	75.44
427.402	83.44
427.625	78.44
427.847	72.44
428.069	85.44
428.292	71.44
428.514	74.44
428.736	94.44
428.958	76.44
429.181	72.44
429.403	81.44
429.625	83.44
429.847	71.44
430.069	69.44
430.292	93.44
430.514	85.44
430.736	82.44
430.958	80.44
431.18	81.44
431.402	87.44
431.624	68.44
431.846	78.44
432.068	78.44
432.29	89.44
432.512	77.44
432.734	79.44
432.956	92.44
433.178	86.44
433.4	81.44
433.622	83.44
433.844	77.44
434.066	84.44
434.287	77.44
434.509	84.44
434.731	86.44
434.953	77.44
435.175	76.44
435.397	85.44
435.618	80.44
435.84	82.44
436.062	89.44
436.284	91.44
436.505	76.44
436.727	68.44
436.949	82.44
437.17	80.44
437.392	80.44
437.614	85.44
437.835	91.44
438.057	88.44
438.278	73.44
438.5	91.44
438.721	86.44
438.943	95.44
439.165	84.44
439.386	74.44
439.608	86.44
439.829	69.44
440.05	80.44
440.272	78.44
440.493	82.44
440.715	88.44
440.936	84.44
441.158	77.44
441.379	92.44
441.6	86.44
441.822	81.44
442.043	84.44
442.264	81.44
442.486	86.44
442.707	79.44
442.928	98.44
443.149	86.44
443.371	86.44
443.592	97.44
443.813	84.44
444.034	86.44
444.255	74.44
444.476	79.44
444.698	81.44
444.919	81.44
445.14	153.44
445.361	123.44
445.582	91.44
445.803	68.44
446.024	89.44
446.245	83.44
446.466	79.44
446.687	78.44
446.908	82.44
447.129	92.44
447.35	88.44
447.571	84.44
447.792	70.44
448.013	76.44
448.234	77.44
448.455	66.44
448.675	93.44
448.896	79.44
449.117	84.44
449.338	79.44
449.559	74.44
449.779	87.44
450	87.44
450.221	84.44
450.442	79.44
450.662	76.44
450.883	73.44
451.104	68.44
451.324	81.44
451.545	74.44
451.766	95.44
451.986	82.44
452.207	83.44
452.428	82.44
452.648	77.44
452.869	80.44
453.089	87.44
453.31	74.44
453.53	84.44
453.751	72.44
453.971	91.44
454.192	73.44
454.412	90.44
454.633	67.44
454.853	81.44
455.073	75.44
455.294	88.44
455.514	95.44
455.734	90.44
455.955	72.44
456.175	74.44
456.395	86.44
456.616	85.44
456.836	72.44
457.056	93.44
457.276	99.44
457.497	90.44
457.717	80.44
457.937	77.44
458.157	82.44
458.377	74.44
458.598	87.44
458.818	81.44
459.038	70.44
459.258	63.44
459.478	81.44
459.698	95.44
459.918	79.44
460.138	72.44
460.358	87.44
460.578	80.44
460.798	82.44
461.018	72.44
461.238	79.44
461.458	69.44
461.678	75.44
461.898	79.44
462.118	87.44
462.338	81.44
462.558	78.44
462.777	74.44
462.997	69.44
463.217	73.44
463.437	88.44
463.657	80.44
463.876	79.44
464.096	75.44
464.316	89.44
464.536	75.44
464.755	80.44
464.975	65.44
465.195	78.44
465.414	78.44
465.634	76.44
465.854	88.44
466.073	83.44
466.293	72.44
466.512	90.44
466.732	88.44
466.951	73.44
467.171	74.44
467.391	87.44
467.61	83.44
467.829	87.44
468.049	80.44
468.268	78.44
468.488	80.44
468.707	72.44
468.927	70.44
469.146	74.44
469.365	72.44
469.585	89.44
469.804	75.44
470.023	76.44
470.243	88.44
470.462	80.44
470.681	87.44
470.901	69.44
471.12	83.44
471.339	84.44
471.558	80.44
471.777	81.44
471.997	81.44
472.216	83.44
472.435	81.44
472.654	79.44
472.873	75.44
473.092	85.44
473.311	88.44
473.53	82.44
473.749	76.44
473.968	76.44
474.187	83.44
474.406	82.44
474.625	84.44
474.844	95.44
475.063	93.44
475.282	82.44
475.501	82.44
475.72	92.44
475.939	84.44
476.158	87.44
476.377	95.44
476.596	92.44
476.814	75.44
477.033	77.44
477.252	92.44
477.471	77.44
477.69	77.44
477.908	87.44
478.127	70.44
478.346	96.44
478.564	81.44
478.783	83.44
479.002	95.44
479.22	86.44
479.439	81.44
479.658	76.44
479.876	85.44
480.095	73.44
480.313	79.44
480.532	83.44
480.751	80.44
480.969	80.44
481.188	83.44
481.406	87.44
481.624	91.44
481.843	88.44
482.061	80.44
482.28	66.44
482.498	90.44
482.717	89.44
482.935	72.44
483.153	76.44
483.372	72.44
483.59	82.44
483.808	69.44
484.027	82.44
484.245	93.44
484.463	84.44
484.681	91.44
484.9	97.44
485.118	84.44
485.336	78.44
485.554	78.44
485.772	68.44
485.99	84.44
486.209	70.44
486.427	63.44
486.645	72.44
486.863	82.44
487.081	83.44
487.299	94.44
487.517	75.44
487.735	82.44
487.953	90.44
488.171	68.44
488.389	80.44
488.607	71.44
488.825	91.44
489.043	83.44
489.261	75.44
489.479	80.44
489.696	82.44
489.914	84.44
490.132	87.44
490.35	82.44
490.568	80.44
490.786	81.44
491.003	96.44
491.221	81.44
491.439	86.44
491.657	88.44
491.874	90.44
492.092	74.44
492.31	91.44
492.527	89.44
492.745	77.44
492.963	95.44
493.18	81.44
493.398	82.44
493.615	83.44
493.833	82.44
494.05	87.44
494.268	94.44
494.485	81.44
494.703	92.44
494.92	90.44
495.138	83.44
495.355	85.44
495.573	75.44
495.79	72.44
496.008	82.44
496.225	71.44
496.442	77.44
496.66	80.44
496.877	82.44
497.094	86.44
497.312	88.44
497.529	75.44
497.746	74.44
497.963	68.44
498.181	99.44
498.398	99.44
498.615	82.44
498.832	90.44
499.049	87.44
499.267	89.44
499.484	93.44
499.701	86.44
499.918	88.44
500.135	88.44
500.352	82.44
500.569	81.44
500.786	85.44
501.003	75.44
501.22	80.44
501.437	78.44
501.654	86.44
501.871	78.44
502.088	94.44
502.305	91.44
502.522	96.44
502.739	90.44
502.956	79.44
503.172	80.44
503.389	82.44
503.606	69.44
503.823	83.44
504.04	72.44
504.256	86.44
504.473	80.44
504.69	89.44
504.907	84.44
505.123	84.44
505.34	78.44
505.557	89.44
505.773	77.44
505.99	87.44
506.207	85.44
506.423	75.44
506.64	71.44
506.856	76.44
507.073	89.44
507.289	88.44
507.506	77.44
507.722	58.44
507.939	80.44
508.155	74.44
508.372	75.44
508.588	103.44
508.805	82.44
509.021	90.44
509.238	75.44
509.454	82.44
509.67	66.44
509.887	77.44
510.103	78.44
510.319	79.44
510.536	76.44
510.752	80.44
510.968	91.44
511.184	81.44
511.401	87.44
511.617	78.44
511.833	98.44
512.049	81.44
512.265	89.44
512.481	88.44
512.698	85.44
512.914	77.44
513.13	84.44
513.346	78.44
513.562	89.44
513.778	93.44
513.994	91.44
514.21	81.44
514.426	75.44
514.642	86.44
514.858	81.44
515.074	76.44
515.29	94.44
515.506	89.44
515.721	73.44
515.937	86.44
516.153	83.44
516.369	84.44
516.585	88.44
516.801	86.44
517.016	84.44
517.232	94.44
517.448	81.44
517.664	76.44
517.879	84.44
518.095	87.44
518.311	79.44
518.527	88.44
518.742	74.44
518.958	87.44
519.173	83.44
519.389	90.44
519.605	88.44
519.82	85.44
