Data from BG_HRD10591_019.txt Node
Date: Fri May 16 15:21:03 EDT 2025
User: Yrep
Spectrometer: HR+D1059
Trigger mode: 1
Integration Time (sec): 1.000000E-1
Scans to average: 1
Electric dark correction enabled: true
Nonlinearity correction enabled: false
Boxcar width: 0
XAxis mode: Wavelengths
Number of Pixels in Spectrum: 2048
>>>>>Begin Spectral Data<<<<<
223.165	-22.81
223.4	-22.81
223.635	-22.81
223.869	-30.81
224.104	-24.81
224.338	-17.81
224.573	-17.81
224.808	-3.81
225.042	-8.81
225.277	0.19
225.511	8.19
225.746	1.19
225.98	0.19
226.215	21.19
226.449	22.19
226.683	24.19
226.918	21.19
227.152	28.19
227.387	36.19
227.621	51.19
227.856	38.19
228.09	51.19
228.324	52.19
228.559	74.19
228.793	72.19
229.027	59.19
229.262	53.19
229.496	65.19
229.73	64.19
229.964	79.19
230.199	73.19
230.433	72.19
230.667	73.19
230.901	73.19
231.136	84.19
231.37	92.19
231.604	83.19
231.838	78.19
232.072	70.19
232.306	70.19
232.541	70.19
232.775	86.19
233.009	79.19
233.243	87.19
233.477	92.19
233.711	74.19
233.945	88.19
234.179	81.19
234.413	74.19
234.647	74.19
234.881	65.19
235.115	77.19
235.349	79.19
235.583	87.19
235.817	77.19
236.051	75.19
236.285	85.19
236.519	79.19
236.753	89.19
236.987	75.19
237.221	88.19
237.455	86.19
237.689	78.19
237.922	62.19
238.156	60.19
238.39	63.19
238.624	73.19
238.858	85.19
239.091	82.19
239.325	68.19
239.559	85.19
239.793	64.19
240.027	74.19
240.26	77.19
240.494	82.19
240.728	58.19
240.961	74.19
241.195	76.19
241.429	80.19
241.662	78.19
241.896	90.19
242.13	79.19
242.363	81.19
242.597	58.19
242.83	75.19
243.064	78.19
243.298	87.19
243.531	83.19
243.765	74.19
243.998	73.19
244.232	71.19
244.465	84.19
244.699	99.19
244.932	75.19
245.166	64.19
245.399	69.19
245.633	74.19
245.866	78.19
246.099	71.19
246.333	67.19
246.566	86.19
246.8	77.19
247.033	76.19
247.266	75.19
247.5	63.19
247.733	73.19
247.966	94.19
248.2	100.19
248.433	84.19
248.666	80.19
248.899	83.19
249.133	69.19
249.366	90.19
249.599	92.19
249.832	92.19
250.066	76.19
250.299	88.19
250.532	63.19
250.765	75.19
250.998	76.19
251.231	73.19
251.465	84.19
251.698	83.19
251.931	61.19
252.164	89.19
252.397	76.19
252.63	69.19
252.863	72.19
253.096	76.19
253.329	81.19
253.562	69.19
253.795	82.19
254.028	84.19
254.261	82.19
254.494	75.19
254.727	73.19
254.96	71.19
255.193	74.19
255.426	88.19
255.659	76.19
255.892	77.19
256.124	83.19
256.357	69.19
256.59	77.19
256.823	69.19
257.056	65.19
257.289	75.19
257.521	70.19
257.754	80.19
257.987	89.19
258.22	80.19
258.452	88.19
258.685	92.19
258.918	73.19
259.151	71.19
259.383	84.19
259.616	85.19
259.849	83.19
260.081	96.19
260.314	80.19
260.547	89.19
260.779	74.19
261.012	101.19
261.244	71.19
261.477	75.19
261.71	71.19
261.942	75.19
262.175	77.19
262.407	84.19
262.64	76.19
262.872	66.19
263.105	73.19
263.337	90.19
263.57	83.19
263.802	85.19
264.035	72.19
264.267	79.19
264.499	71.19
264.732	77.19
264.964	85.19
265.197	91.19
265.429	87.19
265.661	90.19
265.894	72.19
266.126	93.19
266.358	80.19
266.591	82.19
266.823	88.19
267.055	76.19
267.287	76.19
267.52	83.19
267.752	97.19
267.984	75.19
268.216	80.19
268.448	91.19
268.681	82.19
268.913	87.19
269.145	84.19
269.377	62.19
269.609	85.19
269.841	81.19
270.073	81.19
270.306	74.19
270.538	78.19
270.77	90.19
271.002	74.19
271.234	89.19
271.466	82.19
271.698	76.19
271.93	76.19
272.162	71.19
272.394	83.19
272.626	99.19
272.858	92.19
273.09	65.19
273.322	71.19
273.553	84.19
273.785	90.19
274.017	77.19
274.249	89.19
274.481	83.19
274.713	90.19
274.945	85.19
275.176	85.19
275.408	87.19
275.64	76.19
275.872	69.19
276.104	79.19
276.335	85.19
276.567	72.19
276.799	86.19
277.031	84.19
277.262	67.19
277.494	78.19
277.726	95.19
277.957	80.19
278.189	73.19
278.421	79.19
278.652	79.19
278.884	77.19
279.115	66.19
279.347	91.19
279.579	85.19
279.81	80.19
280.042	88.19
280.273	80.19
280.505	88.19
280.736	85.19
280.968	88.19
281.199	83.19
281.431	80.19
281.662	77.19
281.894	91.19
282.125	76.19
282.356	94.19
282.588	85.19
282.819	99.19
283.051	75.19
283.282	89.19
283.513	93.19
283.745	78.19
283.976	79.19
284.207	89.19
284.439	76.19
284.67	93.19
284.901	81.19
285.132	90.19
285.364	82.19
285.595	88.19
285.826	79.19
286.057	99.19
286.288	78.19
286.52	95.19
286.751	76.19
286.982	75.19
287.213	87.19
287.444	82.19
287.675	88.19
287.906	85.19
288.138	84.19
288.369	88.19
288.6	86.19
288.831	101.19
289.062	79.19
289.293	78.19
289.524	84.19
289.755	72.19
289.986	75.19
290.217	86.19
290.448	73.19
290.679	84.19
290.91	94.19
291.141	82.19
291.371	81.19
291.602	75.19
291.833	96.19
292.064	88.19
292.295	92.19
292.526	80.19
292.757	100.19
292.987	89.19
293.218	93.19
293.449	89.19
293.68	93.19
293.91	73.19
294.141	85.19
294.372	76.19
294.603	79.19
294.833	89.19
295.064	78.19
295.295	85.19
295.525	75.19
295.756	95.19
295.987	83.19
296.217	77.19
296.448	76.19
296.679	76.19
296.909	78.19
297.14	80.19
297.37	91.19
297.601	92.19
297.831	87.19
298.062	72.19
298.292	83.19
298.523	84.19
298.753	90.19
298.984	82.19
299.214	89.19
299.445	78.19
299.675	71.19
299.905	87.19
300.136	81.19
300.366	84.19
300.597	79.19
300.827	89.19
301.057	83.19
301.288	97.19
301.518	92.19
301.748	79.19
301.979	84.19
302.209	94.19
302.439	72.19
302.669	87.19
302.9	90.19
303.13	67.19
303.36	78.19
303.59	69.19
303.82	68.19
304.051	83.19
304.281	87.19
304.511	74.19
304.741	77.19
304.971	77.19
305.201	85.19
305.431	80.19
305.661	69.19
305.891	84.19
306.121	83.19
306.352	90.19
306.582	81.19
306.812	88.19
307.042	86.19
307.272	84.19
307.502	82.19
307.731	77.19
307.961	80.19
308.191	82.19
308.421	85.19
308.651	78.19
308.881	93.19
309.111	83.19
309.341	72.19
309.571	83.19
309.8	83.19
310.03	81.19
310.26	90.19
310.49	80.19
310.72	85.19
310.949	88.19
311.179	90.19
311.409	101.19
311.639	78.19
311.868	83.19
312.098	77.19
312.328	73.19
312.557	79.19
312.787	73.19
313.017	78.19
313.246	79.19
313.476	81.19
313.706	88.19
313.935	94.19
314.165	75.19
314.394	93.19
314.624	87.19
314.853	87.19
315.083	92.19
315.312	99.19
315.542	71.19
315.771	79.19
316.001	83.19
316.23	77.19
316.46	89.19
316.689	87.19
316.919	87.19
317.148	85.19
317.377	86.19
317.607	79.19
317.836	83.19
318.065	107.19
318.295	83.19
318.524	86.19
318.753	67.19
318.983	80.19
319.212	80.19
319.441	81.19
319.67	84.19
319.9	85.19
320.129	100.19
320.358	90.19
320.587	94.19
320.816	84.19
321.046	89.19
321.275	95.19
321.504	87.19
321.733	101.19
321.962	69.19
322.191	87.19
322.42	69.19
322.649	87.19
322.878	99.19
323.108	69.19
323.337	78.19
323.566	85.19
323.795	87.19
324.024	86.19
324.253	89.19
324.482	74.19
324.71	87.19
324.939	87.19
325.168	86.19
325.397	85.19
325.626	81.19
325.855	89.19
326.084	77.19
326.313	89.19
326.542	89.19
326.77	96.19
326.999	79.19
327.228	77.19
327.457	92.19
327.686	73.19
327.914	86.19
328.143	97.19
328.372	93.19
328.6	69.19
328.829	86.19
329.058	76.19
329.287	78.19
329.515	83.19
329.744	97.19
329.972	83.19
330.201	86.19
330.43	94.19
330.658	76.19
330.887	75.19
331.115	87.19
331.344	84.19
331.572	92.19
331.801	83.19
332.03	88.19
332.258	99.19
332.486	82.19
332.715	88.19
332.943	86.19
333.172	84.19
333.4	84.19
333.629	85.19
333.857	87.19
334.085	67.19
334.314	85.19
334.542	77.19
334.771	88.19
334.999	75.19
335.227	75.19
335.455	76.19
335.684	81.19
335.912	85.19
336.14	84.19
336.369	66.19
336.597	77.19
336.825	78.19
337.053	88.19
337.281	84.19
337.51	77.19
337.738	87.19
337.966	105.19
338.194	93.19
338.422	69.19
338.65	88.19
338.878	79.19
339.106	79.19
339.334	91.19
339.562	79.19
339.79	84.19
340.018	85.19
340.246	74.19
340.474	79.19
340.702	74.19
340.93	63.19
341.158	85.19
341.386	61.19
341.614	87.19
341.842	87.19
342.07	85.19
342.298	78.19
342.526	81.19
342.754	84.19
342.981	82.19
343.209	74.19
343.437	90.19
343.665	90.19
343.893	77.19
344.12	96.19
344.348	81.19
344.576	73.19
344.804	87.19
345.031	91.19
345.259	77.19
345.487	76.19
345.714	95.19
345.942	72.19
346.17	95.19
346.397	95.19
346.625	89.19
346.853	90.19
347.08	72.19
347.308	76.19
347.535	89.19
347.763	93.19
347.99	94.19
348.218	87.19
348.445	80.19
348.673	77.19
348.9	85.19
349.128	93.19
349.355	87.19
349.583	88.19
349.81	99.19
350.037	100.19
350.265	93.19
350.492	93.19
350.72	85.19
350.947	92.19
351.174	78.19
351.402	88.19
351.629	73.19
351.856	80.19
352.083	77.19
352.311	83.19
352.538	84.19
352.765	75.19
352.992	76.19
353.22	77.19
353.447	80.19
353.674	75.19
353.901	94.19
354.128	93.19
354.355	85.19
354.583	78.19
354.81	75.19
355.037	93.19
355.264	69.19
355.491	71.19
355.718	76.19
355.945	103.19
356.172	86.19
356.399	80.19
356.626	85.19
356.853	82.19
357.08	100.19
357.307	95.19
357.534	87.19
357.761	84.19
357.988	90.19
358.215	74.19
358.441	87.19
358.668	73.19
358.895	71.19
359.122	75.19
359.349	84.19
359.576	82.19
359.802	79.19
360.029	83.19
360.256	81.19
360.483	89.19
360.709	91.19
360.936	90.19
361.163	79.19
361.39	71.19
361.616	89.19
361.843	81.19
362.07	83.19
362.296	77.19
362.523	75.19
362.749	71.19
362.976	74.19
363.203	75.19
363.429	73.19
363.656	88.19
363.882	72.19
364.109	85.19
364.335	79.19
364.562	88.19
364.788	80.19
365.015	90.19
365.241	86.19
365.468	95.19
365.694	82.19
365.92	85.19
366.147	94.19
366.373	81.19
366.599	77.19
366.826	89.19
367.052	72.19
367.278	80.19
367.505	68.19
367.731	80.19
367.957	84.19
368.184	76.19
368.41	72.19
368.636	85.19
368.862	87.19
369.089	65.19
369.315	82.19
369.541	76.19
369.767	80.19
369.993	77.19
370.219	67.19
370.445	89.19
370.672	79.19
370.898	87.19
371.124	62.19
371.35	80.19
371.576	80.19
371.802	75.19
372.028	81.19
372.254	83.19
372.48	71.19
372.706	77.19
372.932	82.19
373.158	91.19
373.384	83.19
373.61	80.19
373.835	84.19
374.061	88.19
374.287	68.19
374.513	73.19
374.739	87.19
374.965	96.19
375.191	86.19
375.416	84.19
375.642	83.19
375.868	89.19
376.094	81.19
376.319	56.19
376.545	88.19
376.771	83.19
376.997	85.19
377.222	76.19
377.448	89.19
377.674	83.19
377.899	95.19
378.125	77.19
378.35	93.19
378.576	81.19
378.802	77.19
379.027	73.19
379.253	77.19
379.478	76.19
379.704	81.19
379.929	82.19
380.155	78.19
380.38	79.19
380.606	71.19
380.831	74.19
381.057	83.19
381.282	84.19
381.507	86.19
381.733	80.19
381.958	78.19
382.184	83.19
382.409	81.19
382.634	87.19
382.86	80.19
383.085	78.19
383.31	77.19
383.535	80.19
383.761	85.19
383.986	71.19
384.211	79.19
384.436	76.19
384.662	72.19
384.887	68.19
385.112	76.19
385.337	87.19
385.562	77.19
385.787	81.19
386.013	73.19
386.238	83.19
386.463	81.19
386.688	102.19
386.913	86.19
387.138	79.19
387.363	62.19
387.588	74.19
387.813	71.19
388.038	67.19
388.263	87.19
388.488	78.19
388.713	76.19
388.938	68.19
389.163	76.19
389.387	65.19
389.612	88.19
389.837	82.19
390.062	60.19
390.287	85.19
390.512	88.19
390.736	79.19
390.961	85.19
391.186	72.19
391.411	83.19
391.636	72.19
391.86	77.19
392.085	92.19
392.31	81.19
392.534	91.19
392.759	83.19
392.984	74.19
393.208	75.19
393.433	82.19
393.658	73.19
393.882	77.19
394.107	88.19
394.331	90.19
394.556	76.19
394.78	68.19
395.005	68.19
395.229	72.19
395.454	87.19
395.678	78.19
395.903	79.19
396.127	68.19
396.352	77.19
396.576	94.19
396.801	87.19
397.025	68.19
397.249	85.19
397.474	86.19
397.698	71.19
397.922	85.19
398.147	86.19
398.371	76.19
398.595	80.19
398.82	83.19
399.044	60.19
399.268	88.19
399.492	84.19
399.717	93.19
399.941	83.19
400.165	97.19
400.389	87.19
400.613	74.19
400.837	75.19
401.062	80.19
401.286	83.19
401.51	85.19
401.734	86.19
401.958	78.19
402.182	91.19
402.406	81.19
402.63	75.19
402.854	82.19
403.078	73.19
403.302	78.19
403.526	84.19
403.75	75.19
403.974	81.19
404.198	97.19
404.422	72.19
404.645	83.19
404.869	83.19
405.093	80.19
405.317	85.19
405.541	99.19
405.765	84.19
405.988	78.19
406.212	94.19
406.436	88.19
406.66	82.19
406.883	73.19
407.107	77.19
407.331	78.19
407.555	94.19
407.778	80.19
408.002	85.19
408.226	86.19
408.449	85.19
408.673	83.19
408.896	76.19
409.12	77.19
409.344	80.19
409.567	84.19
409.791	83.19
410.014	84.19
410.238	80.19
410.461	71.19
410.685	84.19
410.908	80.19
411.132	85.19
411.355	75.19
411.578	86.19
411.802	83.19
412.025	66.19
412.249	79.19
412.472	80.19
412.695	74.19
412.919	88.19
413.142	72.19
413.365	75.19
413.589	67.19
413.812	73.19
414.035	76.19
414.258	72.19
414.482	79.19
414.705	78.19
414.928	84.19
415.151	86.19
415.374	72.19
415.597	70.19
415.821	84.19
416.044	83.19
416.267	87.19
416.49	87.19
416.713	73.19
416.936	76.19
417.159	62.19
417.382	78.19
417.605	64.19
417.828	67.19
418.051	77.19
418.274	81.19
418.497	62.19
418.72	85.19
418.943	83.19
419.166	86.19
419.389	70.19
419.611	68.19
419.834	72.19
420.057	80.19
420.28	81.19
420.503	87.19
420.726	87.19
420.948	65.19
421.171	75.19
421.394	87.19
421.617	77.19
421.839	80.19
422.062	85.19
422.285	85.19
422.507	77.19
422.73	72.19
422.953	72.19
423.175	77.19
423.398	80.19
423.621	80.19
423.843	69.19
424.066	65.19
424.288	77.19
424.511	88.19
424.733	77.19
424.956	75.19
425.178	88.19
425.401	77.19
425.623	78.19
425.846	80.19
426.068	84.19
426.291	87.19
426.513	76.19
426.735	74.19
426.958	79.19
427.18	78.19
427.402	78.19
427.625	77.19
427.847	73.19
428.069	72.19
428.292	82.19
428.514	84.19
428.736	83.19
428.958	80.19
429.181	78.19
429.403	89.19
429.625	88.19
429.847	87.19
430.069	75.19
430.292	80.19
430.514	67.19
430.736	87.19
430.958	71.19
431.18	79.19
431.402	76.19
431.624	74.19
431.846	75.19
432.068	72.19
432.29	85.19
432.512	69.19
432.734	88.19
432.956	91.19
433.178	75.19
433.4	88.19
433.622	87.19
433.844	63.19
434.066	86.19
434.287	76.19
434.509	73.19
434.731	85.19
434.953	76.19
435.175	74.19
435.397	85.19
435.618	82.19
435.84	82.19
436.062	80.19
436.284	79.19
436.505	68.19
436.727	87.19
436.949	69.19
437.17	83.19
437.392	78.19
437.614	79.19
437.835	77.19
438.057	84.19
438.278	80.19
438.5	85.19
438.721	89.19
438.943	81.19
439.165	67.19
439.386	83.19
439.608	90.19
439.829	80.19
440.05	78.19
440.272	80.19
440.493	92.19
440.715	77.19
440.936	80.19
441.158	74.19
441.379	90.19
441.6	93.19
441.822	76.19
442.043	83.19
442.264	93.19
442.486	62.19
442.707	71.19
442.928	78.19
443.149	72.19
443.371	82.19
443.592	78.19
443.813	72.19
444.034	65.19
444.255	79.19
444.476	73.19
444.698	76.19
444.919	80.19
445.14	152.19
445.361	120.19
445.582	66.19
445.803	77.19
446.024	89.19
446.245	84.19
446.466	75.19
446.687	83.19
446.908	73.19
447.129	82.19
447.35	73.19
447.571	88.19
447.792	90.19
448.013	77.19
448.234	91.19
448.455	85.19
448.675	86.19
448.896	77.19
449.117	65.19
449.338	80.19
449.559	83.19
449.779	95.19
450	83.19
450.221	85.19
450.442	84.19
450.662	70.19
450.883	84.19
451.104	73.19
451.324	83.19
451.545	75.19
451.766	79.19
451.986	77.19
452.207	70.19
452.428	79.19
452.648	73.19
452.869	72.19
453.089	92.19
453.31	78.19
453.53	75.19
453.751	84.19
453.971	83.19
454.192	76.19
454.412	87.19
454.633	75.19
454.853	71.19
455.073	97.19
455.294	63.19
455.514	84.19
455.734	84.19
455.955	81.19
456.175	78.19
456.395	91.19
456.616	78.19
456.836	76.19
457.056	90.19
457.276	83.19
457.497	77.19
457.717	85.19
457.937	78.19
458.157	70.19
458.377	71.19
458.598	54.19
458.818	73.19
459.038	85.19
459.258	87.19
459.478	79.19
459.698	81.19
459.918	92.19
460.138	75.19
460.358	81.19
460.578	69.19
460.798	81.19
461.018	87.19
461.238	80.19
461.458	80.19
461.678	74.19
461.898	79.19
462.118	72.19
462.338	86.19
462.558	80.19
462.777	91.19
462.997	83.19
463.217	81.19
463.437	81.19
463.657	86.19
463.876	73.19
464.096	72.19
464.316	93.19
464.536	81.19
464.755	84.19
464.975	95.19
465.195	80.19
465.414	70.19
465.634	81.19
465.854	79.19
466.073	79.19
466.293	70.19
466.512	75.19
466.732	77.19
466.951	79.19
467.171	76.19
467.391	87.19
467.61	85.19
467.829	81.19
468.049	89.19
468.268	88.19
468.488	70.19
468.707	88.19
468.927	81.19
469.146	83.19
469.365	71.19
469.585	72.19
469.804	87.19
470.023	84.19
470.243	74.19
470.462	71.19
470.681	73.19
470.901	69.19
471.12	76.19
471.339	86.19
471.558	72.19
471.777	74.19
471.997	96.19
472.216	82.19
472.435	75.19
472.654	68.19
472.873	86.19
473.092	73.19
473.311	68.19
473.53	95.19
473.749	84.19
473.968	84.19
474.187	80.19
474.406	56.19
474.625	94.19
474.844	70.19
475.063	64.19
475.282	91.19
475.501	71.19
475.72	81.19
475.939	83.19
476.158	80.19
476.377	66.19
476.596	84.19
476.814	72.19
477.033	75.19
477.252	77.19
477.471	75.19
477.69	68.19
477.908	92.19
478.127	75.19
478.346	69.19
478.564	82.19
478.783	76.19
479.002	82.19
479.22	83.19
479.439	73.19
479.658	99.19
479.876	83.19
480.095	74.19
480.313	82.19
480.532	77.19
480.751	93.19
480.969	78.19
481.188	93.19
481.406	77.19
481.624	90.19
481.843	77.19
482.061	83.19
482.28	78.19
482.498	76.19
482.717	96.19
482.935	74.19
483.153	64.19
483.372	81.19
483.59	62.19
483.808	72.19
484.027	70.19
484.245	81.19
484.463	80.19
484.681	82.19
484.9	86.19
485.118	85.19
485.336	79.19
485.554	91.19
485.772	74.19
485.99	81.19
486.209	86.19
486.427	82.19
486.645	69.19
486.863	82.19
487.081	76.19
487.299	95.19
487.517	63.19
487.735	72.19
487.953	77.19
488.171	101.19
488.389	80.19
488.607	64.19
488.825	86.19
489.043	75.19
489.261	89.19
489.479	79.19
489.696	86.19
489.914	77.19
490.132	81.19
490.35	88.19
490.568	88.19
490.786	85.19
491.003	79.19
491.221	72.19
491.439	76.19
491.657	76.19
491.874	78.19
492.092	83.19
492.31	86.19
492.527	77.19
492.745	75.19
492.963	81.19
493.18	88.19
493.398	81.19
493.615	77.19
493.833	83.19
494.05	80.19
494.268	92.19
494.485	76.19
494.703	75.19
494.92	91.19
495.138	87.19
495.355	74.19
495.573	88.19
495.79	79.19
496.008	89.19
496.225	72.19
496.442	77.19
496.66	88.19
496.877	83.19
497.094	78.19
497.312	83.19
497.529	66.19
497.746	77.19
497.963	78.19
498.181	92.19
498.398	70.19
498.615	103.19
498.832	83.19
499.049	69.19
499.267	95.19
499.484	78.19
499.701	81.19
499.918	91.19
500.135	79.19
500.352	94.19
500.569	83.19
500.786	95.19
501.003	78.19
501.22	76.19
501.437	81.19
501.654	77.19
501.871	85.19
502.088	83.19
502.305	94.19
502.522	93.19
502.739	75.19
502.956	87.19
503.172	62.19
503.389	88.19
503.606	76.19
503.823	78.19
504.04	85.19
504.256	73.19
504.473	76.19
504.69	71.19
504.907	94.19
505.123	78.19
505.34	76.19
505.557	88.19
505.773	94.19
505.99	88.19
506.207	76.19
506.423	79.19
506.64	77.19
506.856	83.19
507.073	69.19
507.289	97.19
507.506	70.19
507.722	73.19
507.939	84.19
508.155	84.19
508.372	80.19
508.588	83.19
508.805	74.19
509.021	73.19
509.238	77.19
509.454	83.19
509.67	75.19
509.887	76.19
510.103	91.19
510.319	79.19
510.536	75.19
510.752	86.19
510.968	76.19
511.184	61.19
511.401	85.19
511.617	77.19
511.833	91.19
512.049	83.19
512.265	84.19
512.481	76.19
512.698	79.19
512.914	83.19
513.13	95.19
513.346	93.19
513.562	79.19
513.778	77.19
513.994	78.19
514.21	93.19
514.426	81.19
514.642	71.19
514.858	100.19
515.074	80.19
515.29	91.19
515.506	87.19
515.721	88.19
515.937	83.19
516.153	77.19
516.369	86.19
516.585	61.19
516.801	88.19
517.016	73.19
517.232	76.19
517.448	79.19
517.664	77.19
517.879	93.19
518.095	84.19
518.311	92.19
518.527	79.19
518.742	89.19
518.958	85.19
519.173	95.19
519.389	92.19
519.605	80.19
519.82	80.19
520.036	99.19
520.251	88.19
