Data from BG_HRD10591_051.txt Node
Date: Fri May 16 15:21:19 EDT 2025
User: Yrep
Spectrometer: HR+D1059
Trigger mode: 1
Integration Time (sec): 1.000000E-1
Scans to average: 1
Electric dark correction enabled: true
Nonlinearity correction enabled: false
Boxcar width: 0
XAxis mode: Wavelengths
Number of Pixels in Spectrum: 2048
>>>>>Begin Spectral Data<<<<<
223.165	-13.88
223.4	-13.88
223.635	-13.88
223.869	-25.88
224.104	-17.88
224.338	2.12
224.573	-13.88
224.808	-22.88
225.042	-10.88
225.277	-7.88
225.511	-4.88
225.746	14.12
225.98	10.12
226.215	15.12
226.449	7.12
226.683	21.12
226.918	19.12
227.152	29.12
227.387	37.12
227.621	20.12
227.856	38.12
228.09	45.12
228.324	58.12
228.559	70.12
228.793	64.12
229.027	61.12
229.262	66.12
229.496	68.12
229.73	81.12
229.964	76.12
230.199	73.12
230.433	72.12
230.667	75.12
230.901	78.12
231.136	82.12
231.37	77.12
231.604	69.12
231.838	64.12
232.072	80.12
232.306	84.12
232.541	80.12
232.775	83.12
233.009	86.12
233.243	81.12
233.477	78.12
233.711	79.12
233.945	74.12
234.179	72.12
234.413	95.12
234.647	94.12
234.881	74.12
235.115	83.12
235.349	85.12
235.583	86.12
235.817	67.12
236.051	70.12
236.285	68.12
236.519	77.12
236.753	74.12
236.987	73.12
237.221	85.12
237.455	64.12
237.689	64.12
237.922	79.12
238.156	77.12
238.39	68.12
238.624	84.12
238.858	69.12
239.091	76.12
239.325	77.12
239.559	68.12
239.793	65.12
240.027	71.12
240.26	67.12
240.494	82.12
240.728	69.12
240.961	74.12
241.195	82.12
241.429	85.12
241.662	78.12
241.896	88.12
242.13	84.12
242.363	71.12
242.597	76.12
242.83	80.12
243.064	68.12
243.298	72.12
243.531	72.12
243.765	87.12
243.998	90.12
244.232	87.12
244.465	80.12
244.699	90.12
244.932	82.12
245.166	75.12
245.399	94.12
245.633	84.12
245.866	85.12
246.099	79.12
246.333	82.12
246.566	85.12
246.8	77.12
247.033	82.12
247.266	77.12
247.5	92.12
247.733	76.12
247.966	79.12
248.2	67.12
248.433	97.12
248.666	54.12
248.899	64.12
249.133	75.12
249.366	80.12
249.599	86.12
249.832	85.12
250.066	74.12
250.299	78.12
250.532	79.12
250.765	65.12
250.998	74.12
251.231	79.12
251.465	69.12
251.698	74.12
251.931	70.12
252.164	79.12
252.397	86.12
252.63	96.12
252.863	86.12
253.096	83.12
253.329	76.12
253.562	84.12
253.795	74.12
254.028	87.12
254.261	90.12
254.494	77.12
254.727	80.12
254.96	68.12
255.193	85.12
255.426	80.12
255.659	84.12
255.892	78.12
256.124	87.12
256.357	89.12
256.59	78.12
256.823	89.12
257.056	97.12
257.289	81.12
257.521	79.12
257.754	79.12
257.987	74.12
258.22	79.12
258.452	85.12
258.685	86.12
258.918	85.12
259.151	78.12
259.383	92.12
259.616	76.12
259.849	89.12
260.081	75.12
260.314	77.12
260.547	82.12
260.779	87.12
261.012	87.12
261.244	89.12
261.477	82.12
261.71	92.12
261.942	87.12
262.175	67.12
262.407	92.12
262.64	94.12
262.872	63.12
263.105	82.12
263.337	88.12
263.57	96.12
263.802	79.12
264.035	83.12
264.267	89.12
264.499	87.12
264.732	89.12
264.964	96.12
265.197	75.12
265.429	77.12
265.661	89.12
265.894	73.12
266.126	81.12
266.358	90.12
266.591	73.12
266.823	72.12
267.055	79.12
267.287	80.12
267.52	75.12
267.752	96.12
267.984	93.12
268.216	80.12
268.448	80.12
268.681	97.12
268.913	81.12
269.145	109.12
269.377	90.12
269.609	94.12
269.841	80.12
270.073	93.12
270.306	90.12
270.538	102.12
270.77	89.12
271.002	80.12
271.234	64.12
271.466	101.12
271.698	64.12
271.93	88.12
272.162	93.12
272.394	81.12
272.626	87.12
272.858	79.12
273.09	78.12
273.322	82.12
273.553	89.12
273.785	92.12
274.017	92.12
274.249	87.12
274.481	72.12
274.713	79.12
274.945	88.12
275.176	89.12
275.408	64.12
275.64	63.12
275.872	72.12
276.104	93.12
276.335	91.12
276.567	91.12
276.799	82.12
277.031	100.12
277.262	86.12
277.494	85.12
277.726	81.12
277.957	96.12
278.189	88.12
278.421	75.12
278.652	82.12
278.884	94.12
279.115	81.12
279.347	80.12
279.579	84.12
279.81	78.12
280.042	83.12
280.273	84.12
280.505	96.12
280.736	89.12
280.968	76.12
281.199	78.12
281.431	67.12
281.662	85.12
281.894	78.12
282.125	91.12
282.356	93.12
282.588	85.12
282.819	86.12
283.051	82.12
283.282	82.12
283.513	80.12
283.745	96.12
283.976	85.12
284.207	82.12
284.439	78.12
284.67	91.12
284.901	77.12
285.132	69.12
285.364	82.12
285.595	78.12
285.826	89.12
286.057	102.12
286.288	102.12
286.52	92.12
286.751	87.12
286.982	85.12
287.213	88.12
287.444	84.12
287.675	87.12
287.906	76.12
288.138	87.12
288.369	86.12
288.6	74.12
288.831	90.12
289.062	93.12
289.293	87.12
289.524	78.12
289.755	92.12
289.986	78.12
290.217	96.12
290.448	72.12
290.679	88.12
290.91	70.12
291.141	86.12
291.371	90.12
291.602	84.12
291.833	95.12
292.064	72.12
292.295	100.12
292.526	94.12
292.757	88.12
292.987	84.12
293.218	80.12
293.449	90.12
293.68	79.12
293.91	82.12
294.141	101.12
294.372	93.12
294.603	76.12
294.833	86.12
295.064	86.12
295.295	92.12
295.525	79.12
295.756	83.12
295.987	92.12
296.217	80.12
296.448	88.12
296.679	89.12
296.909	77.12
297.14	88.12
297.37	68.12
297.601	91.12
297.831	96.12
298.062	94.12
298.292	95.12
298.523	94.12
298.753	96.12
298.984	79.12
299.214	93.12
299.445	86.12
299.675	93.12
299.905	78.12
300.136	85.12
300.366	72.12
300.597	80.12
300.827	71.12
301.057	95.12
301.288	87.12
301.518	99.12
301.748	85.12
301.979	93.12
302.209	87.12
302.439	88.12
302.669	86.12
302.9	95.12
303.13	76.12
303.36	97.12
303.59	88.12
303.82	83.12
304.051	88.12
304.281	91.12
304.511	86.12
304.741	90.12
304.971	106.12
305.201	80.12
305.431	90.12
305.661	78.12
305.891	88.12
306.121	66.12
306.352	78.12
306.582	72.12
306.812	82.12
307.042	86.12
307.272	79.12
307.502	93.12
307.731	93.12
307.961	78.12
308.191	77.12
308.421	83.12
308.651	80.12
308.881	68.12
309.111	89.12
309.341	85.12
309.571	67.12
309.8	89.12
310.03	92.12
310.26	77.12
310.49	88.12
310.72	86.12
310.949	81.12
311.179	88.12
311.409	92.12
311.639	84.12
311.868	95.12
312.098	85.12
312.328	101.12
312.557	93.12
312.787	89.12
313.017	81.12
313.246	83.12
313.476	89.12
313.706	90.12
313.935	91.12
314.165	81.12
314.394	69.12
314.624	71.12
314.853	86.12
315.083	91.12
315.312	91.12
315.542	89.12
315.771	93.12
316.001	93.12
316.23	82.12
316.46	87.12
316.689	94.12
316.919	79.12
317.148	96.12
317.377	80.12
317.607	100.12
317.836	92.12
318.065	90.12
318.295	83.12
318.524	78.12
318.753	88.12
318.983	87.12
319.212	83.12
319.441	72.12
319.67	75.12
319.9	84.12
320.129	73.12
320.358	77.12
320.587	87.12
320.816	72.12
321.046	76.12
321.275	91.12
321.504	89.12
321.733	100.12
321.962	88.12
322.191	88.12
322.42	92.12
322.649	78.12
322.878	81.12
323.108	87.12
323.337	95.12
323.566	75.12
323.795	94.12
324.024	82.12
324.253	89.12
324.482	77.12
324.71	94.12
324.939	89.12
325.168	79.12
325.397	78.12
325.626	86.12
325.855	76.12
326.084	87.12
326.313	78.12
326.542	88.12
326.77	93.12
326.999	88.12
327.228	82.12
327.457	82.12
327.686	90.12
327.914	93.12
328.143	80.12
328.372	84.12
328.6	79.12
328.829	76.12
329.058	104.12
329.287	88.12
329.515	82.12
329.744	85.12
329.972	93.12
330.201	84.12
330.43	80.12
330.658	88.12
330.887	87.12
331.115	93.12
331.344	100.12
331.572	90.12
331.801	88.12
332.03	92.12
332.258	89.12
332.486	83.12
332.715	88.12
332.943	89.12
333.172	98.12
333.4	97.12
333.629	77.12
333.857	89.12
334.085	89.12
334.314	92.12
334.542	87.12
334.771	91.12
334.999	84.12
335.227	91.12
335.455	91.12
335.684	80.12
335.912	82.12
336.14	89.12
336.369	78.12
336.597	90.12
336.825	82.12
337.053	65.12
337.281	88.12
337.51	69.12
337.738	87.12
337.966	80.12
338.194	88.12
338.422	83.12
338.65	73.12
338.878	80.12
339.106	88.12
339.334	88.12
339.562	91.12
339.79	75.12
340.018	89.12
340.246	81.12
340.474	91.12
340.702	74.12
340.93	94.12
341.158	80.12
341.386	76.12
341.614	86.12
341.842	97.12
342.07	80.12
342.298	86.12
342.526	83.12
342.754	86.12
342.981	79.12
343.209	78.12
343.437	88.12
343.665	90.12
343.893	88.12
344.12	85.12
344.348	93.12
344.576	76.12
344.804	58.12
345.031	90.12
345.259	87.12
345.487	74.12
345.714	78.12
345.942	96.12
346.17	76.12
346.397	80.12
346.625	88.12
346.853	87.12
347.08	87.12
347.308	88.12
347.535	77.12
347.763	78.12
347.99	82.12
348.218	70.12
348.445	83.12
348.673	89.12
348.9	80.12
349.128	84.12
349.355	87.12
349.583	85.12
349.81	80.12
350.037	86.12
350.265	83.12
350.492	94.12
350.72	97.12
350.947	88.12
351.174	75.12
351.402	79.12
351.629	86.12
351.856	82.12
352.083	91.12
352.311	88.12
352.538	90.12
352.765	90.12
352.992	87.12
353.22	80.12
353.447	79.12
353.674	97.12
353.901	80.12
354.128	90.12
354.355	78.12
354.583	75.12
354.81	102.12
355.037	94.12
355.264	87.12
355.491	87.12
355.718	83.12
355.945	83.12
356.172	98.12
356.399	88.12
356.626	85.12
356.853	73.12
357.08	80.12
357.307	91.12
357.534	80.12
357.761	91.12
357.988	84.12
358.215	81.12
358.441	75.12
358.668	86.12
358.895	96.12
359.122	89.12
359.349	86.12
359.576	72.12
359.802	85.12
360.029	67.12
360.256	83.12
360.483	88.12
360.709	87.12
360.936	82.12
361.163	86.12
361.39	81.12
361.616	97.12
361.843	88.12
362.07	105.12
362.296	96.12
362.523	95.12
362.749	98.12
362.976	76.12
363.203	80.12
363.429	76.12
363.656	75.12
363.882	89.12
364.109	90.12
364.335	82.12
364.562	69.12
364.788	63.12
365.015	84.12
365.241	89.12
365.468	96.12
365.694	84.12
365.92	87.12
366.147	89.12
366.373	84.12
366.599	84.12
366.826	92.12
367.052	87.12
367.278	81.12
367.505	85.12
367.731	89.12
367.957	74.12
368.184	77.12
368.41	85.12
368.636	84.12
368.862	76.12
369.089	92.12
369.315	89.12
369.541	89.12
369.767	70.12
369.993	85.12
370.219	71.12
370.445	80.12
370.672	73.12
370.898	81.12
371.124	77.12
371.35	68.12
371.576	77.12
371.802	92.12
372.028	64.12
372.254	79.12
372.48	90.12
372.706	65.12
372.932	81.12
373.158	98.12
373.384	79.12
373.61	90.12
373.835	84.12
374.061	73.12
374.287	88.12
374.513	82.12
374.739	74.12
374.965	85.12
375.191	71.12
375.416	81.12
375.642	87.12
375.868	86.12
376.094	73.12
376.319	68.12
376.545	84.12
376.771	78.12
376.997	79.12
377.222	79.12
377.448	77.12
377.674	74.12
377.899	81.12
378.125	86.12
378.35	65.12
378.576	84.12
378.802	83.12
379.027	78.12
379.253	80.12
379.478	82.12
379.704	82.12
379.929	76.12
380.155	75.12
380.38	84.12
380.606	82.12
380.831	79.12
381.057	79.12
381.282	81.12
381.507	84.12
381.733	91.12
381.958	68.12
382.184	72.12
382.409	85.12
382.634	94.12
382.86	79.12
383.085	78.12
383.31	82.12
383.535	85.12
383.761	78.12
383.986	74.12
384.211	73.12
384.436	77.12
384.662	84.12
384.887	97.12
385.112	83.12
385.337	84.12
385.562	71.12
385.787	81.12
386.013	84.12
386.238	76.12
386.463	92.12
386.688	89.12
386.913	88.12
387.138	77.12
387.363	84.12
387.588	87.12
387.813	85.12
388.038	86.12
388.263	63.12
388.488	73.12
388.713	89.12
388.938	72.12
389.163	95.12
389.387	68.12
389.612	76.12
389.837	83.12
390.062	84.12
390.287	78.12
390.512	85.12
390.736	78.12
390.961	91.12
391.186	80.12
391.411	71.12
391.636	85.12
391.86	89.12
392.085	79.12
392.31	88.12
392.534	81.12
392.759	82.12
392.984	86.12
393.208	77.12
393.433	77.12
393.658	89.12
393.882	94.12
394.107	85.12
394.331	86.12
394.556	101.12
394.78	74.12
395.005	89.12
395.229	74.12
395.454	81.12
395.678	101.12
395.903	74.12
396.127	84.12
396.352	74.12
396.576	86.12
396.801	69.12
397.025	82.12
397.249	91.12
397.474	83.12
397.698	84.12
397.922	92.12
398.147	85.12
398.371	88.12
398.595	79.12
398.82	82.12
399.044	91.12
399.268	74.12
399.492	86.12
399.717	81.12
399.941	82.12
400.165	85.12
400.389	86.12
400.613	71.12
400.837	98.12
401.062	89.12
401.286	68.12
401.51	77.12
401.734	92.12
401.958	97.12
402.182	84.12
402.406	79.12
402.63	78.12
402.854	80.12
403.078	65.12
403.302	71.12
403.526	82.12
403.75	85.12
403.974	77.12
404.198	74.12
404.422	84.12
404.645	74.12
404.869	81.12
405.093	88.12
405.317	65.12
405.541	92.12
405.765	82.12
405.988	88.12
406.212	81.12
406.436	87.12
406.66	81.12
406.883	96.12
407.107	74.12
407.331	76.12
407.555	81.12
407.778	89.12
408.002	80.12
408.226	89.12
408.449	75.12
408.673	65.12
408.896	77.12
409.12	75.12
409.344	83.12
409.567	80.12
409.791	76.12
410.014	74.12
410.238	77.12
410.461	94.12
410.685	80.12
410.908	91.12
411.132	92.12
411.355	83.12
411.578	74.12
411.802	88.12
412.025	81.12
412.249	78.12
412.472	76.12
412.695	72.12
412.919	68.12
413.142	76.12
413.365	81.12
413.589	64.12
413.812	83.12
414.035	107.12
414.258	76.12
414.482	77.12
414.705	79.12
414.928	70.12
415.151	72.12
415.374	85.12
415.597	70.12
415.821	64.12
416.044	78.12
416.267	88.12
416.49	81.12
416.713	66.12
416.936	70.12
417.159	82.12
417.382	77.12
417.605	84.12
417.828	79.12
418.051	73.12
418.274	77.12
418.497	92.12
418.72	76.12
418.943	80.12
419.166	93.12
419.389	87.12
419.611	81.12
419.834	84.12
420.057	76.12
420.28	72.12
420.503	76.12
420.726	76.12
420.948	96.12
421.171	85.12
421.394	77.12
421.617	85.12
421.839	87.12
422.062	74.12
422.285	84.12
422.507	93.12
422.73	75.12
422.953	73.12
423.175	78.12
423.398	80.12
423.621	92.12
423.843	70.12
424.066	97.12
424.288	64.12
424.511	82.12
424.733	77.12
424.956	87.12
425.178	72.12
425.401	90.12
425.623	88.12
425.846	91.12
426.068	74.12
426.291	80.12
426.513	91.12
426.735	96.12
426.958	82.12
427.18	91.12
427.402	82.12
427.625	63.12
427.847	84.12
428.069	79.12
428.292	86.12
428.514	78.12
428.736	64.12
428.958	64.12
429.181	76.12
429.403	75.12
429.625	82.12
429.847	100.12
430.069	100.12
430.292	84.12
430.514	84.12
430.736	86.12
430.958	87.12
431.18	88.12
431.402	84.12
431.624	85.12
431.846	77.12
432.068	82.12
432.29	88.12
432.512	102.12
432.734	84.12
432.956	76.12
433.178	101.12
433.4	86.12
433.622	81.12
433.844	77.12
434.066	79.12
434.287	77.12
434.509	92.12
434.731	86.12
434.953	67.12
435.175	83.12
435.397	67.12
435.618	70.12
435.84	76.12
436.062	84.12
436.284	76.12
436.505	78.12
436.727	81.12
436.949	85.12
437.17	84.12
437.392	70.12
437.614	82.12
437.835	91.12
438.057	82.12
438.278	79.12
438.5	91.12
438.721	86.12
438.943	81.12
439.165	76.12
439.386	97.12
439.608	84.12
439.829	64.12
440.05	73.12
440.272	72.12
440.493	65.12
440.715	72.12
440.936	65.12
441.158	86.12
441.379	73.12
441.6	73.12
441.822	81.12
442.043	87.12
442.264	79.12
442.486	85.12
442.707	87.12
442.928	79.12
443.149	94.12
443.371	90.12
443.592	80.12
443.813	85.12
444.034	83.12
444.255	85.12
444.476	79.12
444.698	77.12
444.919	84.12
445.14	135.12
445.361	142.12
445.582	77.12
445.803	86.12
446.024	89.12
446.245	85.12
446.466	88.12
446.687	86.12
446.908	60.12
447.129	72.12
447.35	96.12
447.571	76.12
447.792	84.12
448.013	89.12
448.234	82.12
448.455	67.12
448.675	81.12
448.896	70.12
449.117	72.12
449.338	70.12
449.559	85.12
449.779	85.12
450	85.12
450.221	93.12
450.442	75.12
450.662	76.12
450.883	79.12
451.104	89.12
451.324	92.12
451.545	72.12
451.766	81.12
451.986	85.12
452.207	79.12
452.428	79.12
452.648	89.12
452.869	82.12
453.089	82.12
453.31	72.12
453.53	83.12
453.751	89.12
453.971	83.12
454.192	80.12
454.412	80.12
454.633	96.12
454.853	90.12
455.073	80.12
455.294	79.12
455.514	82.12
455.734	77.12
455.955	82.12
456.175	92.12
456.395	93.12
456.616	88.12
456.836	74.12
457.056	64.12
457.276	79.12
457.497	70.12
457.717	75.12
457.937	89.12
458.157	90.12
458.377	96.12
458.598	78.12
458.818	77.12
459.038	78.12
459.258	89.12
459.478	79.12
459.698	75.12
459.918	79.12
460.138	78.12
460.358	73.12
460.578	81.12
460.798	80.12
461.018	70.12
461.238	78.12
461.458	82.12
461.678	92.12
461.898	78.12
462.118	74.12
462.338	89.12
462.558	75.12
462.777	80.12
462.997	80.12
463.217	89.12
463.437	89.12
463.657	77.12
463.876	81.12
464.096	83.12
464.316	82.12
464.536	88.12
464.755	84.12
464.975	97.12
465.195	74.12
465.414	78.12
465.634	76.12
465.854	84.12
466.073	81.12
466.293	78.12
466.512	69.12
466.732	80.12
466.951	81.12
467.171	98.12
467.391	87.12
467.61	78.12
467.829	74.12
468.049	77.12
468.268	70.12
468.488	78.12
468.707	97.12
468.927	80.12
469.146	75.12
469.365	76.12
469.585	95.12
469.804	92.12
470.023	78.12
470.243	78.12
470.462	86.12
470.681	80.12
470.901	78.12
471.12	85.12
471.339	82.12
471.558	77.12
471.777	86.12
471.997	80.12
472.216	91.12
472.435	88.12
472.654	76.12
472.873	84.12
473.092	81.12
473.311	76.12
473.53	92.12
473.749	84.12
473.968	85.12
474.187	75.12
474.406	84.12
474.625	78.12
474.844	79.12
475.063	91.12
475.282	85.12
475.501	88.12
475.72	85.12
475.939	84.12
476.158	88.12
476.377	86.12
476.596	86.12
476.814	96.12
477.033	78.12
477.252	90.12
477.471	91.12
477.69	89.12
477.908	88.12
478.127	76.12
478.346	65.12
478.564	81.12
478.783	81.12
479.002	85.12
479.22	88.12
479.439	89.12
479.658	76.12
479.876	80.12
480.095	84.12
480.313	80.12
480.532	81.12
480.751	76.12
480.969	91.12
481.188	78.12
481.406	88.12
481.624	83.12
481.843	78.12
482.061	67.12
482.28	86.12
482.498	72.12
482.717	77.12
482.935	80.12
483.153	84.12
483.372	65.12
483.59	83.12
483.808	92.12
484.027	80.12
484.245	81.12
484.463	76.12
484.681	100.12
484.9	89.12
485.118	92.12
485.336	82.12
485.554	86.12
485.772	93.12
485.99	100.12
486.209	75.12
486.427	84.12
486.645	79.12
486.863	82.12
487.081	85.12
487.299	85.12
487.517	90.12
487.735	100.12
487.953	89.12
488.171	94.12
488.389	95.12
488.607	87.12
488.825	91.12
489.043	87.12
489.261	87.12
489.479	84.12
489.696	86.12
489.914	85.12
490.132	79.12
490.35	74.12
490.568	81.12
490.786	82.12
491.003	79.12
491.221	82.12
491.439	85.12
491.657	81.12
491.874	88.12
492.092	79.12
492.31	78.12
492.527	85.12
492.745	83.12
492.963	96.12
493.18	80.12
493.398	90.12
493.615	62.12
493.833	85.12
494.05	92.12
494.268	88.12
494.485	86.12
494.703	97.12
494.92	91.12
495.138	79.12
495.355	89.12
495.573	80.12
495.79	81.12
496.008	76.12
496.225	79.12
496.442	79.12
496.66	84.12
496.877	89.12
497.094	103.12
497.312	95.12
497.529	89.12
497.746	78.12
497.963	92.12
498.181	89.12
498.398	79.12
498.615	91.12
498.832	84.12
499.049	74.12
499.267	89.12
499.484	81.12
499.701	84.12
499.918	96.12
500.135	73.12
500.352	87.12
500.569	76.12
500.786	81.12
501.003	78.12
501.22	73.12
501.437	68.12
501.654	82.12
501.871	73.12
502.088	80.12
502.305	91.12
502.522	88.12
502.739	84.12
502.956	76.12
503.172	72.12
503.389	72.12
503.606	94.12
503.823	84.12
504.04	85.12
504.256	83.12
504.473	72.12
504.69	81.12
504.907	90.12
505.123	86.12
505.34	73.12
505.557	80.12
505.773	71.12
505.99	95.12
506.207	81.12
506.423	84.12
506.64	77.12
506.856	90.12
507.073	82.12
507.289	90.12
507.506	79.12
507.722	80.12
507.939	81.12
508.155	76.12
508.372	78.12
508.588	95.12
508.805	80.12
509.021	88.12
509.238	74.12
509.454	86.12
509.67	73.12
509.887	84.12
510.103	90.12
510.319	93.12
510.536	88.12
510.752	89.12
510.968	79.12
511.184	85.12
511.401	75.12
511.617	87.12
511.833	87.12
512.049	88.12
512.265	79.12
512.481	75.12
512.698	82.12
512.914	82.12
513.13	100.12
513.346	77.12
513.562	90.12
513.778	89.12
513.994	94.12
514.21	88.12
514.426	81.12
514.642	70.12
514.858	89.12
515.074	99.12
515.29	81.12
515.506	74.12
515.721	90.12
515.937	95.12
516.153	80.12
516.369	80.12
516.585	72.12
516.801	84.12
517.016	85.12
517.232	79.12
517.448	88.12
517.664	91.12
517.879	77.12
518.095	82.12
518.311	91.12
518.527	94.12
518.742	59.12
518.958	89.12
519.173	88.12
519.389	84.12
519.605	85.12
519.82	77.12
520.036	77.12
