Data from BG_HRD10591_081.txt Node
Date: Fri May 16 15:21:34 EDT 2025
User: Yrep
Spectrometer: HR+D1059
Trigger mode: 1
Integration Time (sec): 1.000000E-1
Scans to average: 1
Electric dark correction enabled: true
Nonlinearity correction enabled: false
Boxcar width: 0
XAxis mode: Wavelengths
Number of Pixels in Spectrum: 2048
>>>>>Begin Spectral Data<<<<<
223.165	-21.94
223.4	-21.94
223.635	-21.94
223.869	-10.94
224.104	-29.94
224.338	-15.94
224.573	-17.94
224.808	-12.94
225.042	-11.94
225.277	-11.94
225.511	-4.94
225.746	7.06
225.98	17.06
226.215	1.06
226.449	25.06
226.683	18.06
226.918	39.06
227.152	31.06
227.387	35.06
227.621	42.06
227.856	64.06
228.09	49.06
228.324	58.06
228.559	75.06
228.793	62.06
229.027	80.06
229.262	75.06
229.496	79.06
229.73	78.06
229.964	70.06
230.199	87.06
230.433	75.06
230.667	73.06
230.901	88.06
231.136	74.06
231.37	83.06
231.604	76.06
231.838	82.06
232.072	79.06
232.306	84.06
232.541	78.06
232.775	82.06
233.009	77.06
233.243	76.06
233.477	73.06
233.711	72.06
233.945	76.06
234.179	71.06
234.413	66.06
234.647	86.06
234.881	81.06
235.115	82.06
235.349	78.06
235.583	86.06
235.817	83.06
236.051	74.06
236.285	77.06
236.519	75.06
236.753	87.06
236.987	83.06
237.221	94.06
237.455	71.06
237.689	82.06
237.922	70.06
238.156	72.06
238.39	83.06
238.624	73.06
238.858	98.06
239.091	73.06
239.325	85.06
239.559	78.06
239.793	65.06
240.027	91.06
240.26	73.06
240.494	90.06
240.728	81.06
240.961	84.06
241.195	78.06
241.429	81.06
241.662	83.06
241.896	78.06
242.13	81.06
242.363	80.06
242.597	82.06
242.83	75.06
243.064	82.06
243.298	82.06
243.531	83.06
243.765	77.06
243.998	85.06
244.232	79.06
244.465	78.06
244.699	80.06
244.932	86.06
245.166	64.06
245.399	88.06
245.633	82.06
245.866	77.06
246.099	80.06
246.333	77.06
246.566	82.06
246.8	68.06
247.033	68.06
247.266	79.06
247.5	73.06
247.733	77.06
247.966	78.06
248.2	74.06
248.433	87.06
248.666	79.06
248.899	75.06
249.133	87.06
249.366	81.06
249.599	86.06
249.832	70.06
250.066	85.06
250.299	61.06
250.532	74.06
250.765	67.06
250.998	79.06
251.231	84.06
251.465	75.06
251.698	89.06
251.931	89.06
252.164	82.06
252.397	80.06
252.63	84.06
252.863	75.06
253.096	75.06
253.329	97.06
253.562	76.06
253.795	80.06
254.028	73.06
254.261	74.06
254.494	81.06
254.727	74.06
254.96	80.06
255.193	81.06
255.426	78.06
255.659	74.06
255.892	82.06
256.124	73.06
256.357	84.06
256.59	105.06
256.823	70.06
257.056	87.06
257.289	92.06
257.521	88.06
257.754	89.06
257.987	81.06
258.22	90.06
258.452	91.06
258.685	100.06
258.918	84.06
259.151	86.06
259.383	97.06
259.616	100.06
259.849	72.06
260.081	92.06
260.314	88.06
260.547	86.06
260.779	74.06
261.012	71.06
261.244	92.06
261.477	84.06
261.71	90.06
261.942	76.06
262.175	79.06
262.407	82.06
262.64	70.06
262.872	78.06
263.105	87.06
263.337	91.06
263.57	84.06
263.802	77.06
264.035	92.06
264.267	82.06
264.499	82.06
264.732	93.06
264.964	82.06
265.197	66.06
265.429	76.06
265.661	82.06
265.894	89.06
266.126	86.06
266.358	79.06
266.591	88.06
266.823	78.06
267.055	76.06
267.287	78.06
267.52	89.06
267.752	68.06
267.984	98.06
268.216	85.06
268.448	64.06
268.681	91.06
268.913	98.06
269.145	90.06
269.377	87.06
269.609	83.06
269.841	99.06
270.073	71.06
270.306	84.06
270.538	90.06
270.77	75.06
271.002	93.06
271.234	83.06
271.466	92.06
271.698	80.06
271.93	77.06
272.162	95.06
272.394	72.06
272.626	79.06
272.858	71.06
273.09	92.06
273.322	92.06
273.553	85.06
273.785	92.06
274.017	83.06
274.249	99.06
274.481	84.06
274.713	70.06
274.945	79.06
275.176	92.06
275.408	86.06
275.64	89.06
275.872	71.06
276.104	84.06
276.335	85.06
276.567	82.06
276.799	83.06
277.031	75.06
277.262	71.06
277.494	89.06
277.726	89.06
277.957	92.06
278.189	94.06
278.421	95.06
278.652	96.06
278.884	87.06
279.115	86.06
279.347	78.06
279.579	92.06
279.81	67.06
280.042	99.06
280.273	79.06
280.505	83.06
280.736	87.06
280.968	101.06
281.199	99.06
281.431	90.06
281.662	93.06
281.894	80.06
282.125	106.06
282.356	88.06
282.588	99.06
282.819	78.06
283.051	79.06
283.282	84.06
283.513	93.06
283.745	116.06
283.976	82.06
284.207	91.06
284.439	86.06
284.67	82.06
284.901	78.06
285.132	88.06
285.364	94.06
285.595	87.06
285.826	85.06
286.057	88.06
286.288	92.06
286.52	88.06
286.751	72.06
286.982	87.06
287.213	87.06
287.444	85.06
287.675	87.06
287.906	98.06
288.138	93.06
288.369	96.06
288.6	83.06
288.831	90.06
289.062	87.06
289.293	78.06
289.524	79.06
289.755	78.06
289.986	90.06
290.217	89.06
290.448	110.06
290.679	83.06
290.91	96.06
291.141	94.06
291.371	81.06
291.602	75.06
291.833	102.06
292.064	88.06
292.295	86.06
292.526	90.06
292.757	88.06
292.987	85.06
293.218	74.06
293.449	90.06
293.68	81.06
293.91	78.06
294.141	102.06
294.372	89.06
294.603	106.06
294.833	96.06
295.064	91.06
295.295	75.06
295.525	87.06
295.756	84.06
295.987	90.06
296.217	83.06
296.448	82.06
296.679	107.06
296.909	97.06
297.14	88.06
297.37	81.06
297.601	87.06
297.831	77.06
298.062	95.06
298.292	91.06
298.523	76.06
298.753	95.06
298.984	82.06
299.214	94.06
299.445	90.06
299.675	87.06
299.905	88.06
300.136	79.06
300.366	76.06
300.597	90.06
300.827	91.06
301.057	77.06
301.288	80.06
301.518	82.06
301.748	75.06
301.979	94.06
302.209	91.06
302.439	91.06
302.669	95.06
302.9	88.06
303.13	82.06
303.36	84.06
303.59	86.06
303.82	96.06
304.051	89.06
304.281	93.06
304.511	86.06
304.741	89.06
304.971	99.06
305.201	94.06
305.431	86.06
305.661	86.06
305.891	86.06
306.121	89.06
306.352	89.06
306.582	84.06
306.812	84.06
307.042	80.06
307.272	96.06
307.502	87.06
307.731	89.06
307.961	102.06
308.191	86.06
308.421	95.06
308.651	81.06
308.881	97.06
309.111	83.06
309.341	88.06
309.571	83.06
309.8	86.06
310.03	83.06
310.26	90.06
310.49	95.06
310.72	83.06
310.949	86.06
311.179	91.06
311.409	88.06
311.639	96.06
311.868	99.06
312.098	92.06
312.328	88.06
312.557	82.06
312.787	89.06
313.017	94.06
313.246	95.06
313.476	83.06
313.706	80.06
313.935	92.06
314.165	90.06
314.394	87.06
314.624	99.06
314.853	93.06
315.083	103.06
315.312	80.06
315.542	95.06
315.771	100.06
316.001	90.06
316.23	91.06
316.46	80.06
316.689	68.06
316.919	82.06
317.148	80.06
317.377	84.06
317.607	65.06
317.836	80.06
318.065	94.06
318.295	80.06
318.524	94.06
318.753	82.06
318.983	80.06
319.212	100.06
319.441	75.06
319.67	98.06
319.9	91.06
320.129	93.06
320.358	83.06
320.587	93.06
320.816	78.06
321.046	87.06
321.275	78.06
321.504	96.06
321.733	93.06
321.962	95.06
322.191	85.06
322.42	78.06
322.649	85.06
322.878	107.06
323.108	84.06
323.337	86.06
323.566	92.06
323.795	97.06
324.024	87.06
324.253	82.06
324.482	80.06
324.71	82.06
324.939	100.06
325.168	102.06
325.397	97.06
325.626	97.06
325.855	82.06
326.084	91.06
326.313	83.06
326.542	89.06
326.77	87.06
326.999	96.06
327.228	103.06
327.457	86.06
327.686	86.06
327.914	81.06
328.143	79.06
328.372	95.06
328.6	90.06
328.829	76.06
329.058	83.06
329.287	106.06
329.515	89.06
329.744	90.06
329.972	82.06
330.201	86.06
330.43	86.06
330.658	87.06
330.887	86.06
331.115	102.06
331.344	88.06
331.572	82.06
331.801	100.06
332.03	80.06
332.258	74.06
332.486	80.06
332.715	98.06
332.943	89.06
333.172	68.06
333.4	102.06
333.629	95.06
333.857	74.06
334.085	80.06
334.314	90.06
334.542	87.06
334.771	80.06
334.999	98.06
335.227	86.06
335.455	79.06
335.684	80.06
335.912	108.06
336.14	97.06
336.369	85.06
336.597	87.06
336.825	98.06
337.053	84.06
337.281	86.06
337.51	92.06
337.738	87.06
337.966	82.06
338.194	78.06
338.422	98.06
338.65	93.06
338.878	100.06
339.106	93.06
339.334	106.06
339.562	78.06
339.79	95.06
340.018	98.06
340.246	84.06
340.474	81.06
340.702	79.06
340.93	87.06
341.158	81.06
341.386	86.06
341.614	99.06
341.842	102.06
342.07	68.06
342.298	97.06
342.526	95.06
342.754	85.06
342.981	96.06
343.209	81.06
343.437	98.06
343.665	75.06
343.893	86.06
344.12	97.06
344.348	92.06
344.576	95.06
344.804	92.06
345.031	87.06
345.259	73.06
345.487	86.06
345.714	80.06
345.942	89.06
346.17	82.06
346.397	92.06
346.625	89.06
346.853	94.06
347.08	82.06
347.308	98.06
347.535	104.06
347.763	95.06
347.99	92.06
348.218	79.06
348.445	102.06
348.673	86.06
348.9	98.06
349.128	83.06
349.355	101.06
349.583	86.06
349.81	75.06
350.037	97.06
350.265	88.06
350.492	70.06
350.72	96.06
350.947	88.06
351.174	77.06
351.402	92.06
351.629	91.06
351.856	80.06
352.083	88.06
352.311	81.06
352.538	80.06
352.765	83.06
352.992	96.06
353.22	95.06
353.447	107.06
353.674	73.06
353.901	88.06
354.128	95.06
354.355	87.06
354.583	91.06
354.81	92.06
355.037	95.06
355.264	83.06
355.491	96.06
355.718	91.06
355.945	85.06
356.172	87.06
356.399	82.06
356.626	81.06
356.853	80.06
357.08	87.06
357.307	85.06
357.534	103.06
357.761	86.06
357.988	85.06
358.215	91.06
358.441	95.06
358.668	84.06
358.895	82.06
359.122	90.06
359.349	95.06
359.576	80.06
359.802	78.06
360.029	82.06
360.256	76.06
360.483	97.06
360.709	92.06
360.936	105.06
361.163	83.06
361.39	94.06
361.616	76.06
361.843	88.06
362.07	86.06
362.296	87.06
362.523	94.06
362.749	84.06
362.976	80.06
363.203	90.06
363.429	95.06
363.656	95.06
363.882	95.06
364.109	94.06
364.335	82.06
364.562	83.06
364.788	105.06
365.015	85.06
365.241	87.06
365.468	84.06
365.694	85.06
365.92	84.06
366.147	71.06
366.373	83.06
366.599	82.06
366.826	84.06
367.052	65.06
367.278	96.06
367.505	81.06
367.731	95.06
367.957	77.06
368.184	83.06
368.41	67.06
368.636	90.06
368.862	93.06
369.089	94.06
369.315	92.06
369.541	78.06
369.767	99.06
369.993	81.06
370.219	75.06
370.445	87.06
370.672	74.06
370.898	93.06
371.124	94.06
371.35	92.06
371.576	95.06
371.802	96.06
372.028	98.06
372.254	90.06
372.48	91.06
372.706	88.06
372.932	87.06
373.158	95.06
373.384	87.06
373.61	80.06
373.835	92.06
374.061	74.06
374.287	73.06
374.513	80.06
374.739	74.06
374.965	78.06
375.191	96.06
375.416	91.06
375.642	74.06
375.868	92.06
376.094	75.06
376.319	86.06
376.545	86.06
376.771	91.06
376.997	78.06
377.222	83.06
377.448	92.06
377.674	86.06
377.899	81.06
378.125	83.06
378.35	98.06
378.576	82.06
378.802	96.06
379.027	98.06
379.253	75.06
379.478	77.06
379.704	74.06
379.929	89.06
380.155	84.06
380.38	87.06
380.606	90.06
380.831	86.06
381.057	108.06
381.282	90.06
381.507	83.06
381.733	92.06
381.958	93.06
382.184	95.06
382.409	83.06
382.634	77.06
382.86	78.06
383.085	92.06
383.31	87.06
383.535	91.06
383.761	84.06
383.986	88.06
384.211	74.06
384.436	80.06
384.662	86.06
384.887	80.06
385.112	96.06
385.337	84.06
385.562	84.06
385.787	79.06
386.013	94.06
386.238	92.06
386.463	82.06
386.688	99.06
386.913	78.06
387.138	84.06
387.363	102.06
387.588	98.06
387.813	104.06
388.038	94.06
388.263	79.06
388.488	76.06
388.713	83.06
388.938	83.06
389.163	79.06
389.387	95.06
389.612	103.06
389.837	99.06
390.062	84.06
390.287	78.06
390.512	82.06
390.736	85.06
390.961	90.06
391.186	89.06
391.411	83.06
391.636	90.06
391.86	96.06
392.085	87.06
392.31	88.06
392.534	103.06
392.759	82.06
392.984	86.06
393.208	100.06
393.433	95.06
393.658	93.06
393.882	95.06
394.107	97.06
394.331	80.06
394.556	84.06
394.78	80.06
395.005	92.06
395.229	87.06
395.454	80.06
395.678	71.06
395.903	79.06
396.127	88.06
396.352	93.06
396.576	84.06
396.801	86.06
397.025	83.06
397.249	83.06
397.474	76.06
397.698	83.06
397.922	94.06
398.147	102.06
398.371	96.06
398.595	83.06
398.82	82.06
399.044	94.06
399.268	98.06
399.492	102.06
399.717	88.06
399.941	89.06
400.165	96.06
400.389	94.06
400.613	80.06
400.837	96.06
401.062	97.06
401.286	92.06
401.51	92.06
401.734	88.06
401.958	98.06
402.182	89.06
402.406	95.06
402.63	90.06
402.854	80.06
403.078	82.06
403.302	86.06
403.526	97.06
403.75	90.06
403.974	95.06
404.198	97.06
404.422	84.06
404.645	83.06
404.869	77.06
405.093	90.06
405.317	96.06
405.541	98.06
405.765	95.06
405.988	97.06
406.212	81.06
406.436	82.06
406.66	87.06
406.883	91.06
407.107	89.06
407.331	106.06
407.555	92.06
407.778	82.06
408.002	105.06
408.226	95.06
408.449	93.06
408.673	94.06
408.896	83.06
409.12	91.06
409.344	93.06
409.567	95.06
409.791	93.06
410.014	85.06
410.238	82.06
410.461	88.06
410.685	88.06
410.908	82.06
411.132	92.06
411.355	92.06
411.578	93.06
411.802	97.06
412.025	77.06
412.249	94.06
412.472	81.06
412.695	76.06
412.919	81.06
413.142	96.06
413.365	90.06
413.589	95.06
413.812	80.06
414.035	95.06
414.258	90.06
414.482	98.06
414.705	68.06
414.928	87.06
415.151	91.06
415.374	75.06
415.597	82.06
415.821	89.06
416.044	90.06
416.267	92.06
416.49	96.06
416.713	82.06
416.936	91.06
417.159	99.06
417.382	87.06
417.605	75.06
417.828	90.06
418.051	82.06
418.274	94.06
418.497	72.06
418.72	95.06
418.943	87.06
419.166	75.06
419.389	86.06
419.611	83.06
419.834	89.06
420.057	89.06
420.28	89.06
420.503	79.06
420.726	64.06
420.948	82.06
421.171	80.06
421.394	94.06
421.617	86.06
421.839	88.06
422.062	97.06
422.285	90.06
422.507	99.06
422.73	95.06
422.953	82.06
423.175	87.06
423.398	90.06
423.621	88.06
423.843	104.06
424.066	97.06
424.288	84.06
424.511	94.06
424.733	90.06
424.956	74.06
425.178	91.06
425.401	90.06
425.623	80.06
425.846	97.06
426.068	88.06
426.291	90.06
426.513	81.06
426.735	92.06
426.958	69.06
427.18	78.06
427.402	92.06
427.625	99.06
427.847	88.06
428.069	94.06
428.292	76.06
428.514	95.06
428.736	86.06
428.958	90.06
429.181	86.06
429.403	94.06
429.625	90.06
429.847	94.06
430.069	95.06
430.292	81.06
430.514	82.06
430.736	95.06
430.958	94.06
431.18	83.06
431.402	99.06
431.624	107.06
431.846	92.06
432.068	91.06
432.29	92.06
432.512	104.06
432.734	82.06
432.956	78.06
433.178	100.06
433.4	90.06
433.622	85.06
433.844	73.06
434.066	73.06
434.287	85.06
434.509	98.06
434.731	95.06
434.953	107.06
435.175	86.06
435.397	105.06
435.618	90.06
435.84	90.06
436.062	93.06
436.284	74.06
436.505	90.06
436.727	79.06
436.949	76.06
437.17	89.06
437.392	98.06
437.614	81.06
437.835	80.06
438.057	87.06
438.278	86.06
438.5	89.06
438.721	90.06
438.943	96.06
439.165	77.06
439.386	98.06
439.608	76.06
439.829	79.06
440.05	79.06
440.272	98.06
440.493	104.06
440.715	84.06
440.936	98.06
441.158	88.06
441.379	91.06
441.6	82.06
441.822	102.06
442.043	87.06
442.264	80.06
442.486	79.06
442.707	87.06
442.928	94.06
443.149	78.06
443.371	84.06
443.592	88.06
443.813	100.06
444.034	78.06
444.255	80.06
444.476	97.06
444.698	98.06
444.919	81.06
445.14	167.06
445.361	133.06
445.582	94.06
445.803	98.06
446.024	90.06
446.245	98.06
446.466	88.06
446.687	99.06
446.908	104.06
447.129	79.06
447.35	85.06
447.571	100.06
447.792	91.06
448.013	90.06
448.234	82.06
448.455	92.06
448.675	71.06
448.896	72.06
449.117	71.06
449.338	75.06
449.559	89.06
449.779	82.06
450	84.06
450.221	74.06
450.442	92.06
450.662	94.06
450.883	85.06
451.104	87.06
451.324	81.06
451.545	94.06
451.766	98.06
451.986	79.06
452.207	81.06
452.428	95.06
452.648	84.06
452.869	84.06
453.089	86.06
453.31	106.06
453.53	86.06
453.751	84.06
453.971	88.06
454.192	89.06
454.412	88.06
454.633	91.06
454.853	84.06
455.073	86.06
455.294	81.06
455.514	82.06
455.734	76.06
455.955	87.06
456.175	92.06
456.395	93.06
456.616	86.06
456.836	80.06
457.056	94.06
457.276	91.06
457.497	96.06
457.717	90.06
457.937	87.06
458.157	85.06
458.377	87.06
458.598	73.06
458.818	90.06
459.038	93.06
459.258	94.06
459.478	92.06
459.698	89.06
459.918	91.06
460.138	84.06
460.358	104.06
460.578	98.06
460.798	91.06
461.018	72.06
461.238	95.06
461.458	103.06
461.678	83.06
461.898	97.06
462.118	83.06
462.338	90.06
462.558	90.06
462.777	80.06
462.997	86.06
463.217	102.06
463.437	92.06
463.657	88.06
463.876	96.06
464.096	95.06
464.316	93.06
464.536	99.06
464.755	110.06
464.975	107.06
465.195	91.06
465.414	89.06
465.634	74.06
465.854	81.06
466.073	74.06
466.293	99.06
466.512	82.06
466.732	82.06
466.951	103.06
467.171	84.06
467.391	90.06
467.61	95.06
467.829	82.06
468.049	97.06
468.268	86.06
468.488	99.06
468.707	92.06
468.927	89.06
469.146	94.06
469.365	82.06
469.585	91.06
469.804	81.06
470.023	80.06
470.243	91.06
470.462	98.06
470.681	80.06
470.901	92.06
471.12	100.06
471.339	104.06
471.558	77.06
471.777	78.06
471.997	81.06
472.216	83.06
472.435	91.06
472.654	86.06
472.873	80.06
473.092	92.06
473.311	96.06
473.53	82.06
473.749	92.06
473.968	91.06
474.187	93.06
474.406	84.06
474.625	88.06
474.844	86.06
475.063	79.06
475.282	94.06
475.501	105.06
475.72	83.06
475.939	92.06
476.158	78.06
476.377	97.06
476.596	80.06
476.814	95.06
477.033	97.06
477.252	111.06
477.471	96.06
477.69	62.06
477.908	89.06
478.127	74.06
478.346	95.06
478.564	90.06
478.783	78.06
479.002	106.06
479.22	82.06
479.439	89.06
479.658	79.06
479.876	95.06
480.095	96.06
480.313	78.06
480.532	90.06
480.751	95.06
480.969	87.06
481.188	84.06
481.406	89.06
481.624	92.06
481.843	80.06
482.061	89.06
482.28	91.06
482.498	87.06
482.717	80.06
482.935	97.06
483.153	80.06
483.372	93.06
483.59	90.06
483.808	102.06
484.027	86.06
484.245	85.06
484.463	84.06
484.681	84.06
484.9	89.06
485.118	92.06
485.336	80.06
485.554	92.06
485.772	84.06
485.99	86.06
486.209	98.06
486.427	97.06
486.645	93.06
486.863	96.06
487.081	77.06
487.299	83.06
487.517	104.06
487.735	102.06
487.953	89.06
488.171	84.06
488.389	106.06
488.607	89.06
488.825	86.06
489.043	90.06
489.261	96.06
489.479	91.06
489.696	96.06
489.914	87.06
490.132	87.06
490.35	94.06
490.568	82.06
490.786	80.06
491.003	92.06
491.221	84.06
491.439	88.06
491.657	88.06
491.874	86.06
492.092	86.06
492.31	92.06
492.527	96.06
492.745	92.06
492.963	92.06
493.18	94.06
493.398	72.06
493.615	87.06
493.833	95.06
494.05	82.06
494.268	96.06
494.485	91.06
494.703	91.06
494.92	76.06
495.138	92.06
495.355	98.06
495.573	102.06
495.79	91.06
496.008	86.06
496.225	76.06
496.442	89.06
496.66	103.06
496.877	102.06
497.094	78.06
497.312	90.06
497.529	92.06
497.746	104.06
497.963	98.06
498.181	79.06
498.398	80.06
498.615	94.06
498.832	103.06
499.049	95.06
499.267	86.06
499.484	95.06
499.701	105.06
499.918	108.06
500.135	109.06
500.352	114.06
500.569	94.06
500.786	104.06
501.003	107.06
501.22	111.06
501.437	110.06
501.654	77.06
501.871	91.06
502.088	96.06
502.305	109.06
502.522	94.06
502.739	98.06
502.956	98.06
503.172	88.06
503.389	96.06
503.606	105.06
503.823	82.06
504.04	104.06
504.256	96.06
504.473	92.06
504.69	96.06
504.907	92.06
505.123	82.06
505.34	87.06
505.557	93.06
505.773	95.06
505.99	75.06
506.207	75.06
506.423	82.06
506.64	94.06
506.856	74.06
507.073	79.06
507.289	89.06
507.506	94.06
507.722	95.06
507.939	91.06
508.155	87.06
508.372	79.06
508.588	91.06
508.805	96.06
509.021	83.06
509.238	95.06
509.454	89.06
509.67	76.06
509.887	96.06
510.103	98.06
510.319	86.06
510.536	103.06
510.752	80.06
510.968	105.06
511.184	82.06
511.401	91.06
511.617	82.06
511.833	90.06
512.049	94.06
512.265	78.06
512.481	80.06
512.698	74.06
512.914	94.06
513.13	90.06
513.346	80.06
513.562	108.06
513.778	80.06
513.994	87.06
514.21	77.06
514.426	94.06
514.642	92.06
514.858	84.06
515.074	93.06
515.29	91.06
515.506	81.06
515.721	87.06
515.937	92.06
516.153	84.06
516.369	62.06
516.585	90.06
516.801	88.06
517.016	102.06
517.232	87.06
517.448	96.06
517.664	96.06
517.879	96.06
518.095	87.06
518.311	104.06
518.527	91.06
518.742	97.06
518.958	105.06
