Data from BG_HRD10591_092.txt Node
Date: Fri May 16 15:21:39 EDT 2025
User: Yrep
Spectrometer: HR+D1059
Trigger mode: 1
Integration Time (sec): 1.000000E-1
Scans to average: 1
Electric dark correction enabled: true
Nonlinearity correction enabled: false
Boxcar width: 0
XAxis mode: Wavelengths
Number of Pixels in Spectrum: 2048
>>>>>Begin Spectral Data<<<<<
223.165	-11.94
223.4	-11.94
223.635	-11.94
223.869	-24.94
224.104	-9.94
224.338	-22.94
224.573	-11.94
224.808	-5.94
225.042	-3.94
225.277	-9.94
225.511	3.06
225.746	-2.94
225.98	9.06
226.215	9.06
226.449	19.06
226.683	25.06
226.918	17.06
227.152	22.06
227.387	39.06
227.621	47.06
227.856	56.06
228.09	44.06
228.324	38.06
228.559	55.06
228.793	47.06
229.027	61.06
229.262	50.06
229.496	79.06
229.73	90.06
229.964	71.06
230.199	78.06
230.433	80.06
230.667	77.06
230.901	81.06
231.136	71.06
231.37	82.06
231.604	75.06
231.838	84.06
232.072	73.06
232.306	83.06
232.541	62.06
232.775	82.06
233.009	77.06
233.243	70.06
233.477	81.06
233.711	80.06
233.945	68.06
234.179	75.06
234.413	81.06
234.647	88.06
234.881	77.06
235.115	82.06
235.349	82.06
235.583	66.06
235.817	89.06
236.051	75.06
236.285	72.06
236.519	85.06
236.753	77.06
236.987	46.06
237.221	66.06
237.455	83.06
237.689	74.06
237.922	73.06
238.156	87.06
238.39	77.06
238.624	67.06
238.858	58.06
239.091	59.06
239.325	57.06
239.559	70.06
239.793	75.06
240.027	67.06
240.26	71.06
240.494	73.06
240.728	76.06
240.961	70.06
241.195	80.06
241.429	75.06
241.662	85.06
241.896	71.06
242.13	75.06
242.363	75.06
242.597	85.06
242.83	70.06
243.064	85.06
243.298	65.06
243.531	92.06
243.765	81.06
243.998	73.06
244.232	77.06
244.465	81.06
244.699	79.06
244.932	84.06
245.166	90.06
245.399	85.06
245.633	77.06
245.866	85.06
246.099	79.06
246.333	66.06
246.566	78.06
246.8	77.06
247.033	67.06
247.266	80.06
247.5	74.06
247.733	79.06
247.966	68.06
248.2	83.06
248.433	69.06
248.666	74.06
248.899	73.06
249.133	76.06
249.366	85.06
249.599	81.06
249.832	76.06
250.066	81.06
250.299	72.06
250.532	83.06
250.765	79.06
250.998	73.06
251.231	73.06
251.465	76.06
251.698	68.06
251.931	86.06
252.164	77.06
252.397	86.06
252.63	80.06
252.863	75.06
253.096	77.06
253.329	90.06
253.562	59.06
253.795	74.06
254.028	75.06
254.261	84.06
254.494	89.06
254.727	95.06
254.96	73.06
255.193	71.06
255.426	74.06
255.659	75.06
255.892	75.06
256.124	89.06
256.357	65.06
256.59	81.06
256.823	69.06
257.056	67.06
257.289	77.06
257.521	82.06
257.754	81.06
257.987	79.06
258.22	78.06
258.452	68.06
258.685	78.06
258.918	77.06
259.151	75.06
259.383	79.06
259.616	70.06
259.849	77.06
260.081	82.06
260.314	78.06
260.547	84.06
260.779	98.06
261.012	76.06
261.244	85.06
261.477	86.06
261.71	82.06
261.942	88.06
262.175	94.06
262.407	89.06
262.64	85.06
262.872	81.06
263.105	90.06
263.337	91.06
263.57	93.06
263.802	76.06
264.035	91.06
264.267	70.06
264.499	85.06
264.732	81.06
264.964	84.06
265.197	102.06
265.429	78.06
265.661	85.06
265.894	81.06
266.126	84.06
266.358	82.06
266.591	89.06
266.823	75.06
267.055	77.06
267.287	83.06
267.52	75.06
267.752	67.06
267.984	79.06
268.216	73.06
268.448	71.06
268.681	87.06
268.913	86.06
269.145	89.06
269.377	62.06
269.609	101.06
269.841	67.06
270.073	94.06
270.306	89.06
270.538	78.06
270.77	90.06
271.002	74.06
271.234	85.06
271.466	75.06
271.698	80.06
271.93	81.06
272.162	80.06
272.394	85.06
272.626	78.06
272.858	82.06
273.09	102.06
273.322	73.06
273.553	85.06
273.785	93.06
274.017	86.06
274.249	78.06
274.481	67.06
274.713	76.06
274.945	88.06
275.176	82.06
275.408	90.06
275.64	85.06
275.872	90.06
276.104	71.06
276.335	83.06
276.567	74.06
276.799	76.06
277.031	94.06
277.262	88.06
277.494	93.06
277.726	99.06
277.957	89.06
278.189	70.06
278.421	84.06
278.652	93.06
278.884	80.06
279.115	71.06
279.347	81.06
279.579	94.06
279.81	85.06
280.042	93.06
280.273	86.06
280.505	97.06
280.736	93.06
280.968	82.06
281.199	75.06
281.431	86.06
281.662	87.06
281.894	81.06
282.125	82.06
282.356	66.06
282.588	70.06
282.819	92.06
283.051	78.06
283.282	84.06
283.513	81.06
283.745	84.06
283.976	84.06
284.207	82.06
284.439	91.06
284.67	79.06
284.901	97.06
285.132	91.06
285.364	91.06
285.595	85.06
285.826	90.06
286.057	92.06
286.288	83.06
286.52	81.06
286.751	69.06
286.982	83.06
287.213	75.06
287.444	91.06
287.675	90.06
287.906	84.06
288.138	85.06
288.369	81.06
288.6	90.06
288.831	89.06
289.062	82.06
289.293	84.06
289.524	85.06
289.755	74.06
289.986	93.06
290.217	77.06
290.448	93.06
290.679	87.06
290.91	69.06
291.141	82.06
291.371	83.06
291.602	84.06
291.833	84.06
292.064	81.06
292.295	86.06
292.526	79.06
292.757	89.06
292.987	101.06
293.218	88.06
293.449	91.06
293.68	85.06
293.91	71.06
294.141	89.06
294.372	80.06
294.603	81.06
294.833	88.06
295.064	76.06
295.295	87.06
295.525	85.06
295.756	87.06
295.987	97.06
296.217	67.06
296.448	81.06
296.679	86.06
296.909	81.06
297.14	91.06
297.37	80.06
297.601	86.06
297.831	86.06
298.062	82.06
298.292	100.06
298.523	93.06
298.753	81.06
298.984	95.06
299.214	86.06
299.445	88.06
299.675	91.06
299.905	75.06
300.136	79.06
300.366	90.06
300.597	69.06
300.827	75.06
301.057	70.06
301.288	69.06
301.518	85.06
301.748	79.06
301.979	97.06
302.209	85.06
302.439	82.06
302.669	92.06
302.9	81.06
303.13	86.06
303.36	84.06
303.59	108.06
303.82	87.06
304.051	85.06
304.281	95.06
304.511	87.06
304.741	83.06
304.971	79.06
305.201	90.06
305.431	92.06
305.661	71.06
305.891	97.06
306.121	88.06
306.352	87.06
306.582	94.06
306.812	79.06
307.042	80.06
307.272	87.06
307.502	87.06
307.731	80.06
307.961	87.06
308.191	77.06
308.421	99.06
308.651	81.06
308.881	90.06
309.111	83.06
309.341	72.06
309.571	83.06
309.8	81.06
310.03	101.06
310.26	89.06
310.49	92.06
310.72	91.06
310.949	92.06
311.179	85.06
311.409	87.06
311.639	92.06
311.868	89.06
312.098	85.06
312.328	82.06
312.557	78.06
312.787	69.06
313.017	77.06
313.246	77.06
313.476	83.06
313.706	67.06
313.935	79.06
314.165	88.06
314.394	85.06
314.624	78.06
314.853	67.06
315.083	84.06
315.312	81.06
315.542	80.06
315.771	77.06
316.001	83.06
316.23	94.06
316.46	87.06
316.689	100.06
316.919	86.06
317.148	81.06
317.377	71.06
317.607	97.06
317.836	85.06
318.065	89.06
318.295	81.06
318.524	70.06
318.753	80.06
318.983	81.06
319.212	90.06
319.441	79.06
319.67	74.06
319.9	100.06
320.129	73.06
320.358	92.06
320.587	76.06
320.816	83.06
321.046	85.06
321.275	81.06
321.504	83.06
321.733	89.06
321.962	81.06
322.191	85.06
322.42	79.06
322.649	89.06
322.878	79.06
323.108	84.06
323.337	89.06
323.566	86.06
323.795	77.06
324.024	82.06
324.253	88.06
324.482	87.06
324.71	86.06
324.939	93.06
325.168	83.06
325.397	81.06
325.626	90.06
325.855	83.06
326.084	72.06
326.313	95.06
326.542	81.06
326.77	86.06
326.999	89.06
327.228	99.06
327.457	92.06
327.686	90.06
327.914	78.06
328.143	93.06
328.372	88.06
328.6	87.06
328.829	81.06
329.058	80.06
329.287	87.06
329.515	84.06
329.744	73.06
329.972	76.06
330.201	85.06
330.43	78.06
330.658	89.06
330.887	82.06
331.115	97.06
331.344	82.06
331.572	89.06
331.801	88.06
332.03	90.06
332.258	82.06
332.486	88.06
332.715	85.06
332.943	99.06
333.172	91.06
333.4	78.06
333.629	89.06
333.857	90.06
334.085	81.06
334.314	86.06
334.542	99.06
334.771	85.06
334.999	82.06
335.227	86.06
335.455	70.06
335.684	86.06
335.912	82.06
336.14	88.06
336.369	87.06
336.597	83.06
336.825	85.06
337.053	94.06
337.281	83.06
337.51	81.06
337.738	100.06
337.966	77.06
338.194	85.06
338.422	85.06
338.65	86.06
338.878	86.06
339.106	84.06
339.334	86.06
339.562	76.06
339.79	83.06
340.018	89.06
340.246	95.06
340.474	87.06
340.702	97.06
340.93	78.06
341.158	65.06
341.386	76.06
341.614	85.06
341.842	75.06
342.07	74.06
342.298	81.06
342.526	74.06
342.754	84.06
342.981	85.06
343.209	90.06
343.437	103.06
343.665	99.06
343.893	81.06
344.12	97.06
344.348	84.06
344.576	93.06
344.804	82.06
345.031	73.06
345.259	94.06
345.487	95.06
345.714	75.06
345.942	85.06
346.17	89.06
346.397	87.06
346.625	77.06
346.853	78.06
347.08	82.06
347.308	90.06
347.535	87.06
347.763	90.06
347.99	71.06
348.218	84.06
348.445	93.06
348.673	82.06
348.9	94.06
349.128	89.06
349.355	84.06
349.583	85.06
349.81	76.06
350.037	85.06
350.265	82.06
350.492	99.06
350.72	84.06
350.947	88.06
351.174	94.06
351.402	92.06
351.629	81.06
351.856	79.06
352.083	87.06
352.311	76.06
352.538	79.06
352.765	66.06
352.992	86.06
353.22	92.06
353.447	81.06
353.674	83.06
353.901	90.06
354.128	79.06
354.355	88.06
354.583	78.06
354.81	80.06
355.037	105.06
355.264	102.06
355.491	99.06
355.718	80.06
355.945	78.06
356.172	78.06
356.399	78.06
356.626	85.06
356.853	79.06
357.08	95.06
357.307	67.06
357.534	93.06
357.761	84.06
357.988	106.06
358.215	93.06
358.441	84.06
358.668	92.06
358.895	90.06
359.122	83.06
359.349	81.06
359.576	73.06
359.802	83.06
360.029	86.06
360.256	89.06
360.483	71.06
360.709	76.06
360.936	81.06
361.163	92.06
361.39	87.06
361.616	91.06
361.843	85.06
362.07	74.06
362.296	94.06
362.523	72.06
362.749	82.06
362.976	102.06
363.203	94.06
363.429	76.06
363.656	90.06
363.882	87.06
364.109	73.06
364.335	89.06
364.562	82.06
364.788	85.06
365.015	81.06
365.241	82.06
365.468	85.06
365.694	67.06
365.92	84.06
366.147	87.06
366.373	98.06
366.599	86.06
366.826	77.06
367.052	87.06
367.278	82.06
367.505	93.06
367.731	87.06
367.957	69.06
368.184	73.06
368.41	69.06
368.636	70.06
368.862	86.06
369.089	73.06
369.315	83.06
369.541	84.06
369.767	78.06
369.993	81.06
370.219	90.06
370.445	71.06
370.672	83.06
370.898	89.06
371.124	74.06
371.35	100.06
371.576	82.06
371.802	77.06
372.028	85.06
372.254	72.06
372.48	101.06
372.706	73.06
372.932	75.06
373.158	89.06
373.384	89.06
373.61	104.06
373.835	85.06
374.061	81.06
374.287	81.06
374.513	88.06
374.739	94.06
374.965	90.06
375.191	92.06
375.416	82.06
375.642	90.06
375.868	90.06
376.094	83.06
376.319	79.06
376.545	85.06
376.771	71.06
376.997	87.06
377.222	71.06
377.448	81.06
377.674	88.06
377.899	79.06
378.125	79.06
378.35	76.06
378.576	89.06
378.802	90.06
379.027	83.06
379.253	81.06
379.478	80.06
379.704	76.06
379.929	73.06
380.155	75.06
380.38	82.06
380.606	77.06
380.831	79.06
381.057	85.06
381.282	87.06
381.507	85.06
381.733	94.06
381.958	81.06
382.184	71.06
382.409	82.06
382.634	95.06
382.86	86.06
383.085	82.06
383.31	88.06
383.535	76.06
383.761	69.06
383.986	99.06
384.211	85.06
384.436	97.06
384.662	87.06
384.887	94.06
385.112	76.06
385.337	75.06
385.562	81.06
385.787	91.06
386.013	82.06
386.238	93.06
386.463	78.06
386.688	99.06
386.913	89.06
387.138	92.06
387.363	93.06
387.588	92.06
387.813	86.06
388.038	81.06
388.263	98.06
388.488	101.06
388.713	93.06
388.938	66.06
389.163	97.06
389.387	79.06
389.612	84.06
389.837	82.06
390.062	81.06
390.287	79.06
390.512	69.06
390.736	81.06
390.961	67.06
391.186	68.06
391.411	87.06
391.636	92.06
391.86	85.06
392.085	85.06
392.31	97.06
392.534	97.06
392.759	87.06
392.984	80.06
393.208	92.06
393.433	89.06
393.658	93.06
393.882	91.06
394.107	85.06
394.331	81.06
394.556	92.06
394.78	85.06
395.005	100.06
395.229	90.06
395.454	81.06
395.678	79.06
395.903	93.06
396.127	92.06
396.352	85.06
396.576	82.06
396.801	77.06
397.025	83.06
397.249	93.06
397.474	105.06
397.698	86.06
397.922	84.06
398.147	78.06
398.371	81.06
398.595	74.06
398.82	98.06
399.044	73.06
399.268	77.06
399.492	87.06
399.717	82.06
399.941	93.06
400.165	92.06
400.389	103.06
400.613	86.06
400.837	89.06
401.062	85.06
401.286	88.06
401.51	90.06
401.734	104.06
401.958	90.06
402.182	84.06
402.406	80.06
402.63	74.06
402.854	97.06
403.078	87.06
403.302	96.06
403.526	75.06
403.75	90.06
403.974	85.06
404.198	90.06
404.422	93.06
404.645	91.06
404.869	91.06
405.093	89.06
405.317	86.06
405.541	77.06
405.765	79.06
405.988	81.06
406.212	99.06
406.436	83.06
406.66	80.06
406.883	94.06
407.107	80.06
407.331	89.06
407.555	74.06
407.778	86.06
408.002	98.06
408.226	86.06
408.449	97.06
408.673	94.06
408.896	80.06
409.12	85.06
409.344	87.06
409.567	103.06
409.791	89.06
410.014	83.06
410.238	79.06
410.461	98.06
410.685	92.06
410.908	91.06
411.132	91.06
411.355	76.06
411.578	98.06
411.802	81.06
412.025	88.06
412.249	83.06
412.472	77.06
412.695	101.06
412.919	77.06
413.142	77.06
413.365	84.06
413.589	79.06
413.812	73.06
414.035	91.06
414.258	77.06
414.482	80.06
414.705	81.06
414.928	81.06
415.151	73.06
415.374	87.06
415.597	92.06
415.821	85.06
416.044	77.06
416.267	64.06
416.49	92.06
416.713	92.06
416.936	94.06
417.159	89.06
417.382	74.06
417.605	93.06
417.828	75.06
418.051	88.06
418.274	79.06
418.497	76.06
418.72	77.06
418.943	91.06
419.166	85.06
419.389	94.06
419.611	85.06
419.834	77.06
420.057	89.06
420.28	78.06
420.503	88.06
420.726	93.06
420.948	70.06
421.171	77.06
421.394	91.06
421.617	95.06
421.839	77.06
422.062	91.06
422.285	80.06
422.507	85.06
422.73	86.06
422.953	87.06
423.175	74.06
423.398	87.06
423.621	93.06
423.843	101.06
424.066	86.06
424.288	98.06
424.511	95.06
424.733	81.06
424.956	87.06
425.178	78.06
425.401	71.06
425.623	85.06
425.846	72.06
426.068	79.06
426.291	77.06
426.513	76.06
426.735	93.06
426.958	81.06
427.18	81.06
427.402	84.06
427.625	90.06
427.847	83.06
428.069	81.06
428.292	74.06
428.514	74.06
428.736	81.06
428.958	85.06
429.181	97.06
429.403	72.06
429.625	89.06
429.847	87.06
430.069	85.06
430.292	89.06
430.514	81.06
430.736	79.06
430.958	79.06
431.18	79.06
431.402	88.06
431.624	77.06
431.846	77.06
432.068	98.06
432.29	87.06
432.512	95.06
432.734	87.06
432.956	81.06
433.178	80.06
433.4	91.06
433.622	101.06
433.844	83.06
434.066	77.06
434.287	103.06
434.509	75.06
434.731	78.06
434.953	85.06
435.175	97.06
435.397	71.06
435.618	81.06
435.84	62.06
436.062	76.06
436.284	61.06
436.505	64.06
436.727	89.06
436.949	70.06
437.17	81.06
437.392	86.06
437.614	84.06
437.835	93.06
438.057	79.06
438.278	81.06
438.5	82.06
438.721	90.06
438.943	81.06
439.165	92.06
439.386	82.06
439.608	81.06
439.829	87.06
440.05	91.06
440.272	80.06
440.493	79.06
440.715	88.06
440.936	94.06
441.158	94.06
441.379	80.06
441.6	97.06
441.822	91.06
442.043	94.06
442.264	81.06
442.486	85.06
442.707	99.06
442.928	82.06
443.149	95.06
443.371	91.06
443.592	85.06
443.813	82.06
444.034	86.06
444.255	84.06
444.476	82.06
444.698	100.06
444.919	107.06
445.14	176.06
445.361	115.06
445.582	94.06
445.803	75.06
446.024	79.06
446.245	78.06
446.466	87.06
446.687	91.06
446.908	90.06
447.129	98.06
447.35	89.06
447.571	81.06
447.792	84.06
448.013	90.06
448.234	86.06
448.455	85.06
448.675	86.06
448.896	85.06
449.117	65.06
449.338	73.06
449.559	85.06
449.779	89.06
450	84.06
450.221	93.06
450.442	88.06
450.662	86.06
450.883	84.06
451.104	99.06
451.324	81.06
451.545	81.06
451.766	79.06
451.986	81.06
452.207	85.06
452.428	96.06
452.648	93.06
452.869	96.06
453.089	82.06
453.31	93.06
453.53	71.06
453.751	82.06
453.971	73.06
454.192	70.06
454.412	74.06
454.633	84.06
454.853	91.06
455.073	81.06
455.294	85.06
455.514	81.06
455.734	77.06
455.955	77.06
456.175	82.06
456.395	83.06
456.616	76.06
456.836	91.06
457.056	84.06
457.276	80.06
457.497	77.06
457.717	73.06
457.937	77.06
458.157	76.06
458.377	79.06
458.598	93.06
458.818	72.06
459.038	69.06
459.258	81.06
459.478	86.06
459.698	78.06
459.918	94.06
460.138	83.06
460.358	91.06
460.578	89.06
460.798	83.06
461.018	83.06
461.238	84.06
461.458	71.06
461.678	89.06
461.898	87.06
462.118	80.06
462.338	91.06
462.558	97.06
462.777	73.06
462.997	81.06
463.217	85.06
463.437	95.06
463.657	86.06
463.876	83.06
464.096	74.06
464.316	93.06
464.536	102.06
464.755	84.06
464.975	82.06
465.195	79.06
465.414	93.06
465.634	81.06
465.854	97.06
466.073	87.06
466.293	90.06
466.512	77.06
466.732	81.06
466.951	85.06
467.171	89.06
467.391	91.06
467.61	81.06
467.829	85.06
468.049	94.06
468.268	92.06
468.488	76.06
468.707	101.06
468.927	85.06
469.146	89.06
469.365	81.06
469.585	87.06
469.804	85.06
470.023	82.06
470.243	76.06
470.462	85.06
470.681	78.06
470.901	98.06
471.12	77.06
471.339	79.06
471.558	66.06
471.777	77.06
471.997	91.06
472.216	99.06
472.435	84.06
472.654	85.06
472.873	86.06
473.092	77.06
473.311	75.06
473.53	78.06
473.749	73.06
473.968	89.06
474.187	82.06
474.406	85.06
474.625	86.06
474.844	87.06
475.063	82.06
475.282	85.06
475.501	90.06
475.72	84.06
475.939	87.06
476.158	78.06
476.377	83.06
476.596	80.06
476.814	97.06
477.033	70.06
477.252	89.06
477.471	88.06
477.69	76.06
477.908	87.06
478.127	81.06
478.346	73.06
478.564	74.06
478.783	94.06
479.002	91.06
479.22	90.06
479.439	81.06
479.658	87.06
479.876	91.06
480.095	86.06
480.313	82.06
480.532	94.06
480.751	82.06
480.969	64.06
481.188	77.06
481.406	90.06
481.624	85.06
481.843	68.06
482.061	81.06
482.28	77.06
482.498	86.06
482.717	93.06
482.935	98.06
483.153	86.06
483.372	83.06
483.59	85.06
483.808	85.06
484.027	86.06
484.245	85.06
484.463	84.06
484.681	81.06
484.9	85.06
485.118	90.06
485.336	83.06
485.554	86.06
485.772	95.06
485.99	75.06
486.209	84.06
486.427	91.06
486.645	89.06
486.863	78.06
487.081	77.06
487.299	91.06
487.517	92.06
487.735	88.06
487.953	89.06
488.171	92.06
488.389	76.06
488.607	75.06
488.825	85.06
489.043	91.06
489.261	94.06
489.479	84.06
489.696	92.06
489.914	93.06
490.132	75.06
490.35	75.06
490.568	92.06
490.786	86.06
491.003	85.06
491.221	88.06
491.439	87.06
491.657	104.06
491.874	101.06
492.092	94.06
492.31	86.06
492.527	94.06
492.745	65.06
492.963	72.06
493.18	85.06
493.398	97.06
493.615	89.06
493.833	88.06
494.05	75.06
494.268	79.06
494.485	89.06
494.703	85.06
494.92	77.06
495.138	83.06
495.355	79.06
495.573	97.06
495.79	84.06
496.008	86.06
496.225	78.06
496.442	81.06
496.66	76.06
496.877	80.06
497.094	99.06
497.312	84.06
497.529	77.06
497.746	103.06
497.963	90.06
498.181	95.06
498.398	91.06
498.615	70.06
498.832	96.06
499.049	101.06
499.267	90.06
499.484	84.06
499.701	85.06
499.918	95.06
500.135	97.06
500.352	101.06
500.569	94.06
500.786	104.06
501.003	103.06
501.22	104.06
501.437	92.06
501.654	87.06
501.871	86.06
502.088	97.06
502.305	87.06
502.522	80.06
502.739	98.06
502.956	87.06
503.172	82.06
503.389	94.06
503.606	83.06
503.823	102.06
504.04	81.06
504.256	88.06
504.473	86.06
504.69	92.06
504.907	96.06
505.123	95.06
505.34	90.06
505.557	87.06
505.773	70.06
505.99	102.06
506.207	87.06
506.423	83.06
506.64	84.06
506.856	86.06
507.073	94.06
507.289	83.06
507.506	89.06
507.722	88.06
507.939	75.06
508.155	76.06
508.372	85.06
508.588	90.06
508.805	95.06
509.021	85.06
509.238	91.06
509.454	84.06
509.67	93.06
509.887	75.06
510.103	72.06
510.319	91.06
510.536	91.06
510.752	79.06
510.968	78.06
511.184	86.06
511.401	77.06
511.617	86.06
511.833	75.06
512.049	106.06
512.265	93.06
512.481	83.06
512.698	91.06
512.914	76.06
513.13	84.06
513.346	77.06
513.562	87.06
513.778	88.06
513.994	73.06
514.21	83.06
514.426	103.06
514.642	68.06
514.858	95.06
515.074	95.06
515.29	97.06
515.506	92.06
515.721	88.06
515.937	76.06
516.153	94.06
516.369	96.06
516.585	102.06
516.801	86.06
517.016	89.06
517.232	78.06
517.448	89.06
517.664	93.06
517.879	85.06
518.095	92.06
518.311	86.06
518.527	100.06
518.742	88.06
518.958	94.06
519.173	77.06
519.389	89.06
519.605	92.06
519.82	102.06
