Data from BG_HRD10591_076.txt Node
Date: Fri May 16 15:21:31 EDT 2025
User: Yrep
Spectrometer: HR+D1059
Trigger mode: 1
Integration Time (sec): 1.000000E-1
Scans to average: 1
Electric dark correction enabled: true
Nonlinearity correction enabled: false
Boxcar width: 0
XAxis mode: Wavelengths
Number of Pixels in Spectrum: 2048
>>>>>Begin Spectral Data<<<<<
223.165	-23.44
223.4	-23.44
223.635	-23.44
223.869	-21.44
224.104	-8.44
224.338	-10.44
224.573	-17.44
224.808	-20.44
225.042	2.56
225.277	-1.44
225.511	-5.44
225.746	0.56
225.98	1.56
226.215	11.56
226.449	19.56
226.683	19.56
226.918	27.56
227.152	25.56
227.387	27.56
227.621	34.56
227.856	52.56
228.09	30.56
228.324	49.56
228.559	55.56
228.793	54.56
229.027	64.56
229.262	59.56
229.496	63.56
229.73	72.56
229.964	79.56
230.199	76.56
230.433	61.56
230.667	74.56
230.901	73.56
231.136	78.56
231.37	83.56
231.604	86.56
231.838	95.56
232.072	84.56
232.306	68.56
232.541	71.56
232.775	86.56
233.009	86.56
233.243	67.56
233.477	80.56
233.711	77.56
233.945	69.56
234.179	71.56
234.413	84.56
234.647	68.56
234.881	67.56
235.115	77.56
235.349	73.56
235.583	69.56
235.817	70.56
236.051	70.56
236.285	73.56
236.519	82.56
236.753	89.56
236.987	69.56
237.221	72.56
237.455	85.56
237.689	67.56
237.922	79.56
238.156	63.56
238.39	58.56
238.624	72.56
238.858	74.56
239.091	74.56
239.325	70.56
239.559	75.56
239.793	62.56
240.027	77.56
240.26	78.56
240.494	78.56
240.728	74.56
240.961	69.56
241.195	85.56
241.429	79.56
241.662	80.56
241.896	71.56
242.13	76.56
242.363	78.56
242.597	57.56
242.83	83.56
243.064	64.56
243.298	84.56
243.531	67.56
243.765	68.56
243.998	69.56
244.232	88.56
244.465	83.56
244.699	74.56
244.932	77.56
245.166	74.56
245.399	85.56
245.633	77.56
245.866	88.56
246.099	83.56
246.333	78.56
246.566	69.56
246.8	78.56
247.033	68.56
247.266	75.56
247.5	73.56
247.733	67.56
247.966	77.56
248.2	71.56
248.433	92.56
248.666	73.56
248.899	62.56
249.133	74.56
249.366	77.56
249.599	96.56
249.832	90.56
250.066	71.56
250.299	76.56
250.532	74.56
250.765	75.56
250.998	77.56
251.231	71.56
251.465	77.56
251.698	85.56
251.931	79.56
252.164	71.56
252.397	77.56
252.63	74.56
252.863	77.56
253.096	82.56
253.329	72.56
253.562	71.56
253.795	81.56
254.028	89.56
254.261	74.56
254.494	71.56
254.727	79.56
254.96	74.56
255.193	68.56
255.426	67.56
255.659	77.56
255.892	73.56
256.124	79.56
256.357	84.56
256.59	78.56
256.823	84.56
257.056	76.56
257.289	86.56
257.521	76.56
257.754	81.56
257.987	75.56
258.22	77.56
258.452	69.56
258.685	61.56
258.918	69.56
259.151	62.56
259.383	65.56
259.616	67.56
259.849	86.56
260.081	77.56
260.314	96.56
260.547	79.56
260.779	80.56
261.012	78.56
261.244	94.56
261.477	85.56
261.71	77.56
261.942	80.56
262.175	71.56
262.407	81.56
262.64	93.56
262.872	75.56
263.105	83.56
263.337	76.56
263.57	68.56
263.802	74.56
264.035	81.56
264.267	81.56
264.499	69.56
264.732	83.56
264.964	76.56
265.197	85.56
265.429	85.56
265.661	79.56
265.894	78.56
266.126	74.56
266.358	81.56
266.591	72.56
266.823	75.56
267.055	99.56
267.287	85.56
267.52	82.56
267.752	75.56
267.984	78.56
268.216	74.56
268.448	74.56
268.681	83.56
268.913	84.56
269.145	80.56
269.377	76.56
269.609	91.56
269.841	67.56
270.073	85.56
270.306	81.56
270.538	65.56
270.77	77.56
271.002	85.56
271.234	70.56
271.466	75.56
271.698	77.56
271.93	82.56
272.162	89.56
272.394	84.56
272.626	68.56
272.858	101.56
273.09	78.56
273.322	85.56
273.553	79.56
273.785	84.56
274.017	85.56
274.249	86.56
274.481	88.56
274.713	78.56
274.945	86.56
275.176	71.56
275.408	72.56
275.64	66.56
275.872	83.56
276.104	82.56
276.335	78.56
276.567	75.56
276.799	91.56
277.031	79.56
277.262	66.56
277.494	75.56
277.726	75.56
277.957	68.56
278.189	87.56
278.421	83.56
278.652	78.56
278.884	75.56
279.115	79.56
279.347	89.56
279.579	77.56
279.81	76.56
280.042	82.56
280.273	78.56
280.505	73.56
280.736	84.56
280.968	82.56
281.199	90.56
281.431	68.56
281.662	62.56
281.894	80.56
282.125	83.56
282.356	79.56
282.588	88.56
282.819	77.56
283.051	79.56
283.282	76.56
283.513	86.56
283.745	80.56
283.976	73.56
284.207	74.56
284.439	78.56
284.67	74.56
284.901	93.56
285.132	81.56
285.364	88.56
285.595	93.56
285.826	89.56
286.057	85.56
286.288	85.56
286.52	80.56
286.751	86.56
286.982	87.56
287.213	75.56
287.444	76.56
287.675	82.56
287.906	67.56
288.138	76.56
288.369	89.56
288.6	74.56
288.831	84.56
289.062	89.56
289.293	68.56
289.524	75.56
289.755	87.56
289.986	90.56
290.217	71.56
290.448	85.56
290.679	83.56
290.91	82.56
291.141	83.56
291.371	86.56
291.602	87.56
291.833	72.56
292.064	83.56
292.295	78.56
292.526	72.56
292.757	90.56
292.987	87.56
293.218	87.56
293.449	74.56
293.68	74.56
293.91	83.56
294.141	81.56
294.372	79.56
294.603	71.56
294.833	81.56
295.064	86.56
295.295	85.56
295.525	86.56
295.756	84.56
295.987	86.56
296.217	87.56
296.448	84.56
296.679	89.56
296.909	74.56
297.14	84.56
297.37	81.56
297.601	73.56
297.831	79.56
298.062	85.56
298.292	87.56
298.523	89.56
298.753	91.56
298.984	77.56
299.214	87.56
299.445	85.56
299.675	94.56
299.905	82.56
300.136	89.56
300.366	74.56
300.597	80.56
300.827	66.56
301.057	86.56
301.288	68.56
301.518	88.56
301.748	78.56
301.979	97.56
302.209	97.56
302.439	81.56
302.669	84.56
302.9	77.56
303.13	102.56
303.36	90.56
303.59	80.56
303.82	86.56
304.051	107.56
304.281	78.56
304.511	93.56
304.741	64.56
304.971	77.56
305.201	84.56
305.431	77.56
305.661	75.56
305.891	80.56
306.121	76.56
306.352	85.56
306.582	87.56
306.812	71.56
307.042	88.56
307.272	94.56
307.502	76.56
307.731	97.56
307.961	83.56
308.191	88.56
308.421	74.56
308.651	87.56
308.881	78.56
309.111	77.56
309.341	75.56
309.571	76.56
309.8	89.56
310.03	88.56
310.26	97.56
310.49	83.56
310.72	82.56
310.949	95.56
311.179	89.56
311.409	86.56
311.639	89.56
311.868	79.56
312.098	82.56
312.328	74.56
312.557	82.56
312.787	91.56
313.017	85.56
313.246	82.56
313.476	103.56
313.706	75.56
313.935	82.56
314.165	94.56
314.394	84.56
314.624	74.56
314.853	95.56
315.083	80.56
315.312	88.56
315.542	81.56
315.771	85.56
316.001	92.56
316.23	92.56
316.46	100.56
316.689	81.56
316.919	81.56
317.148	72.56
317.377	71.56
317.607	78.56
317.836	86.56
318.065	88.56
318.295	98.56
318.524	84.56
318.753	72.56
318.983	90.56
319.212	77.56
319.441	93.56
319.67	92.56
319.9	83.56
320.129	71.56
320.358	70.56
320.587	85.56
320.816	85.56
321.046	90.56
321.275	81.56
321.504	85.56
321.733	82.56
321.962	79.56
322.191	80.56
322.42	84.56
322.649	81.56
322.878	95.56
323.108	88.56
323.337	85.56
323.566	77.56
323.795	70.56
324.024	79.56
324.253	83.56
324.482	82.56
324.71	93.56
324.939	83.56
325.168	93.56
325.397	76.56
325.626	92.56
325.855	86.56
326.084	91.56
326.313	75.56
326.542	100.56
326.77	91.56
326.999	85.56
327.228	79.56
327.457	86.56
327.686	89.56
327.914	72.56
328.143	85.56
328.372	86.56
328.6	99.56
328.829	82.56
329.058	84.56
329.287	81.56
329.515	85.56
329.744	61.56
329.972	69.56
330.201	78.56
330.43	87.56
330.658	87.56
330.887	89.56
331.115	72.56
331.344	71.56
331.572	61.56
331.801	87.56
332.03	71.56
332.258	99.56
332.486	86.56
332.715	91.56
332.943	81.56
333.172	91.56
333.4	84.56
333.629	83.56
333.857	87.56
334.085	85.56
334.314	87.56
334.542	86.56
334.771	93.56
334.999	89.56
335.227	71.56
335.455	91.56
335.684	95.56
335.912	90.56
336.14	101.56
336.369	91.56
336.597	91.56
336.825	79.56
337.053	78.56
337.281	93.56
337.51	109.56
337.738	84.56
337.966	81.56
338.194	94.56
338.422	89.56
338.65	74.56
338.878	72.56
339.106	82.56
339.334	86.56
339.562	86.56
339.79	84.56
340.018	89.56
340.246	94.56
340.474	85.56
340.702	64.56
340.93	77.56
341.158	76.56
341.386	98.56
341.614	94.56
341.842	77.56
342.07	92.56
342.298	69.56
342.526	78.56
342.754	80.56
342.981	71.56
343.209	79.56
343.437	91.56
343.665	83.56
343.893	78.56
344.12	83.56
344.348	78.56
344.576	87.56
344.804	78.56
345.031	81.56
345.259	84.56
345.487	89.56
345.714	94.56
345.942	90.56
346.17	90.56
346.397	92.56
346.625	77.56
346.853	73.56
347.08	98.56
347.308	75.56
347.535	87.56
347.763	87.56
347.99	85.56
348.218	86.56
348.445	87.56
348.673	91.56
348.9	98.56
349.128	87.56
349.355	85.56
349.583	79.56
349.81	97.56
350.037	77.56
350.265	85.56
350.492	82.56
350.72	84.56
350.947	102.56
351.174	77.56
351.402	75.56
351.629	60.56
351.856	86.56
352.083	72.56
352.311	88.56
352.538	71.56
352.765	90.56
352.992	82.56
353.22	95.56
353.447	67.56
353.674	66.56
353.901	70.56
354.128	79.56
354.355	78.56
354.583	91.56
354.81	87.56
355.037	88.56
355.264	80.56
355.491	73.56
355.718	73.56
355.945	77.56
356.172	80.56
356.399	79.56
356.626	89.56
356.853	80.56
357.08	72.56
357.307	81.56
357.534	87.56
357.761	90.56
357.988	77.56
358.215	80.56
358.441	80.56
358.668	90.56
358.895	98.56
359.122	98.56
359.349	82.56
359.576	89.56
359.802	83.56
360.029	77.56
360.256	87.56
360.483	73.56
360.709	87.56
360.936	77.56
361.163	84.56
361.39	79.56
361.616	86.56
361.843	81.56
362.07	71.56
362.296	74.56
362.523	72.56
362.749	84.56
362.976	92.56
363.203	82.56
363.429	74.56
363.656	93.56
363.882	79.56
364.109	76.56
364.335	77.56
364.562	85.56
364.788	74.56
365.015	75.56
365.241	98.56
365.468	98.56
365.694	72.56
365.92	72.56
366.147	75.56
366.373	83.56
366.599	85.56
366.826	83.56
367.052	88.56
367.278	83.56
367.505	80.56
367.731	98.56
367.957	82.56
368.184	77.56
368.41	85.56
368.636	74.56
368.862	73.56
369.089	95.56
369.315	89.56
369.541	91.56
369.767	78.56
369.993	73.56
370.219	73.56
370.445	84.56
370.672	77.56
370.898	70.56
371.124	85.56
371.35	70.56
371.576	86.56
371.802	86.56
372.028	93.56
372.254	88.56
372.48	90.56
372.706	78.56
372.932	75.56
373.158	82.56
373.384	92.56
373.61	90.56
373.835	79.56
374.061	85.56
374.287	75.56
374.513	79.56
374.739	84.56
374.965	85.56
375.191	88.56
375.416	81.56
375.642	82.56
375.868	97.56
376.094	93.56
376.319	83.56
376.545	75.56
376.771	70.56
376.997	81.56
377.222	73.56
377.448	87.56
377.674	69.56
377.899	90.56
378.125	84.56
378.35	99.56
378.576	86.56
378.802	79.56
379.027	91.56
379.253	81.56
379.478	87.56
379.704	79.56
379.929	92.56
380.155	79.56
380.38	93.56
380.606	85.56
380.831	91.56
381.057	97.56
381.282	88.56
381.507	98.56
381.733	90.56
381.958	94.56
382.184	77.56
382.409	81.56
382.634	86.56
382.86	86.56
383.085	86.56
383.31	77.56
383.535	91.56
383.761	88.56
383.986	79.56
384.211	74.56
384.436	80.56
384.662	78.56
384.887	86.56
385.112	75.56
385.337	76.56
385.562	90.56
385.787	69.56
386.013	87.56
386.238	78.56
386.463	82.56
386.688	95.56
386.913	87.56
387.138	85.56
387.363	86.56
387.588	90.56
387.813	70.56
388.038	63.56
388.263	72.56
388.488	81.56
388.713	92.56
388.938	76.56
389.163	75.56
389.387	82.56
389.612	79.56
389.837	89.56
390.062	78.56
390.287	87.56
390.512	75.56
390.736	72.56
390.961	88.56
391.186	88.56
391.411	82.56
391.636	76.56
391.86	57.56
392.085	94.56
392.31	85.56
392.534	75.56
392.759	91.56
392.984	86.56
393.208	87.56
393.433	80.56
393.658	84.56
393.882	81.56
394.107	93.56
394.331	76.56
394.556	79.56
394.78	87.56
395.005	89.56
395.229	82.56
395.454	87.56
395.678	64.56
395.903	68.56
396.127	77.56
396.352	71.56
396.576	93.56
396.801	74.56
397.025	102.56
397.249	68.56
397.474	80.56
397.698	79.56
397.922	80.56
398.147	78.56
398.371	73.56
398.595	80.56
398.82	80.56
399.044	91.56
399.268	88.56
399.492	86.56
399.717	86.56
399.941	74.56
400.165	91.56
400.389	85.56
400.613	95.56
400.837	94.56
401.062	88.56
401.286	62.56
401.51	77.56
401.734	80.56
401.958	75.56
402.182	74.56
402.406	84.56
402.63	86.56
402.854	78.56
403.078	87.56
403.302	71.56
403.526	77.56
403.75	83.56
403.974	72.56
404.198	84.56
404.422	82.56
404.645	86.56
404.869	89.56
405.093	85.56
405.317	84.56
405.541	88.56
405.765	97.56
405.988	72.56
406.212	76.56
406.436	85.56
406.66	84.56
406.883	85.56
407.107	93.56
407.331	84.56
407.555	98.56
407.778	71.56
408.002	73.56
408.226	77.56
408.449	103.56
408.673	88.56
408.896	74.56
409.12	94.56
409.344	81.56
409.567	91.56
409.791	96.56
410.014	110.56
410.238	96.56
410.461	88.56
410.685	100.56
410.908	93.56
411.132	91.56
411.355	84.56
411.578	86.56
411.802	88.56
412.025	88.56
412.249	83.56
412.472	83.56
412.695	82.56
412.919	85.56
413.142	84.56
413.365	92.56
413.589	82.56
413.812	75.56
414.035	98.56
414.258	89.56
414.482	83.56
414.705	86.56
414.928	92.56
415.151	88.56
415.374	75.56
415.597	86.56
415.821	89.56
416.044	82.56
416.267	82.56
416.49	79.56
416.713	102.56
416.936	80.56
417.159	90.56
417.382	78.56
417.605	77.56
417.828	87.56
418.051	90.56
418.274	83.56
418.497	82.56
418.72	80.56
418.943	83.56
419.166	84.56
419.389	80.56
419.611	73.56
419.834	79.56
420.057	89.56
420.28	78.56
420.503	81.56
420.726	97.56
420.948	90.56
421.171	73.56
421.394	77.56
421.617	79.56
421.839	80.56
422.062	73.56
422.285	81.56
422.507	88.56
422.73	93.56
422.953	93.56
423.175	92.56
423.398	103.56
423.621	92.56
423.843	81.56
424.066	84.56
424.288	82.56
424.511	83.56
424.733	88.56
424.956	88.56
425.178	94.56
425.401	81.56
425.623	88.56
425.846	76.56
426.068	87.56
426.291	74.56
426.513	89.56
426.735	82.56
426.958	81.56
427.18	71.56
427.402	86.56
427.625	71.56
427.847	83.56
428.069	91.56
428.292	68.56
428.514	87.56
428.736	81.56
428.958	88.56
429.181	89.56
429.403	73.56
429.625	75.56
429.847	85.56
430.069	86.56
430.292	103.56
430.514	75.56
430.736	73.56
430.958	73.56
431.18	72.56
431.402	82.56
431.624	97.56
431.846	74.56
432.068	89.56
432.29	83.56
432.512	93.56
432.734	82.56
432.956	88.56
433.178	103.56
433.4	60.56
433.622	95.56
433.844	75.56
434.066	94.56
434.287	89.56
434.509	103.56
434.731	87.56
434.953	83.56
435.175	82.56
435.397	78.56
435.618	74.56
435.84	77.56
436.062	62.56
436.284	82.56
436.505	90.56
436.727	86.56
436.949	89.56
437.17	94.56
437.392	83.56
437.614	73.56
437.835	81.56
438.057	87.56
438.278	86.56
438.5	77.56
438.721	82.56
438.943	91.56
439.165	77.56
439.386	70.56
439.608	88.56
439.829	85.56
440.05	73.56
440.272	82.56
440.493	85.56
440.715	71.56
440.936	85.56
441.158	72.56
441.379	71.56
441.6	76.56
441.822	83.56
442.043	69.56
442.264	77.56
442.486	78.56
442.707	87.56
442.928	67.56
443.149	87.56
443.371	93.56
443.592	81.56
443.813	83.56
444.034	91.56
444.255	73.56
444.476	78.56
444.698	97.56
444.919	82.56
445.14	152.56
445.361	132.56
445.582	98.56
445.803	83.56
446.024	79.56
446.245	81.56
446.466	90.56
446.687	83.56
446.908	84.56
447.129	75.56
447.35	90.56
447.571	89.56
447.792	93.56
448.013	91.56
448.234	70.56
448.455	85.56
448.675	83.56
448.896	90.56
449.117	87.56
449.338	71.56
449.559	74.56
449.779	70.56
450	81.56
450.221	85.56
450.442	81.56
450.662	79.56
450.883	77.56
451.104	79.56
451.324	90.56
451.545	87.56
451.766	74.56
451.986	78.56
452.207	81.56
452.428	74.56
452.648	87.56
452.869	87.56
453.089	92.56
453.31	84.56
453.53	79.56
453.751	88.56
453.971	77.56
454.192	91.56
454.412	87.56
454.633	81.56
454.853	70.56
455.073	77.56
455.294	81.56
455.514	76.56
455.734	78.56
455.955	87.56
456.175	81.56
456.395	84.56
456.616	82.56
456.836	70.56
457.056	86.56
457.276	90.56
457.497	68.56
457.717	78.56
457.937	65.56
458.157	70.56
458.377	84.56
458.598	68.56
458.818	73.56
459.038	82.56
459.258	101.56
459.478	87.56
459.698	81.56
459.918	79.56
460.138	86.56
460.358	83.56
460.578	87.56
460.798	88.56
461.018	89.56
461.238	90.56
461.458	87.56
461.678	91.56
461.898	87.56
462.118	81.56
462.338	99.56
462.558	92.56
462.777	83.56
462.997	90.56
463.217	77.56
463.437	76.56
463.657	99.56
463.876	80.56
464.096	75.56
464.316	81.56
464.536	99.56
464.755	84.56
464.975	81.56
465.195	73.56
465.414	82.56
465.634	69.56
465.854	97.56
466.073	99.56
466.293	85.56
466.512	97.56
466.732	84.56
466.951	87.56
467.171	90.56
467.391	83.56
467.61	82.56
467.829	84.56
468.049	72.56
468.268	82.56
468.488	95.56
468.707	92.56
468.927	85.56
469.146	89.56
469.365	86.56
469.585	89.56
469.804	86.56
470.023	93.56
470.243	110.56
470.462	84.56
470.681	85.56
470.901	67.56
471.12	87.56
471.339	77.56
471.558	90.56
471.777	76.56
471.997	78.56
472.216	77.56
472.435	81.56
472.654	79.56
472.873	87.56
473.092	85.56
473.311	85.56
473.53	87.56
473.749	81.56
473.968	82.56
474.187	88.56
474.406	82.56
474.625	79.56
474.844	58.56
475.063	96.56
475.282	74.56
475.501	89.56
475.72	89.56
475.939	87.56
476.158	86.56
476.377	82.56
476.596	102.56
476.814	92.56
477.033	80.56
477.252	87.56
477.471	86.56
477.69	83.56
477.908	74.56
478.127	90.56
478.346	90.56
478.564	74.56
478.783	70.56
479.002	80.56
479.22	81.56
479.439	94.56
479.658	90.56
479.876	91.56
480.095	83.56
480.313	84.56
480.532	84.56
480.751	70.56
480.969	85.56
481.188	84.56
481.406	82.56
481.624	78.56
481.843	81.56
482.061	89.56
482.28	82.56
482.498	90.56
482.717	82.56
482.935	79.56
483.153	82.56
483.372	95.56
483.59	88.56
483.808	84.56
484.027	78.56
484.245	85.56
484.463	85.56
484.681	84.56
484.9	80.56
485.118	84.56
485.336	90.56
485.554	74.56
485.772	83.56
485.99	73.56
486.209	90.56
486.427	71.56
486.645	73.56
486.863	93.56
487.081	87.56
487.299	90.56
487.517	93.56
487.735	102.56
487.953	93.56
488.171	85.56
488.389	94.56
488.607	83.56
488.825	69.56
489.043	91.56
489.261	81.56
489.479	92.56
489.696	77.56
489.914	69.56
490.132	70.56
490.35	89.56
490.568	62.56
490.786	73.56
491.003	89.56
491.221	91.56
491.439	90.56
491.657	81.56
491.874	102.56
492.092	100.56
492.31	86.56
492.527	84.56
492.745	87.56
492.963	84.56
493.18	69.56
493.398	91.56
493.615	78.56
493.833	82.56
494.05	76.56
494.268	87.56
494.485	70.56
494.703	89.56
494.92	102.56
495.138	77.56
495.355	103.56
495.573	89.56
495.79	83.56
496.008	76.56
496.225	73.56
496.442	87.56
496.66	84.56
496.877	91.56
497.094	97.56
497.312	86.56
497.529	81.56
497.746	94.56
497.963	84.56
498.181	95.56
498.398	83.56
498.615	93.56
498.832	69.56
499.049	100.56
499.267	83.56
499.484	90.56
499.701	101.56
499.918	92.56
500.135	106.56
500.352	120.56
500.569	102.56
500.786	111.56
501.003	91.56
501.22	90.56
501.437	100.56
501.654	105.56
501.871	91.56
502.088	97.56
502.305	83.56
502.522	93.56
502.739	100.56
502.956	89.56
503.172	80.56
503.389	81.56
503.606	102.56
503.823	94.56
504.04	101.56
504.256	81.56
504.473	78.56
504.69	90.56
504.907	85.56
505.123	90.56
505.34	81.56
505.557	74.56
505.773	81.56
505.99	83.56
506.207	94.56
506.423	81.56
506.64	89.56
506.856	81.56
507.073	85.56
507.289	87.56
507.506	81.56
507.722	74.56
507.939	81.56
508.155	78.56
508.372	97.56
508.588	79.56
508.805	91.56
509.021	92.56
509.238	95.56
509.454	71.56
509.67	74.56
509.887	77.56
510.103	86.56
510.319	83.56
510.536	85.56
510.752	89.56
510.968	83.56
511.184	83.56
511.401	72.56
511.617	91.56
511.833	87.56
512.049	79.56
512.265	79.56
512.481	80.56
512.698	94.56
512.914	69.56
513.13	93.56
513.346	89.56
513.562	100.56
513.778	84.56
513.994	74.56
514.21	79.56
514.426	89.56
514.642	86.56
514.858	93.56
515.074	82.56
515.29	101.56
515.506	82.56
515.721	84.56
515.937	84.56
516.153	83.56
516.369	78.56
516.585	94.56
516.801	94.56
517.016	98.56
517.232	90.56
517.448	91.56
517.664	97.56
517.879	94.56
518.095	86.56
518.311	98.56
518.527	92.56
518.742	89.56
518.958	83.56
519.173	97.56
519.389	78.56
519.605	77.56
519.82	88.56
