Data from BG_HRD10591_089.txt Node
Date: Fri May 16 15:21:38 EDT 2025
User: Yrep
Spectrometer: HR+D1059
Trigger mode: 1
Integration Time (sec): 1.000000E-1
Scans to average: 1
Electric dark correction enabled: true
Nonlinearity correction enabled: false
Boxcar width: 0
XAxis mode: Wavelengths
Number of Pixels in Spectrum: 2048
>>>>>Begin Spectral Data<<<<<
223.165	-25.25
223.4	-25.25
223.635	-25.25
223.869	-24.25
224.104	-20.25
224.338	-23.25
224.573	-21.25
224.808	-4.25
225.042	-7.25
225.277	4.75
225.511	-10.25
225.746	8.75
225.98	-9.25
226.215	22.75
226.449	12.75
226.683	31.75
226.918	23.75
227.152	40.75
227.387	38.75
227.621	57.75
227.856	59.75
228.09	49.75
228.324	48.75
228.559	47.75
228.793	59.75
229.027	54.75
229.262	70.75
229.496	69.75
229.73	82.75
229.964	87.75
230.199	84.75
230.433	60.75
230.667	86.75
230.901	83.75
231.136	67.75
231.37	79.75
231.604	95.75
231.838	79.75
232.072	88.75
232.306	81.75
232.541	86.75
232.775	89.75
233.009	67.75
233.243	73.75
233.477	84.75
233.711	74.75
233.945	79.75
234.179	79.75
234.413	76.75
234.647	76.75
234.881	79.75
235.115	74.75
235.349	88.75
235.583	82.75
235.817	92.75
236.051	82.75
236.285	88.75
236.519	87.75
236.753	77.75
236.987	84.75
237.221	77.75
237.455	80.75
237.689	81.75
237.922	97.75
238.156	59.75
238.39	86.75
238.624	79.75
238.858	84.75
239.091	72.75
239.325	76.75
239.559	75.75
239.793	74.75
240.027	79.75
240.26	74.75
240.494	92.75
240.728	86.75
240.961	81.75
241.195	70.75
241.429	72.75
241.662	72.75
241.896	73.75
242.13	77.75
242.363	81.75
242.597	77.75
242.83	77.75
243.064	80.75
243.298	81.75
243.531	72.75
243.765	78.75
243.998	70.75
244.232	101.75
244.465	76.75
244.699	84.75
244.932	57.75
245.166	62.75
245.399	81.75
245.633	87.75
245.866	81.75
246.099	76.75
246.333	89.75
246.566	66.75
246.8	80.75
247.033	81.75
247.266	68.75
247.5	64.75
247.733	73.75
247.966	88.75
248.2	71.75
248.433	84.75
248.666	79.75
248.899	74.75
249.133	84.75
249.366	91.75
249.599	84.75
249.832	69.75
250.066	85.75
250.299	73.75
250.532	88.75
250.765	83.75
250.998	74.75
251.231	59.75
251.465	74.75
251.698	78.75
251.931	76.75
252.164	79.75
252.397	89.75
252.63	72.75
252.863	74.75
253.096	80.75
253.329	83.75
253.562	83.75
253.795	74.75
254.028	84.75
254.261	68.75
254.494	89.75
254.727	80.75
254.96	86.75
255.193	78.75
255.426	89.75
255.659	86.75
255.892	98.75
256.124	75.75
256.357	77.75
256.59	92.75
256.823	80.75
257.056	96.75
257.289	89.75
257.521	83.75
257.754	68.75
257.987	89.75
258.22	82.75
258.452	86.75
258.685	82.75
258.918	76.75
259.151	83.75
259.383	88.75
259.616	80.75
259.849	62.75
260.081	88.75
260.314	92.75
260.547	63.75
260.779	82.75
261.012	89.75
261.244	85.75
261.477	76.75
261.71	80.75
261.942	84.75
262.175	89.75
262.407	90.75
262.64	79.75
262.872	89.75
263.105	91.75
263.337	87.75
263.57	75.75
263.802	86.75
264.035	84.75
264.267	94.75
264.499	98.75
264.732	83.75
264.964	90.75
265.197	68.75
265.429	79.75
265.661	74.75
265.894	80.75
266.126	90.75
266.358	69.75
266.591	76.75
266.823	90.75
267.055	82.75
267.287	92.75
267.52	83.75
267.752	84.75
267.984	80.75
268.216	82.75
268.448	80.75
268.681	80.75
268.913	66.75
269.145	74.75
269.377	71.75
269.609	72.75
269.841	91.75
270.073	89.75
270.306	74.75
270.538	93.75
270.77	75.75
271.002	65.75
271.234	78.75
271.466	89.75
271.698	66.75
271.93	79.75
272.162	90.75
272.394	82.75
272.626	78.75
272.858	74.75
273.09	82.75
273.322	84.75
273.553	85.75
273.785	94.75
274.017	77.75
274.249	77.75
274.481	82.75
274.713	76.75
274.945	91.75
275.176	95.75
275.408	83.75
275.64	94.75
275.872	93.75
276.104	81.75
276.335	87.75
276.567	83.75
276.799	74.75
277.031	82.75
277.262	92.75
277.494	91.75
277.726	75.75
277.957	75.75
278.189	89.75
278.421	74.75
278.652	95.75
278.884	83.75
279.115	82.75
279.347	78.75
279.579	81.75
279.81	84.75
280.042	87.75
280.273	86.75
280.505	92.75
280.736	83.75
280.968	76.75
281.199	84.75
281.431	102.75
281.662	90.75
281.894	94.75
282.125	83.75
282.356	78.75
282.588	93.75
282.819	77.75
283.051	86.75
283.282	84.75
283.513	83.75
283.745	80.75
283.976	97.75
284.207	87.75
284.439	94.75
284.67	86.75
284.901	78.75
285.132	94.75
285.364	77.75
285.595	68.75
285.826	96.75
286.057	84.75
286.288	86.75
286.52	81.75
286.751	67.75
286.982	86.75
287.213	92.75
287.444	93.75
287.675	92.75
287.906	70.75
288.138	83.75
288.369	83.75
288.6	74.75
288.831	77.75
289.062	82.75
289.293	74.75
289.524	91.75
289.755	90.75
289.986	68.75
290.217	82.75
290.448	88.75
290.679	88.75
290.91	82.75
291.141	82.75
291.371	95.75
291.602	84.75
291.833	87.75
292.064	78.75
292.295	88.75
292.526	91.75
292.757	87.75
292.987	88.75
293.218	87.75
293.449	97.75
293.68	99.75
293.91	77.75
294.141	90.75
294.372	77.75
294.603	97.75
294.833	84.75
295.064	82.75
295.295	83.75
295.525	88.75
295.756	100.75
295.987	88.75
296.217	83.75
296.448	72.75
296.679	71.75
296.909	84.75
297.14	74.75
297.37	88.75
297.601	72.75
297.831	88.75
298.062	100.75
298.292	86.75
298.523	87.75
298.753	95.75
298.984	81.75
299.214	91.75
299.445	97.75
299.675	98.75
299.905	80.75
300.136	88.75
300.366	97.75
300.597	76.75
300.827	80.75
301.057	77.75
301.288	78.75
301.518	84.75
301.748	102.75
301.979	105.75
302.209	84.75
302.439	79.75
302.669	90.75
302.9	64.75
303.13	88.75
303.36	88.75
303.59	88.75
303.82	97.75
304.051	90.75
304.281	95.75
304.511	94.75
304.741	87.75
304.971	87.75
305.201	86.75
305.431	70.75
305.661	83.75
305.891	74.75
306.121	91.75
306.352	78.75
306.582	83.75
306.812	96.75
307.042	83.75
307.272	75.75
307.502	87.75
307.731	78.75
307.961	78.75
308.191	91.75
308.421	72.75
308.651	78.75
308.881	82.75
309.111	76.75
309.341	82.75
309.571	89.75
309.8	75.75
310.03	77.75
310.26	92.75
310.49	85.75
310.72	88.75
310.949	90.75
311.179	107.75
311.409	95.75
311.639	88.75
311.868	86.75
312.098	85.75
312.328	80.75
312.557	81.75
312.787	90.75
313.017	83.75
313.246	84.75
313.476	71.75
313.706	98.75
313.935	80.75
314.165	76.75
314.394	96.75
314.624	94.75
314.853	82.75
315.083	86.75
315.312	74.75
315.542	73.75
315.771	93.75
316.001	78.75
316.23	85.75
316.46	94.75
316.689	89.75
316.919	78.75
317.148	82.75
317.377	77.75
317.607	80.75
317.836	83.75
318.065	99.75
318.295	101.75
318.524	80.75
318.753	78.75
318.983	85.75
319.212	91.75
319.441	92.75
319.67	84.75
319.9	109.75
320.129	88.75
320.358	89.75
320.587	90.75
320.816	76.75
321.046	76.75
321.275	78.75
321.504	84.75
321.733	83.75
321.962	88.75
322.191	98.75
322.42	78.75
322.649	84.75
322.878	83.75
323.108	84.75
323.337	80.75
323.566	87.75
323.795	82.75
324.024	81.75
324.253	87.75
324.482	72.75
324.71	77.75
324.939	80.75
325.168	86.75
325.397	74.75
325.626	83.75
325.855	80.75
326.084	94.75
326.313	77.75
326.542	83.75
326.77	77.75
326.999	82.75
327.228	76.75
327.457	74.75
327.686	96.75
327.914	87.75
328.143	73.75
328.372	97.75
328.6	81.75
328.829	87.75
329.058	100.75
329.287	94.75
329.515	84.75
329.744	75.75
329.972	88.75
330.201	81.75
330.43	99.75
330.658	91.75
330.887	91.75
331.115	77.75
331.344	68.75
331.572	87.75
331.801	79.75
332.03	93.75
332.258	90.75
332.486	92.75
332.715	84.75
332.943	81.75
333.172	79.75
333.4	91.75
333.629	89.75
333.857	96.75
334.085	102.75
334.314	86.75
334.542	96.75
334.771	86.75
334.999	87.75
335.227	97.75
335.455	74.75
335.684	92.75
335.912	69.75
336.14	82.75
336.369	83.75
336.597	82.75
336.825	102.75
337.053	67.75
337.281	78.75
337.51	69.75
337.738	75.75
337.966	93.75
338.194	76.75
338.422	85.75
338.65	84.75
338.878	92.75
339.106	92.75
339.334	77.75
339.562	67.75
339.79	80.75
340.018	93.75
340.246	70.75
340.474	72.75
340.702	97.75
340.93	78.75
341.158	98.75
341.386	81.75
341.614	81.75
341.842	91.75
342.07	73.75
342.298	83.75
342.526	97.75
342.754	90.75
342.981	87.75
343.209	73.75
343.437	103.75
343.665	84.75
343.893	88.75
344.12	90.75
344.348	80.75
344.576	82.75
344.804	87.75
345.031	80.75
345.259	85.75
345.487	86.75
345.714	87.75
345.942	78.75
346.17	82.75
346.397	92.75
346.625	89.75
346.853	93.75
347.08	86.75
347.308	87.75
347.535	90.75
347.763	74.75
347.99	89.75
348.218	82.75
348.445	78.75
348.673	83.75
348.9	82.75
349.128	94.75
349.355	86.75
349.583	85.75
349.81	86.75
350.037	76.75
350.265	78.75
350.492	83.75
350.72	77.75
350.947	88.75
351.174	95.75
351.402	71.75
351.629	80.75
351.856	81.75
352.083	66.75
352.311	92.75
352.538	86.75
352.765	75.75
352.992	88.75
353.22	81.75
353.447	81.75
353.674	87.75
353.901	86.75
354.128	79.75
354.355	79.75
354.583	75.75
354.81	96.75
355.037	86.75
355.264	81.75
355.491	95.75
355.718	82.75
355.945	82.75
356.172	86.75
356.399	96.75
356.626	95.75
356.853	73.75
357.08	80.75
357.307	93.75
357.534	89.75
357.761	99.75
357.988	90.75
358.215	77.75
358.441	75.75
358.668	80.75
358.895	86.75
359.122	76.75
359.349	83.75
359.576	79.75
359.802	82.75
360.029	83.75
360.256	95.75
360.483	82.75
360.709	80.75
360.936	82.75
361.163	97.75
361.39	79.75
361.616	84.75
361.843	71.75
362.07	92.75
362.296	68.75
362.523	88.75
362.749	92.75
362.976	92.75
363.203	76.75
363.429	89.75
363.656	83.75
363.882	78.75
364.109	97.75
364.335	83.75
364.562	83.75
364.788	81.75
365.015	81.75
365.241	70.75
365.468	77.75
365.694	76.75
365.92	77.75
366.147	79.75
366.373	80.75
366.599	89.75
366.826	88.75
367.052	88.75
367.278	85.75
367.505	79.75
367.731	98.75
367.957	72.75
368.184	86.75
368.41	97.75
368.636	88.75
368.862	84.75
369.089	83.75
369.315	88.75
369.541	86.75
369.767	96.75
369.993	76.75
370.219	86.75
370.445	83.75
370.672	84.75
370.898	85.75
371.124	77.75
371.35	70.75
371.576	93.75
371.802	88.75
372.028	102.75
372.254	77.75
372.48	89.75
372.706	77.75
372.932	84.75
373.158	83.75
373.384	74.75
373.61	95.75
373.835	86.75
374.061	73.75
374.287	73.75
374.513	80.75
374.739	74.75
374.965	89.75
375.191	66.75
375.416	90.75
375.642	94.75
375.868	80.75
376.094	64.75
376.319	83.75
376.545	86.75
376.771	71.75
376.997	99.75
377.222	74.75
377.448	91.75
377.674	84.75
377.899	82.75
378.125	81.75
378.35	92.75
378.576	80.75
378.802	65.75
379.027	91.75
379.253	88.75
379.478	90.75
379.704	86.75
379.929	86.75
380.155	88.75
380.38	89.75
380.606	81.75
380.831	90.75
381.057	95.75
381.282	75.75
381.507	76.75
381.733	88.75
381.958	90.75
382.184	84.75
382.409	94.75
382.634	81.75
382.86	93.75
383.085	98.75
383.31	103.75
383.535	84.75
383.761	86.75
383.986	83.75
384.211	78.75
384.436	93.75
384.662	94.75
384.887	95.75
385.112	84.75
385.337	85.75
385.562	84.75
385.787	82.75
386.013	82.75
386.238	81.75
386.463	79.75
386.688	110.75
386.913	92.75
387.138	95.75
387.363	80.75
387.588	89.75
387.813	74.75
388.038	80.75
388.263	81.75
388.488	83.75
388.713	78.75
388.938	81.75
389.163	93.75
389.387	78.75
389.612	72.75
389.837	92.75
390.062	79.75
390.287	68.75
390.512	83.75
390.736	82.75
390.961	89.75
391.186	98.75
391.411	96.75
391.636	96.75
391.86	66.75
392.085	91.75
392.31	67.75
392.534	73.75
392.759	77.75
392.984	86.75
393.208	88.75
393.433	66.75
393.658	65.75
393.882	79.75
394.107	88.75
394.331	89.75
394.556	90.75
394.78	87.75
395.005	76.75
395.229	77.75
395.454	84.75
395.678	96.75
395.903	87.75
396.127	86.75
396.352	82.75
396.576	79.75
396.801	76.75
397.025	79.75
397.249	75.75
397.474	85.75
397.698	81.75
397.922	80.75
398.147	89.75
398.371	79.75
398.595	82.75
398.82	90.75
399.044	74.75
399.268	84.75
399.492	82.75
399.717	83.75
399.941	77.75
400.165	112.75
400.389	78.75
400.613	71.75
400.837	75.75
401.062	82.75
401.286	81.75
401.51	76.75
401.734	69.75
401.958	83.75
402.182	96.75
402.406	77.75
402.63	83.75
402.854	95.75
403.078	83.75
403.302	77.75
403.526	86.75
403.75	82.75
403.974	97.75
404.198	80.75
404.422	77.75
404.645	70.75
404.869	81.75
405.093	75.75
405.317	86.75
405.541	84.75
405.765	64.75
405.988	83.75
406.212	86.75
406.436	80.75
406.66	92.75
406.883	79.75
407.107	90.75
407.331	89.75
407.555	71.75
407.778	79.75
408.002	66.75
408.226	82.75
408.449	88.75
408.673	102.75
408.896	78.75
409.12	79.75
409.344	86.75
409.567	77.75
409.791	73.75
410.014	67.75
410.238	75.75
410.461	82.75
410.685	79.75
410.908	90.75
411.132	90.75
411.355	83.75
411.578	69.75
411.802	82.75
412.025	84.75
412.249	85.75
412.472	89.75
412.695	89.75
412.919	99.75
413.142	85.75
413.365	83.75
413.589	87.75
413.812	79.75
414.035	87.75
414.258	86.75
414.482	81.75
414.705	93.75
414.928	86.75
415.151	82.75
415.374	79.75
415.597	74.75
415.821	81.75
416.044	78.75
416.267	89.75
416.49	89.75
416.713	85.75
416.936	84.75
417.159	65.75
417.382	79.75
417.605	84.75
417.828	98.75
418.051	81.75
418.274	87.75
418.497	91.75
418.72	78.75
418.943	76.75
419.166	89.75
419.389	74.75
419.611	74.75
419.834	75.75
420.057	66.75
420.28	86.75
420.503	76.75
420.726	74.75
420.948	77.75
421.171	82.75
421.394	75.75
421.617	79.75
421.839	80.75
422.062	81.75
422.285	90.75
422.507	83.75
422.73	78.75
422.953	92.75
423.175	72.75
423.398	65.75
423.621	74.75
423.843	90.75
424.066	78.75
424.288	86.75
424.511	78.75
424.733	81.75
424.956	74.75
425.178	83.75
425.401	84.75
425.623	74.75
425.846	73.75
426.068	94.75
426.291	79.75
426.513	91.75
426.735	71.75
426.958	85.75
427.18	78.75
427.402	71.75
427.625	78.75
427.847	86.75
428.069	90.75
428.292	89.75
428.514	80.75
428.736	80.75
428.958	77.75
429.181	89.75
429.403	88.75
429.625	73.75
429.847	86.75
430.069	88.75
430.292	91.75
430.514	88.75
430.736	94.75
430.958	88.75
431.18	69.75
431.402	75.75
431.624	89.75
431.846	88.75
432.068	78.75
432.29	76.75
432.512	83.75
432.734	74.75
432.956	85.75
433.178	86.75
433.4	89.75
433.622	80.75
433.844	78.75
434.066	80.75
434.287	85.75
434.509	75.75
434.731	76.75
434.953	78.75
435.175	74.75
435.397	91.75
435.618	81.75
435.84	70.75
436.062	78.75
436.284	74.75
436.505	85.75
436.727	80.75
436.949	86.75
437.17	87.75
437.392	73.75
437.614	90.75
437.835	87.75
438.057	80.75
438.278	83.75
438.5	83.75
438.721	87.75
438.943	79.75
439.165	78.75
439.386	81.75
439.608	82.75
439.829	88.75
440.05	83.75
440.272	90.75
440.493	78.75
440.715	86.75
440.936	95.75
441.158	84.75
441.379	76.75
441.6	83.75
441.822	83.75
442.043	76.75
442.264	78.75
442.486	66.75
442.707	78.75
442.928	86.75
443.149	81.75
443.371	86.75
443.592	89.75
443.813	75.75
444.034	72.75
444.255	83.75
444.476	83.75
444.698	83.75
444.919	76.75
445.14	172.75
445.361	118.75
445.582	76.75
445.803	76.75
446.024	84.75
446.245	95.75
446.466	75.75
446.687	71.75
446.908	86.75
447.129	84.75
447.35	80.75
447.571	83.75
447.792	70.75
448.013	84.75
448.234	81.75
448.455	76.75
448.675	79.75
448.896	67.75
449.117	78.75
449.338	75.75
449.559	83.75
449.779	79.75
450	89.75
450.221	90.75
450.442	96.75
450.662	84.75
450.883	83.75
451.104	91.75
451.324	71.75
451.545	75.75
451.766	76.75
451.986	105.75
452.207	95.75
452.428	90.75
452.648	77.75
452.869	87.75
453.089	86.75
453.31	73.75
453.53	92.75
453.751	73.75
453.971	77.75
454.192	82.75
454.412	72.75
454.633	78.75
454.853	91.75
455.073	86.75
455.294	109.75
455.514	86.75
455.734	72.75
455.955	80.75
456.175	82.75
456.395	95.75
456.616	84.75
456.836	88.75
457.056	87.75
457.276	83.75
457.497	80.75
457.717	76.75
457.937	86.75
458.157	88.75
458.377	89.75
458.598	72.75
458.818	82.75
459.038	87.75
459.258	89.75
459.478	84.75
459.698	72.75
459.918	92.75
460.138	87.75
460.358	76.75
460.578	85.75
460.798	72.75
461.018	91.75
461.238	81.75
461.458	66.75
461.678	74.75
461.898	76.75
462.118	87.75
462.338	76.75
462.558	98.75
462.777	93.75
462.997	93.75
463.217	81.75
463.437	99.75
463.657	86.75
463.876	77.75
464.096	90.75
464.316	88.75
464.536	73.75
464.755	89.75
464.975	83.75
465.195	93.75
465.414	82.75
465.634	91.75
465.854	103.75
466.073	86.75
466.293	73.75
466.512	84.75
466.732	94.75
466.951	79.75
467.171	94.75
467.391	82.75
467.61	98.75
467.829	79.75
468.049	75.75
468.268	69.75
468.488	78.75
468.707	74.75
468.927	71.75
469.146	95.75
469.365	83.75
469.585	94.75
469.804	97.75
470.023	83.75
470.243	83.75
470.462	90.75
470.681	88.75
470.901	76.75
471.12	81.75
471.339	89.75
471.558	89.75
471.777	86.75
471.997	79.75
472.216	92.75
472.435	70.75
472.654	81.75
472.873	78.75
473.092	79.75
473.311	80.75
473.53	82.75
473.749	80.75
473.968	89.75
474.187	94.75
474.406	97.75
474.625	85.75
474.844	91.75
475.063	74.75
475.282	87.75
475.501	83.75
475.72	91.75
475.939	92.75
476.158	90.75
476.377	86.75
476.596	77.75
476.814	89.75
477.033	82.75
477.252	90.75
477.471	82.75
477.69	92.75
477.908	74.75
478.127	102.75
478.346	96.75
478.564	89.75
478.783	86.75
479.002	75.75
479.22	98.75
479.439	84.75
479.658	88.75
479.876	90.75
480.095	93.75
480.313	67.75
480.532	89.75
480.751	87.75
480.969	78.75
481.188	67.75
481.406	112.75
481.624	74.75
481.843	92.75
482.061	97.75
482.28	81.75
482.498	79.75
482.717	83.75
482.935	98.75
483.153	83.75
483.372	83.75
483.59	85.75
483.808	74.75
484.027	78.75
484.245	86.75
484.463	87.75
484.681	95.75
484.9	81.75
485.118	90.75
485.336	95.75
485.554	87.75
485.772	81.75
485.99	90.75
486.209	86.75
486.427	84.75
486.645	79.75
486.863	79.75
487.081	86.75
487.299	74.75
487.517	75.75
487.735	83.75
487.953	77.75
488.171	79.75
488.389	92.75
488.607	76.75
488.825	80.75
489.043	88.75
489.261	87.75
489.479	91.75
489.696	73.75
489.914	77.75
490.132	82.75
490.35	76.75
490.568	78.75
490.786	79.75
491.003	92.75
491.221	80.75
491.439	84.75
491.657	79.75
491.874	74.75
492.092	78.75
492.31	89.75
492.527	92.75
492.745	83.75
492.963	91.75
493.18	94.75
493.398	83.75
493.615	87.75
493.833	83.75
494.05	81.75
494.268	75.75
494.485	79.75
494.703	80.75
494.92	95.75
495.138	92.75
495.355	79.75
495.573	75.75
495.79	74.75
496.008	78.75
496.225	73.75
496.442	84.75
496.66	79.75
496.877	82.75
497.094	103.75
497.312	86.75
497.529	89.75
497.746	91.75
497.963	95.75
498.181	67.75
498.398	82.75
498.615	81.75
498.832	82.75
499.049	90.75
499.267	82.75
499.484	88.75
499.701	89.75
499.918	97.75
500.135	79.75
500.352	76.75
500.569	97.75
500.786	82.75
501.003	81.75
501.22	89.75
501.437	90.75
501.654	77.75
501.871	80.75
502.088	85.75
502.305	83.75
502.522	94.75
502.739	76.75
502.956	90.75
503.172	80.75
503.389	74.75
503.606	91.75
503.823	87.75
504.04	87.75
504.256	95.75
504.473	87.75
504.69	82.75
504.907	86.75
505.123	98.75
505.34	81.75
505.557	77.75
505.773	78.75
505.99	96.75
506.207	80.75
506.423	91.75
506.64	73.75
506.856	80.75
507.073	93.75
507.289	77.75
507.506	74.75
507.722	88.75
507.939	86.75
508.155	98.75
508.372	86.75
508.588	83.75
508.805	80.75
509.021	91.75
509.238	88.75
509.454	67.75
509.67	94.75
509.887	79.75
510.103	89.75
510.319	78.75
510.536	94.75
510.752	81.75
510.968	75.75
511.184	82.75
511.401	76.75
511.617	82.75
511.833	73.75
512.049	81.75
512.265	99.75
512.481	96.75
512.698	82.75
512.914	90.75
513.13	78.75
513.346	100.75
513.562	88.75
513.778	80.75
513.994	83.75
514.21	81.75
514.426	79.75
514.642	73.75
514.858	86.75
515.074	86.75
515.29	86.75
515.506	94.75
515.721	80.75
515.937	84.75
516.153	88.75
516.369	90.75
516.585	83.75
516.801	81.75
517.016	82.75
517.232	86.75
517.448	77.75
517.664	81.75
517.879	97.75
518.095	90.75
518.311	91.75
518.527	68.75
518.742	72.75
518.958	80.75
519.173	91.75
519.389	92.75
519.605	80.75
519.82	89.75
520.036	73.75
