Data from BG_HRD10591_060.txt Node
Date: Fri May 16 15:21:23 EDT 2025
User: Yrep
Spectrometer: HR+D1059
Trigger mode: 1
Integration Time (sec): 1.000000E-1
Scans to average: 1
Electric dark correction enabled: true
Nonlinearity correction enabled: false
Boxcar width: 0
XAxis mode: Wavelengths
Number of Pixels in Spectrum: 2048
>>>>>Begin Spectral Data<<<<<
223.165	-25.94
223.4	-25.94
223.635	-25.94
223.869	-32.94
224.104	-13.94
224.338	-2.94
224.573	-8.94
224.808	-24.94
225.042	-9.94
225.277	-11.94
225.511	9.06
225.746	10.06
225.98	8.06
226.215	3.06
226.449	13.06
226.683	21.06
226.918	30.06
227.152	37.06
227.387	40.06
227.621	41.06
227.856	50.06
228.09	51.06
228.324	38.06
228.559	50.06
228.793	66.06
229.027	48.06
229.262	55.06
229.496	68.06
229.73	63.06
229.964	65.06
230.199	74.06
230.433	74.06
230.667	80.06
230.901	63.06
231.136	83.06
231.37	54.06
231.604	75.06
231.838	78.06
232.072	80.06
232.306	81.06
232.541	72.06
232.775	72.06
233.009	85.06
233.243	79.06
233.477	81.06
233.711	88.06
233.945	75.06
234.179	84.06
234.413	67.06
234.647	84.06
234.881	72.06
235.115	74.06
235.349	78.06
235.583	87.06
235.817	76.06
236.051	94.06
236.285	84.06
236.519	74.06
236.753	82.06
236.987	78.06
237.221	66.06
237.455	64.06
237.689	69.06
237.922	80.06
238.156	70.06
238.39	66.06
238.624	80.06
238.858	71.06
239.091	82.06
239.325	66.06
239.559	74.06
239.793	76.06
240.027	77.06
240.26	64.06
240.494	56.06
240.728	77.06
240.961	78.06
241.195	76.06
241.429	55.06
241.662	65.06
241.896	77.06
242.13	77.06
242.363	84.06
242.597	76.06
242.83	80.06
243.064	73.06
243.298	65.06
243.531	66.06
243.765	74.06
243.998	73.06
244.232	86.06
244.465	77.06
244.699	72.06
244.932	84.06
245.166	89.06
245.399	69.06
245.633	79.06
245.866	65.06
246.099	72.06
246.333	86.06
246.566	77.06
246.8	78.06
247.033	77.06
247.266	78.06
247.5	74.06
247.733	69.06
247.966	86.06
248.2	86.06
248.433	85.06
248.666	62.06
248.899	88.06
249.133	80.06
249.366	87.06
249.599	85.06
249.832	85.06
250.066	75.06
250.299	69.06
250.532	90.06
250.765	76.06
250.998	67.06
251.231	72.06
251.465	74.06
251.698	81.06
251.931	74.06
252.164	82.06
252.397	74.06
252.63	82.06
252.863	94.06
253.096	75.06
253.329	93.06
253.562	65.06
253.795	74.06
254.028	76.06
254.261	86.06
254.494	87.06
254.727	93.06
254.96	87.06
255.193	83.06
255.426	94.06
255.659	89.06
255.892	80.06
256.124	72.06
256.357	83.06
256.59	85.06
256.823	80.06
257.056	82.06
257.289	88.06
257.521	92.06
257.754	73.06
257.987	87.06
258.22	84.06
258.452	87.06
258.685	77.06
258.918	80.06
259.151	85.06
259.383	91.06
259.616	76.06
259.849	81.06
260.081	86.06
260.314	88.06
260.547	81.06
260.779	64.06
261.012	83.06
261.244	78.06
261.477	77.06
261.71	79.06
261.942	61.06
262.175	72.06
262.407	80.06
262.64	76.06
262.872	86.06
263.105	83.06
263.337	78.06
263.57	70.06
263.802	87.06
264.035	90.06
264.267	94.06
264.499	81.06
264.732	84.06
264.964	58.06
265.197	89.06
265.429	83.06
265.661	80.06
265.894	72.06
266.126	78.06
266.358	97.06
266.591	86.06
266.823	81.06
267.055	65.06
267.287	85.06
267.52	85.06
267.752	80.06
267.984	100.06
268.216	94.06
268.448	80.06
268.681	92.06
268.913	81.06
269.145	84.06
269.377	90.06
269.609	84.06
269.841	80.06
270.073	93.06
270.306	78.06
270.538	83.06
270.77	88.06
271.002	80.06
271.234	96.06
271.466	80.06
271.698	81.06
271.93	76.06
272.162	77.06
272.394	93.06
272.626	78.06
272.858	77.06
273.09	80.06
273.322	78.06
273.553	79.06
273.785	87.06
274.017	82.06
274.249	84.06
274.481	69.06
274.713	90.06
274.945	90.06
275.176	72.06
275.408	78.06
275.64	85.06
275.872	80.06
276.104	73.06
276.335	79.06
276.567	86.06
276.799	92.06
277.031	77.06
277.262	80.06
277.494	87.06
277.726	87.06
277.957	70.06
278.189	84.06
278.421	87.06
278.652	82.06
278.884	80.06
279.115	88.06
279.347	76.06
279.579	73.06
279.81	94.06
280.042	87.06
280.273	73.06
280.505	86.06
280.736	93.06
280.968	81.06
281.199	73.06
281.431	84.06
281.662	100.06
281.894	75.06
282.125	76.06
282.356	77.06
282.588	80.06
282.819	89.06
283.051	84.06
283.282	84.06
283.513	87.06
283.745	76.06
283.976	84.06
284.207	89.06
284.439	68.06
284.67	76.06
284.901	94.06
285.132	91.06
285.364	89.06
285.595	86.06
285.826	83.06
286.057	84.06
286.288	76.06
286.52	68.06
286.751	72.06
286.982	81.06
287.213	104.06
287.444	90.06
287.675	80.06
287.906	96.06
288.138	85.06
288.369	86.06
288.6	73.06
288.831	84.06
289.062	71.06
289.293	89.06
289.524	84.06
289.755	94.06
289.986	87.06
290.217	91.06
290.448	75.06
290.679	90.06
290.91	94.06
291.141	88.06
291.371	92.06
291.602	71.06
291.833	94.06
292.064	74.06
292.295	87.06
292.526	86.06
292.757	81.06
292.987	89.06
293.218	89.06
293.449	91.06
293.68	77.06
293.91	84.06
294.141	75.06
294.372	76.06
294.603	82.06
294.833	93.06
295.064	83.06
295.295	100.06
295.525	81.06
295.756	91.06
295.987	88.06
296.217	84.06
296.448	77.06
296.679	82.06
296.909	78.06
297.14	95.06
297.37	87.06
297.601	82.06
297.831	79.06
298.062	83.06
298.292	80.06
298.523	97.06
298.753	87.06
298.984	87.06
299.214	92.06
299.445	96.06
299.675	90.06
299.905	78.06
300.136	87.06
300.366	88.06
300.597	80.06
300.827	76.06
301.057	88.06
301.288	76.06
301.518	83.06
301.748	85.06
301.979	93.06
302.209	84.06
302.439	79.06
302.669	92.06
302.9	78.06
303.13	80.06
303.36	83.06
303.59	90.06
303.82	78.06
304.051	79.06
304.281	88.06
304.511	92.06
304.741	82.06
304.971	73.06
305.201	85.06
305.431	84.06
305.661	79.06
305.891	76.06
306.121	77.06
306.352	93.06
306.582	85.06
306.812	89.06
307.042	81.06
307.272	93.06
307.502	93.06
307.731	81.06
307.961	81.06
308.191	93.06
308.421	77.06
308.651	77.06
308.881	85.06
309.111	90.06
309.341	84.06
309.571	84.06
309.8	92.06
310.03	105.06
310.26	76.06
310.49	76.06
310.72	85.06
310.949	80.06
311.179	79.06
311.409	97.06
311.639	78.06
311.868	73.06
312.098	77.06
312.328	81.06
312.557	85.06
312.787	99.06
313.017	89.06
313.246	92.06
313.476	90.06
313.706	82.06
313.935	60.06
314.165	78.06
314.394	96.06
314.624	88.06
314.853	89.06
315.083	106.06
315.312	97.06
315.542	97.06
315.771	81.06
316.001	95.06
316.23	88.06
316.46	85.06
316.689	89.06
316.919	91.06
317.148	76.06
317.377	89.06
317.607	78.06
317.836	101.06
318.065	102.06
318.295	86.06
318.524	89.06
318.753	96.06
318.983	106.06
319.212	80.06
319.441	91.06
319.67	97.06
319.9	70.06
320.129	90.06
320.358	89.06
320.587	80.06
320.816	76.06
321.046	80.06
321.275	81.06
321.504	84.06
321.733	90.06
321.962	76.06
322.191	84.06
322.42	79.06
322.649	93.06
322.878	84.06
323.108	88.06
323.337	78.06
323.566	88.06
323.795	91.06
324.024	90.06
324.253	82.06
324.482	88.06
324.71	90.06
324.939	96.06
325.168	93.06
325.397	85.06
325.626	89.06
325.855	94.06
326.084	88.06
326.313	78.06
326.542	89.06
326.77	75.06
326.999	92.06
327.228	87.06
327.457	75.06
327.686	88.06
327.914	85.06
328.143	85.06
328.372	82.06
328.6	86.06
328.829	95.06
329.058	76.06
329.287	74.06
329.515	78.06
329.744	91.06
329.972	94.06
330.201	81.06
330.43	81.06
330.658	85.06
330.887	93.06
331.115	89.06
331.344	90.06
331.572	90.06
331.801	81.06
332.03	87.06
332.258	86.06
332.486	84.06
332.715	103.06
332.943	80.06
333.172	77.06
333.4	99.06
333.629	89.06
333.857	81.06
334.085	92.06
334.314	95.06
334.542	94.06
334.771	96.06
334.999	84.06
335.227	85.06
335.455	82.06
335.684	87.06
335.912	90.06
336.14	87.06
336.369	92.06
336.597	80.06
336.825	76.06
337.053	84.06
337.281	93.06
337.51	93.06
337.738	92.06
337.966	75.06
338.194	88.06
338.422	80.06
338.65	92.06
338.878	90.06
339.106	79.06
339.334	82.06
339.562	94.06
339.79	79.06
340.018	85.06
340.246	89.06
340.474	91.06
340.702	86.06
340.93	91.06
341.158	94.06
341.386	93.06
341.614	94.06
341.842	79.06
342.07	89.06
342.298	89.06
342.526	89.06
342.754	76.06
342.981	83.06
343.209	93.06
343.437	101.06
343.665	86.06
343.893	80.06
344.12	80.06
344.348	81.06
344.576	96.06
344.804	77.06
345.031	74.06
345.259	79.06
345.487	77.06
345.714	89.06
345.942	93.06
346.17	89.06
346.397	85.06
346.625	79.06
346.853	90.06
347.08	88.06
347.308	82.06
347.535	88.06
347.763	94.06
347.99	79.06
348.218	86.06
348.445	84.06
348.673	86.06
348.9	82.06
349.128	101.06
349.355	89.06
349.583	84.06
349.81	82.06
350.037	85.06
350.265	84.06
350.492	94.06
350.72	85.06
350.947	98.06
351.174	93.06
351.402	75.06
351.629	89.06
351.856	82.06
352.083	85.06
352.311	87.06
352.538	73.06
352.765	79.06
352.992	85.06
353.22	94.06
353.447	87.06
353.674	80.06
353.901	89.06
354.128	94.06
354.355	81.06
354.583	102.06
354.81	91.06
355.037	85.06
355.264	82.06
355.491	76.06
355.718	64.06
355.945	91.06
356.172	73.06
356.399	85.06
356.626	78.06
356.853	87.06
357.08	84.06
357.307	77.06
357.534	87.06
357.761	88.06
357.988	88.06
358.215	70.06
358.441	88.06
358.668	82.06
358.895	89.06
359.122	82.06
359.349	96.06
359.576	84.06
359.802	97.06
360.029	88.06
360.256	86.06
360.483	85.06
360.709	80.06
360.936	82.06
361.163	67.06
361.39	72.06
361.616	82.06
361.843	92.06
362.07	89.06
362.296	88.06
362.523	85.06
362.749	87.06
362.976	82.06
363.203	105.06
363.429	84.06
363.656	84.06
363.882	76.06
364.109	84.06
364.335	95.06
364.562	85.06
364.788	78.06
365.015	87.06
365.241	95.06
365.468	83.06
365.694	101.06
365.92	87.06
366.147	76.06
366.373	85.06
366.599	87.06
366.826	84.06
367.052	86.06
367.278	75.06
367.505	86.06
367.731	89.06
367.957	72.06
368.184	74.06
368.41	96.06
368.636	90.06
368.862	94.06
369.089	84.06
369.315	68.06
369.541	81.06
369.767	89.06
369.993	73.06
370.219	97.06
370.445	69.06
370.672	78.06
370.898	86.06
371.124	86.06
371.35	84.06
371.576	92.06
371.802	73.06
372.028	90.06
372.254	80.06
372.48	82.06
372.706	75.06
372.932	78.06
373.158	92.06
373.384	85.06
373.61	80.06
373.835	90.06
374.061	73.06
374.287	92.06
374.513	97.06
374.739	93.06
374.965	88.06
375.191	88.06
375.416	102.06
375.642	98.06
375.868	94.06
376.094	82.06
376.319	76.06
376.545	73.06
376.771	79.06
376.997	77.06
377.222	105.06
377.448	86.06
377.674	86.06
377.899	95.06
378.125	81.06
378.35	85.06
378.576	83.06
378.802	78.06
379.027	96.06
379.253	93.06
379.478	79.06
379.704	84.06
379.929	90.06
380.155	89.06
380.38	77.06
380.606	89.06
380.831	74.06
381.057	84.06
381.282	84.06
381.507	78.06
381.733	79.06
381.958	69.06
382.184	73.06
382.409	85.06
382.634	101.06
382.86	68.06
383.085	87.06
383.31	87.06
383.535	62.06
383.761	99.06
383.986	92.06
384.211	73.06
384.436	80.06
384.662	78.06
384.887	76.06
385.112	74.06
385.337	90.06
385.562	92.06
385.787	83.06
386.013	87.06
386.238	93.06
386.463	83.06
386.688	96.06
386.913	89.06
387.138	88.06
387.363	75.06
387.588	89.06
387.813	84.06
388.038	87.06
388.263	80.06
388.488	102.06
388.713	82.06
388.938	92.06
389.163	88.06
389.387	92.06
389.612	71.06
389.837	75.06
390.062	100.06
390.287	78.06
390.512	95.06
390.736	77.06
390.961	71.06
391.186	93.06
391.411	84.06
391.636	80.06
391.86	86.06
392.085	85.06
392.31	85.06
392.534	93.06
392.759	99.06
392.984	86.06
393.208	82.06
393.433	77.06
393.658	84.06
393.882	80.06
394.107	90.06
394.331	80.06
394.556	94.06
394.78	87.06
395.005	82.06
395.229	80.06
395.454	95.06
395.678	78.06
395.903	76.06
396.127	80.06
396.352	81.06
396.576	78.06
396.801	84.06
397.025	80.06
397.249	93.06
397.474	86.06
397.698	84.06
397.922	63.06
398.147	77.06
398.371	77.06
398.595	83.06
398.82	91.06
399.044	68.06
399.268	79.06
399.492	80.06
399.717	94.06
399.941	87.06
400.165	86.06
400.389	95.06
400.613	86.06
400.837	72.06
401.062	91.06
401.286	79.06
401.51	83.06
401.734	81.06
401.958	71.06
402.182	72.06
402.406	88.06
402.63	90.06
402.854	90.06
403.078	98.06
403.302	80.06
403.526	76.06
403.75	76.06
403.974	74.06
404.198	95.06
404.422	81.06
404.645	80.06
404.869	69.06
405.093	88.06
405.317	93.06
405.541	80.06
405.765	77.06
405.988	78.06
406.212	100.06
406.436	87.06
406.66	78.06
406.883	91.06
407.107	87.06
407.331	79.06
407.555	84.06
407.778	69.06
408.002	94.06
408.226	85.06
408.449	81.06
408.673	88.06
408.896	88.06
409.12	78.06
409.344	86.06
409.567	81.06
409.791	72.06
410.014	82.06
410.238	80.06
410.461	80.06
410.685	89.06
410.908	84.06
411.132	100.06
411.355	77.06
411.578	74.06
411.802	88.06
412.025	84.06
412.249	84.06
412.472	81.06
412.695	75.06
412.919	77.06
413.142	96.06
413.365	98.06
413.589	77.06
413.812	80.06
414.035	86.06
414.258	69.06
414.482	87.06
414.705	83.06
414.928	94.06
415.151	71.06
415.374	72.06
415.597	89.06
415.821	84.06
416.044	82.06
416.267	92.06
416.49	67.06
416.713	80.06
416.936	81.06
417.159	87.06
417.382	81.06
417.605	84.06
417.828	96.06
418.051	88.06
418.274	74.06
418.497	86.06
418.72	96.06
418.943	76.06
419.166	94.06
419.389	81.06
419.611	75.06
419.834	81.06
420.057	86.06
420.28	83.06
420.503	79.06
420.726	92.06
420.948	80.06
421.171	90.06
421.394	84.06
421.617	70.06
421.839	97.06
422.062	78.06
422.285	93.06
422.507	75.06
422.73	77.06
422.953	74.06
423.175	82.06
423.398	81.06
423.621	76.06
423.843	80.06
424.066	78.06
424.288	80.06
424.511	85.06
424.733	73.06
424.956	86.06
425.178	75.06
425.401	64.06
425.623	80.06
425.846	76.06
426.068	73.06
426.291	67.06
426.513	73.06
426.735	90.06
426.958	104.06
427.18	87.06
427.402	69.06
427.625	87.06
427.847	86.06
428.069	69.06
428.292	76.06
428.514	84.06
428.736	83.06
428.958	78.06
429.181	81.06
429.403	78.06
429.625	89.06
429.847	94.06
430.069	93.06
430.292	92.06
430.514	87.06
430.736	93.06
430.958	78.06
431.18	83.06
431.402	76.06
431.624	96.06
431.846	82.06
432.068	84.06
432.29	88.06
432.512	88.06
432.734	82.06
432.956	82.06
433.178	87.06
433.4	91.06
433.622	86.06
433.844	75.06
434.066	76.06
434.287	84.06
434.509	90.06
434.731	84.06
434.953	71.06
435.175	92.06
435.397	80.06
435.618	84.06
435.84	81.06
436.062	72.06
436.284	77.06
436.505	88.06
436.727	76.06
436.949	72.06
437.17	89.06
437.392	83.06
437.614	74.06
437.835	83.06
438.057	86.06
438.278	88.06
438.5	89.06
438.721	81.06
438.943	96.06
439.165	89.06
439.386	90.06
439.608	71.06
439.829	84.06
440.05	91.06
440.272	79.06
440.493	79.06
440.715	73.06
440.936	86.06
441.158	90.06
441.379	73.06
441.6	73.06
441.822	77.06
442.043	85.06
442.264	80.06
442.486	88.06
442.707	72.06
442.928	72.06
443.149	76.06
443.371	90.06
443.592	83.06
443.813	87.06
444.034	70.06
444.255	80.06
444.476	78.06
444.698	95.06
444.919	77.06
445.14	141.06
445.361	115.06
445.582	89.06
445.803	86.06
446.024	86.06
446.245	78.06
446.466	87.06
446.687	85.06
446.908	82.06
447.129	87.06
447.35	83.06
447.571	73.06
447.792	78.06
448.013	76.06
448.234	81.06
448.455	79.06
448.675	75.06
448.896	74.06
449.117	76.06
449.338	77.06
449.559	84.06
449.779	86.06
450	91.06
450.221	75.06
450.442	80.06
450.662	90.06
450.883	74.06
451.104	74.06
451.324	76.06
451.545	81.06
451.766	86.06
451.986	86.06
452.207	74.06
452.428	95.06
452.648	86.06
452.869	79.06
453.089	88.06
453.31	76.06
453.53	76.06
453.751	85.06
453.971	79.06
454.192	80.06
454.412	76.06
454.633	86.06
454.853	79.06
455.073	78.06
455.294	77.06
455.514	78.06
455.734	81.06
455.955	84.06
456.175	82.06
456.395	79.06
456.616	80.06
456.836	82.06
457.056	85.06
457.276	80.06
457.497	79.06
457.717	88.06
457.937	81.06
458.157	74.06
458.377	85.06
458.598	73.06
458.818	71.06
459.038	88.06
459.258	81.06
459.478	80.06
459.698	73.06
459.918	89.06
460.138	79.06
460.358	95.06
460.578	89.06
460.798	92.06
461.018	90.06
461.238	75.06
461.458	82.06
461.678	86.06
461.898	76.06
462.118	69.06
462.338	94.06
462.558	86.06
462.777	97.06
462.997	87.06
463.217	72.06
463.437	77.06
463.657	77.06
463.876	97.06
464.096	65.06
464.316	78.06
464.536	87.06
464.755	93.06
464.975	77.06
465.195	86.06
465.414	70.06
465.634	73.06
465.854	80.06
466.073	68.06
466.293	85.06
466.512	96.06
466.732	83.06
466.951	77.06
467.171	78.06
467.391	81.06
467.61	81.06
467.829	80.06
468.049	80.06
468.268	87.06
468.488	87.06
468.707	77.06
468.927	69.06
469.146	80.06
469.365	80.06
469.585	74.06
469.804	88.06
470.023	81.06
470.243	80.06
470.462	106.06
470.681	89.06
470.901	67.06
471.12	75.06
471.339	82.06
471.558	80.06
471.777	94.06
471.997	90.06
472.216	62.06
472.435	79.06
472.654	81.06
472.873	76.06
473.092	70.06
473.311	84.06
473.53	78.06
473.749	89.06
473.968	89.06
474.187	74.06
474.406	85.06
474.625	82.06
474.844	72.06
475.063	82.06
475.282	81.06
475.501	74.06
475.72	85.06
475.939	81.06
476.158	92.06
476.377	84.06
476.596	73.06
476.814	83.06
477.033	97.06
477.252	80.06
477.471	82.06
477.69	87.06
477.908	78.06
478.127	76.06
478.346	88.06
478.564	79.06
478.783	82.06
479.002	82.06
479.22	75.06
479.439	84.06
479.658	84.06
479.876	78.06
480.095	84.06
480.313	76.06
480.532	79.06
480.751	80.06
480.969	89.06
481.188	73.06
481.406	89.06
481.624	77.06
481.843	80.06
482.061	74.06
482.28	89.06
482.498	75.06
482.717	93.06
482.935	86.06
483.153	84.06
483.372	74.06
483.59	86.06
483.808	87.06
484.027	89.06
484.245	80.06
484.463	83.06
484.681	68.06
484.9	72.06
485.118	74.06
485.336	89.06
485.554	74.06
485.772	97.06
485.99	96.06
486.209	80.06
486.427	71.06
486.645	93.06
486.863	80.06
487.081	76.06
487.299	71.06
487.517	96.06
487.735	91.06
487.953	80.06
488.171	86.06
488.389	92.06
488.607	74.06
488.825	93.06
489.043	81.06
489.261	82.06
489.479	79.06
489.696	92.06
489.914	83.06
490.132	77.06
490.35	92.06
490.568	89.06
490.786	88.06
491.003	73.06
491.221	77.06
491.439	72.06
491.657	84.06
491.874	93.06
492.092	72.06
492.31	94.06
492.527	72.06
492.745	69.06
492.963	93.06
493.18	82.06
493.398	72.06
493.615	78.06
493.833	75.06
494.05	73.06
494.268	85.06
494.485	87.06
494.703	81.06
494.92	82.06
495.138	79.06
495.355	91.06
495.573	72.06
495.79	82.06
496.008	86.06
496.225	81.06
496.442	73.06
496.66	93.06
496.877	91.06
497.094	80.06
497.312	100.06
497.529	87.06
497.746	94.06
497.963	83.06
498.181	80.06
498.398	86.06
498.615	94.06
498.832	88.06
499.049	78.06
499.267	110.06
499.484	75.06
499.701	102.06
499.918	74.06
500.135	85.06
500.352	72.06
500.569	70.06
500.786	80.06
501.003	88.06
501.22	85.06
501.437	88.06
501.654	74.06
501.871	82.06
502.088	92.06
502.305	72.06
502.522	93.06
502.739	85.06
502.956	85.06
503.172	86.06
503.389	80.06
503.606	86.06
503.823	93.06
504.04	85.06
504.256	80.06
504.473	84.06
504.69	89.06
504.907	90.06
505.123	87.06
505.34	90.06
505.557	94.06
505.773	90.06
505.99	89.06
506.207	74.06
506.423	78.06
506.64	77.06
506.856	76.06
507.073	78.06
507.289	90.06
507.506	86.06
507.722	79.06
507.939	77.06
508.155	80.06
508.372	76.06
508.588	95.06
508.805	86.06
509.021	74.06
509.238	80.06
509.454	82.06
509.67	86.06
509.887	79.06
510.103	83.06
510.319	82.06
510.536	93.06
510.752	89.06
510.968	85.06
511.184	70.06
511.401	73.06
511.617	85.06
511.833	94.06
512.049	91.06
512.265	75.06
512.481	103.06
512.698	78.06
512.914	80.06
513.13	91.06
513.346	83.06
513.562	85.06
513.778	72.06
513.994	75.06
514.21	104.06
514.426	82.06
514.642	82.06
514.858	73.06
515.074	85.06
515.29	79.06
515.506	79.06
515.721	78.06
515.937	87.06
516.153	78.06
516.369	81.06
516.585	80.06
516.801	77.06
517.016	94.06
517.232	81.06
517.448	71.06
517.664	71.06
517.879	78.06
518.095	87.06
518.311	80.06
518.527	76.06
518.742	81.06
518.958	76.06
519.173	82.06
519.389	88.06
519.605	80.06
519.82	86.06
520.036	91.06
