Data from BG_HRD10591_001.txt Node
Date: Fri May 16 15:20:54 EDT 2025
User: Yrep
Spectrometer: HR+D1059
Trigger mode: 1
Integration Time (sec): 1.000000E-1
Scans to average: 1
Electric dark correction enabled: true
Nonlinearity correction enabled: false
Boxcar width: 0
XAxis mode: Wavelengths
Number of Pixels in Spectrum: 2048
>>>>>Begin Spectral Data<<<<<
223.165	-21.19
223.4	-21.19
223.635	-21.19
223.869	-21.19
224.104	-5.19
224.338	-8.19
224.573	-12.19
224.808	-12.19
225.042	-17.19
225.277	5.81
225.511	-6.19
225.746	3.81
225.98	4.81
226.215	14.81
226.449	16.81
226.683	20.81
226.918	14.81
227.152	21.81
227.387	24.81
227.621	48.81
227.856	52.81
228.09	41.81
228.324	52.81
228.559	54.81
228.793	70.81
229.027	76.81
229.262	74.81
229.496	46.81
229.73	84.81
229.964	76.81
230.199	77.81
230.433	69.81
230.667	81.81
230.901	74.81
231.136	83.81
231.37	80.81
231.604	76.81
231.838	68.81
232.072	75.81
232.306	94.81
232.541	88.81
232.775	73.81
233.009	73.81
233.243	77.81
233.477	81.81
233.711	79.81
233.945	71.81
234.179	89.81
234.413	83.81
234.647	72.81
234.881	76.81
235.115	86.81
235.349	91.81
235.583	85.81
235.817	81.81
236.051	84.81
236.285	82.81
236.519	76.81
236.753	86.81
236.987	72.81
237.221	76.81
237.455	78.81
237.689	76.81
237.922	81.81
238.156	63.81
238.39	74.81
238.624	72.81
238.858	77.81
239.091	76.81
239.325	72.81
239.559	80.81
239.793	76.81
240.027	77.81
240.26	92.81
240.494	68.81
240.728	74.81
240.961	81.81
241.195	69.81
241.429	79.81
241.662	68.81
241.896	64.81
242.13	72.81
242.363	90.81
242.597	79.81
242.83	84.81
243.064	88.81
243.298	67.81
243.531	85.81
243.765	76.81
243.998	78.81
244.232	79.81
244.465	74.81
244.699	63.81
244.932	71.81
245.166	84.81
245.399	95.81
245.633	75.81
245.866	74.81
246.099	85.81
246.333	81.81
246.566	78.81
246.8	76.81
247.033	80.81
247.266	84.81
247.5	74.81
247.733	75.81
247.966	79.81
248.2	65.81
248.433	67.81
248.666	85.81
248.899	80.81
249.133	78.81
249.366	82.81
249.599	73.81
249.832	90.81
250.066	83.81
250.299	72.81
250.532	72.81
250.765	62.81
250.998	72.81
251.231	86.81
251.465	75.81
251.698	80.81
251.931	68.81
252.164	85.81
252.397	78.81
252.63	87.81
252.863	80.81
253.096	75.81
253.329	71.81
253.562	71.81
253.795	81.81
254.028	78.81
254.261	85.81
254.494	82.81
254.727	90.81
254.96	78.81
255.193	81.81
255.426	84.81
255.659	81.81
255.892	90.81
256.124	79.81
256.357	96.81
256.59	91.81
256.823	77.81
257.056	73.81
257.289	88.81
257.521	76.81
257.754	79.81
257.987	75.81
258.22	78.81
258.452	74.81
258.685	82.81
258.918	90.81
259.151	87.81
259.383	82.81
259.616	82.81
259.849	87.81
260.081	85.81
260.314	77.81
260.547	85.81
260.779	81.81
261.012	82.81
261.244	77.81
261.477	83.81
261.71	77.81
261.942	78.81
262.175	70.81
262.407	88.81
262.64	80.81
262.872	78.81
263.105	83.81
263.337	79.81
263.57	84.81
263.802	90.81
264.035	85.81
264.267	80.81
264.499	77.81
264.732	81.81
264.964	73.81
265.197	80.81
265.429	72.81
265.661	96.81
265.894	84.81
266.126	93.81
266.358	89.81
266.591	89.81
266.823	75.81
267.055	80.81
267.287	84.81
267.52	85.81
267.752	96.81
267.984	75.81
268.216	68.81
268.448	77.81
268.681	85.81
268.913	84.81
269.145	82.81
269.377	76.81
269.609	82.81
269.841	66.81
270.073	74.81
270.306	75.81
270.538	92.81
270.77	78.81
271.002	85.81
271.234	93.81
271.466	85.81
271.698	80.81
271.93	93.81
272.162	77.81
272.394	78.81
272.626	91.81
272.858	104.81
273.09	90.81
273.322	102.81
273.553	82.81
273.785	82.81
274.017	91.81
274.249	83.81
274.481	85.81
274.713	73.81
274.945	91.81
275.176	81.81
275.408	83.81
275.64	76.81
275.872	72.81
276.104	87.81
276.335	89.81
276.567	88.81
276.799	91.81
277.031	93.81
277.262	76.81
277.494	80.81
277.726	90.81
277.957	88.81
278.189	76.81
278.421	91.81
278.652	69.81
278.884	90.81
279.115	95.81
279.347	89.81
279.579	76.81
279.81	87.81
280.042	75.81
280.273	83.81
280.505	84.81
280.736	91.81
280.968	85.81
281.199	69.81
281.431	80.81
281.662	104.81
281.894	74.81
282.125	79.81
282.356	84.81
282.588	77.81
282.819	91.81
283.051	91.81
283.282	86.81
283.513	83.81
283.745	84.81
283.976	87.81
284.207	92.81
284.439	82.81
284.67	86.81
284.901	93.81
285.132	103.81
285.364	79.81
285.595	72.81
285.826	89.81
286.057	89.81
286.288	109.81
286.52	79.81
286.751	83.81
286.982	98.81
287.213	82.81
287.444	80.81
287.675	84.81
287.906	92.81
288.138	102.81
288.369	88.81
288.6	78.81
288.831	84.81
289.062	81.81
289.293	86.81
289.524	99.81
289.755	88.81
289.986	80.81
290.217	80.81
290.448	78.81
290.679	99.81
290.91	86.81
291.141	78.81
291.371	99.81
291.602	94.81
291.833	86.81
292.064	77.81
292.295	85.81
292.526	84.81
292.757	91.81
292.987	91.81
293.218	87.81
293.449	104.81
293.68	95.81
293.91	84.81
294.141	82.81
294.372	87.81
294.603	87.81
294.833	89.81
295.064	98.81
295.295	102.81
295.525	104.81
295.756	107.81
295.987	84.81
296.217	92.81
296.448	98.81
296.679	86.81
296.909	84.81
297.14	101.81
297.37	82.81
297.601	78.81
297.831	87.81
298.062	76.81
298.292	89.81
298.523	90.81
298.753	95.81
298.984	85.81
299.214	86.81
299.445	86.81
299.675	79.81
299.905	80.81
300.136	85.81
300.366	85.81
300.597	95.81
300.827	82.81
301.057	90.81
301.288	92.81
301.518	84.81
301.748	94.81
301.979	100.81
302.209	91.81
302.439	80.81
302.669	93.81
302.9	79.81
303.13	85.81
303.36	91.81
303.59	86.81
303.82	90.81
304.051	93.81
304.281	75.81
304.511	83.81
304.741	85.81
304.971	83.81
305.201	87.81
305.431	87.81
305.661	91.81
305.891	88.81
306.121	92.81
306.352	94.81
306.582	88.81
306.812	85.81
307.042	75.81
307.272	84.81
307.502	94.81
307.731	89.81
307.961	88.81
308.191	92.81
308.421	84.81
308.651	78.81
308.881	92.81
309.111	83.81
309.341	80.81
309.571	80.81
309.8	79.81
310.03	75.81
310.26	83.81
310.49	84.81
310.72	83.81
310.949	93.81
311.179	91.81
311.409	84.81
311.639	91.81
311.868	95.81
312.098	92.81
312.328	100.81
312.557	84.81
312.787	84.81
313.017	90.81
313.246	85.81
313.476	88.81
313.706	90.81
313.935	76.81
314.165	83.81
314.394	98.81
314.624	87.81
314.853	94.81
315.083	69.81
315.312	86.81
315.542	75.81
315.771	76.81
316.001	80.81
316.23	87.81
316.46	93.81
316.689	96.81
316.919	82.81
317.148	86.81
317.377	82.81
317.607	83.81
317.836	78.81
318.065	99.81
318.295	84.81
318.524	100.81
318.753	83.81
318.983	77.81
319.212	76.81
319.441	85.81
319.67	82.81
319.9	93.81
320.129	71.81
320.358	94.81
320.587	79.81
320.816	94.81
321.046	95.81
321.275	90.81
321.504	90.81
321.733	73.81
321.962	101.81
322.191	94.81
322.42	97.81
322.649	103.81
322.878	91.81
323.108	91.81
323.337	88.81
323.566	82.81
323.795	68.81
324.024	79.81
324.253	92.81
324.482	76.81
324.71	85.81
324.939	70.81
325.168	71.81
325.397	82.81
325.626	79.81
325.855	95.81
326.084	88.81
326.313	91.81
326.542	84.81
326.77	87.81
326.999	83.81
327.228	76.81
327.457	83.81
327.686	88.81
327.914	75.81
328.143	99.81
328.372	79.81
328.6	89.81
328.829	88.81
329.058	79.81
329.287	82.81
329.515	96.81
329.744	94.81
329.972	93.81
330.201	91.81
330.43	70.81
330.658	89.81
330.887	84.81
331.115	95.81
331.344	81.81
331.572	98.81
331.801	89.81
332.03	84.81
332.258	86.81
332.486	88.81
332.715	98.81
332.943	102.81
333.172	88.81
333.4	74.81
333.629	83.81
333.857	92.81
334.085	87.81
334.314	86.81
334.542	94.81
334.771	84.81
334.999	87.81
335.227	94.81
335.455	87.81
335.684	87.81
335.912	74.81
336.14	86.81
336.369	98.81
336.597	95.81
336.825	87.81
337.053	87.81
337.281	98.81
337.51	79.81
337.738	76.81
337.966	96.81
338.194	100.81
338.422	92.81
338.65	85.81
338.878	88.81
339.106	89.81
339.334	78.81
339.562	68.81
339.79	90.81
340.018	102.81
340.246	87.81
340.474	79.81
340.702	82.81
340.93	82.81
341.158	78.81
341.386	88.81
341.614	87.81
341.842	84.81
342.07	84.81
342.298	92.81
342.526	82.81
342.754	89.81
342.981	86.81
343.209	87.81
343.437	98.81
343.665	86.81
343.893	83.81
344.12	91.81
344.348	79.81
344.576	88.81
344.804	99.81
345.031	91.81
345.259	87.81
345.487	73.81
345.714	75.81
345.942	84.81
346.17	95.81
346.397	86.81
346.625	93.81
346.853	83.81
347.08	75.81
347.308	100.81
347.535	90.81
347.763	81.81
347.99	76.81
348.218	91.81
348.445	88.81
348.673	75.81
348.9	91.81
349.128	82.81
349.355	90.81
349.583	94.81
349.81	82.81
350.037	79.81
350.265	71.81
350.492	79.81
350.72	83.81
350.947	91.81
351.174	88.81
351.402	84.81
351.629	87.81
351.856	77.81
352.083	87.81
352.311	78.81
352.538	76.81
352.765	79.81
352.992	85.81
353.22	98.81
353.447	84.81
353.674	75.81
353.901	83.81
354.128	86.81
354.355	76.81
354.583	80.81
354.81	68.81
355.037	76.81
355.264	80.81
355.491	86.81
355.718	95.81
355.945	86.81
356.172	87.81
356.399	87.81
356.626	92.81
356.853	92.81
357.08	78.81
357.307	90.81
357.534	77.81
357.761	94.81
357.988	74.81
358.215	91.81
358.441	69.81
358.668	80.81
358.895	80.81
359.122	93.81
359.349	86.81
359.576	83.81
359.802	80.81
360.029	90.81
360.256	95.81
360.483	74.81
360.709	88.81
360.936	91.81
361.163	94.81
361.39	84.81
361.616	81.81
361.843	90.81
362.07	88.81
362.296	85.81
362.523	97.81
362.749	88.81
362.976	92.81
363.203	102.81
363.429	83.81
363.656	82.81
363.882	84.81
364.109	91.81
364.335	80.81
364.562	85.81
364.788	80.81
365.015	95.81
365.241	83.81
365.468	78.81
365.694	93.81
365.92	89.81
366.147	87.81
366.373	96.81
366.599	77.81
366.826	88.81
367.052	66.81
367.278	99.81
367.505	99.81
367.731	83.81
367.957	86.81
368.184	74.81
368.41	88.81
368.636	87.81
368.862	106.81
369.089	84.81
369.315	70.81
369.541	86.81
369.767	92.81
369.993	89.81
370.219	75.81
370.445	84.81
370.672	76.81
370.898	74.81
371.124	78.81
371.35	90.81
371.576	82.81
371.802	83.81
372.028	83.81
372.254	74.81
372.48	91.81
372.706	90.81
372.932	81.81
373.158	100.81
373.384	82.81
373.61	80.81
373.835	89.81
374.061	83.81
374.287	99.81
374.513	90.81
374.739	95.81
374.965	85.81
375.191	84.81
375.416	89.81
375.642	92.81
375.868	98.81
376.094	82.81
376.319	82.81
376.545	86.81
376.771	91.81
376.997	83.81
377.222	82.81
377.448	90.81
377.674	68.81
377.899	85.81
378.125	82.81
378.35	92.81
378.576	95.81
378.802	77.81
379.027	82.81
379.253	98.81
379.478	91.81
379.704	75.81
379.929	79.81
380.155	84.81
380.38	94.81
380.606	90.81
380.831	99.81
381.057	68.81
381.282	72.81
381.507	85.81
381.733	85.81
381.958	83.81
382.184	72.81
382.409	93.81
382.634	88.81
382.86	99.81
383.085	77.81
383.31	91.81
383.535	89.81
383.761	83.81
383.986	96.81
384.211	87.81
384.436	70.81
384.662	72.81
384.887	97.81
385.112	80.81
385.337	86.81
385.562	85.81
385.787	93.81
386.013	82.81
386.238	94.81
386.463	85.81
386.688	112.81
386.913	88.81
387.138	96.81
387.363	89.81
387.588	89.81
387.813	79.81
388.038	76.81
388.263	87.81
388.488	86.81
388.713	92.81
388.938	84.81
389.163	86.81
389.387	92.81
389.612	90.81
389.837	88.81
390.062	81.81
390.287	85.81
390.512	90.81
390.736	74.81
390.961	81.81
391.186	106.81
391.411	90.81
391.636	87.81
391.86	79.81
392.085	79.81
392.31	77.81
392.534	81.81
392.759	80.81
392.984	84.81
393.208	78.81
393.433	94.81
393.658	94.81
393.882	79.81
394.107	80.81
394.331	100.81
394.556	90.81
394.78	95.81
395.005	93.81
395.229	92.81
395.454	86.81
395.678	83.81
395.903	87.81
396.127	68.81
396.352	90.81
396.576	92.81
396.801	79.81
397.025	83.81
397.249	98.81
397.474	87.81
397.698	80.81
397.922	87.81
398.147	98.81
398.371	89.81
398.595	94.81
398.82	85.81
399.044	78.81
399.268	87.81
399.492	94.81
399.717	84.81
399.941	88.81
400.165	89.81
400.389	84.81
400.613	83.81
400.837	87.81
401.062	91.81
401.286	82.81
401.51	88.81
401.734	86.81
401.958	83.81
402.182	86.81
402.406	83.81
402.63	91.81
402.854	109.81
403.078	98.81
403.302	94.81
403.526	78.81
403.75	89.81
403.974	81.81
404.198	94.81
404.422	94.81
404.645	91.81
404.869	90.81
405.093	79.81
405.317	74.81
405.541	85.81
405.765	76.81
405.988	82.81
406.212	81.81
406.436	88.81
406.66	93.81
406.883	97.81
407.107	95.81
407.331	98.81
407.555	102.81
407.778	94.81
408.002	85.81
408.226	88.81
408.449	83.81
408.673	96.81
408.896	78.81
409.12	90.81
409.344	94.81
409.567	84.81
409.791	88.81
410.014	91.81
410.238	84.81
410.461	87.81
410.685	83.81
410.908	88.81
411.132	79.81
411.355	77.81
411.578	79.81
411.802	88.81
412.025	80.81
412.249	80.81
412.472	86.81
412.695	89.81
412.919	92.81
413.142	86.81
413.365	100.81
413.589	94.81
413.812	94.81
414.035	80.81
414.258	83.81
414.482	83.81
414.705	91.81
414.928	89.81
415.151	94.81
415.374	94.81
415.597	95.81
415.821	84.81
416.044	87.81
416.267	83.81
416.49	76.81
416.713	96.81
416.936	89.81
417.159	78.81
417.382	92.81
417.605	87.81
417.828	85.81
418.051	85.81
418.274	79.81
418.497	90.81
418.72	91.81
418.943	93.81
419.166	92.81
419.389	87.81
419.611	83.81
419.834	82.81
420.057	78.81
420.28	100.81
420.503	84.81
420.726	83.81
420.948	88.81
421.171	76.81
421.394	86.81
421.617	78.81
421.839	84.81
422.062	86.81
422.285	78.81
422.507	70.81
422.73	105.81
422.953	87.81
423.175	93.81
423.398	92.81
423.621	92.81
423.843	83.81
424.066	89.81
424.288	83.81
424.511	91.81
424.733	96.81
424.956	93.81
425.178	79.81
425.401	93.81
425.623	88.81
425.846	75.81
426.068	88.81
426.291	93.81
426.513	101.81
426.735	90.81
426.958	85.81
427.18	88.81
427.402	94.81
427.625	85.81
427.847	77.81
428.069	75.81
428.292	90.81
428.514	104.81
428.736	93.81
428.958	80.81
429.181	75.81
429.403	81.81
429.625	84.81
429.847	79.81
430.069	83.81
430.292	93.81
430.514	85.81
430.736	82.81
430.958	96.81
431.18	85.81
431.402	92.81
431.624	96.81
431.846	75.81
432.068	89.81
432.29	87.81
432.512	79.81
432.734	87.81
432.956	94.81
433.178	87.81
433.4	78.81
433.622	68.81
433.844	80.81
434.066	85.81
434.287	92.81
434.509	85.81
434.731	94.81
434.953	90.81
435.175	93.81
435.397	85.81
435.618	80.81
435.84	70.81
436.062	77.81
436.284	95.81
436.505	100.81
436.727	83.81
436.949	101.81
437.17	84.81
437.392	83.81
437.614	88.81
437.835	70.81
438.057	75.81
438.278	95.81
438.5	94.81
438.721	92.81
438.943	96.81
439.165	92.81
439.386	90.81
439.608	92.81
439.829	91.81
440.05	86.81
440.272	84.81
440.493	80.81
440.715	88.81
440.936	95.81
441.158	86.81
441.379	72.81
441.6	86.81
441.822	75.81
442.043	88.81
442.264	80.81
442.486	71.81
442.707	85.81
442.928	95.81
443.149	91.81
443.371	85.81
443.592	89.81
443.813	89.81
444.034	88.81
444.255	102.81
444.476	94.81
444.698	78.81
444.919	89.81
445.14	176.81
445.361	118.81
445.582	96.81
445.803	90.81
446.024	74.81
446.245	83.81
446.466	95.81
446.687	88.81
446.908	88.81
447.129	80.81
447.35	87.81
447.571	88.81
447.792	83.81
448.013	80.81
448.234	82.81
448.455	78.81
448.675	94.81
448.896	81.81
449.117	93.81
449.338	71.81
449.559	78.81
449.779	79.81
450	90.81
450.221	87.81
450.442	91.81
450.662	83.81
450.883	77.81
451.104	94.81
451.324	82.81
451.545	99.81
451.766	68.81
451.986	74.81
452.207	78.81
452.428	82.81
452.648	88.81
452.869	76.81
453.089	95.81
453.31	83.81
453.53	86.81
453.751	89.81
453.971	102.81
454.192	86.81
454.412	84.81
454.633	86.81
454.853	86.81
455.073	89.81
455.294	87.81
455.514	76.81
455.734	87.81
455.955	91.81
456.175	87.81
456.395	87.81
456.616	92.81
456.836	94.81
457.056	90.81
457.276	78.81
457.497	78.81
457.717	82.81
457.937	77.81
458.157	80.81
458.377	100.81
458.598	81.81
458.818	98.81
459.038	100.81
459.258	78.81
459.478	94.81
459.698	83.81
459.918	91.81
460.138	88.81
460.358	75.81
460.578	88.81
460.798	80.81
461.018	78.81
461.238	78.81
461.458	103.81
461.678	87.81
461.898	93.81
462.118	85.81
462.338	88.81
462.558	88.81
462.777	99.81
462.997	102.81
463.217	92.81
463.437	98.81
463.657	82.81
463.876	87.81
464.096	95.81
464.316	89.81
464.536	73.81
464.755	101.81
464.975	95.81
465.195	86.81
465.414	89.81
465.634	83.81
465.854	92.81
466.073	92.81
466.293	74.81
466.512	87.81
466.732	91.81
466.951	73.81
467.171	88.81
467.391	74.81
467.61	74.81
467.829	87.81
468.049	80.81
468.268	72.81
468.488	86.81
468.707	98.81
468.927	91.81
469.146	86.81
469.365	86.81
469.585	89.81
469.804	94.81
470.023	90.81
470.243	81.81
470.462	68.81
470.681	85.81
470.901	82.81
471.12	84.81
471.339	100.81
471.558	98.81
471.777	93.81
471.997	88.81
472.216	99.81
472.435	90.81
472.654	82.81
472.873	93.81
473.092	78.81
473.311	110.81
473.53	100.81
473.749	86.81
473.968	88.81
474.187	88.81
474.406	85.81
474.625	100.81
474.844	94.81
475.063	93.81
475.282	84.81
475.501	93.81
475.72	82.81
475.939	82.81
476.158	86.81
476.377	101.81
476.596	92.81
476.814	91.81
477.033	85.81
477.252	89.81
477.471	84.81
477.69	86.81
477.908	90.81
478.127	98.81
478.346	89.81
478.564	86.81
478.783	91.81
479.002	91.81
479.22	91.81
479.439	87.81
479.658	85.81
479.876	87.81
480.095	87.81
480.313	91.81
480.532	83.81
480.751	88.81
480.969	79.81
481.188	86.81
481.406	82.81
481.624	78.81
481.843	93.81
482.061	90.81
482.28	88.81
482.498	93.81
482.717	76.81
482.935	94.81
483.153	96.81
483.372	88.81
483.59	78.81
483.808	72.81
484.027	95.81
484.245	98.81
484.463	91.81
484.681	99.81
484.9	91.81
485.118	88.81
485.336	79.81
485.554	87.81
485.772	102.81
485.99	88.81
486.209	84.81
486.427	85.81
486.645	82.81
486.863	88.81
487.081	86.81
487.299	86.81
487.517	86.81
487.735	80.81
487.953	103.81
488.171	82.81
488.389	77.81
488.607	70.81
488.825	84.81
489.043	100.81
489.261	98.81
489.479	82.81
489.696	78.81
489.914	90.81
490.132	95.81
490.35	79.81
490.568	94.81
490.786	82.81
491.003	95.81
491.221	93.81
491.439	89.81
491.657	91.81
491.874	106.81
492.092	85.81
492.31	90.81
492.527	90.81
492.745	92.81
492.963	100.81
493.18	86.81
493.398	84.81
493.615	86.81
493.833	96.81
494.05	87.81
494.268	94.81
494.485	77.81
494.703	91.81
494.92	97.81
495.138	85.81
495.355	82.81
495.573	88.81
495.79	96.81
496.008	98.81
496.225	91.81
496.442	98.81
496.66	104.81
496.877	98.81
497.094	95.81
497.312	98.81
497.529	88.81
497.746	93.81
497.963	98.81
498.181	93.81
498.398	76.81
498.615	102.81
498.832	95.81
499.049	106.81
499.267	111.81
499.484	77.81
499.701	84.81
499.918	104.81
500.135	118.81
500.352	114.81
500.569	109.81
500.786	114.81
501.003	114.81
501.22	100.81
501.437	104.81
501.654	99.81
501.871	105.81
502.088	80.81
502.305	96.81
502.522	90.81
502.739	84.81
502.956	83.81
503.172	92.81
503.389	106.81
503.606	90.81
503.823	105.81
504.04	100.81
504.256	104.81
504.473	90.81
504.69	104.81
504.907	105.81
505.123	84.81
505.34	97.81
505.557	103.81
505.773	81.81
505.99	78.81
506.207	83.81
506.423	83.81
506.64	86.81
506.856	82.81
507.073	79.81
507.289	106.81
507.506	86.81
507.722	89.81
507.939	78.81
508.155	93.81
508.372	102.81
508.588	88.81
508.805	90.81
509.021	90.81
509.238	88.81
509.454	78.81
509.67	90.81
509.887	72.81
510.103	87.81
510.319	88.81
510.536	77.81
510.752	91.81
510.968	88.81
511.184	78.81
511.401	88.81
511.617	93.81
511.833	91.81
512.049	93.81
512.265	92.81
512.481	84.81
512.698	95.81
512.914	87.81
513.13	104.81
513.346	83.81
513.562	86.81
513.778	80.81
513.994	87.81
514.21	85.81
514.426	93.81
514.642	94.81
514.858	84.81
515.074	101.81
515.29	102.81
515.506	84.81
515.721	87.81
515.937	96.81
516.153	106.81
516.369	90.81
516.585	98.81
516.801	86.81
517.016	93.81
517.232	78.81
517.448	85.81
517.664	83.81
517.879	96.81
518.095	101.81
518.311	94.81
518.527	99.81
518.742	84.81
518.958	95.81
519.173	96.81
