Data from BG_HRD10591_088.txt Node
Date: Fri May 16 15:21:37 EDT 2025
User: Yrep
Spectrometer: HR+D1059
Trigger mode: 1
Integration Time (sec): 1.000000E-1
Scans to average: 1
Electric dark correction enabled: true
Nonlinearity correction enabled: false
Boxcar width: 0
XAxis mode: Wavelengths
Number of Pixels in Spectrum: 2048
>>>>>Begin Spectral Data<<<<<
223.165	-12.62
223.4	-12.62
223.635	-12.62
223.869	-18.62
224.104	-17.62
224.338	-15.62
224.573	-21.62
224.808	-17.62
225.042	-14.62
225.277	-12.62
225.511	-16.62
225.746	12.38
225.98	6.38
226.215	4.38
226.449	12.38
226.683	33.38
226.918	30.38
227.152	48.38
227.387	38.38
227.621	47.38
227.856	50.38
228.09	46.38
228.324	52.38
228.559	59.38
228.793	58.38
229.027	66.38
229.262	65.38
229.496	77.38
229.73	67.38
229.964	82.38
230.199	82.38
230.433	77.38
230.667	76.38
230.901	83.38
231.136	84.38
231.37	88.38
231.604	73.38
231.838	77.38
232.072	78.38
232.306	83.38
232.541	90.38
232.775	88.38
233.009	98.38
233.243	79.38
233.477	69.38
233.711	80.38
233.945	74.38
234.179	84.38
234.413	85.38
234.647	80.38
234.881	80.38
235.115	80.38
235.349	87.38
235.583	94.38
235.817	68.38
236.051	85.38
236.285	83.38
236.519	77.38
236.753	86.38
236.987	74.38
237.221	87.38
237.455	76.38
237.689	84.38
237.922	72.38
238.156	86.38
238.39	87.38
238.624	77.38
238.858	78.38
239.091	60.38
239.325	80.38
239.559	73.38
239.793	79.38
240.027	83.38
240.26	77.38
240.494	77.38
240.728	76.38
240.961	80.38
241.195	76.38
241.429	75.38
241.662	82.38
241.896	86.38
242.13	74.38
242.363	60.38
242.597	79.38
242.83	74.38
243.064	76.38
243.298	77.38
243.531	74.38
243.765	76.38
243.998	86.38
244.232	83.38
244.465	83.38
244.699	78.38
244.932	87.38
245.166	70.38
245.399	93.38
245.633	83.38
245.866	78.38
246.099	79.38
246.333	78.38
246.566	76.38
246.8	81.38
247.033	91.38
247.266	76.38
247.5	61.38
247.733	74.38
247.966	86.38
248.2	72.38
248.433	73.38
248.666	81.38
248.899	74.38
249.133	79.38
249.366	96.38
249.599	74.38
249.832	74.38
250.066	82.38
250.299	73.38
250.532	86.38
250.765	68.38
250.998	78.38
251.231	72.38
251.465	76.38
251.698	73.38
251.931	76.38
252.164	82.38
252.397	86.38
252.63	80.38
252.863	84.38
253.096	83.38
253.329	82.38
253.562	81.38
253.795	79.38
254.028	81.38
254.261	82.38
254.494	74.38
254.727	77.38
254.96	89.38
255.193	81.38
255.426	70.38
255.659	81.38
255.892	91.38
256.124	84.38
256.357	82.38
256.59	88.38
256.823	86.38
257.056	83.38
257.289	78.38
257.521	95.38
257.754	80.38
257.987	79.38
258.22	86.38
258.452	70.38
258.685	83.38
258.918	83.38
259.151	69.38
259.383	74.38
259.616	78.38
259.849	81.38
260.081	78.38
260.314	65.38
260.547	65.38
260.779	94.38
261.012	73.38
261.244	82.38
261.477	76.38
261.71	89.38
261.942	78.38
262.175	80.38
262.407	84.38
262.64	93.38
262.872	96.38
263.105	88.38
263.337	87.38
263.57	81.38
263.802	82.38
264.035	77.38
264.267	92.38
264.499	88.38
264.732	90.38
264.964	74.38
265.197	87.38
265.429	90.38
265.661	99.38
265.894	66.38
266.126	83.38
266.358	77.38
266.591	100.38
266.823	72.38
267.055	88.38
267.287	81.38
267.52	84.38
267.752	77.38
267.984	82.38
268.216	85.38
268.448	88.38
268.681	81.38
268.913	79.38
269.145	102.38
269.377	76.38
269.609	90.38
269.841	86.38
270.073	78.38
270.306	88.38
270.538	84.38
270.77	84.38
271.002	82.38
271.234	75.38
271.466	73.38
271.698	97.38
271.93	80.38
272.162	93.38
272.394	86.38
272.626	87.38
272.858	87.38
273.09	82.38
273.322	82.38
273.553	82.38
273.785	90.38
274.017	92.38
274.249	92.38
274.481	78.38
274.713	95.38
274.945	88.38
275.176	88.38
275.408	85.38
275.64	89.38
275.872	93.38
276.104	94.38
276.335	81.38
276.567	86.38
276.799	94.38
277.031	63.38
277.262	80.38
277.494	83.38
277.726	82.38
277.957	77.38
278.189	82.38
278.421	82.38
278.652	95.38
278.884	79.38
279.115	90.38
279.347	81.38
279.579	90.38
279.81	77.38
280.042	88.38
280.273	94.38
280.505	94.38
280.736	83.38
280.968	90.38
281.199	71.38
281.431	68.38
281.662	82.38
281.894	89.38
282.125	80.38
282.356	99.38
282.588	88.38
282.819	89.38
283.051	85.38
283.282	83.38
283.513	91.38
283.745	81.38
283.976	87.38
284.207	87.38
284.439	86.38
284.67	79.38
284.901	92.38
285.132	88.38
285.364	85.38
285.595	85.38
285.826	90.38
286.057	90.38
286.288	82.38
286.52	89.38
286.751	102.38
286.982	104.38
287.213	76.38
287.444	90.38
287.675	86.38
287.906	83.38
288.138	99.38
288.369	80.38
288.6	90.38
288.831	91.38
289.062	81.38
289.293	83.38
289.524	82.38
289.755	89.38
289.986	76.38
290.217	87.38
290.448	81.38
290.679	76.38
290.91	86.38
291.141	92.38
291.371	78.38
291.602	85.38
291.833	89.38
292.064	89.38
292.295	82.38
292.526	83.38
292.757	82.38
292.987	82.38
293.218	93.38
293.449	92.38
293.68	92.38
293.91	87.38
294.141	97.38
294.372	94.38
294.603	90.38
294.833	96.38
295.064	94.38
295.295	95.38
295.525	89.38
295.756	98.38
295.987	94.38
296.217	90.38
296.448	92.38
296.679	96.38
296.909	89.38
297.14	93.38
297.37	89.38
297.601	95.38
297.831	91.38
298.062	82.38
298.292	100.38
298.523	92.38
298.753	80.38
298.984	88.38
299.214	90.38
299.445	87.38
299.675	88.38
299.905	81.38
300.136	86.38
300.366	81.38
300.597	99.38
300.827	92.38
301.057	93.38
301.288	95.38
301.518	87.38
301.748	73.38
301.979	74.38
302.209	90.38
302.439	80.38
302.669	83.38
302.9	91.38
303.13	87.38
303.36	81.38
303.59	83.38
303.82	96.38
304.051	92.38
304.281	96.38
304.511	96.38
304.741	90.38
304.971	83.38
305.201	88.38
305.431	89.38
305.661	84.38
305.891	113.38
306.121	88.38
306.352	88.38
306.582	80.38
306.812	87.38
307.042	94.38
307.272	88.38
307.502	79.38
307.731	103.38
307.961	99.38
308.191	78.38
308.421	82.38
308.651	95.38
308.881	80.38
309.111	96.38
309.341	90.38
309.571	85.38
309.8	91.38
310.03	90.38
310.26	79.38
310.49	94.38
310.72	91.38
310.949	89.38
311.179	86.38
311.409	84.38
311.639	77.38
311.868	97.38
312.098	88.38
312.328	94.38
312.557	95.38
312.787	93.38
313.017	90.38
313.246	78.38
313.476	79.38
313.706	85.38
313.935	83.38
314.165	102.38
314.394	85.38
314.624	86.38
314.853	84.38
315.083	93.38
315.312	93.38
315.542	96.38
315.771	86.38
316.001	80.38
316.23	88.38
316.46	97.38
316.689	98.38
316.919	94.38
317.148	95.38
317.377	86.38
317.607	81.38
317.836	93.38
318.065	73.38
318.295	78.38
318.524	92.38
318.753	84.38
318.983	79.38
319.212	76.38
319.441	90.38
319.67	94.38
319.9	87.38
320.129	88.38
320.358	87.38
320.587	94.38
320.816	83.38
321.046	78.38
321.275	93.38
321.504	90.38
321.733	99.38
321.962	93.38
322.191	89.38
322.42	91.38
322.649	91.38
322.878	85.38
323.108	93.38
323.337	101.38
323.566	110.38
323.795	98.38
324.024	82.38
324.253	83.38
324.482	98.38
324.71	85.38
324.939	78.38
325.168	87.38
325.397	84.38
325.626	84.38
325.855	92.38
326.084	83.38
326.313	98.38
326.542	82.38
326.77	98.38
326.999	90.38
327.228	80.38
327.457	95.38
327.686	105.38
327.914	101.38
328.143	83.38
328.372	88.38
328.6	89.38
328.829	94.38
329.058	99.38
329.287	78.38
329.515	91.38
329.744	86.38
329.972	97.38
330.201	91.38
330.43	80.38
330.658	96.38
330.887	101.38
331.115	92.38
331.344	84.38
331.572	107.38
331.801	87.38
332.03	96.38
332.258	87.38
332.486	75.38
332.715	81.38
332.943	86.38
333.172	86.38
333.4	86.38
333.629	90.38
333.857	86.38
334.085	86.38
334.314	92.38
334.542	85.38
334.771	83.38
334.999	74.38
335.227	86.38
335.455	83.38
335.684	89.38
335.912	104.38
336.14	89.38
336.369	86.38
336.597	73.38
336.825	84.38
337.053	95.38
337.281	94.38
337.51	98.38
337.738	94.38
337.966	68.38
338.194	78.38
338.422	80.38
338.65	91.38
338.878	100.38
339.106	87.38
339.334	93.38
339.562	88.38
339.79	90.38
340.018	87.38
340.246	83.38
340.474	76.38
340.702	101.38
340.93	86.38
341.158	90.38
341.386	99.38
341.614	97.38
341.842	85.38
342.07	84.38
342.298	84.38
342.526	74.38
342.754	95.38
342.981	87.38
343.209	90.38
343.437	114.38
343.665	81.38
343.893	78.38
344.12	83.38
344.348	95.38
344.576	91.38
344.804	84.38
345.031	83.38
345.259	86.38
345.487	73.38
345.714	95.38
345.942	93.38
346.17	71.38
346.397	97.38
346.625	90.38
346.853	79.38
347.08	104.38
347.308	90.38
347.535	87.38
347.763	93.38
347.99	83.38
348.218	82.38
348.445	77.38
348.673	79.38
348.9	89.38
349.128	92.38
349.355	74.38
349.583	92.38
349.81	89.38
350.037	72.38
350.265	90.38
350.492	92.38
350.72	65.38
350.947	79.38
351.174	84.38
351.402	93.38
351.629	99.38
351.856	98.38
352.083	96.38
352.311	80.38
352.538	107.38
352.765	90.38
352.992	96.38
353.22	83.38
353.447	83.38
353.674	78.38
353.901	90.38
354.128	77.38
354.355	83.38
354.583	93.38
354.81	104.38
355.037	92.38
355.264	86.38
355.491	91.38
355.718	92.38
355.945	83.38
356.172	91.38
356.399	92.38
356.626	108.38
356.853	92.38
357.08	90.38
357.307	75.38
357.534	79.38
357.761	86.38
357.988	93.38
358.215	98.38
358.441	90.38
358.668	81.38
358.895	90.38
359.122	95.38
359.349	80.38
359.576	84.38
359.802	74.38
360.029	83.38
360.256	96.38
360.483	86.38
360.709	76.38
360.936	76.38
361.163	70.38
361.39	89.38
361.616	96.38
361.843	76.38
362.07	93.38
362.296	90.38
362.523	88.38
362.749	84.38
362.976	82.38
363.203	93.38
363.429	109.38
363.656	80.38
363.882	81.38
364.109	90.38
364.335	98.38
364.562	93.38
364.788	93.38
365.015	77.38
365.241	84.38
365.468	81.38
365.694	90.38
365.92	89.38
366.147	87.38
366.373	99.38
366.599	84.38
366.826	93.38
367.052	79.38
367.278	79.38
367.505	89.38
367.731	80.38
367.957	84.38
368.184	91.38
368.41	73.38
368.636	93.38
368.862	106.38
369.089	69.38
369.315	88.38
369.541	86.38
369.767	86.38
369.993	81.38
370.219	99.38
370.445	80.38
370.672	84.38
370.898	86.38
371.124	94.38
371.35	94.38
371.576	91.38
371.802	94.38
372.028	91.38
372.254	86.38
372.48	102.38
372.706	97.38
372.932	92.38
373.158	66.38
373.384	81.38
373.61	90.38
373.835	97.38
374.061	106.38
374.287	89.38
374.513	70.38
374.739	88.38
374.965	92.38
375.191	97.38
375.416	72.38
375.642	92.38
375.868	90.38
376.094	88.38
376.319	95.38
376.545	94.38
376.771	84.38
376.997	86.38
377.222	91.38
377.448	75.38
377.674	80.38
377.899	89.38
378.125	81.38
378.35	84.38
378.576	82.38
378.802	87.38
379.027	105.38
379.253	95.38
379.478	99.38
379.704	100.38
379.929	84.38
380.155	83.38
380.38	78.38
380.606	98.38
380.831	88.38
381.057	93.38
381.282	86.38
381.507	75.38
381.733	86.38
381.958	76.38
382.184	88.38
382.409	90.38
382.634	81.38
382.86	81.38
383.085	87.38
383.31	76.38
383.535	83.38
383.761	81.38
383.986	83.38
384.211	81.38
384.436	75.38
384.662	92.38
384.887	93.38
385.112	83.38
385.337	76.38
385.562	81.38
385.787	93.38
386.013	82.38
386.238	88.38
386.463	93.38
386.688	103.38
386.913	87.38
387.138	78.38
387.363	88.38
387.588	92.38
387.813	83.38
388.038	91.38
388.263	83.38
388.488	92.38
388.713	90.38
388.938	87.38
389.163	97.38
389.387	81.38
389.612	87.38
389.837	67.38
390.062	91.38
390.287	82.38
390.512	84.38
390.736	83.38
390.961	92.38
391.186	92.38
391.411	87.38
391.636	73.38
391.86	89.38
392.085	82.38
392.31	95.38
392.534	89.38
392.759	104.38
392.984	87.38
393.208	95.38
393.433	94.38
393.658	88.38
393.882	90.38
394.107	65.38
394.331	90.38
394.556	94.38
394.78	87.38
395.005	90.38
395.229	89.38
395.454	88.38
395.678	85.38
395.903	94.38
396.127	97.38
396.352	86.38
396.576	92.38
396.801	94.38
397.025	100.38
397.249	93.38
397.474	88.38
397.698	94.38
397.922	84.38
398.147	81.38
398.371	74.38
398.595	87.38
398.82	89.38
399.044	70.38
399.268	90.38
399.492	79.38
399.717	105.38
399.941	91.38
400.165	96.38
400.389	89.38
400.613	86.38
400.837	94.38
401.062	95.38
401.286	75.38
401.51	75.38
401.734	103.38
401.958	86.38
402.182	89.38
402.406	88.38
402.63	92.38
402.854	88.38
403.078	94.38
403.302	78.38
403.526	79.38
403.75	92.38
403.974	86.38
404.198	91.38
404.422	101.38
404.645	99.38
404.869	88.38
405.093	94.38
405.317	90.38
405.541	94.38
405.765	88.38
405.988	86.38
406.212	85.38
406.436	99.38
406.66	82.38
406.883	99.38
407.107	98.38
407.331	71.38
407.555	92.38
407.778	86.38
408.002	106.38
408.226	90.38
408.449	93.38
408.673	83.38
408.896	93.38
409.12	97.38
409.344	94.38
409.567	92.38
409.791	100.38
410.014	88.38
410.238	92.38
410.461	99.38
410.685	93.38
410.908	94.38
411.132	81.38
411.355	62.38
411.578	102.38
411.802	84.38
412.025	82.38
412.249	86.38
412.472	92.38
412.695	100.38
412.919	90.38
413.142	81.38
413.365	83.38
413.589	90.38
413.812	88.38
414.035	76.38
414.258	81.38
414.482	90.38
414.705	84.38
414.928	97.38
415.151	88.38
415.374	90.38
415.597	83.38
415.821	94.38
416.044	77.38
416.267	87.38
416.49	98.38
416.713	80.38
416.936	103.38
417.159	96.38
417.382	85.38
417.605	85.38
417.828	91.38
418.051	81.38
418.274	85.38
418.497	96.38
418.72	86.38
418.943	91.38
419.166	94.38
419.389	81.38
419.611	88.38
419.834	89.38
420.057	86.38
420.28	95.38
420.503	95.38
420.726	108.38
420.948	86.38
421.171	68.38
421.394	98.38
421.617	87.38
421.839	76.38
422.062	86.38
422.285	75.38
422.507	90.38
422.73	91.38
422.953	87.38
423.175	84.38
423.398	88.38
423.621	94.38
423.843	92.38
424.066	92.38
424.288	87.38
424.511	97.38
424.733	100.38
424.956	82.38
425.178	94.38
425.401	92.38
425.623	80.38
425.846	89.38
426.068	89.38
426.291	102.38
426.513	97.38
426.735	100.38
426.958	83.38
427.18	88.38
427.402	84.38
427.625	80.38
427.847	91.38
428.069	94.38
428.292	86.38
428.514	81.38
428.736	82.38
428.958	79.38
429.181	86.38
429.403	84.38
429.625	94.38
429.847	81.38
430.069	77.38
430.292	89.38
430.514	79.38
430.736	80.38
430.958	92.38
431.18	91.38
431.402	75.38
431.624	83.38
431.846	82.38
432.068	86.38
432.29	80.38
432.512	102.38
432.734	91.38
432.956	79.38
433.178	92.38
433.4	86.38
433.622	91.38
433.844	95.38
434.066	95.38
434.287	105.38
434.509	79.38
434.731	89.38
434.953	69.38
435.175	103.38
435.397	95.38
435.618	84.38
435.84	92.38
436.062	93.38
436.284	90.38
436.505	75.38
436.727	78.38
436.949	73.38
437.17	91.38
437.392	90.38
437.614	86.38
437.835	84.38
438.057	95.38
438.278	86.38
438.5	81.38
438.721	99.38
438.943	86.38
439.165	83.38
439.386	90.38
439.608	89.38
439.829	80.38
440.05	83.38
440.272	90.38
440.493	93.38
440.715	90.38
440.936	74.38
441.158	90.38
441.379	91.38
441.6	94.38
441.822	96.38
442.043	81.38
442.264	81.38
442.486	88.38
442.707	102.38
442.928	76.38
443.149	89.38
443.371	84.38
443.592	93.38
443.813	99.38
444.034	84.38
444.255	95.38
444.476	94.38
444.698	83.38
444.919	83.38
445.14	178.38
445.361	131.38
445.582	86.38
445.803	84.38
446.024	88.38
446.245	90.38
446.466	87.38
446.687	89.38
446.908	97.38
447.129	83.38
447.35	77.38
447.571	86.38
447.792	91.38
448.013	89.38
448.234	101.38
448.455	97.38
448.675	91.38
448.896	86.38
449.117	82.38
449.338	81.38
449.559	89.38
449.779	89.38
450	100.38
450.221	84.38
450.442	82.38
450.662	105.38
450.883	86.38
451.104	105.38
451.324	104.38
451.545	82.38
451.766	86.38
451.986	81.38
452.207	94.38
452.428	83.38
452.648	72.38
452.869	78.38
453.089	85.38
453.31	91.38
453.53	87.38
453.751	83.38
453.971	97.38
454.192	87.38
454.412	99.38
454.633	75.38
454.853	90.38
455.073	97.38
455.294	94.38
455.514	84.38
455.734	88.38
455.955	91.38
456.175	95.38
456.395	76.38
456.616	81.38
456.836	81.38
457.056	89.38
457.276	92.38
457.497	93.38
457.717	83.38
457.937	81.38
458.157	86.38
458.377	77.38
458.598	80.38
458.818	88.38
459.038	96.38
459.258	84.38
459.478	96.38
459.698	74.38
459.918	82.38
460.138	97.38
460.358	81.38
460.578	86.38
460.798	98.38
461.018	81.38
461.238	88.38
461.458	87.38
461.678	81.38
461.898	80.38
462.118	87.38
462.338	85.38
462.558	98.38
462.777	87.38
462.997	83.38
463.217	80.38
463.437	91.38
463.657	95.38
463.876	93.38
464.096	83.38
464.316	99.38
464.536	109.38
464.755	102.38
464.975	95.38
465.195	86.38
465.414	102.38
465.634	96.38
465.854	100.38
466.073	87.38
466.293	80.38
466.512	85.38
466.732	82.38
466.951	82.38
467.171	80.38
467.391	82.38
467.61	90.38
467.829	92.38
468.049	83.38
468.268	83.38
468.488	82.38
468.707	84.38
468.927	95.38
469.146	79.38
469.365	100.38
469.585	88.38
469.804	78.38
470.023	74.38
470.243	85.38
470.462	97.38
470.681	77.38
470.901	95.38
471.12	92.38
471.339	100.38
471.558	74.38
471.777	99.38
471.997	96.38
472.216	84.38
472.435	99.38
472.654	95.38
472.873	93.38
473.092	83.38
473.311	64.38
473.53	96.38
473.749	77.38
473.968	93.38
474.187	86.38
474.406	80.38
474.625	78.38
474.844	90.38
475.063	93.38
475.282	84.38
475.501	90.38
475.72	86.38
475.939	92.38
476.158	77.38
476.377	94.38
476.596	77.38
476.814	83.38
477.033	84.38
477.252	102.38
477.471	91.38
477.69	81.38
477.908	94.38
478.127	104.38
478.346	92.38
478.564	98.38
478.783	97.38
479.002	91.38
479.22	108.38
479.439	85.38
479.658	88.38
479.876	87.38
480.095	93.38
480.313	97.38
480.532	86.38
480.751	86.38
480.969	86.38
481.188	92.38
481.406	96.38
481.624	82.38
481.843	97.38
482.061	83.38
482.28	97.38
482.498	78.38
482.717	88.38
482.935	97.38
483.153	80.38
483.372	106.38
483.59	90.38
483.808	87.38
484.027	100.38
484.245	82.38
484.463	90.38
484.681	76.38
484.9	87.38
485.118	98.38
485.336	101.38
485.554	97.38
485.772	83.38
485.99	90.38
486.209	98.38
486.427	82.38
486.645	88.38
486.863	104.38
487.081	88.38
487.299	82.38
487.517	84.38
487.735	84.38
487.953	93.38
488.171	83.38
488.389	92.38
488.607	76.38
488.825	82.38
489.043	82.38
489.261	96.38
489.479	89.38
489.696	93.38
489.914	88.38
490.132	92.38
490.35	81.38
490.568	80.38
490.786	88.38
491.003	106.38
491.221	90.38
491.439	84.38
491.657	81.38
491.874	96.38
492.092	78.38
492.31	94.38
492.527	83.38
492.745	91.38
492.963	99.38
493.18	94.38
493.398	99.38
493.615	103.38
493.833	76.38
494.05	85.38
494.268	81.38
494.485	95.38
494.703	87.38
494.92	97.38
495.138	92.38
495.355	88.38
495.573	72.38
495.79	88.38
496.008	104.38
496.225	101.38
496.442	83.38
496.66	96.38
496.877	85.38
497.094	88.38
497.312	86.38
497.529	88.38
497.746	88.38
497.963	83.38
498.181	90.38
498.398	95.38
498.615	93.38
498.832	87.38
499.049	98.38
499.267	97.38
499.484	107.38
499.701	120.38
499.918	89.38
500.135	116.38
500.352	104.38
500.569	104.38
500.786	114.38
501.003	106.38
501.22	96.38
501.437	108.38
501.654	91.38
501.871	102.38
502.088	91.38
502.305	88.38
502.522	104.38
502.739	106.38
502.956	87.38
503.172	82.38
503.389	74.38
503.606	87.38
503.823	89.38
504.04	102.38
504.256	90.38
504.473	86.38
504.69	101.38
504.907	108.38
505.123	86.38
505.34	88.38
505.557	81.38
505.773	88.38
505.99	68.38
506.207	96.38
506.423	78.38
506.64	99.38
506.856	95.38
507.073	100.38
507.289	83.38
507.506	87.38
507.722	105.38
507.939	94.38
508.155	80.38
508.372	93.38
508.588	97.38
508.805	84.38
509.021	97.38
509.238	100.38
509.454	84.38
509.67	90.38
509.887	92.38
510.103	86.38
510.319	102.38
510.536	93.38
510.752	81.38
510.968	97.38
511.184	96.38
511.401	99.38
511.617	91.38
511.833	78.38
512.049	101.38
512.265	92.38
512.481	89.38
512.698	91.38
512.914	88.38
513.13	96.38
513.346	95.38
513.562	103.38
513.778	91.38
513.994	96.38
514.21	84.38
514.426	88.38
514.642	94.38
514.858	90.38
515.074	79.38
515.29	96.38
515.506	92.38
515.721	92.38
515.937	89.38
516.153	84.38
516.369	88.38
516.585	82.38
516.801	94.38
517.016	99.38
517.232	86.38
517.448	98.38
517.664	91.38
517.879	82.38
518.095	88.38
518.311	99.38
518.527	82.38
518.742	77.38
518.958	96.38
