Data from BG_HRD10591_023.txt Node
Date: Fri May 16 15:21:05 EDT 2025
User: Yrep
Spectrometer: HR+D1059
Trigger mode: 1
Integration Time (sec): 1.000000E-1
Scans to average: 1
Electric dark correction enabled: true
Nonlinearity correction enabled: false
Boxcar width: 0
XAxis mode: Wavelengths
Number of Pixels in Spectrum: 2048
>>>>>Begin Spectral Data<<<<<
223.165	-15.62
223.4	-15.62
223.635	-15.62
223.869	-27.62
224.104	-9.62
224.338	-22.62
224.573	-19.62
224.808	-5.62
225.042	-7.62
225.277	-11.62
225.511	-8.62
225.746	11.38
225.98	5.38
226.215	0.38
226.449	13.38
226.683	23.38
226.918	42.38
227.152	32.38
227.387	28.38
227.621	48.38
227.856	40.38
228.09	38.38
228.324	45.38
228.559	51.38
228.793	55.38
229.027	50.38
229.262	57.38
229.496	69.38
229.73	71.38
229.964	76.38
230.199	56.38
230.433	74.38
230.667	82.38
230.901	72.38
231.136	73.38
231.37	74.38
231.604	70.38
231.838	84.38
232.072	77.38
232.306	89.38
232.541	85.38
232.775	73.38
233.009	85.38
233.243	66.38
233.477	78.38
233.711	78.38
233.945	83.38
234.179	83.38
234.413	72.38
234.647	65.38
234.881	65.38
235.115	81.38
235.349	75.38
235.583	78.38
235.817	77.38
236.051	87.38
236.285	80.38
236.519	80.38
236.753	57.38
236.987	80.38
237.221	83.38
237.455	92.38
237.689	74.38
237.922	89.38
238.156	71.38
238.39	64.38
238.624	76.38
238.858	77.38
239.091	72.38
239.325	76.38
239.559	80.38
239.793	60.38
240.027	64.38
240.26	75.38
240.494	77.38
240.728	60.38
240.961	75.38
241.195	71.38
241.429	69.38
241.662	74.38
241.896	69.38
242.13	69.38
242.363	75.38
242.597	73.38
242.83	79.38
243.064	87.38
243.298	84.38
243.531	91.38
243.765	93.38
243.998	77.38
244.232	62.38
244.465	71.38
244.699	84.38
244.932	65.38
245.166	79.38
245.399	80.38
245.633	77.38
245.866	56.38
246.099	79.38
246.333	85.38
246.566	79.38
246.8	82.38
247.033	71.38
247.266	69.38
247.5	71.38
247.733	85.38
247.966	82.38
248.2	77.38
248.433	87.38
248.666	65.38
248.899	77.38
249.133	72.38
249.366	78.38
249.599	75.38
249.832	73.38
250.066	81.38
250.299	86.38
250.532	78.38
250.765	80.38
250.998	66.38
251.231	90.38
251.465	78.38
251.698	79.38
251.931	71.38
252.164	72.38
252.397	87.38
252.63	69.38
252.863	73.38
253.096	100.38
253.329	85.38
253.562	95.38
253.795	73.38
254.028	74.38
254.261	81.38
254.494	94.38
254.727	87.38
254.96	67.38
255.193	83.38
255.426	77.38
255.659	89.38
255.892	89.38
256.124	85.38
256.357	66.38
256.59	79.38
256.823	80.38
257.056	80.38
257.289	84.38
257.521	89.38
257.754	81.38
257.987	71.38
258.22	78.38
258.452	79.38
258.685	86.38
258.918	77.38
259.151	81.38
259.383	96.38
259.616	92.38
259.849	90.38
260.081	102.38
260.314	93.38
260.547	79.38
260.779	74.38
261.012	96.38
261.244	65.38
261.477	68.38
261.71	72.38
261.942	91.38
262.175	81.38
262.407	89.38
262.64	67.38
262.872	76.38
263.105	91.38
263.337	73.38
263.57	94.38
263.802	88.38
264.035	86.38
264.267	86.38
264.499	84.38
264.732	81.38
264.964	84.38
265.197	75.38
265.429	61.38
265.661	77.38
265.894	79.38
266.126	81.38
266.358	77.38
266.591	74.38
266.823	71.38
267.055	79.38
267.287	75.38
267.52	69.38
267.752	87.38
267.984	77.38
268.216	92.38
268.448	91.38
268.681	88.38
268.913	77.38
269.145	80.38
269.377	80.38
269.609	81.38
269.841	75.38
270.073	75.38
270.306	86.38
270.538	91.38
270.77	83.38
271.002	74.38
271.234	69.38
271.466	81.38
271.698	85.38
271.93	76.38
272.162	79.38
272.394	77.38
272.626	91.38
272.858	95.38
273.09	87.38
273.322	74.38
273.553	76.38
273.785	72.38
274.017	89.38
274.249	75.38
274.481	85.38
274.713	87.38
274.945	85.38
275.176	75.38
275.408	79.38
275.64	84.38
275.872	78.38
276.104	88.38
276.335	78.38
276.567	72.38
276.799	77.38
277.031	88.38
277.262	77.38
277.494	82.38
277.726	85.38
277.957	80.38
278.189	87.38
278.421	85.38
278.652	85.38
278.884	88.38
279.115	88.38
279.347	72.38
279.579	83.38
279.81	83.38
280.042	75.38
280.273	83.38
280.505	70.38
280.736	79.38
280.968	92.38
281.199	83.38
281.431	94.38
281.662	78.38
281.894	96.38
282.125	87.38
282.356	83.38
282.588	83.38
282.819	87.38
283.051	73.38
283.282	78.38
283.513	79.38
283.745	75.38
283.976	77.38
284.207	85.38
284.439	93.38
284.67	87.38
284.901	87.38
285.132	88.38
285.364	83.38
285.595	82.38
285.826	91.38
286.057	87.38
286.288	97.38
286.52	90.38
286.751	69.38
286.982	87.38
287.213	81.38
287.444	77.38
287.675	76.38
287.906	75.38
288.138	73.38
288.369	86.38
288.6	80.38
288.831	72.38
289.062	94.38
289.293	89.38
289.524	79.38
289.755	81.38
289.986	90.38
290.217	94.38
290.448	89.38
290.679	77.38
290.91	97.38
291.141	93.38
291.371	93.38
291.602	85.38
291.833	69.38
292.064	86.38
292.295	87.38
292.526	92.38
292.757	100.38
292.987	92.38
293.218	81.38
293.449	83.38
293.68	88.38
293.91	84.38
294.141	89.38
294.372	90.38
294.603	77.38
294.833	100.38
295.064	82.38
295.295	90.38
295.525	84.38
295.756	83.38
295.987	95.38
296.217	84.38
296.448	91.38
296.679	90.38
296.909	81.38
297.14	88.38
297.37	96.38
297.601	83.38
297.831	81.38
298.062	82.38
298.292	85.38
298.523	98.38
298.753	82.38
298.984	86.38
299.214	88.38
299.445	80.38
299.675	84.38
299.905	91.38
300.136	82.38
300.366	83.38
300.597	79.38
300.827	81.38
301.057	85.38
301.288	83.38
301.518	83.38
301.748	81.38
301.979	87.38
302.209	69.38
302.439	92.38
302.669	69.38
302.9	90.38
303.13	73.38
303.36	87.38
303.59	80.38
303.82	83.38
304.051	81.38
304.281	86.38
304.511	87.38
304.741	89.38
304.971	69.38
305.201	80.38
305.431	81.38
305.661	98.38
305.891	85.38
306.121	87.38
306.352	86.38
306.582	72.38
306.812	77.38
307.042	88.38
307.272	80.38
307.502	76.38
307.731	103.38
307.961	83.38
308.191	79.38
308.421	76.38
308.651	66.38
308.881	87.38
309.111	83.38
309.341	90.38
309.571	87.38
309.8	83.38
310.03	88.38
310.26	71.38
310.49	87.38
310.72	76.38
310.949	75.38
311.179	90.38
311.409	68.38
311.639	75.38
311.868	99.38
312.098	88.38
312.328	81.38
312.557	87.38
312.787	77.38
313.017	84.38
313.246	88.38
313.476	79.38
313.706	75.38
313.935	82.38
314.165	95.38
314.394	96.38
314.624	83.38
314.853	79.38
315.083	75.38
315.312	81.38
315.542	76.38
315.771	94.38
316.001	85.38
316.23	80.38
316.46	82.38
316.689	79.38
316.919	66.38
317.148	105.38
317.377	79.38
317.607	84.38
317.836	81.38
318.065	84.38
318.295	95.38
318.524	82.38
318.753	87.38
318.983	79.38
319.212	74.38
319.441	83.38
319.67	87.38
319.9	81.38
320.129	83.38
320.358	93.38
320.587	75.38
320.816	85.38
321.046	81.38
321.275	75.38
321.504	80.38
321.733	81.38
321.962	67.38
322.191	84.38
322.42	84.38
322.649	85.38
322.878	93.38
323.108	89.38
323.337	76.38
323.566	95.38
323.795	75.38
324.024	94.38
324.253	81.38
324.482	89.38
324.71	91.38
324.939	83.38
325.168	85.38
325.397	78.38
325.626	87.38
325.855	76.38
326.084	87.38
326.313	85.38
326.542	86.38
326.77	82.38
326.999	90.38
327.228	86.38
327.457	73.38
327.686	102.38
327.914	86.38
328.143	87.38
328.372	97.38
328.6	71.38
328.829	66.38
329.058	89.38
329.287	80.38
329.515	74.38
329.744	73.38
329.972	84.38
330.201	84.38
330.43	86.38
330.658	87.38
330.887	80.38
331.115	104.38
331.344	88.38
331.572	88.38
331.801	92.38
332.03	85.38
332.258	69.38
332.486	85.38
332.715	84.38
332.943	73.38
333.172	79.38
333.4	89.38
333.629	81.38
333.857	83.38
334.085	89.38
334.314	88.38
334.542	83.38
334.771	75.38
334.999	79.38
335.227	80.38
335.455	90.38
335.684	87.38
335.912	76.38
336.14	83.38
336.369	81.38
336.597	85.38
336.825	94.38
337.053	92.38
337.281	83.38
337.51	69.38
337.738	83.38
337.966	86.38
338.194	73.38
338.422	87.38
338.65	95.38
338.878	88.38
339.106	90.38
339.334	81.38
339.562	73.38
339.79	77.38
340.018	82.38
340.246	86.38
340.474	85.38
340.702	83.38
340.93	83.38
341.158	77.38
341.386	88.38
341.614	87.38
341.842	81.38
342.07	78.38
342.298	96.38
342.526	79.38
342.754	86.38
342.981	88.38
343.209	78.38
343.437	101.38
343.665	76.38
343.893	78.38
344.12	84.38
344.348	75.38
344.576	91.38
344.804	66.38
345.031	94.38
345.259	88.38
345.487	74.38
345.714	81.38
345.942	89.38
346.17	86.38
346.397	89.38
346.625	74.38
346.853	77.38
347.08	89.38
347.308	80.38
347.535	84.38
347.763	93.38
347.99	79.38
348.218	91.38
348.445	88.38
348.673	75.38
348.9	83.38
349.128	85.38
349.355	81.38
349.583	87.38
349.81	95.38
350.037	87.38
350.265	100.38
350.492	80.38
350.72	68.38
350.947	86.38
351.174	77.38
351.402	68.38
351.629	77.38
351.856	75.38
352.083	92.38
352.311	97.38
352.538	87.38
352.765	76.38
352.992	79.38
353.22	86.38
353.447	72.38
353.674	82.38
353.901	85.38
354.128	77.38
354.355	97.38
354.583	77.38
354.81	76.38
355.037	63.38
355.264	78.38
355.491	77.38
355.718	69.38
355.945	73.38
356.172	71.38
356.399	71.38
356.626	82.38
356.853	72.38
357.08	67.38
357.307	76.38
357.534	85.38
357.761	81.38
357.988	77.38
358.215	88.38
358.441	65.38
358.668	86.38
358.895	93.38
359.122	69.38
359.349	71.38
359.576	75.38
359.802	90.38
360.029	86.38
360.256	87.38
360.483	83.38
360.709	87.38
360.936	88.38
361.163	80.38
361.39	86.38
361.616	101.38
361.843	93.38
362.07	79.38
362.296	94.38
362.523	75.38
362.749	81.38
362.976	76.38
363.203	87.38
363.429	87.38
363.656	77.38
363.882	79.38
364.109	86.38
364.335	76.38
364.562	85.38
364.788	90.38
365.015	86.38
365.241	98.38
365.468	100.38
365.694	80.38
365.92	82.38
366.147	72.38
366.373	88.38
366.599	90.38
366.826	83.38
367.052	97.38
367.278	79.38
367.505	87.38
367.731	91.38
367.957	70.38
368.184	69.38
368.41	72.38
368.636	87.38
368.862	87.38
369.089	74.38
369.315	76.38
369.541	77.38
369.767	75.38
369.993	76.38
370.219	82.38
370.445	84.38
370.672	91.38
370.898	87.38
371.124	89.38
371.35	76.38
371.576	89.38
371.802	76.38
372.028	74.38
372.254	87.38
372.48	80.38
372.706	92.38
372.932	85.38
373.158	96.38
373.384	81.38
373.61	79.38
373.835	80.38
374.061	79.38
374.287	90.38
374.513	82.38
374.739	73.38
374.965	84.38
375.191	69.38
375.416	87.38
375.642	77.38
375.868	86.38
376.094	79.38
376.319	79.38
376.545	77.38
376.771	94.38
376.997	95.38
377.222	81.38
377.448	85.38
377.674	65.38
377.899	81.38
378.125	75.38
378.35	75.38
378.576	91.38
378.802	76.38
379.027	75.38
379.253	84.38
379.478	75.38
379.704	88.38
379.929	68.38
380.155	82.38
380.38	94.38
380.606	86.38
380.831	87.38
381.057	91.38
381.282	92.38
381.507	71.38
381.733	99.38
381.958	84.38
382.184	72.38
382.409	82.38
382.634	82.38
382.86	83.38
383.085	88.38
383.31	82.38
383.535	78.38
383.761	78.38
383.986	87.38
384.211	73.38
384.436	93.38
384.662	93.38
384.887	89.38
385.112	72.38
385.337	76.38
385.562	85.38
385.787	75.38
386.013	78.38
386.238	93.38
386.463	81.38
386.688	102.38
386.913	101.38
387.138	95.38
387.363	71.38
387.588	69.38
387.813	72.38
388.038	86.38
388.263	85.38
388.488	77.38
388.713	73.38
388.938	72.38
389.163	82.38
389.387	83.38
389.612	70.38
389.837	76.38
390.062	83.38
390.287	72.38
390.512	79.38
390.736	72.38
390.961	65.38
391.186	83.38
391.411	76.38
391.636	85.38
391.86	80.38
392.085	82.38
392.31	81.38
392.534	91.38
392.759	84.38
392.984	79.38
393.208	96.38
393.433	93.38
393.658	67.38
393.882	86.38
394.107	73.38
394.331	78.38
394.556	74.38
394.78	93.38
395.005	89.38
395.229	83.38
395.454	80.38
395.678	83.38
395.903	71.38
396.127	83.38
396.352	85.38
396.576	71.38
396.801	78.38
397.025	83.38
397.249	88.38
397.474	85.38
397.698	77.38
397.922	89.38
398.147	87.38
398.371	78.38
398.595	99.38
398.82	63.38
399.044	73.38
399.268	75.38
399.492	83.38
399.717	66.38
399.941	76.38
400.165	81.38
400.389	74.38
400.613	82.38
400.837	79.38
401.062	76.38
401.286	75.38
401.51	84.38
401.734	83.38
401.958	81.38
402.182	87.38
402.406	68.38
402.63	71.38
402.854	72.38
403.078	82.38
403.302	83.38
403.526	87.38
403.75	89.38
403.974	67.38
404.198	83.38
404.422	86.38
404.645	80.38
404.869	91.38
405.093	88.38
405.317	85.38
405.541	89.38
405.765	82.38
405.988	83.38
406.212	78.38
406.436	89.38
406.66	83.38
406.883	70.38
407.107	71.38
407.331	78.38
407.555	88.38
407.778	83.38
408.002	90.38
408.226	81.38
408.449	81.38
408.673	87.38
408.896	86.38
409.12	84.38
409.344	83.38
409.567	71.38
409.791	81.38
410.014	79.38
410.238	77.38
410.461	76.38
410.685	85.38
410.908	75.38
411.132	92.38
411.355	73.38
411.578	87.38
411.802	87.38
412.025	76.38
412.249	64.38
412.472	86.38
412.695	84.38
412.919	91.38
413.142	75.38
413.365	79.38
413.589	79.38
413.812	79.38
414.035	82.38
414.258	87.38
414.482	83.38
414.705	80.38
414.928	86.38
415.151	72.38
415.374	78.38
415.597	77.38
415.821	75.38
416.044	71.38
416.267	80.38
416.49	89.38
416.713	100.38
416.936	85.38
417.159	83.38
417.382	88.38
417.605	83.38
417.828	89.38
418.051	81.38
418.274	69.38
418.497	77.38
418.72	83.38
418.943	67.38
419.166	84.38
419.389	87.38
419.611	78.38
419.834	73.38
420.057	85.38
420.28	63.38
420.503	74.38
420.726	73.38
420.948	88.38
421.171	83.38
421.394	78.38
421.617	83.38
421.839	71.38
422.062	63.38
422.285	94.38
422.507	92.38
422.73	88.38
422.953	90.38
423.175	65.38
423.398	88.38
423.621	84.38
423.843	84.38
424.066	89.38
424.288	90.38
424.511	77.38
424.733	79.38
424.956	88.38
425.178	84.38
425.401	94.38
425.623	83.38
425.846	83.38
426.068	85.38
426.291	82.38
426.513	66.38
426.735	88.38
426.958	76.38
427.18	85.38
427.402	84.38
427.625	89.38
427.847	79.38
428.069	84.38
428.292	85.38
428.514	81.38
428.736	70.38
428.958	85.38
429.181	69.38
429.403	78.38
429.625	71.38
429.847	81.38
430.069	84.38
430.292	92.38
430.514	73.38
430.736	91.38
430.958	79.38
431.18	83.38
431.402	73.38
431.624	85.38
431.846	63.38
432.068	87.38
432.29	83.38
432.512	85.38
432.734	68.38
432.956	92.38
433.178	92.38
433.4	72.38
433.622	65.38
433.844	91.38
434.066	71.38
434.287	70.38
434.509	73.38
434.731	88.38
434.953	77.38
435.175	85.38
435.397	77.38
435.618	85.38
435.84	61.38
436.062	86.38
436.284	66.38
436.505	96.38
436.727	84.38
436.949	82.38
437.17	81.38
437.392	68.38
437.614	77.38
437.835	57.38
438.057	83.38
438.278	72.38
438.5	83.38
438.721	76.38
438.943	81.38
439.165	77.38
439.386	81.38
439.608	93.38
439.829	90.38
440.05	91.38
440.272	80.38
440.493	96.38
440.715	85.38
440.936	80.38
441.158	79.38
441.379	91.38
441.6	77.38
441.822	72.38
442.043	72.38
442.264	76.38
442.486	65.38
442.707	87.38
442.928	84.38
443.149	74.38
443.371	70.38
443.592	76.38
443.813	81.38
444.034	65.38
444.255	61.38
444.476	79.38
444.698	93.38
444.919	75.38
445.14	148.38
445.361	108.38
445.582	90.38
445.803	71.38
446.024	75.38
446.245	83.38
446.466	86.38
446.687	79.38
446.908	80.38
447.129	77.38
447.35	76.38
447.571	85.38
447.792	77.38
448.013	74.38
448.234	71.38
448.455	82.38
448.675	71.38
448.896	89.38
449.117	81.38
449.338	78.38
449.559	85.38
449.779	87.38
450	77.38
450.221	85.38
450.442	75.38
450.662	81.38
450.883	87.38
451.104	75.38
451.324	71.38
451.545	78.38
451.766	84.38
451.986	86.38
452.207	81.38
452.428	89.38
452.648	87.38
452.869	80.38
453.089	81.38
453.31	84.38
453.53	75.38
453.751	80.38
453.971	83.38
454.192	83.38
454.412	84.38
454.633	94.38
454.853	72.38
455.073	79.38
455.294	82.38
455.514	79.38
455.734	77.38
455.955	75.38
456.175	82.38
456.395	89.38
456.616	88.38
456.836	72.38
457.056	77.38
457.276	75.38
457.497	80.38
457.717	72.38
457.937	97.38
458.157	82.38
458.377	95.38
458.598	96.38
458.818	73.38
459.038	69.38
459.258	88.38
459.478	87.38
459.698	104.38
459.918	85.38
460.138	77.38
460.358	69.38
460.578	87.38
460.798	69.38
461.018	81.38
461.238	71.38
461.458	90.38
461.678	79.38
461.898	84.38
462.118	87.38
462.338	83.38
462.558	86.38
462.777	74.38
462.997	77.38
463.217	70.38
463.437	96.38
463.657	85.38
463.876	86.38
464.096	89.38
464.316	69.38
464.536	85.38
464.755	76.38
464.975	89.38
465.195	85.38
465.414	84.38
465.634	90.38
465.854	91.38
466.073	80.38
466.293	77.38
466.512	82.38
466.732	73.38
466.951	81.38
467.171	77.38
467.391	89.38
467.61	94.38
467.829	96.38
468.049	86.38
468.268	71.38
468.488	88.38
468.707	64.38
468.927	82.38
469.146	57.38
469.365	86.38
469.585	83.38
469.804	71.38
470.023	73.38
470.243	99.38
470.462	85.38
470.681	79.38
470.901	71.38
471.12	81.38
471.339	73.38
471.558	89.38
471.777	85.38
471.997	85.38
472.216	87.38
472.435	85.38
472.654	63.38
472.873	82.38
473.092	79.38
473.311	80.38
473.53	81.38
473.749	79.38
473.968	65.38
474.187	83.38
474.406	79.38
474.625	85.38
474.844	80.38
475.063	77.38
475.282	63.38
475.501	98.38
475.72	95.38
475.939	73.38
476.158	88.38
476.377	76.38
476.596	65.38
476.814	85.38
477.033	77.38
477.252	77.38
477.471	76.38
477.69	76.38
477.908	71.38
478.127	85.38
478.346	80.38
478.564	87.38
478.783	81.38
479.002	98.38
479.22	88.38
479.439	84.38
479.658	96.38
479.876	73.38
480.095	71.38
480.313	69.38
480.532	64.38
480.751	88.38
480.969	77.38
481.188	83.38
481.406	87.38
481.624	87.38
481.843	71.38
482.061	83.38
482.28	81.38
482.498	75.38
482.717	70.38
482.935	65.38
483.153	78.38
483.372	80.38
483.59	83.38
483.808	82.38
484.027	88.38
484.245	80.38
484.463	80.38
484.681	76.38
484.9	80.38
485.118	80.38
485.336	69.38
485.554	74.38
485.772	75.38
485.99	96.38
486.209	94.38
486.427	83.38
486.645	75.38
486.863	83.38
487.081	76.38
487.299	82.38
487.517	88.38
487.735	78.38
487.953	79.38
488.171	88.38
488.389	80.38
488.607	75.38
488.825	75.38
489.043	73.38
489.261	85.38
489.479	88.38
489.696	95.38
489.914	71.38
490.132	69.38
490.35	63.38
490.568	84.38
490.786	80.38
491.003	92.38
491.221	71.38
491.439	73.38
491.657	70.38
491.874	83.38
492.092	79.38
492.31	87.38
492.527	72.38
492.745	71.38
492.963	67.38
493.18	83.38
493.398	87.38
493.615	83.38
493.833	72.38
494.05	86.38
494.268	71.38
494.485	95.38
494.703	73.38
494.92	94.38
495.138	76.38
495.355	82.38
495.573	78.38
495.79	89.38
496.008	90.38
496.225	79.38
496.442	86.38
496.66	84.38
496.877	75.38
497.094	89.38
497.312	94.38
497.529	95.38
497.746	81.38
497.963	93.38
498.181	66.38
498.398	83.38
498.615	73.38
498.832	88.38
499.049	80.38
499.267	80.38
499.484	84.38
499.701	95.38
499.918	83.38
500.135	83.38
500.352	86.38
500.569	99.38
500.786	97.38
501.003	85.38
501.22	86.38
501.437	91.38
501.654	66.38
501.871	76.38
502.088	83.38
502.305	72.38
502.522	82.38
502.739	74.38
502.956	71.38
503.172	81.38
503.389	88.38
503.606	68.38
503.823	79.38
504.04	92.38
504.256	73.38
504.473	79.38
504.69	84.38
504.907	91.38
505.123	95.38
505.34	82.38
505.557	80.38
505.773	88.38
505.99	78.38
506.207	71.38
506.423	83.38
506.64	79.38
506.856	76.38
507.073	84.38
507.289	78.38
507.506	84.38
507.722	93.38
507.939	70.38
508.155	83.38
508.372	87.38
508.588	83.38
508.805	74.38
509.021	93.38
509.238	78.38
509.454	80.38
509.67	78.38
509.887	81.38
510.103	86.38
510.319	75.38
510.536	87.38
510.752	72.38
510.968	79.38
511.184	75.38
511.401	80.38
511.617	78.38
511.833	85.38
512.049	75.38
512.265	81.38
512.481	74.38
512.698	85.38
512.914	76.38
513.13	93.38
513.346	85.38
513.562	87.38
513.778	79.38
513.994	77.38
514.21	86.38
514.426	75.38
514.642	72.38
514.858	84.38
515.074	82.38
515.29	93.38
515.506	82.38
515.721	83.38
515.937	87.38
516.153	79.38
516.369	84.38
516.585	95.38
516.801	78.38
517.016	87.38
517.232	72.38
517.448	77.38
517.664	87.38
517.879	81.38
518.095	75.38
518.311	80.38
518.527	80.38
518.742	83.38
518.958	88.38
519.173	80.38
519.389	78.38
519.605	79.38
519.82	70.38
520.036	89.38
520.251	79.38
