Data from BG_HRD10591_084.txt Node
Date: Fri May 16 15:21:35 EDT 2025
User: Yrep
Spectrometer: HR+D1059
Trigger mode: 1
Integration Time (sec): 1.000000E-1
Scans to average: 1
Electric dark correction enabled: true
Nonlinearity correction enabled: false
Boxcar width: 0
XAxis mode: Wavelengths
Number of Pixels in Spectrum: 2048
>>>>>Begin Spectral Data<<<<<
223.165	-21.94
223.4	-21.94
223.635	-21.94
223.869	-7.94
224.104	-17.94
224.338	-13.94
224.573	-16.94
224.808	-11.94
225.042	0.06
225.277	-7.94
225.511	-1.94
225.746	-9.94
225.98	3.06
226.215	13.06
226.449	20.06
226.683	25.06
226.918	25.06
227.152	24.06
227.387	63.06
227.621	48.06
227.856	49.06
228.09	32.06
228.324	50.06
228.559	60.06
228.793	53.06
229.027	57.06
229.262	69.06
229.496	77.06
229.73	68.06
229.964	68.06
230.199	77.06
230.433	76.06
230.667	73.06
230.901	72.06
231.136	79.06
231.37	94.06
231.604	81.06
231.838	77.06
232.072	71.06
232.306	86.06
232.541	83.06
232.775	69.06
233.009	73.06
233.243	81.06
233.477	93.06
233.711	81.06
233.945	70.06
234.179	74.06
234.413	78.06
234.647	70.06
234.881	85.06
235.115	82.06
235.349	82.06
235.583	71.06
235.817	91.06
236.051	77.06
236.285	69.06
236.519	76.06
236.753	79.06
236.987	78.06
237.221	68.06
237.455	75.06
237.689	76.06
237.922	76.06
238.156	77.06
238.39	70.06
238.624	92.06
238.858	76.06
239.091	64.06
239.325	83.06
239.559	84.06
239.793	72.06
240.027	77.06
240.26	56.06
240.494	68.06
240.728	70.06
240.961	74.06
241.195	97.06
241.429	66.06
241.662	72.06
241.896	75.06
242.13	74.06
242.363	83.06
242.597	83.06
242.83	71.06
243.064	76.06
243.298	78.06
243.531	76.06
243.765	70.06
243.998	56.06
244.232	72.06
244.465	72.06
244.699	72.06
244.932	71.06
245.166	88.06
245.399	83.06
245.633	82.06
245.866	86.06
246.099	61.06
246.333	84.06
246.566	75.06
246.8	77.06
247.033	63.06
247.266	91.06
247.5	82.06
247.733	70.06
247.966	70.06
248.2	72.06
248.433	86.06
248.666	86.06
248.899	82.06
249.133	70.06
249.366	72.06
249.599	92.06
249.832	93.06
250.066	85.06
250.299	90.06
250.532	73.06
250.765	73.06
250.998	74.06
251.231	78.06
251.465	72.06
251.698	86.06
251.931	86.06
252.164	89.06
252.397	81.06
252.63	87.06
252.863	89.06
253.096	68.06
253.329	85.06
253.562	104.06
253.795	90.06
254.028	80.06
254.261	88.06
254.494	85.06
254.727	77.06
254.96	82.06
255.193	75.06
255.426	81.06
255.659	94.06
255.892	82.06
256.124	88.06
256.357	88.06
256.59	93.06
256.823	90.06
257.056	72.06
257.289	84.06
257.521	82.06
257.754	67.06
257.987	75.06
258.22	80.06
258.452	88.06
258.685	85.06
258.918	89.06
259.151	72.06
259.383	80.06
259.616	81.06
259.849	100.06
260.081	90.06
260.314	73.06
260.547	76.06
260.779	74.06
261.012	85.06
261.244	92.06
261.477	85.06
261.71	77.06
261.942	90.06
262.175	90.06
262.407	87.06
262.64	93.06
262.872	89.06
263.105	78.06
263.337	80.06
263.57	95.06
263.802	85.06
264.035	92.06
264.267	86.06
264.499	80.06
264.732	74.06
264.964	82.06
265.197	79.06
265.429	91.06
265.661	67.06
265.894	87.06
266.126	79.06
266.358	92.06
266.591	78.06
266.823	97.06
267.055	90.06
267.287	75.06
267.52	79.06
267.752	82.06
267.984	78.06
268.216	88.06
268.448	77.06
268.681	86.06
268.913	82.06
269.145	90.06
269.377	85.06
269.609	94.06
269.841	85.06
270.073	89.06
270.306	76.06
270.538	92.06
270.77	81.06
271.002	66.06
271.234	87.06
271.466	92.06
271.698	84.06
271.93	70.06
272.162	75.06
272.394	72.06
272.626	86.06
272.858	92.06
273.09	85.06
273.322	91.06
273.553	75.06
273.785	80.06
274.017	69.06
274.249	94.06
274.481	74.06
274.713	84.06
274.945	81.06
275.176	88.06
275.408	86.06
275.64	82.06
275.872	86.06
276.104	87.06
276.335	81.06
276.567	90.06
276.799	87.06
277.031	73.06
277.262	82.06
277.494	74.06
277.726	75.06
277.957	72.06
278.189	93.06
278.421	92.06
278.652	84.06
278.884	80.06
279.115	84.06
279.347	96.06
279.579	77.06
279.81	84.06
280.042	95.06
280.273	85.06
280.505	72.06
280.736	93.06
280.968	79.06
281.199	76.06
281.431	86.06
281.662	84.06
281.894	79.06
282.125	80.06
282.356	77.06
282.588	66.06
282.819	87.06
283.051	76.06
283.282	88.06
283.513	84.06
283.745	79.06
283.976	80.06
284.207	80.06
284.439	82.06
284.67	95.06
284.901	85.06
285.132	89.06
285.364	78.06
285.595	87.06
285.826	90.06
286.057	81.06
286.288	90.06
286.52	76.06
286.751	72.06
286.982	89.06
287.213	97.06
287.444	95.06
287.675	79.06
287.906	79.06
288.138	76.06
288.369	81.06
288.6	82.06
288.831	82.06
289.062	89.06
289.293	80.06
289.524	91.06
289.755	85.06
289.986	82.06
290.217	86.06
290.448	76.06
290.679	73.06
290.91	93.06
291.141	88.06
291.371	77.06
291.602	73.06
291.833	78.06
292.064	82.06
292.295	74.06
292.526	86.06
292.757	100.06
292.987	83.06
293.218	88.06
293.449	84.06
293.68	83.06
293.91	101.06
294.141	88.06
294.372	85.06
294.603	81.06
294.833	91.06
295.064	82.06
295.295	95.06
295.525	95.06
295.756	85.06
295.987	76.06
296.217	88.06
296.448	77.06
296.679	85.06
296.909	89.06
297.14	85.06
297.37	80.06
297.601	89.06
297.831	91.06
298.062	90.06
298.292	79.06
298.523	90.06
298.753	88.06
298.984	81.06
299.214	81.06
299.445	94.06
299.675	83.06
299.905	73.06
300.136	104.06
300.366	88.06
300.597	78.06
300.827	80.06
301.057	86.06
301.288	88.06
301.518	72.06
301.748	83.06
301.979	124.06
302.209	81.06
302.439	86.06
302.669	83.06
302.9	86.06
303.13	73.06
303.36	90.06
303.59	90.06
303.82	95.06
304.051	90.06
304.281	81.06
304.511	89.06
304.741	90.06
304.971	80.06
305.201	88.06
305.431	89.06
305.661	91.06
305.891	103.06
306.121	81.06
306.352	88.06
306.582	86.06
306.812	90.06
307.042	99.06
307.272	90.06
307.502	86.06
307.731	86.06
307.961	98.06
308.191	84.06
308.421	94.06
308.651	88.06
308.881	71.06
309.111	94.06
309.341	96.06
309.571	90.06
309.8	93.06
310.03	88.06
310.26	89.06
310.49	81.06
310.72	78.06
310.949	90.06
311.179	91.06
311.409	93.06
311.639	88.06
311.868	96.06
312.098	93.06
312.328	89.06
312.557	92.06
312.787	89.06
313.017	81.06
313.246	82.06
313.476	83.06
313.706	88.06
313.935	89.06
314.165	87.06
314.394	80.06
314.624	105.06
314.853	86.06
315.083	89.06
315.312	65.06
315.542	104.06
315.771	87.06
316.001	92.06
316.23	85.06
316.46	77.06
316.689	82.06
316.919	81.06
317.148	85.06
317.377	91.06
317.607	83.06
317.836	88.06
318.065	90.06
318.295	84.06
318.524	84.06
318.753	89.06
318.983	93.06
319.212	87.06
319.441	79.06
319.67	92.06
319.9	75.06
320.129	89.06
320.358	100.06
320.587	76.06
320.816	74.06
321.046	100.06
321.275	87.06
321.504	102.06
321.733	89.06
321.962	88.06
322.191	86.06
322.42	89.06
322.649	76.06
322.878	90.06
323.108	88.06
323.337	94.06
323.566	98.06
323.795	93.06
324.024	78.06
324.253	85.06
324.482	73.06
324.71	76.06
324.939	59.06
325.168	78.06
325.397	72.06
325.626	96.06
325.855	97.06
326.084	95.06
326.313	100.06
326.542	93.06
326.77	82.06
326.999	78.06
327.228	92.06
327.457	93.06
327.686	102.06
327.914	84.06
328.143	113.06
328.372	90.06
328.6	84.06
328.829	93.06
329.058	78.06
329.287	79.06
329.515	84.06
329.744	90.06
329.972	102.06
330.201	91.06
330.43	80.06
330.658	77.06
330.887	87.06
331.115	94.06
331.344	85.06
331.572	91.06
331.801	88.06
332.03	88.06
332.258	88.06
332.486	79.06
332.715	77.06
332.943	74.06
333.172	92.06
333.4	96.06
333.629	94.06
333.857	95.06
334.085	90.06
334.314	94.06
334.542	83.06
334.771	96.06
334.999	79.06
335.227	103.06
335.455	96.06
335.684	98.06
335.912	94.06
336.14	87.06
336.369	84.06
336.597	94.06
336.825	94.06
337.053	91.06
337.281	93.06
337.51	98.06
337.738	89.06
337.966	89.06
338.194	72.06
338.422	84.06
338.65	89.06
338.878	90.06
339.106	88.06
339.334	96.06
339.562	95.06
339.79	96.06
340.018	85.06
340.246	89.06
340.474	77.06
340.702	95.06
340.93	86.06
341.158	88.06
341.386	80.06
341.614	81.06
341.842	93.06
342.07	86.06
342.298	89.06
342.526	88.06
342.754	88.06
342.981	84.06
343.209	95.06
343.437	97.06
343.665	88.06
343.893	93.06
344.12	94.06
344.348	88.06
344.576	101.06
344.804	92.06
345.031	88.06
345.259	92.06
345.487	87.06
345.714	86.06
345.942	88.06
346.17	79.06
346.397	88.06
346.625	90.06
346.853	86.06
347.08	78.06
347.308	98.06
347.535	71.06
347.763	81.06
347.99	76.06
348.218	96.06
348.445	92.06
348.673	74.06
348.9	96.06
349.128	70.06
349.355	83.06
349.583	91.06
349.81	96.06
350.037	84.06
350.265	86.06
350.492	88.06
350.72	91.06
350.947	85.06
351.174	89.06
351.402	86.06
351.629	83.06
351.856	76.06
352.083	90.06
352.311	81.06
352.538	87.06
352.765	96.06
352.992	88.06
353.22	82.06
353.447	78.06
353.674	97.06
353.901	85.06
354.128	82.06
354.355	96.06
354.583	95.06
354.81	108.06
355.037	84.06
355.264	81.06
355.491	73.06
355.718	87.06
355.945	77.06
356.172	90.06
356.399	87.06
356.626	89.06
356.853	82.06
357.08	85.06
357.307	80.06
357.534	93.06
357.761	93.06
357.988	96.06
358.215	102.06
358.441	104.06
358.668	87.06
358.895	92.06
359.122	71.06
359.349	94.06
359.576	97.06
359.802	92.06
360.029	94.06
360.256	85.06
360.483	88.06
360.709	66.06
360.936	84.06
361.163	94.06
361.39	88.06
361.616	87.06
361.843	82.06
362.07	96.06
362.296	84.06
362.523	90.06
362.749	76.06
362.976	82.06
363.203	107.06
363.429	86.06
363.656	93.06
363.882	84.06
364.109	90.06
364.335	90.06
364.562	83.06
364.788	78.06
365.015	92.06
365.241	100.06
365.468	87.06
365.694	89.06
365.92	86.06
366.147	80.06
366.373	86.06
366.599	86.06
366.826	100.06
367.052	85.06
367.278	100.06
367.505	56.06
367.731	90.06
367.957	92.06
368.184	87.06
368.41	90.06
368.636	90.06
368.862	75.06
369.089	86.06
369.315	92.06
369.541	83.06
369.767	81.06
369.993	84.06
370.219	82.06
370.445	76.06
370.672	97.06
370.898	98.06
371.124	97.06
371.35	95.06
371.576	81.06
371.802	87.06
372.028	91.06
372.254	77.06
372.48	83.06
372.706	89.06
372.932	76.06
373.158	82.06
373.384	86.06
373.61	89.06
373.835	80.06
374.061	90.06
374.287	77.06
374.513	67.06
374.739	88.06
374.965	84.06
375.191	87.06
375.416	84.06
375.642	73.06
375.868	66.06
376.094	62.06
376.319	70.06
376.545	97.06
376.771	89.06
376.997	106.06
377.222	87.06
377.448	82.06
377.674	76.06
377.899	97.06
378.125	97.06
378.35	100.06
378.576	80.06
378.802	82.06
379.027	90.06
379.253	74.06
379.478	86.06
379.704	72.06
379.929	95.06
380.155	92.06
380.38	81.06
380.606	93.06
380.831	101.06
381.057	92.06
381.282	76.06
381.507	86.06
381.733	80.06
381.958	85.06
382.184	87.06
382.409	82.06
382.634	100.06
382.86	82.06
383.085	84.06
383.31	88.06
383.535	97.06
383.761	81.06
383.986	84.06
384.211	102.06
384.436	89.06
384.662	88.06
384.887	81.06
385.112	82.06
385.337	82.06
385.562	81.06
385.787	87.06
386.013	88.06
386.238	95.06
386.463	86.06
386.688	83.06
386.913	85.06
387.138	79.06
387.363	76.06
387.588	80.06
387.813	92.06
388.038	78.06
388.263	92.06
388.488	93.06
388.713	89.06
388.938	87.06
389.163	86.06
389.387	96.06
389.612	68.06
389.837	67.06
390.062	73.06
390.287	87.06
390.512	95.06
390.736	81.06
390.961	83.06
391.186	79.06
391.411	102.06
391.636	96.06
391.86	93.06
392.085	81.06
392.31	71.06
392.534	84.06
392.759	76.06
392.984	85.06
393.208	84.06
393.433	88.06
393.658	84.06
393.882	89.06
394.107	102.06
394.331	92.06
394.556	75.06
394.78	73.06
395.005	91.06
395.229	78.06
395.454	81.06
395.678	82.06
395.903	89.06
396.127	82.06
396.352	97.06
396.576	92.06
396.801	86.06
397.025	85.06
397.249	94.06
397.474	88.06
397.698	79.06
397.922	74.06
398.147	96.06
398.371	86.06
398.595	84.06
398.82	88.06
399.044	84.06
399.268	91.06
399.492	89.06
399.717	87.06
399.941	94.06
400.165	89.06
400.389	95.06
400.613	95.06
400.837	84.06
401.062	95.06
401.286	98.06
401.51	74.06
401.734	88.06
401.958	92.06
402.182	81.06
402.406	84.06
402.63	92.06
402.854	93.06
403.078	100.06
403.302	86.06
403.526	85.06
403.75	76.06
403.974	74.06
404.198	93.06
404.422	88.06
404.645	82.06
404.869	93.06
405.093	82.06
405.317	85.06
405.541	83.06
405.765	91.06
405.988	97.06
406.212	101.06
406.436	88.06
406.66	73.06
406.883	89.06
407.107	101.06
407.331	102.06
407.555	88.06
407.778	87.06
408.002	82.06
408.226	75.06
408.449	107.06
408.673	92.06
408.896	79.06
409.12	90.06
409.344	73.06
409.567	85.06
409.791	91.06
410.014	92.06
410.238	96.06
410.461	84.06
410.685	87.06
410.908	88.06
411.132	89.06
411.355	92.06
411.578	88.06
411.802	77.06
412.025	92.06
412.249	95.06
412.472	101.06
412.695	82.06
412.919	91.06
413.142	74.06
413.365	77.06
413.589	81.06
413.812	88.06
414.035	90.06
414.258	98.06
414.482	86.06
414.705	95.06
414.928	84.06
415.151	85.06
415.374	76.06
415.597	78.06
415.821	76.06
416.044	94.06
416.267	88.06
416.49	86.06
416.713	80.06
416.936	97.06
417.159	90.06
417.382	79.06
417.605	93.06
417.828	89.06
418.051	86.06
418.274	91.06
418.497	93.06
418.72	108.06
418.943	89.06
419.166	64.06
419.389	78.06
419.611	71.06
419.834	80.06
420.057	95.06
420.28	84.06
420.503	93.06
420.726	86.06
420.948	77.06
421.171	94.06
421.394	87.06
421.617	91.06
421.839	79.06
422.062	104.06
422.285	74.06
422.507	78.06
422.73	86.06
422.953	77.06
423.175	85.06
423.398	92.06
423.621	87.06
423.843	80.06
424.066	78.06
424.288	84.06
424.511	76.06
424.733	86.06
424.956	95.06
425.178	85.06
425.401	97.06
425.623	74.06
425.846	80.06
426.068	82.06
426.291	89.06
426.513	92.06
426.735	86.06
426.958	91.06
427.18	106.06
427.402	96.06
427.625	70.06
427.847	96.06
428.069	78.06
428.292	102.06
428.514	88.06
428.736	91.06
428.958	89.06
429.181	76.06
429.403	89.06
429.625	80.06
429.847	88.06
430.069	87.06
430.292	92.06
430.514	92.06
430.736	79.06
430.958	74.06
431.18	74.06
431.402	80.06
431.624	91.06
431.846	88.06
432.068	86.06
432.29	85.06
432.512	90.06
432.734	81.06
432.956	88.06
433.178	94.06
433.4	90.06
433.622	103.06
433.844	78.06
434.066	92.06
434.287	93.06
434.509	86.06
434.731	96.06
434.953	78.06
435.175	77.06
435.397	86.06
435.618	80.06
435.84	84.06
436.062	96.06
436.284	77.06
436.505	86.06
436.727	82.06
436.949	89.06
437.17	81.06
437.392	78.06
437.614	73.06
437.835	81.06
438.057	96.06
438.278	62.06
438.5	92.06
438.721	81.06
438.943	86.06
439.165	83.06
439.386	92.06
439.608	93.06
439.829	101.06
440.05	92.06
440.272	80.06
440.493	92.06
440.715	81.06
440.936	100.06
441.158	93.06
441.379	70.06
441.6	90.06
441.822	85.06
442.043	93.06
442.264	91.06
442.486	87.06
442.707	90.06
442.928	84.06
443.149	82.06
443.371	94.06
443.592	88.06
443.813	86.06
444.034	81.06
444.255	95.06
444.476	88.06
444.698	88.06
444.919	88.06
445.14	150.06
445.361	116.06
445.582	76.06
445.803	81.06
446.024	76.06
446.245	97.06
446.466	107.06
446.687	88.06
446.908	89.06
447.129	82.06
447.35	74.06
447.571	91.06
447.792	74.06
448.013	83.06
448.234	88.06
448.455	68.06
448.675	77.06
448.896	85.06
449.117	92.06
449.338	84.06
449.559	85.06
449.779	80.06
450	97.06
450.221	77.06
450.442	66.06
450.662	84.06
450.883	88.06
451.104	78.06
451.324	82.06
451.545	82.06
451.766	77.06
451.986	97.06
452.207	98.06
452.428	80.06
452.648	73.06
452.869	93.06
453.089	77.06
453.31	86.06
453.53	87.06
453.751	72.06
453.971	105.06
454.192	96.06
454.412	82.06
454.633	98.06
454.853	92.06
455.073	89.06
455.294	85.06
455.514	86.06
455.734	87.06
455.955	79.06
456.175	90.06
456.395	83.06
456.616	79.06
456.836	95.06
457.056	82.06
457.276	81.06
457.497	85.06
457.717	89.06
457.937	84.06
458.157	97.06
458.377	87.06
458.598	84.06
458.818	91.06
459.038	83.06
459.258	72.06
459.478	91.06
459.698	73.06
459.918	84.06
460.138	77.06
460.358	89.06
460.578	88.06
460.798	97.06
461.018	74.06
461.238	90.06
461.458	91.06
461.678	72.06
461.898	86.06
462.118	84.06
462.338	102.06
462.558	82.06
462.777	85.06
462.997	70.06
463.217	94.06
463.437	89.06
463.657	96.06
463.876	89.06
464.096	86.06
464.316	95.06
464.536	92.06
464.755	87.06
464.975	77.06
465.195	106.06
465.414	102.06
465.634	81.06
465.854	84.06
466.073	93.06
466.293	89.06
466.512	77.06
466.732	96.06
466.951	87.06
467.171	84.06
467.391	87.06
467.61	85.06
467.829	86.06
468.049	84.06
468.268	80.06
468.488	82.06
468.707	81.06
468.927	87.06
469.146	91.06
469.365	84.06
469.585	88.06
469.804	79.06
470.023	89.06
470.243	93.06
470.462	91.06
470.681	92.06
470.901	94.06
471.12	93.06
471.339	77.06
471.558	99.06
471.777	94.06
471.997	90.06
472.216	81.06
472.435	78.06
472.654	74.06
472.873	92.06
473.092	100.06
473.311	95.06
473.53	76.06
473.749	96.06
473.968	98.06
474.187	90.06
474.406	72.06
474.625	82.06
474.844	85.06
475.063	85.06
475.282	88.06
475.501	79.06
475.72	88.06
475.939	80.06
476.158	72.06
476.377	80.06
476.596	93.06
476.814	84.06
477.033	90.06
477.252	79.06
477.471	87.06
477.69	95.06
477.908	89.06
478.127	92.06
478.346	80.06
478.564	84.06
478.783	89.06
479.002	86.06
479.22	84.06
479.439	95.06
479.658	88.06
479.876	90.06
480.095	77.06
480.313	95.06
480.532	77.06
480.751	95.06
480.969	81.06
481.188	88.06
481.406	96.06
481.624	79.06
481.843	90.06
482.061	93.06
482.28	81.06
482.498	95.06
482.717	78.06
482.935	76.06
483.153	101.06
483.372	92.06
483.59	92.06
483.808	100.06
484.027	93.06
484.245	72.06
484.463	74.06
484.681	87.06
484.9	97.06
485.118	92.06
485.336	93.06
485.554	90.06
485.772	86.06
485.99	82.06
486.209	87.06
486.427	102.06
486.645	98.06
486.863	101.06
487.081	88.06
487.299	91.06
487.517	86.06
487.735	87.06
487.953	93.06
488.171	96.06
488.389	88.06
488.607	82.06
488.825	84.06
489.043	89.06
489.261	100.06
489.479	79.06
489.696	76.06
489.914	89.06
490.132	92.06
490.35	86.06
490.568	88.06
490.786	89.06
491.003	97.06
491.221	103.06
491.439	94.06
491.657	102.06
491.874	93.06
492.092	94.06
492.31	67.06
492.527	91.06
492.745	73.06
492.963	83.06
493.18	96.06
493.398	89.06
493.615	66.06
493.833	93.06
494.05	92.06
494.268	85.06
494.485	91.06
494.703	77.06
494.92	98.06
495.138	76.06
495.355	88.06
495.573	75.06
495.79	102.06
496.008	80.06
496.225	95.06
496.442	91.06
496.66	96.06
496.877	92.06
497.094	109.06
497.312	82.06
497.529	94.06
497.746	99.06
497.963	90.06
498.181	80.06
498.398	96.06
498.615	94.06
498.832	88.06
499.049	105.06
499.267	96.06
499.484	90.06
499.701	92.06
499.918	80.06
500.135	102.06
500.352	101.06
500.569	105.06
500.786	100.06
501.003	117.06
501.22	96.06
501.437	91.06
501.654	89.06
501.871	88.06
502.088	103.06
502.305	84.06
502.522	100.06
502.739	94.06
502.956	102.06
503.172	93.06
503.389	91.06
503.606	114.06
503.823	94.06
504.04	94.06
504.256	91.06
504.473	102.06
504.69	92.06
504.907	114.06
505.123	82.06
505.34	89.06
505.557	89.06
505.773	84.06
505.99	82.06
506.207	96.06
506.423	106.06
506.64	97.06
506.856	83.06
507.073	84.06
507.289	83.06
507.506	113.06
507.722	76.06
507.939	82.06
508.155	107.06
508.372	94.06
508.588	89.06
508.805	97.06
509.021	78.06
509.238	87.06
509.454	80.06
509.67	82.06
509.887	89.06
510.103	77.06
510.319	90.06
510.536	89.06
510.752	87.06
510.968	79.06
511.184	78.06
511.401	100.06
511.617	94.06
511.833	88.06
512.049	84.06
512.265	90.06
512.481	98.06
512.698	100.06
512.914	96.06
513.13	87.06
513.346	93.06
513.562	92.06
513.778	100.06
513.994	84.06
514.21	86.06
514.426	102.06
514.642	80.06
514.858	93.06
515.074	95.06
515.29	90.06
515.506	85.06
515.721	85.06
515.937	85.06
516.153	81.06
516.369	73.06
516.585	91.06
516.801	87.06
517.016	87.06
517.232	92.06
517.448	90.06
517.664	93.06
517.879	98.06
518.095	99.06
518.311	88.06
518.527	102.06
518.742	90.06
518.958	88.06
519.173	86.06
