Data from BG_HRD10591_029.txt Node
Date: Fri May 16 15:21:08 EDT 2025
User: Yrep
Spectrometer: HR+D1059
Trigger mode: 1
Integration Time (sec): 1.000000E-1
Scans to average: 1
Electric dark correction enabled: true
Nonlinearity correction enabled: false
Boxcar width: 0
XAxis mode: Wavelengths
Number of Pixels in Spectrum: 2048
>>>>>Begin Spectral Data<<<<<
223.165	-17.56
223.4	-17.56
223.635	-17.56
223.869	-18.56
224.104	-8.56
224.338	-10.56
224.573	-20.56
224.808	-22.56
225.042	-12.56
225.277	-10.56
225.511	2.44
225.746	10.44
225.98	10.44
226.215	16.44
226.449	14.44
226.683	27.44
226.918	22.44
227.152	17.44
227.387	24.44
227.621	45.44
227.856	45.44
228.09	40.44
228.324	54.44
228.559	56.44
228.793	65.44
229.027	63.44
229.262	61.44
229.496	59.44
229.73	71.44
229.964	77.44
230.199	88.44
230.433	83.44
230.667	85.44
230.901	77.44
231.136	76.44
231.37	77.44
231.604	79.44
231.838	79.44
232.072	83.44
232.306	67.44
232.541	75.44
232.775	94.44
233.009	80.44
233.243	99.44
233.477	83.44
233.711	84.44
233.945	86.44
234.179	69.44
234.413	85.44
234.647	79.44
234.881	71.44
235.115	70.44
235.349	80.44
235.583	89.44
235.817	87.44
236.051	68.44
236.285	78.44
236.519	89.44
236.753	90.44
236.987	78.44
237.221	80.44
237.455	71.44
237.689	81.44
237.922	73.44
238.156	81.44
238.39	69.44
238.624	80.44
238.858	89.44
239.091	90.44
239.325	72.44
239.559	61.44
239.793	74.44
240.027	66.44
240.26	70.44
240.494	71.44
240.728	77.44
240.961	72.44
241.195	89.44
241.429	84.44
241.662	62.44
241.896	85.44
242.13	78.44
242.363	75.44
242.597	81.44
242.83	77.44
243.064	73.44
243.298	84.44
243.531	68.44
243.765	66.44
243.998	75.44
244.232	88.44
244.465	77.44
244.699	82.44
244.932	80.44
245.166	83.44
245.399	71.44
245.633	79.44
245.866	68.44
246.099	83.44
246.333	90.44
246.566	89.44
246.8	76.44
247.033	95.44
247.266	57.44
247.5	75.44
247.733	91.44
247.966	92.44
248.2	75.44
248.433	76.44
248.666	80.44
248.899	86.44
249.133	78.44
249.366	72.44
249.599	78.44
249.832	75.44
250.066	78.44
250.299	82.44
250.532	84.44
250.765	78.44
250.998	77.44
251.231	89.44
251.465	69.44
251.698	71.44
251.931	84.44
252.164	85.44
252.397	72.44
252.63	87.44
252.863	77.44
253.096	79.44
253.329	75.44
253.562	87.44
253.795	76.44
254.028	87.44
254.261	70.44
254.494	71.44
254.727	79.44
254.96	73.44
255.193	78.44
255.426	92.44
255.659	83.44
255.892	80.44
256.124	85.44
256.357	93.44
256.59	65.44
256.823	78.44
257.056	84.44
257.289	78.44
257.521	88.44
257.754	81.44
257.987	67.44
258.22	71.44
258.452	78.44
258.685	88.44
258.918	79.44
259.151	84.44
259.383	83.44
259.616	85.44
259.849	88.44
260.081	81.44
260.314	74.44
260.547	72.44
260.779	77.44
261.012	84.44
261.244	84.44
261.477	89.44
261.71	88.44
261.942	97.44
262.175	81.44
262.407	95.44
262.64	88.44
262.872	93.44
263.105	86.44
263.337	83.44
263.57	76.44
263.802	87.44
264.035	73.44
264.267	85.44
264.499	85.44
264.732	95.44
264.964	77.44
265.197	77.44
265.429	80.44
265.661	102.44
265.894	79.44
266.126	79.44
266.358	79.44
266.591	90.44
266.823	76.44
267.055	89.44
267.287	91.44
267.52	80.44
267.752	93.44
267.984	88.44
268.216	78.44
268.448	95.44
268.681	90.44
268.913	77.44
269.145	85.44
269.377	80.44
269.609	93.44
269.841	85.44
270.073	99.44
270.306	92.44
270.538	83.44
270.77	87.44
271.002	89.44
271.234	86.44
271.466	87.44
271.698	65.44
271.93	79.44
272.162	91.44
272.394	97.44
272.626	73.44
272.858	91.44
273.09	80.44
273.322	81.44
273.553	84.44
273.785	88.44
274.017	71.44
274.249	86.44
274.481	86.44
274.713	95.44
274.945	88.44
275.176	73.44
275.408	75.44
275.64	79.44
275.872	85.44
276.104	84.44
276.335	90.44
276.567	78.44
276.799	73.44
277.031	87.44
277.262	97.44
277.494	84.44
277.726	83.44
277.957	86.44
278.189	83.44
278.421	78.44
278.652	80.44
278.884	91.44
279.115	74.44
279.347	69.44
279.579	85.44
279.81	81.44
280.042	75.44
280.273	79.44
280.505	88.44
280.736	89.44
280.968	89.44
281.199	83.44
281.431	80.44
281.662	85.44
281.894	80.44
282.125	86.44
282.356	80.44
282.588	80.44
282.819	71.44
283.051	84.44
283.282	87.44
283.513	88.44
283.745	86.44
283.976	85.44
284.207	97.44
284.439	84.44
284.67	93.44
284.901	77.44
285.132	71.44
285.364	91.44
285.595	95.44
285.826	86.44
286.057	93.44
286.288	83.44
286.52	81.44
286.751	94.44
286.982	101.44
287.213	87.44
287.444	88.44
287.675	92.44
287.906	81.44
288.138	77.44
288.369	86.44
288.6	75.44
288.831	94.44
289.062	88.44
289.293	87.44
289.524	81.44
289.755	84.44
289.986	81.44
290.217	90.44
290.448	77.44
290.679	89.44
290.91	92.44
291.141	73.44
291.371	80.44
291.602	95.44
291.833	78.44
292.064	76.44
292.295	88.44
292.526	86.44
292.757	95.44
292.987	103.44
293.218	86.44
293.449	79.44
293.68	91.44
293.91	91.44
294.141	74.44
294.372	86.44
294.603	83.44
294.833	101.44
295.064	85.44
295.295	82.44
295.525	84.44
295.756	96.44
295.987	93.44
296.217	79.44
296.448	102.44
296.679	78.44
296.909	89.44
297.14	89.44
297.37	81.44
297.601	81.44
297.831	80.44
298.062	75.44
298.292	68.44
298.523	89.44
298.753	99.44
298.984	73.44
299.214	92.44
299.445	80.44
299.675	81.44
299.905	81.44
300.136	96.44
300.366	87.44
300.597	87.44
300.827	76.44
301.057	81.44
301.288	79.44
301.518	86.44
301.748	83.44
301.979	88.44
302.209	95.44
302.439	92.44
302.669	87.44
302.9	69.44
303.13	81.44
303.36	73.44
303.59	80.44
303.82	82.44
304.051	91.44
304.281	87.44
304.511	87.44
304.741	83.44
304.971	79.44
305.201	83.44
305.431	83.44
305.661	71.44
305.891	84.44
306.121	85.44
306.352	98.44
306.582	83.44
306.812	88.44
307.042	77.44
307.272	78.44
307.502	72.44
307.731	92.44
307.961	80.44
308.191	80.44
308.421	90.44
308.651	84.44
308.881	85.44
309.111	88.44
309.341	97.44
309.571	80.44
309.8	80.44
310.03	74.44
310.26	85.44
310.49	93.44
310.72	93.44
310.949	71.44
311.179	80.44
311.409	79.44
311.639	80.44
311.868	85.44
312.098	88.44
312.328	86.44
312.557	81.44
312.787	89.44
313.017	91.44
313.246	91.44
313.476	78.44
313.706	105.44
313.935	93.44
314.165	99.44
314.394	82.44
314.624	96.44
314.853	82.44
315.083	76.44
315.312	96.44
315.542	80.44
315.771	89.44
316.001	87.44
316.23	88.44
316.46	84.44
316.689	75.44
316.919	94.44
317.148	85.44
317.377	82.44
317.607	81.44
317.836	70.44
318.065	75.44
318.295	85.44
318.524	85.44
318.753	88.44
318.983	90.44
319.212	88.44
319.441	92.44
319.67	81.44
319.9	75.44
320.129	75.44
320.358	93.44
320.587	87.44
320.816	85.44
321.046	91.44
321.275	74.44
321.504	74.44
321.733	80.44
321.962	80.44
322.191	79.44
322.42	85.44
322.649	79.44
322.878	76.44
323.108	87.44
323.337	86.44
323.566	83.44
323.795	102.44
324.024	93.44
324.253	81.44
324.482	81.44
324.71	88.44
324.939	89.44
325.168	84.44
325.397	87.44
325.626	77.44
325.855	89.44
326.084	77.44
326.313	79.44
326.542	81.44
326.77	72.44
326.999	81.44
327.228	84.44
327.457	86.44
327.686	86.44
327.914	92.44
328.143	73.44
328.372	87.44
328.6	80.44
328.829	82.44
329.058	74.44
329.287	88.44
329.515	79.44
329.744	87.44
329.972	81.44
330.201	99.44
330.43	91.44
330.658	87.44
330.887	90.44
331.115	76.44
331.344	90.44
331.572	91.44
331.801	78.44
332.03	78.44
332.258	86.44
332.486	85.44
332.715	75.44
332.943	85.44
333.172	87.44
333.4	87.44
333.629	88.44
333.857	93.44
334.085	81.44
334.314	82.44
334.542	63.44
334.771	81.44
334.999	80.44
335.227	95.44
335.455	108.44
335.684	83.44
335.912	73.44
336.14	91.44
336.369	84.44
336.597	73.44
336.825	72.44
337.053	72.44
337.281	97.44
337.51	86.44
337.738	87.44
337.966	79.44
338.194	92.44
338.422	77.44
338.65	90.44
338.878	81.44
339.106	71.44
339.334	88.44
339.562	75.44
339.79	89.44
340.018	77.44
340.246	89.44
340.474	85.44
340.702	102.44
340.93	93.44
341.158	73.44
341.386	83.44
341.614	86.44
341.842	82.44
342.07	85.44
342.298	80.44
342.526	79.44
342.754	83.44
342.981	90.44
343.209	73.44
343.437	90.44
343.665	83.44
343.893	78.44
344.12	90.44
344.348	84.44
344.576	84.44
344.804	71.44
345.031	67.44
345.259	83.44
345.487	92.44
345.714	86.44
345.942	95.44
346.17	97.44
346.397	85.44
346.625	88.44
346.853	92.44
347.08	96.44
347.308	92.44
347.535	74.44
347.763	69.44
347.99	81.44
348.218	87.44
348.445	87.44
348.673	83.44
348.9	85.44
349.128	85.44
349.355	95.44
349.583	86.44
349.81	80.44
350.037	83.44
350.265	79.44
350.492	92.44
350.72	67.44
350.947	72.44
351.174	83.44
351.402	83.44
351.629	71.44
351.856	87.44
352.083	82.44
352.311	73.44
352.538	77.44
352.765	72.44
352.992	75.44
353.22	92.44
353.447	90.44
353.674	80.44
353.901	82.44
354.128	85.44
354.355	85.44
354.583	92.44
354.81	84.44
355.037	84.44
355.264	96.44
355.491	76.44
355.718	72.44
355.945	94.44
356.172	71.44
356.399	82.44
356.626	84.44
356.853	74.44
357.08	69.44
357.307	90.44
357.534	77.44
357.761	75.44
357.988	89.44
358.215	88.44
358.441	85.44
358.668	79.44
358.895	77.44
359.122	64.44
359.349	78.44
359.576	82.44
359.802	78.44
360.029	78.44
360.256	79.44
360.483	80.44
360.709	90.44
360.936	95.44
361.163	68.44
361.39	77.44
361.616	84.44
361.843	87.44
362.07	73.44
362.296	88.44
362.523	75.44
362.749	76.44
362.976	72.44
363.203	100.44
363.429	78.44
363.656	75.44
363.882	77.44
364.109	71.44
364.335	92.44
364.562	87.44
364.788	75.44
365.015	94.44
365.241	73.44
365.468	79.44
365.694	94.44
365.92	75.44
366.147	72.44
366.373	72.44
366.599	68.44
366.826	68.44
367.052	70.44
367.278	91.44
367.505	70.44
367.731	88.44
367.957	89.44
368.184	77.44
368.41	67.44
368.636	85.44
368.862	92.44
369.089	93.44
369.315	81.44
369.541	95.44
369.767	78.44
369.993	85.44
370.219	87.44
370.445	78.44
370.672	83.44
370.898	82.44
371.124	86.44
371.35	87.44
371.576	72.44
371.802	93.44
372.028	87.44
372.254	71.44
372.48	70.44
372.706	74.44
372.932	81.44
373.158	88.44
373.384	89.44
373.61	71.44
373.835	84.44
374.061	84.44
374.287	80.44
374.513	87.44
374.739	94.44
374.965	86.44
375.191	91.44
375.416	84.44
375.642	65.44
375.868	73.44
376.094	83.44
376.319	73.44
376.545	89.44
376.771	78.44
376.997	74.44
377.222	86.44
377.448	85.44
377.674	84.44
377.899	92.44
378.125	95.44
378.35	93.44
378.576	83.44
378.802	77.44
379.027	72.44
379.253	89.44
379.478	97.44
379.704	80.44
379.929	92.44
380.155	76.44
380.38	81.44
380.606	84.44
380.831	71.44
381.057	79.44
381.282	84.44
381.507	81.44
381.733	74.44
381.958	84.44
382.184	83.44
382.409	71.44
382.634	91.44
382.86	79.44
383.085	70.44
383.31	84.44
383.535	81.44
383.761	85.44
383.986	90.44
384.211	84.44
384.436	79.44
384.662	84.44
384.887	90.44
385.112	71.44
385.337	79.44
385.562	89.44
385.787	83.44
386.013	87.44
386.238	73.44
386.463	91.44
386.688	88.44
386.913	86.44
387.138	73.44
387.363	77.44
387.588	95.44
387.813	71.44
388.038	80.44
388.263	86.44
388.488	83.44
388.713	81.44
388.938	66.44
389.163	73.44
389.387	84.44
389.612	92.44
389.837	96.44
390.062	75.44
390.287	80.44
390.512	83.44
390.736	76.44
390.961	87.44
391.186	83.44
391.411	96.44
391.636	91.44
391.86	70.44
392.085	66.44
392.31	80.44
392.534	79.44
392.759	84.44
392.984	63.44
393.208	80.44
393.433	92.44
393.658	83.44
393.882	80.44
394.107	88.44
394.331	75.44
394.556	86.44
394.78	84.44
395.005	83.44
395.229	83.44
395.454	99.44
395.678	90.44
395.903	93.44
396.127	80.44
396.352	99.44
396.576	75.44
396.801	89.44
397.025	73.44
397.249	74.44
397.474	83.44
397.698	75.44
397.922	83.44
398.147	91.44
398.371	80.44
398.595	69.44
398.82	72.44
399.044	74.44
399.268	87.44
399.492	82.44
399.717	77.44
399.941	81.44
400.165	96.44
400.389	76.44
400.613	85.44
400.837	82.44
401.062	68.44
401.286	86.44
401.51	73.44
401.734	84.44
401.958	81.44
402.182	81.44
402.406	70.44
402.63	76.44
402.854	83.44
403.078	88.44
403.302	88.44
403.526	81.44
403.75	65.44
403.974	77.44
404.198	78.44
404.422	71.44
404.645	79.44
404.869	80.44
405.093	82.44
405.317	87.44
405.541	68.44
405.765	80.44
405.988	96.44
406.212	77.44
406.436	88.44
406.66	74.44
406.883	77.44
407.107	74.44
407.331	74.44
407.555	89.44
407.778	88.44
408.002	88.44
408.226	71.44
408.449	75.44
408.673	69.44
408.896	83.44
409.12	82.44
409.344	77.44
409.567	82.44
409.791	76.44
410.014	76.44
410.238	69.44
410.461	81.44
410.685	88.44
410.908	94.44
411.132	84.44
411.355	81.44
411.578	78.44
411.802	84.44
412.025	84.44
412.249	85.44
412.472	85.44
412.695	78.44
412.919	66.44
413.142	87.44
413.365	79.44
413.589	87.44
413.812	91.44
414.035	93.44
414.258	82.44
414.482	91.44
414.705	82.44
414.928	78.44
415.151	77.44
415.374	79.44
415.597	75.44
415.821	76.44
416.044	84.44
416.267	76.44
416.49	86.44
416.713	83.44
416.936	96.44
417.159	94.44
417.382	94.44
417.605	81.44
417.828	85.44
418.051	81.44
418.274	83.44
418.497	80.44
418.72	77.44
418.943	82.44
419.166	65.44
419.389	87.44
419.611	83.44
419.834	77.44
420.057	83.44
420.28	87.44
420.503	83.44
420.726	77.44
420.948	70.44
421.171	78.44
421.394	87.44
421.617	79.44
421.839	82.44
422.062	82.44
422.285	82.44
422.507	72.44
422.73	73.44
422.953	75.44
423.175	67.44
423.398	73.44
423.621	70.44
423.843	77.44
424.066	75.44
424.288	71.44
424.511	76.44
424.733	89.44
424.956	77.44
425.178	85.44
425.401	87.44
425.623	91.44
425.846	89.44
426.068	85.44
426.291	85.44
426.513	72.44
426.735	83.44
426.958	89.44
427.18	81.44
427.402	84.44
427.625	72.44
427.847	92.44
428.069	71.44
428.292	73.44
428.514	86.44
428.736	69.44
428.958	78.44
429.181	97.44
429.403	67.44
429.625	75.44
429.847	80.44
430.069	86.44
430.292	78.44
430.514	83.44
430.736	63.44
430.958	81.44
431.18	69.44
431.402	90.44
431.624	90.44
431.846	78.44
432.068	88.44
432.29	81.44
432.512	75.44
432.734	83.44
432.956	90.44
433.178	81.44
433.4	91.44
433.622	96.44
433.844	67.44
434.066	93.44
434.287	93.44
434.509	79.44
434.731	75.44
434.953	90.44
435.175	89.44
435.397	78.44
435.618	79.44
435.84	87.44
436.062	85.44
436.284	79.44
436.505	76.44
436.727	84.44
436.949	83.44
437.17	87.44
437.392	75.44
437.614	89.44
437.835	83.44
438.057	73.44
438.278	68.44
438.5	74.44
438.721	81.44
438.943	85.44
439.165	85.44
439.386	83.44
439.608	80.44
439.829	96.44
440.05	83.44
440.272	73.44
440.493	76.44
440.715	76.44
440.936	76.44
441.158	76.44
441.379	87.44
441.6	81.44
441.822	86.44
442.043	77.44
442.264	85.44
442.486	72.44
442.707	70.44
442.928	70.44
443.149	68.44
443.371	84.44
443.592	89.44
443.813	86.44
444.034	89.44
444.255	105.44
444.476	87.44
444.698	87.44
444.919	81.44
445.14	167.44
445.361	102.44
445.582	69.44
445.803	89.44
446.024	77.44
446.245	73.44
446.466	85.44
446.687	81.44
446.908	88.44
447.129	94.44
447.35	79.44
447.571	73.44
447.792	85.44
448.013	84.44
448.234	78.44
448.455	87.44
448.675	83.44
448.896	70.44
449.117	84.44
449.338	78.44
449.559	87.44
449.779	81.44
450	75.44
450.221	74.44
450.442	80.44
450.662	67.44
450.883	88.44
451.104	77.44
451.324	84.44
451.545	80.44
451.766	94.44
451.986	83.44
452.207	81.44
452.428	92.44
452.648	79.44
452.869	77.44
453.089	74.44
453.31	89.44
453.53	90.44
453.751	88.44
453.971	80.44
454.192	71.44
454.412	76.44
454.633	73.44
454.853	79.44
455.073	75.44
455.294	79.44
455.514	80.44
455.734	96.44
455.955	99.44
456.175	71.44
456.395	78.44
456.616	85.44
456.836	77.44
457.056	85.44
457.276	80.44
457.497	90.44
457.717	76.44
457.937	91.44
458.157	69.44
458.377	86.44
458.598	72.44
458.818	70.44
459.038	70.44
459.258	85.44
459.478	71.44
459.698	79.44
459.918	85.44
460.138	89.44
460.358	75.44
460.578	89.44
460.798	81.44
461.018	86.44
461.238	71.44
461.458	55.44
461.678	83.44
461.898	82.44
462.118	73.44
462.338	86.44
462.558	65.44
462.777	85.44
462.997	81.44
463.217	83.44
463.437	90.44
463.657	90.44
463.876	94.44
464.096	82.44
464.316	94.44
464.536	85.44
464.755	95.44
464.975	72.44
465.195	72.44
465.414	79.44
465.634	75.44
465.854	72.44
466.073	80.44
466.293	67.44
466.512	100.44
466.732	102.44
466.951	73.44
467.171	91.44
467.391	85.44
467.61	89.44
467.829	82.44
468.049	79.44
468.268	79.44
468.488	78.44
468.707	88.44
468.927	81.44
469.146	92.44
469.365	80.44
469.585	81.44
469.804	80.44
470.023	63.44
470.243	81.44
470.462	89.44
470.681	84.44
470.901	97.44
471.12	78.44
471.339	81.44
471.558	77.44
471.777	81.44
471.997	89.44
472.216	106.44
472.435	76.44
472.654	85.44
472.873	85.44
473.092	85.44
473.311	88.44
473.53	99.44
473.749	92.44
473.968	88.44
474.187	88.44
474.406	83.44
474.625	84.44
474.844	72.44
475.063	77.44
475.282	72.44
475.501	79.44
475.72	95.44
475.939	87.44
476.158	85.44
476.377	84.44
476.596	78.44
476.814	81.44
477.033	86.44
477.252	84.44
477.471	88.44
477.69	69.44
477.908	84.44
478.127	86.44
478.346	100.44
478.564	87.44
478.783	91.44
479.002	87.44
479.22	80.44
479.439	77.44
479.658	67.44
479.876	84.44
480.095	81.44
480.313	86.44
480.532	87.44
480.751	79.44
480.969	92.44
481.188	78.44
481.406	83.44
481.624	75.44
481.843	77.44
482.061	84.44
482.28	87.44
482.498	81.44
482.717	75.44
482.935	97.44
483.153	91.44
483.372	82.44
483.59	79.44
483.808	91.44
484.027	99.44
484.245	90.44
484.463	85.44
484.681	81.44
484.9	84.44
485.118	88.44
485.336	84.44
485.554	83.44
485.772	87.44
485.99	80.44
486.209	81.44
486.427	92.44
486.645	85.44
486.863	86.44
487.081	88.44
487.299	71.44
487.517	64.44
487.735	88.44
487.953	103.44
488.171	90.44
488.389	88.44
488.607	81.44
488.825	79.44
489.043	81.44
489.261	86.44
489.479	93.44
489.696	83.44
489.914	65.44
490.132	67.44
490.35	81.44
490.568	82.44
490.786	79.44
491.003	88.44
491.221	55.44
491.439	83.44
491.657	76.44
491.874	75.44
492.092	96.44
492.31	73.44
492.527	76.44
492.745	76.44
492.963	79.44
493.18	88.44
493.398	90.44
493.615	87.44
493.833	72.44
494.05	70.44
494.268	65.44
494.485	81.44
494.703	86.44
494.92	88.44
495.138	83.44
495.355	87.44
495.573	91.44
495.79	70.44
496.008	87.44
496.225	86.44
496.442	82.44
496.66	92.44
496.877	91.44
497.094	75.44
497.312	76.44
497.529	89.44
497.746	75.44
497.963	78.44
498.181	83.44
498.398	90.44
498.615	90.44
498.832	80.44
499.049	73.44
499.267	73.44
499.484	75.44
499.701	99.44
499.918	98.44
500.135	70.44
500.352	86.44
500.569	85.44
500.786	100.44
501.003	88.44
501.22	89.44
501.437	80.44
501.654	85.44
501.871	76.44
502.088	95.44
502.305	83.44
502.522	87.44
502.739	75.44
502.956	81.44
503.172	93.44
503.389	76.44
503.606	86.44
503.823	84.44
504.04	91.44
504.256	87.44
504.473	86.44
504.69	84.44
504.907	89.44
505.123	78.44
505.34	88.44
505.557	81.44
505.773	97.44
505.99	68.44
506.207	83.44
506.423	73.44
506.64	79.44
506.856	70.44
507.073	83.44
507.289	87.44
507.506	79.44
507.722	88.44
507.939	83.44
508.155	85.44
508.372	76.44
508.588	97.44
508.805	96.44
509.021	84.44
509.238	74.44
509.454	85.44
509.67	89.44
509.887	97.44
510.103	87.44
510.319	81.44
510.536	86.44
510.752	86.44
510.968	77.44
511.184	93.44
511.401	84.44
511.617	85.44
511.833	94.44
512.049	78.44
512.265	82.44
512.481	88.44
512.698	82.44
512.914	79.44
513.13	83.44
513.346	74.44
513.562	78.44
513.778	86.44
513.994	85.44
514.21	82.44
514.426	90.44
514.642	95.44
514.858	78.44
515.074	76.44
515.29	95.44
515.506	85.44
515.721	89.44
515.937	77.44
516.153	76.44
516.369	81.44
516.585	78.44
516.801	75.44
517.016	78.44
517.232	77.44
517.448	80.44
517.664	78.44
517.879	92.44
518.095	87.44
518.311	79.44
518.527	90.44
518.742	97.44
518.958	96.44
519.173	80.44
519.389	74.44
519.605	79.44
519.82	77.44
520.036	88.44
