Data from BG_HRD10591_037.txt Node
Date: Fri May 16 15:21:12 EDT 2025
User: Yrep
Spectrometer: HR+D1059
Trigger mode: 1
Integration Time (sec): 1.000000E-1
Scans to average: 1
Electric dark correction enabled: true
Nonlinearity correction enabled: false
Boxcar width: 0
XAxis mode: Wavelengths
Number of Pixels in Spectrum: 2048
>>>>>Begin Spectral Data<<<<<
223.165	-17.44
223.4	-17.44
223.635	-17.44
223.869	-17.44
224.104	-20.44
224.338	-4.44
224.573	-20.44
224.808	-15.44
225.042	-9.44
225.277	-16.44
225.511	-8.44
225.746	6.56
225.98	1.56
226.215	1.56
226.449	23.56
226.683	22.56
226.918	32.56
227.152	41.56
227.387	36.56
227.621	39.56
227.856	38.56
228.09	53.56
228.324	53.56
228.559	61.56
228.793	56.56
229.027	67.56
229.262	61.56
229.496	71.56
229.73	65.56
229.964	71.56
230.199	84.56
230.433	76.56
230.667	76.56
230.901	76.56
231.136	69.56
231.37	89.56
231.604	87.56
231.838	71.56
232.072	75.56
232.306	79.56
232.541	80.56
232.775	98.56
233.009	91.56
233.243	84.56
233.477	70.56
233.711	85.56
233.945	87.56
234.179	93.56
234.413	87.56
234.647	71.56
234.881	84.56
235.115	91.56
235.349	86.56
235.583	75.56
235.817	70.56
236.051	68.56
236.285	91.56
236.519	79.56
236.753	84.56
236.987	76.56
237.221	101.56
237.455	89.56
237.689	76.56
237.922	74.56
238.156	71.56
238.39	80.56
238.624	73.56
238.858	76.56
239.091	53.56
239.325	93.56
239.559	71.56
239.793	70.56
240.027	71.56
240.26	68.56
240.494	80.56
240.728	72.56
240.961	76.56
241.195	76.56
241.429	84.56
241.662	74.56
241.896	79.56
242.13	93.56
242.363	68.56
242.597	81.56
242.83	84.56
243.064	80.56
243.298	79.56
243.531	64.56
243.765	82.56
243.998	66.56
244.232	77.56
244.465	77.56
244.699	69.56
244.932	62.56
245.166	84.56
245.399	89.56
245.633	85.56
245.866	83.56
246.099	75.56
246.333	85.56
246.566	67.56
246.8	81.56
247.033	69.56
247.266	70.56
247.5	73.56
247.733	79.56
247.966	72.56
248.2	70.56
248.433	77.56
248.666	75.56
248.899	65.56
249.133	76.56
249.366	80.56
249.599	81.56
249.832	79.56
250.066	92.56
250.299	68.56
250.532	75.56
250.765	72.56
250.998	84.56
251.231	72.56
251.465	76.56
251.698	71.56
251.931	69.56
252.164	88.56
252.397	78.56
252.63	72.56
252.863	89.56
253.096	76.56
253.329	78.56
253.562	67.56
253.795	93.56
254.028	87.56
254.261	81.56
254.494	69.56
254.727	70.56
254.96	81.56
255.193	77.56
255.426	86.56
255.659	59.56
255.892	62.56
256.124	88.56
256.357	85.56
256.59	86.56
256.823	88.56
257.056	81.56
257.289	83.56
257.521	96.56
257.754	74.56
257.987	88.56
258.22	78.56
258.452	80.56
258.685	84.56
258.918	88.56
259.151	92.56
259.383	86.56
259.616	82.56
259.849	85.56
260.081	72.56
260.314	78.56
260.547	93.56
260.779	102.56
261.012	73.56
261.244	89.56
261.477	71.56
261.71	88.56
261.942	69.56
262.175	72.56
262.407	85.56
262.64	86.56
262.872	82.56
263.105	69.56
263.337	84.56
263.57	82.56
263.802	84.56
264.035	86.56
264.267	83.56
264.499	80.56
264.732	86.56
264.964	82.56
265.197	79.56
265.429	80.56
265.661	92.56
265.894	97.56
266.126	95.56
266.358	93.56
266.591	96.56
266.823	77.56
267.055	78.56
267.287	83.56
267.52	86.56
267.752	81.56
267.984	80.56
268.216	88.56
268.448	85.56
268.681	89.56
268.913	82.56
269.145	97.56
269.377	95.56
269.609	86.56
269.841	85.56
270.073	66.56
270.306	102.56
270.538	89.56
270.77	77.56
271.002	82.56
271.234	71.56
271.466	72.56
271.698	93.56
271.93	92.56
272.162	97.56
272.394	84.56
272.626	80.56
272.858	81.56
273.09	86.56
273.322	76.56
273.553	79.56
273.785	94.56
274.017	86.56
274.249	81.56
274.481	79.56
274.713	89.56
274.945	91.56
275.176	95.56
275.408	72.56
275.64	83.56
275.872	73.56
276.104	84.56
276.335	80.56
276.567	89.56
276.799	89.56
277.031	86.56
277.262	71.56
277.494	79.56
277.726	78.56
277.957	91.56
278.189	67.56
278.421	76.56
278.652	90.56
278.884	74.56
279.115	76.56
279.347	81.56
279.579	79.56
279.81	84.56
280.042	87.56
280.273	85.56
280.505	86.56
280.736	88.56
280.968	90.56
281.199	85.56
281.431	85.56
281.662	84.56
281.894	77.56
282.125	92.56
282.356	87.56
282.588	83.56
282.819	88.56
283.051	91.56
283.282	78.56
283.513	75.56
283.745	86.56
283.976	75.56
284.207	86.56
284.439	89.56
284.67	81.56
284.901	86.56
285.132	93.56
285.364	91.56
285.595	84.56
285.826	73.56
286.057	79.56
286.288	89.56
286.52	90.56
286.751	82.56
286.982	84.56
287.213	86.56
287.444	93.56
287.675	87.56
287.906	89.56
288.138	98.56
288.369	80.56
288.6	90.56
288.831	86.56
289.062	95.56
289.293	83.56
289.524	84.56
289.755	83.56
289.986	76.56
290.217	86.56
290.448	84.56
290.679	88.56
290.91	100.56
291.141	85.56
291.371	86.56
291.602	105.56
291.833	101.56
292.064	106.56
292.295	92.56
292.526	87.56
292.757	100.56
292.987	80.56
293.218	88.56
293.449	76.56
293.68	95.56
293.91	89.56
294.141	100.56
294.372	88.56
294.603	70.56
294.833	97.56
295.064	75.56
295.295	87.56
295.525	86.56
295.756	94.56
295.987	92.56
296.217	76.56
296.448	81.56
296.679	99.56
296.909	103.56
297.14	91.56
297.37	96.56
297.601	90.56
297.831	73.56
298.062	89.56
298.292	82.56
298.523	87.56
298.753	88.56
298.984	96.56
299.214	78.56
299.445	84.56
299.675	95.56
299.905	80.56
300.136	79.56
300.366	97.56
300.597	100.56
300.827	78.56
301.057	85.56
301.288	80.56
301.518	95.56
301.748	87.56
301.979	93.56
302.209	88.56
302.439	85.56
302.669	79.56
302.9	88.56
303.13	93.56
303.36	84.56
303.59	69.56
303.82	83.56
304.051	92.56
304.281	92.56
304.511	89.56
304.741	80.56
304.971	93.56
305.201	88.56
305.431	93.56
305.661	66.56
305.891	102.56
306.121	86.56
306.352	88.56
306.582	92.56
306.812	85.56
307.042	113.56
307.272	71.56
307.502	86.56
307.731	92.56
307.961	87.56
308.191	84.56
308.421	93.56
308.651	96.56
308.881	81.56
309.111	94.56
309.341	94.56
309.571	82.56
309.8	75.56
310.03	83.56
310.26	88.56
310.49	86.56
310.72	89.56
310.949	92.56
311.179	92.56
311.409	88.56
311.639	94.56
311.868	71.56
312.098	95.56
312.328	98.56
312.557	92.56
312.787	88.56
313.017	91.56
313.246	86.56
313.476	92.56
313.706	92.56
313.935	88.56
314.165	100.56
314.394	67.56
314.624	96.56
314.853	88.56
315.083	95.56
315.312	93.56
315.542	68.56
315.771	105.56
316.001	84.56
316.23	89.56
316.46	96.56
316.689	82.56
316.919	95.56
317.148	96.56
317.377	96.56
317.607	105.56
317.836	94.56
318.065	84.56
318.295	95.56
318.524	74.56
318.753	68.56
318.983	90.56
319.212	104.56
319.441	89.56
319.67	89.56
319.9	72.56
320.129	83.56
320.358	106.56
320.587	96.56
320.816	90.56
321.046	85.56
321.275	81.56
321.504	104.56
321.733	88.56
321.962	87.56
322.191	76.56
322.42	73.56
322.649	80.56
322.878	90.56
323.108	113.56
323.337	80.56
323.566	86.56
323.795	89.56
324.024	89.56
324.253	89.56
324.482	88.56
324.71	90.56
324.939	101.56
325.168	84.56
325.397	92.56
325.626	87.56
325.855	88.56
326.084	87.56
326.313	89.56
326.542	81.56
326.77	90.56
326.999	85.56
327.228	85.56
327.457	77.56
327.686	87.56
327.914	98.56
328.143	87.56
328.372	97.56
328.6	94.56
328.829	90.56
329.058	102.56
329.287	104.56
329.515	81.56
329.744	97.56
329.972	82.56
330.201	99.56
330.43	96.56
330.658	89.56
330.887	86.56
331.115	95.56
331.344	82.56
331.572	100.56
331.801	94.56
332.03	94.56
332.258	79.56
332.486	94.56
332.715	84.56
332.943	87.56
333.172	93.56
333.4	77.56
333.629	89.56
333.857	87.56
334.085	92.56
334.314	94.56
334.542	82.56
334.771	89.56
334.999	82.56
335.227	86.56
335.455	86.56
335.684	92.56
335.912	96.56
336.14	85.56
336.369	97.56
336.597	94.56
336.825	91.56
337.053	73.56
337.281	85.56
337.51	78.56
337.738	93.56
337.966	92.56
338.194	90.56
338.422	80.56
338.65	90.56
338.878	83.56
339.106	85.56
339.334	91.56
339.562	76.56
339.79	95.56
340.018	88.56
340.246	89.56
340.474	92.56
340.702	72.56
340.93	89.56
341.158	84.56
341.386	89.56
341.614	99.56
341.842	77.56
342.07	74.56
342.298	89.56
342.526	77.56
342.754	97.56
342.981	90.56
343.209	95.56
343.437	103.56
343.665	101.56
343.893	82.56
344.12	101.56
344.348	93.56
344.576	82.56
344.804	79.56
345.031	84.56
345.259	88.56
345.487	87.56
345.714	84.56
345.942	89.56
346.17	94.56
346.397	88.56
346.625	104.56
346.853	79.56
347.08	90.56
347.308	87.56
347.535	97.56
347.763	90.56
347.99	87.56
348.218	74.56
348.445	87.56
348.673	87.56
348.9	75.56
349.128	103.56
349.355	78.56
349.583	86.56
349.81	79.56
350.037	100.56
350.265	92.56
350.492	92.56
350.72	92.56
350.947	83.56
351.174	100.56
351.402	89.56
351.629	66.56
351.856	96.56
352.083	72.56
352.311	90.56
352.538	83.56
352.765	80.56
352.992	79.56
353.22	101.56
353.447	95.56
353.674	92.56
353.901	108.56
354.128	82.56
354.355	78.56
354.583	91.56
354.81	92.56
355.037	96.56
355.264	78.56
355.491	82.56
355.718	74.56
355.945	96.56
356.172	104.56
356.399	95.56
356.626	83.56
356.853	96.56
357.08	77.56
357.307	94.56
357.534	74.56
357.761	88.56
357.988	106.56
358.215	90.56
358.441	89.56
358.668	79.56
358.895	88.56
359.122	96.56
359.349	96.56
359.576	87.56
359.802	70.56
360.029	86.56
360.256	87.56
360.483	94.56
360.709	92.56
360.936	81.56
361.163	72.56
361.39	81.56
361.616	97.56
361.843	89.56
362.07	91.56
362.296	85.56
362.523	77.56
362.749	81.56
362.976	76.56
363.203	88.56
363.429	82.56
363.656	100.56
363.882	89.56
364.109	92.56
364.335	92.56
364.562	95.56
364.788	89.56
365.015	82.56
365.241	78.56
365.468	77.56
365.694	81.56
365.92	62.56
366.147	89.56
366.373	80.56
366.599	86.56
366.826	81.56
367.052	89.56
367.278	72.56
367.505	86.56
367.731	91.56
367.957	84.56
368.184	112.56
368.41	86.56
368.636	86.56
368.862	95.56
369.089	88.56
369.315	77.56
369.541	82.56
369.767	89.56
369.993	77.56
370.219	94.56
370.445	85.56
370.672	72.56
370.898	77.56
371.124	102.56
371.35	76.56
371.576	87.56
371.802	85.56
372.028	92.56
372.254	87.56
372.48	88.56
372.706	95.56
372.932	73.56
373.158	98.56
373.384	95.56
373.61	76.56
373.835	85.56
374.061	89.56
374.287	96.56
374.513	87.56
374.739	87.56
374.965	96.56
375.191	96.56
375.416	82.56
375.642	89.56
375.868	94.56
376.094	98.56
376.319	80.56
376.545	87.56
376.771	80.56
376.997	70.56
377.222	81.56
377.448	84.56
377.674	88.56
377.899	84.56
378.125	84.56
378.35	85.56
378.576	87.56
378.802	78.56
379.027	85.56
379.253	80.56
379.478	84.56
379.704	88.56
379.929	96.56
380.155	75.56
380.38	79.56
380.606	81.56
380.831	88.56
381.057	85.56
381.282	98.56
381.507	85.56
381.733	80.56
381.958	85.56
382.184	86.56
382.409	95.56
382.634	90.56
382.86	97.56
383.085	91.56
383.31	88.56
383.535	98.56
383.761	93.56
383.986	87.56
384.211	102.56
384.436	90.56
384.662	85.56
384.887	81.56
385.112	85.56
385.337	73.56
385.562	97.56
385.787	93.56
386.013	87.56
386.238	93.56
386.463	82.56
386.688	97.56
386.913	82.56
387.138	84.56
387.363	85.56
387.588	103.56
387.813	87.56
388.038	109.56
388.263	104.56
388.488	92.56
388.713	84.56
388.938	80.56
389.163	91.56
389.387	86.56
389.612	81.56
389.837	96.56
390.062	100.56
390.287	94.56
390.512	85.56
390.736	82.56
390.961	78.56
391.186	69.56
391.411	93.56
391.636	79.56
391.86	102.56
392.085	75.56
392.31	93.56
392.534	96.56
392.759	94.56
392.984	80.56
393.208	95.56
393.433	94.56
393.658	88.56
393.882	89.56
394.107	91.56
394.331	95.56
394.556	88.56
394.78	88.56
395.005	79.56
395.229	85.56
395.454	90.56
395.678	90.56
395.903	99.56
396.127	108.56
396.352	91.56
396.576	91.56
396.801	89.56
397.025	76.56
397.249	86.56
397.474	98.56
397.698	94.56
397.922	89.56
398.147	82.56
398.371	95.56
398.595	97.56
398.82	97.56
399.044	86.56
399.268	91.56
399.492	95.56
399.717	104.56
399.941	95.56
400.165	91.56
400.389	82.56
400.613	91.56
400.837	82.56
401.062	95.56
401.286	86.56
401.51	90.56
401.734	88.56
401.958	101.56
402.182	93.56
402.406	100.56
402.63	89.56
402.854	85.56
403.078	77.56
403.302	81.56
403.526	85.56
403.75	90.56
403.974	87.56
404.198	93.56
404.422	90.56
404.645	83.56
404.869	89.56
405.093	77.56
405.317	89.56
405.541	91.56
405.765	78.56
405.988	71.56
406.212	94.56
406.436	81.56
406.66	88.56
406.883	85.56
407.107	101.56
407.331	79.56
407.555	93.56
407.778	86.56
408.002	90.56
408.226	96.56
408.449	89.56
408.673	88.56
408.896	93.56
409.12	83.56
409.344	90.56
409.567	86.56
409.791	93.56
410.014	86.56
410.238	89.56
410.461	86.56
410.685	77.56
410.908	89.56
411.132	91.56
411.355	83.56
411.578	103.56
411.802	85.56
412.025	91.56
412.249	84.56
412.472	82.56
412.695	74.56
412.919	88.56
413.142	82.56
413.365	89.56
413.589	96.56
413.812	79.56
414.035	93.56
414.258	84.56
414.482	72.56
414.705	77.56
414.928	96.56
415.151	98.56
415.374	86.56
415.597	81.56
415.821	93.56
416.044	93.56
416.267	86.56
416.49	89.56
416.713	90.56
416.936	110.56
417.159	84.56
417.382	92.56
417.605	96.56
417.828	87.56
418.051	85.56
418.274	80.56
418.497	92.56
418.72	90.56
418.943	79.56
419.166	84.56
419.389	78.56
419.611	91.56
419.834	84.56
420.057	101.56
420.28	79.56
420.503	89.56
420.726	73.56
420.948	88.56
421.171	86.56
421.394	86.56
421.617	83.56
421.839	87.56
422.062	83.56
422.285	73.56
422.507	81.56
422.73	72.56
422.953	86.56
423.175	84.56
423.398	82.56
423.621	86.56
423.843	103.56
424.066	89.56
424.288	88.56
424.511	89.56
424.733	83.56
424.956	84.56
425.178	76.56
425.401	87.56
425.623	100.56
425.846	93.56
426.068	73.56
426.291	81.56
426.513	88.56
426.735	92.56
426.958	100.56
427.18	71.56
427.402	84.56
427.625	74.56
427.847	92.56
428.069	88.56
428.292	89.56
428.514	81.56
428.736	88.56
428.958	92.56
429.181	88.56
429.403	80.56
429.625	94.56
429.847	77.56
430.069	89.56
430.292	94.56
430.514	83.56
430.736	101.56
430.958	84.56
431.18	93.56
431.402	77.56
431.624	79.56
431.846	90.56
432.068	84.56
432.29	78.56
432.512	92.56
432.734	92.56
432.956	94.56
433.178	91.56
433.4	80.56
433.622	97.56
433.844	87.56
434.066	90.56
434.287	92.56
434.509	87.56
434.731	97.56
434.953	86.56
435.175	86.56
435.397	77.56
435.618	78.56
435.84	102.56
436.062	90.56
436.284	87.56
436.505	92.56
436.727	94.56
436.949	93.56
437.17	81.56
437.392	74.56
437.614	102.56
437.835	86.56
438.057	84.56
438.278	92.56
438.5	92.56
438.721	84.56
438.943	85.56
439.165	82.56
439.386	92.56
439.608	88.56
439.829	80.56
440.05	96.56
440.272	78.56
440.493	92.56
440.715	86.56
440.936	95.56
441.158	74.56
441.379	76.56
441.6	76.56
441.822	82.56
442.043	74.56
442.264	85.56
442.486	90.56
442.707	98.56
442.928	84.56
443.149	95.56
443.371	89.56
443.592	84.56
443.813	85.56
444.034	86.56
444.255	95.56
444.476	88.56
444.698	84.56
444.919	93.56
445.14	158.56
445.361	128.56
445.582	95.56
445.803	84.56
446.024	89.56
446.245	100.56
446.466	95.56
446.687	88.56
446.908	94.56
447.129	77.56
447.35	98.56
447.571	82.56
447.792	85.56
448.013	85.56
448.234	94.56
448.455	88.56
448.675	82.56
448.896	92.56
449.117	93.56
449.338	82.56
449.559	89.56
449.779	93.56
450	76.56
450.221	82.56
450.442	93.56
450.662	91.56
450.883	84.56
451.104	92.56
451.324	85.56
451.545	84.56
451.766	84.56
451.986	101.56
452.207	86.56
452.428	91.56
452.648	102.56
452.869	87.56
453.089	97.56
453.31	83.56
453.53	92.56
453.751	93.56
453.971	100.56
454.192	85.56
454.412	83.56
454.633	94.56
454.853	90.56
455.073	90.56
455.294	82.56
455.514	83.56
455.734	89.56
455.955	86.56
456.175	84.56
456.395	79.56
456.616	74.56
456.836	90.56
457.056	104.56
457.276	93.56
457.497	86.56
457.717	89.56
457.937	77.56
458.157	85.56
458.377	96.56
458.598	104.56
458.818	81.56
459.038	87.56
459.258	88.56
459.478	93.56
459.698	98.56
459.918	104.56
460.138	80.56
460.358	104.56
460.578	97.56
460.798	90.56
461.018	91.56
461.238	102.56
461.458	79.56
461.678	105.56
461.898	93.56
462.118	93.56
462.338	87.56
462.558	84.56
462.777	81.56
462.997	90.56
463.217	98.56
463.437	95.56
463.657	93.56
463.876	98.56
464.096	95.56
464.316	98.56
464.536	89.56
464.755	76.56
464.975	81.56
465.195	94.56
465.414	95.56
465.634	81.56
465.854	87.56
466.073	104.56
466.293	95.56
466.512	104.56
466.732	105.56
466.951	79.56
467.171	90.56
467.391	84.56
467.61	86.56
467.829	95.56
468.049	80.56
468.268	79.56
468.488	79.56
468.707	86.56
468.927	85.56
469.146	83.56
469.365	77.56
469.585	78.56
469.804	90.56
470.023	81.56
470.243	72.56
470.462	91.56
470.681	100.56
470.901	79.56
471.12	93.56
471.339	104.56
471.558	81.56
471.777	97.56
471.997	93.56
472.216	91.56
472.435	72.56
472.654	98.56
472.873	100.56
473.092	90.56
473.311	86.56
473.53	94.56
473.749	94.56
473.968	94.56
474.187	79.56
474.406	79.56
474.625	72.56
474.844	100.56
475.063	86.56
475.282	101.56
475.501	90.56
475.72	79.56
475.939	87.56
476.158	84.56
476.377	88.56
476.596	92.56
476.814	96.56
477.033	104.56
477.252	94.56
477.471	76.56
477.69	90.56
477.908	89.56
478.127	82.56
478.346	88.56
478.564	78.56
478.783	102.56
479.002	84.56
479.22	100.56
479.439	101.56
479.658	93.56
479.876	85.56
480.095	87.56
480.313	96.56
480.532	91.56
480.751	85.56
480.969	86.56
481.188	92.56
481.406	101.56
481.624	80.56
481.843	72.56
482.061	75.56
482.28	92.56
482.498	93.56
482.717	72.56
482.935	83.56
483.153	80.56
483.372	101.56
483.59	94.56
483.808	87.56
484.027	84.56
484.245	83.56
484.463	84.56
484.681	86.56
484.9	84.56
485.118	88.56
485.336	91.56
485.554	82.56
485.772	88.56
485.99	77.56
486.209	79.56
486.427	80.56
486.645	94.56
486.863	102.56
487.081	81.56
487.299	86.56
487.517	86.56
487.735	81.56
487.953	85.56
488.171	88.56
488.389	103.56
488.607	81.56
488.825	97.56
489.043	101.56
489.261	94.56
489.479	89.56
489.696	86.56
489.914	67.56
490.132	74.56
490.35	80.56
490.568	79.56
490.786	91.56
491.003	105.56
491.221	84.56
491.439	96.56
491.657	79.56
491.874	81.56
492.092	94.56
492.31	102.56
492.527	82.56
492.745	79.56
492.963	93.56
493.18	80.56
493.398	85.56
493.615	84.56
493.833	87.56
494.05	94.56
494.268	88.56
494.485	101.56
494.703	88.56
494.92	94.56
495.138	85.56
495.355	90.56
495.573	93.56
495.79	93.56
496.008	103.56
496.225	89.56
496.442	79.56
496.66	92.56
496.877	82.56
497.094	86.56
497.312	86.56
497.529	71.56
497.746	84.56
497.963	87.56
498.181	79.56
498.398	92.56
498.615	99.56
498.832	102.56
499.049	94.56
499.267	103.56
499.484	100.56
499.701	105.56
499.918	103.56
500.135	104.56
500.352	108.56
500.569	91.56
500.786	111.56
501.003	96.56
501.22	97.56
501.437	104.56
501.654	79.56
501.871	93.56
502.088	87.56
502.305	87.56
502.522	93.56
502.739	107.56
502.956	86.56
503.172	90.56
503.389	93.56
503.606	87.56
503.823	93.56
504.04	101.56
504.256	97.56
504.473	94.56
504.69	88.56
504.907	105.56
505.123	108.56
505.34	87.56
505.557	82.56
505.773	86.56
505.99	87.56
506.207	87.56
506.423	90.56
506.64	92.56
506.856	86.56
507.073	90.56
507.289	89.56
507.506	82.56
507.722	83.56
507.939	86.56
508.155	82.56
508.372	88.56
508.588	78.56
508.805	88.56
509.021	91.56
509.238	90.56
509.454	89.56
509.67	80.56
509.887	87.56
510.103	93.56
510.319	96.56
510.536	95.56
510.752	88.56
510.968	89.56
511.184	102.56
511.401	84.56
511.617	94.56
511.833	88.56
512.049	89.56
512.265	85.56
512.481	90.56
512.698	87.56
512.914	93.56
513.13	84.56
513.346	94.56
513.562	87.56
513.778	96.56
513.994	86.56
514.21	84.56
514.426	86.56
514.642	95.56
514.858	82.56
515.074	103.56
515.29	91.56
515.506	80.56
515.721	89.56
515.937	86.56
516.153	72.56
516.369	83.56
516.585	82.56
516.801	88.56
517.016	89.56
517.232	96.56
517.448	83.56
517.664	97.56
517.879	89.56
518.095	87.56
518.311	87.56
518.527	96.56
518.742	88.56
518.958	102.56
