Data from BG_HRD10591_032.txt Node
Date: Fri May 16 15:21:10 EDT 2025
User: Yrep
Spectrometer: HR+D1059
Trigger mode: 1
Integration Time (sec): 1.000000E-1
Scans to average: 1
Electric dark correction enabled: true
Nonlinearity correction enabled: false
Boxcar width: 0
XAxis mode: Wavelengths
Number of Pixels in Spectrum: 2048
>>>>>Begin Spectral Data<<<<<
223.165	-26.5
223.4	-26.5
223.635	-26.5
223.869	-29.5
224.104	-20.5
224.338	-12.5
224.573	-2.5
224.808	-20.5
225.042	1.5
225.277	-3.5
225.511	4.5
225.746	6.5
225.98	-3.5
226.215	7.5
226.449	16.5
226.683	18.5
226.918	21.5
227.152	42.5
227.387	57.5
227.621	46.5
227.856	43.5
228.09	36.5
228.324	49.5
228.559	64.5
228.793	67.5
229.027	68.5
229.262	67.5
229.496	53.5
229.73	71.5
229.964	66.5
230.199	82.5
230.433	80.5
230.667	68.5
230.901	71.5
231.136	69.5
231.37	84.5
231.604	63.5
231.838	72.5
232.072	102.5
232.306	83.5
232.541	86.5
232.775	77.5
233.009	81.5
233.243	82.5
233.477	93.5
233.711	91.5
233.945	86.5
234.179	92.5
234.413	86.5
234.647	80.5
234.881	83.5
235.115	93.5
235.349	81.5
235.583	89.5
235.817	72.5
236.051	85.5
236.285	87.5
236.519	90.5
236.753	87.5
236.987	87.5
237.221	82.5
237.455	77.5
237.689	82.5
237.922	77.5
238.156	93.5
238.39	83.5
238.624	63.5
238.858	78.5
239.091	82.5
239.325	60.5
239.559	91.5
239.793	69.5
240.027	88.5
240.26	93.5
240.494	71.5
240.728	77.5
240.961	75.5
241.195	89.5
241.429	82.5
241.662	85.5
241.896	77.5
242.13	70.5
242.363	81.5
242.597	80.5
242.83	80.5
243.064	87.5
243.298	74.5
243.531	78.5
243.765	76.5
243.998	98.5
244.232	90.5
244.465	81.5
244.699	80.5
244.932	82.5
245.166	71.5
245.399	63.5
245.633	78.5
245.866	78.5
246.099	79.5
246.333	86.5
246.566	68.5
246.8	87.5
247.033	96.5
247.266	63.5
247.5	65.5
247.733	87.5
247.966	80.5
248.2	86.5
248.433	78.5
248.666	78.5
248.899	71.5
249.133	83.5
249.366	85.5
249.599	81.5
249.832	74.5
250.066	76.5
250.299	85.5
250.532	75.5
250.765	86.5
250.998	82.5
251.231	78.5
251.465	90.5
251.698	79.5
251.931	80.5
252.164	70.5
252.397	74.5
252.63	74.5
252.863	74.5
253.096	85.5
253.329	78.5
253.562	54.5
253.795	60.5
254.028	76.5
254.261	86.5
254.494	91.5
254.727	78.5
254.96	84.5
255.193	76.5
255.426	86.5
255.659	74.5
255.892	76.5
256.124	80.5
256.357	83.5
256.59	83.5
256.823	89.5
257.056	71.5
257.289	74.5
257.521	59.5
257.754	76.5
257.987	81.5
258.22	87.5
258.452	78.5
258.685	91.5
258.918	82.5
259.151	76.5
259.383	81.5
259.616	71.5
259.849	77.5
260.081	58.5
260.314	77.5
260.547	69.5
260.779	77.5
261.012	90.5
261.244	106.5
261.477	93.5
261.71	73.5
261.942	82.5
262.175	81.5
262.407	90.5
262.64	81.5
262.872	93.5
263.105	77.5
263.337	83.5
263.57	66.5
263.802	87.5
264.035	87.5
264.267	93.5
264.499	84.5
264.732	87.5
264.964	89.5
265.197	88.5
265.429	93.5
265.661	83.5
265.894	80.5
266.126	67.5
266.358	84.5
266.591	92.5
266.823	73.5
267.055	93.5
267.287	78.5
267.52	82.5
267.752	95.5
267.984	78.5
268.216	85.5
268.448	86.5
268.681	75.5
268.913	83.5
269.145	83.5
269.377	76.5
269.609	101.5
269.841	85.5
270.073	91.5
270.306	82.5
270.538	81.5
270.77	82.5
271.002	86.5
271.234	77.5
271.466	88.5
271.698	81.5
271.93	79.5
272.162	92.5
272.394	85.5
272.626	89.5
272.858	76.5
273.09	86.5
273.322	86.5
273.553	75.5
273.785	77.5
274.017	81.5
274.249	90.5
274.481	94.5
274.713	78.5
274.945	91.5
275.176	73.5
275.408	82.5
275.64	94.5
275.872	81.5
276.104	82.5
276.335	86.5
276.567	85.5
276.799	86.5
277.031	85.5
277.262	91.5
277.494	96.5
277.726	87.5
277.957	85.5
278.189	95.5
278.421	88.5
278.652	82.5
278.884	86.5
279.115	90.5
279.347	94.5
279.579	91.5
279.81	90.5
280.042	75.5
280.273	78.5
280.505	97.5
280.736	71.5
280.968	83.5
281.199	93.5
281.431	97.5
281.662	93.5
281.894	84.5
282.125	85.5
282.356	100.5
282.588	93.5
282.819	89.5
283.051	89.5
283.282	87.5
283.513	92.5
283.745	87.5
283.976	84.5
284.207	88.5
284.439	72.5
284.67	98.5
284.901	95.5
285.132	83.5
285.364	73.5
285.595	89.5
285.826	78.5
286.057	86.5
286.288	90.5
286.52	88.5
286.751	89.5
286.982	89.5
287.213	87.5
287.444	83.5
287.675	91.5
287.906	96.5
288.138	100.5
288.369	80.5
288.6	78.5
288.831	98.5
289.062	80.5
289.293	91.5
289.524	89.5
289.755	85.5
289.986	84.5
290.217	96.5
290.448	87.5
290.679	61.5
290.91	85.5
291.141	88.5
291.371	105.5
291.602	88.5
291.833	78.5
292.064	80.5
292.295	93.5
292.526	81.5
292.757	94.5
292.987	93.5
293.218	93.5
293.449	95.5
293.68	97.5
293.91	82.5
294.141	92.5
294.372	104.5
294.603	86.5
294.833	90.5
295.064	90.5
295.295	93.5
295.525	91.5
295.756	103.5
295.987	96.5
296.217	80.5
296.448	91.5
296.679	89.5
296.909	76.5
297.14	78.5
297.37	85.5
297.601	102.5
297.831	95.5
298.062	73.5
298.292	74.5
298.523	79.5
298.753	85.5
298.984	88.5
299.214	89.5
299.445	97.5
299.675	95.5
299.905	86.5
300.136	87.5
300.366	95.5
300.597	99.5
300.827	74.5
301.057	97.5
301.288	90.5
301.518	96.5
301.748	77.5
301.979	98.5
302.209	95.5
302.439	76.5
302.669	89.5
302.9	96.5
303.13	99.5
303.36	78.5
303.59	80.5
303.82	90.5
304.051	78.5
304.281	95.5
304.511	96.5
304.741	108.5
304.971	103.5
305.201	89.5
305.431	99.5
305.661	85.5
305.891	85.5
306.121	98.5
306.352	97.5
306.582	80.5
306.812	87.5
307.042	72.5
307.272	98.5
307.502	94.5
307.731	90.5
307.961	90.5
308.191	84.5
308.421	92.5
308.651	92.5
308.881	87.5
309.111	88.5
309.341	85.5
309.571	93.5
309.8	87.5
310.03	91.5
310.26	79.5
310.49	106.5
310.72	81.5
310.949	92.5
311.179	97.5
311.409	72.5
311.639	93.5
311.868	98.5
312.098	81.5
312.328	84.5
312.557	102.5
312.787	87.5
313.017	92.5
313.246	91.5
313.476	82.5
313.706	87.5
313.935	88.5
314.165	98.5
314.394	80.5
314.624	96.5
314.853	70.5
315.083	87.5
315.312	83.5
315.542	86.5
315.771	94.5
316.001	89.5
316.23	86.5
316.46	82.5
316.689	91.5
316.919	86.5
317.148	84.5
317.377	86.5
317.607	83.5
317.836	85.5
318.065	88.5
318.295	86.5
318.524	86.5
318.753	93.5
318.983	82.5
319.212	94.5
319.441	75.5
319.67	72.5
319.9	96.5
320.129	87.5
320.358	92.5
320.587	90.5
320.816	85.5
321.046	82.5
321.275	80.5
321.504	91.5
321.733	81.5
321.962	87.5
322.191	104.5
322.42	93.5
322.649	85.5
322.878	90.5
323.108	85.5
323.337	75.5
323.566	87.5
323.795	85.5
324.024	87.5
324.253	84.5
324.482	81.5
324.71	91.5
324.939	93.5
325.168	92.5
325.397	95.5
325.626	94.5
325.855	88.5
326.084	71.5
326.313	92.5
326.542	109.5
326.77	91.5
326.999	92.5
327.228	85.5
327.457	89.5
327.686	94.5
327.914	98.5
328.143	110.5
328.372	77.5
328.6	87.5
328.829	97.5
329.058	103.5
329.287	89.5
329.515	87.5
329.744	104.5
329.972	96.5
330.201	85.5
330.43	84.5
330.658	85.5
330.887	89.5
331.115	92.5
331.344	93.5
331.572	85.5
331.801	88.5
332.03	78.5
332.258	82.5
332.486	106.5
332.715	87.5
332.943	80.5
333.172	85.5
333.4	82.5
333.629	88.5
333.857	87.5
334.085	88.5
334.314	90.5
334.542	83.5
334.771	103.5
334.999	87.5
335.227	87.5
335.455	104.5
335.684	86.5
335.912	85.5
336.14	74.5
336.369	74.5
336.597	103.5
336.825	95.5
337.053	104.5
337.281	75.5
337.51	97.5
337.738	104.5
337.966	83.5
338.194	80.5
338.422	82.5
338.65	84.5
338.878	95.5
339.106	80.5
339.334	101.5
339.562	70.5
339.79	86.5
340.018	92.5
340.246	81.5
340.474	77.5
340.702	82.5
340.93	90.5
341.158	89.5
341.386	85.5
341.614	81.5
341.842	87.5
342.07	88.5
342.298	73.5
342.526	86.5
342.754	79.5
342.981	89.5
343.209	88.5
343.437	109.5
343.665	97.5
343.893	96.5
344.12	85.5
344.348	91.5
344.576	83.5
344.804	75.5
345.031	96.5
345.259	91.5
345.487	83.5
345.714	100.5
345.942	87.5
346.17	75.5
346.397	94.5
346.625	73.5
346.853	79.5
347.08	95.5
347.308	93.5
347.535	93.5
347.763	91.5
347.99	85.5
348.218	85.5
348.445	83.5
348.673	95.5
348.9	87.5
349.128	88.5
349.355	91.5
349.583	85.5
349.81	92.5
350.037	84.5
350.265	87.5
350.492	89.5
350.72	88.5
350.947	96.5
351.174	82.5
351.402	92.5
351.629	90.5
351.856	77.5
352.083	78.5
352.311	101.5
352.538	89.5
352.765	90.5
352.992	106.5
353.22	87.5
353.447	73.5
353.674	72.5
353.901	89.5
354.128	94.5
354.355	80.5
354.583	77.5
354.81	79.5
355.037	87.5
355.264	86.5
355.491	107.5
355.718	89.5
355.945	98.5
356.172	93.5
356.399	86.5
356.626	97.5
356.853	91.5
357.08	84.5
357.307	95.5
357.534	95.5
357.761	88.5
357.988	90.5
358.215	73.5
358.441	80.5
358.668	79.5
358.895	93.5
359.122	85.5
359.349	92.5
359.576	101.5
359.802	81.5
360.029	93.5
360.256	96.5
360.483	93.5
360.709	77.5
360.936	93.5
361.163	95.5
361.39	96.5
361.616	86.5
361.843	89.5
362.07	94.5
362.296	83.5
362.523	89.5
362.749	86.5
362.976	77.5
363.203	110.5
363.429	78.5
363.656	91.5
363.882	89.5
364.109	82.5
364.335	76.5
364.562	95.5
364.788	83.5
365.015	93.5
365.241	86.5
365.468	74.5
365.694	79.5
365.92	78.5
366.147	90.5
366.373	82.5
366.599	99.5
366.826	88.5
367.052	74.5
367.278	91.5
367.505	84.5
367.731	86.5
367.957	82.5
368.184	87.5
368.41	83.5
368.636	79.5
368.862	74.5
369.089	66.5
369.315	84.5
369.541	87.5
369.767	91.5
369.993	94.5
370.219	79.5
370.445	83.5
370.672	82.5
370.898	101.5
371.124	97.5
371.35	87.5
371.576	96.5
371.802	82.5
372.028	87.5
372.254	95.5
372.48	86.5
372.706	85.5
372.932	95.5
373.158	99.5
373.384	76.5
373.61	92.5
373.835	92.5
374.061	90.5
374.287	104.5
374.513	90.5
374.739	89.5
374.965	95.5
375.191	94.5
375.416	90.5
375.642	74.5
375.868	92.5
376.094	83.5
376.319	83.5
376.545	101.5
376.771	85.5
376.997	91.5
377.222	87.5
377.448	105.5
377.674	74.5
377.899	88.5
378.125	74.5
378.35	92.5
378.576	88.5
378.802	94.5
379.027	91.5
379.253	97.5
379.478	81.5
379.704	89.5
379.929	81.5
380.155	94.5
380.38	83.5
380.606	77.5
380.831	86.5
381.057	95.5
381.282	92.5
381.507	88.5
381.733	91.5
381.958	84.5
382.184	81.5
382.409	87.5
382.634	87.5
382.86	97.5
383.085	93.5
383.31	92.5
383.535	91.5
383.761	85.5
383.986	87.5
384.211	97.5
384.436	83.5
384.662	95.5
384.887	83.5
385.112	95.5
385.337	77.5
385.562	90.5
385.787	89.5
386.013	93.5
386.238	98.5
386.463	72.5
386.688	98.5
386.913	89.5
387.138	78.5
387.363	78.5
387.588	76.5
387.813	107.5
388.038	81.5
388.263	80.5
388.488	99.5
388.713	90.5
388.938	103.5
389.163	81.5
389.387	85.5
389.612	90.5
389.837	93.5
390.062	95.5
390.287	78.5
390.512	87.5
390.736	76.5
390.961	90.5
391.186	97.5
391.411	78.5
391.636	83.5
391.86	105.5
392.085	96.5
392.31	82.5
392.534	99.5
392.759	72.5
392.984	87.5
393.208	79.5
393.433	103.5
393.658	86.5
393.882	87.5
394.107	95.5
394.331	86.5
394.556	74.5
394.78	84.5
395.005	86.5
395.229	88.5
395.454	90.5
395.678	98.5
395.903	95.5
396.127	85.5
396.352	81.5
396.576	90.5
396.801	90.5
397.025	87.5
397.249	91.5
397.474	105.5
397.698	93.5
397.922	87.5
398.147	101.5
398.371	85.5
398.595	86.5
398.82	77.5
399.044	99.5
399.268	85.5
399.492	84.5
399.717	96.5
399.941	96.5
400.165	102.5
400.389	97.5
400.613	82.5
400.837	94.5
401.062	84.5
401.286	81.5
401.51	77.5
401.734	90.5
401.958	83.5
402.182	102.5
402.406	93.5
402.63	88.5
402.854	99.5
403.078	96.5
403.302	97.5
403.526	92.5
403.75	79.5
403.974	89.5
404.198	81.5
404.422	89.5
404.645	85.5
404.869	108.5
405.093	101.5
405.317	81.5
405.541	82.5
405.765	89.5
405.988	77.5
406.212	90.5
406.436	74.5
406.66	80.5
406.883	98.5
407.107	82.5
407.331	98.5
407.555	95.5
407.778	94.5
408.002	83.5
408.226	95.5
408.449	93.5
408.673	98.5
408.896	82.5
409.12	77.5
409.344	87.5
409.567	97.5
409.791	85.5
410.014	87.5
410.238	97.5
410.461	94.5
410.685	94.5
410.908	102.5
411.132	95.5
411.355	88.5
411.578	88.5
411.802	80.5
412.025	81.5
412.249	85.5
412.472	103.5
412.695	96.5
412.919	91.5
413.142	82.5
413.365	99.5
413.589	90.5
413.812	92.5
414.035	87.5
414.258	92.5
414.482	86.5
414.705	82.5
414.928	88.5
415.151	91.5
415.374	91.5
415.597	84.5
415.821	78.5
416.044	86.5
416.267	74.5
416.49	110.5
416.713	93.5
416.936	95.5
417.159	85.5
417.382	94.5
417.605	96.5
417.828	86.5
418.051	82.5
418.274	85.5
418.497	91.5
418.72	85.5
418.943	106.5
419.166	94.5
419.389	90.5
419.611	94.5
419.834	87.5
420.057	92.5
420.28	85.5
420.503	94.5
420.726	107.5
420.948	97.5
421.171	94.5
421.394	96.5
421.617	82.5
421.839	85.5
422.062	93.5
422.285	65.5
422.507	93.5
422.73	94.5
422.953	91.5
423.175	94.5
423.398	90.5
423.621	94.5
423.843	84.5
424.066	86.5
424.288	106.5
424.511	77.5
424.733	101.5
424.956	98.5
425.178	88.5
425.401	79.5
425.623	94.5
425.846	77.5
426.068	91.5
426.291	92.5
426.513	89.5
426.735	89.5
426.958	93.5
427.18	77.5
427.402	74.5
427.625	93.5
427.847	91.5
428.069	75.5
428.292	96.5
428.514	82.5
428.736	81.5
428.958	101.5
429.181	86.5
429.403	100.5
429.625	87.5
429.847	94.5
430.069	92.5
430.292	80.5
430.514	84.5
430.736	98.5
430.958	83.5
431.18	94.5
431.402	85.5
431.624	87.5
431.846	89.5
432.068	95.5
432.29	76.5
432.512	92.5
432.734	89.5
432.956	84.5
433.178	82.5
433.4	85.5
433.622	82.5
433.844	97.5
434.066	96.5
434.287	88.5
434.509	97.5
434.731	85.5
434.953	73.5
435.175	77.5
435.397	82.5
435.618	86.5
435.84	88.5
436.062	88.5
436.284	88.5
436.505	78.5
436.727	86.5
436.949	93.5
437.17	89.5
437.392	94.5
437.614	97.5
437.835	74.5
438.057	82.5
438.278	81.5
438.5	78.5
438.721	79.5
438.943	92.5
439.165	87.5
439.386	79.5
439.608	86.5
439.829	93.5
440.05	103.5
440.272	101.5
440.493	91.5
440.715	85.5
440.936	73.5
441.158	92.5
441.379	78.5
441.6	80.5
441.822	94.5
442.043	102.5
442.264	90.5
442.486	98.5
442.707	81.5
442.928	103.5
443.149	96.5
443.371	93.5
443.592	90.5
443.813	91.5
444.034	94.5
444.255	88.5
444.476	97.5
444.698	98.5
444.919	95.5
445.14	150.5
445.361	107.5
445.582	92.5
445.803	91.5
446.024	90.5
446.245	91.5
446.466	88.5
446.687	76.5
446.908	89.5
447.129	93.5
447.35	87.5
447.571	97.5
447.792	87.5
448.013	80.5
448.234	83.5
448.455	88.5
448.675	87.5
448.896	91.5
449.117	93.5
449.338	75.5
449.559	95.5
449.779	79.5
450	110.5
450.221	82.5
450.442	91.5
450.662	88.5
450.883	89.5
451.104	86.5
451.324	86.5
451.545	92.5
451.766	107.5
451.986	94.5
452.207	105.5
452.428	90.5
452.648	86.5
452.869	89.5
453.089	78.5
453.31	76.5
453.53	77.5
453.751	86.5
453.971	93.5
454.192	90.5
454.412	87.5
454.633	85.5
454.853	72.5
455.073	89.5
455.294	96.5
455.514	101.5
455.734	85.5
455.955	89.5
456.175	86.5
456.395	81.5
456.616	89.5
456.836	109.5
457.056	88.5
457.276	84.5
457.497	90.5
457.717	89.5
457.937	81.5
458.157	87.5
458.377	91.5
458.598	101.5
458.818	85.5
459.038	87.5
459.258	91.5
459.478	92.5
459.698	90.5
459.918	97.5
460.138	96.5
460.358	106.5
460.578	109.5
460.798	105.5
461.018	98.5
461.238	75.5
461.458	83.5
461.678	89.5
461.898	74.5
462.118	103.5
462.338	106.5
462.558	106.5
462.777	92.5
462.997	73.5
463.217	80.5
463.437	93.5
463.657	92.5
463.876	103.5
464.096	81.5
464.316	112.5
464.536	90.5
464.755	87.5
464.975	107.5
465.195	89.5
465.414	78.5
465.634	94.5
465.854	95.5
466.073	87.5
466.293	106.5
466.512	92.5
466.732	98.5
466.951	95.5
467.171	89.5
467.391	81.5
467.61	89.5
467.829	86.5
468.049	76.5
468.268	77.5
468.488	97.5
468.707	97.5
468.927	97.5
469.146	85.5
469.365	87.5
469.585	93.5
469.804	99.5
470.023	90.5
470.243	83.5
470.462	83.5
470.681	88.5
470.901	93.5
471.12	82.5
471.339	91.5
471.558	84.5
471.777	82.5
471.997	87.5
472.216	93.5
472.435	93.5
472.654	75.5
472.873	87.5
473.092	82.5
473.311	92.5
473.53	106.5
473.749	91.5
473.968	94.5
474.187	87.5
474.406	82.5
474.625	88.5
474.844	89.5
475.063	87.5
475.282	97.5
475.501	87.5
475.72	84.5
475.939	98.5
476.158	87.5
476.377	85.5
476.596	89.5
476.814	91.5
477.033	94.5
477.252	98.5
477.471	88.5
477.69	102.5
477.908	92.5
478.127	98.5
478.346	101.5
478.564	85.5
478.783	97.5
479.002	89.5
479.22	87.5
479.439	85.5
479.658	76.5
479.876	102.5
480.095	75.5
480.313	98.5
480.532	97.5
480.751	92.5
480.969	90.5
481.188	98.5
481.406	82.5
481.624	99.5
481.843	103.5
482.061	77.5
482.28	89.5
482.498	89.5
482.717	99.5
482.935	88.5
483.153	97.5
483.372	89.5
483.59	98.5
483.808	92.5
484.027	89.5
484.245	93.5
484.463	83.5
484.681	109.5
484.9	90.5
485.118	89.5
485.336	80.5
485.554	99.5
485.772	82.5
485.99	73.5
486.209	101.5
486.427	93.5
486.645	86.5
486.863	91.5
487.081	87.5
487.299	78.5
487.517	89.5
487.735	96.5
487.953	85.5
488.171	97.5
488.389	115.5
488.607	96.5
488.825	91.5
489.043	92.5
489.261	93.5
489.479	84.5
489.696	101.5
489.914	98.5
490.132	101.5
490.35	96.5
490.568	80.5
490.786	86.5
491.003	91.5
491.221	97.5
491.439	85.5
491.657	79.5
491.874	86.5
492.092	93.5
492.31	108.5
492.527	95.5
492.745	96.5
492.963	101.5
493.18	80.5
493.398	80.5
493.615	85.5
493.833	101.5
494.05	90.5
494.268	82.5
494.485	89.5
494.703	90.5
494.92	83.5
495.138	104.5
495.355	102.5
495.573	93.5
495.79	96.5
496.008	97.5
496.225	91.5
496.442	102.5
496.66	111.5
496.877	82.5
497.094	87.5
497.312	79.5
497.529	88.5
497.746	87.5
497.963	91.5
498.181	105.5
498.398	103.5
498.615	98.5
498.832	96.5
499.049	94.5
499.267	105.5
499.484	98.5
499.701	98.5
499.918	114.5
500.135	103.5
500.352	94.5
500.569	99.5
500.786	108.5
501.003	111.5
501.22	105.5
501.437	101.5
501.654	101.5
501.871	97.5
502.088	101.5
502.305	86.5
502.522	89.5
502.739	89.5
502.956	94.5
503.172	105.5
503.389	102.5
503.606	89.5
503.823	91.5
504.04	84.5
504.256	98.5
504.473	107.5
504.69	100.5
504.907	87.5
505.123	80.5
505.34	89.5
505.557	90.5
505.773	90.5
505.99	75.5
506.207	94.5
506.423	102.5
506.64	91.5
506.856	98.5
507.073	83.5
507.289	92.5
507.506	89.5
507.722	90.5
507.939	93.5
508.155	94.5
508.372	101.5
508.588	81.5
508.805	77.5
509.021	84.5
509.238	94.5
509.454	90.5
509.67	88.5
509.887	96.5
510.103	91.5
510.319	105.5
510.536	106.5
510.752	103.5
510.968	94.5
511.184	74.5
511.401	90.5
511.617	90.5
511.833	83.5
512.049	94.5
512.265	98.5
512.481	98.5
512.698	99.5
512.914	103.5
513.13	90.5
513.346	91.5
513.562	90.5
513.778	91.5
513.994	90.5
514.21	93.5
514.426	73.5
514.642	96.5
514.858	105.5
515.074	97.5
515.29	89.5
515.506	90.5
515.721	89.5
515.937	94.5
516.153	87.5
516.369	88.5
516.585	81.5
516.801	94.5
517.016	102.5
517.232	94.5
517.448	108.5
517.664	87.5
517.879	113.5
518.095	102.5
518.311	101.5
518.527	91.5
518.742	90.5
518.958	93.5
519.173	88.5
519.389	94.5
519.605	89.5
519.82	93.5
520.036	94.5
520.251	85.5
520.467	94.5
520.682	93.5
520.898	104.5
521.113	105.5
521.329	106.5
521.544	93.5
521.76	83.5
521.975	79.5
522.19	95.5
522.406	95.5
522.621	82.5
522.836	97.5
523.052	86.5
523.267	85.5
523.482	83.5
523.698	92.5
523.913	83.5
524.128	93.5
524.343	80.5
524.559	87.5
524.774	81.5
524.989	79.5
525.204	80.5
525.419	101.5
525.634	82.5
525.849	82.5
526.064	91.5
526.28	93.5
526.495	99.5
526.71	90.5
526.925	78.5
527.14	88.5
527.355	89.5
527.57	93.5
527.785	97.5
527.999	87.5
528.214	101.5
528.429	88.5
528.644	93.5
528.859	92.5
529.074	90.5
529.289	81.5
529.503	96.5
529.718	95.5
529.933	89.5
530.148	95.5
530.363	76.5
530.577	74.5
530.792	87.5
531.007	91.5
531.221	89.5
531.436	91.5
531.651	97.5
531.865	95.5
532.08	88.5
532.295	82.5
532.509	84.5
532.724	97.5
532.938	93.5
533.153	82.5
533.367	80.5
533.582	73.5
533.796	87.5
534.011	90.5
534.225	93.5
534.44	94.5
534.654	97.5
534.868	73.5
535.083	87.5
535.297	98.5
535.511	94.5
535.726	84.5
535.94	109.5
536.154	90.5
536.369	89.5
536.583	93.5
536.797	91.5
537.011	84.5
537.225	95.5
537.44	89.5
537.654	96.5
537.868	85.5
538.082	103.5
538.296	89.5
538.51	79.5
538.724	85.5
538.938	92.5
