Data from BG_HRD10591_027.txt Node
Date: Fri May 16 15:21:07 EDT 2025
User: Yrep
Spectrometer: HR+D1059
Trigger mode: 1
Integration Time (sec): 1.000000E-1
Scans to average: 1
Electric dark correction enabled: true
Nonlinearity correction enabled: false
Boxcar width: 0
XAxis mode: Wavelengths
Number of Pixels in Spectrum: 2048
>>>>>Begin Spectral Data<<<<<
223.165	-19.38
223.4	-19.38
223.635	-19.38
223.869	-11.38
224.104	-24.38
224.338	-17.38
224.573	-20.38
224.808	-21.38
225.042	6.62
225.277	-3.38
225.511	10.62
225.746	-5.38
225.98	14.62
226.215	8.62
226.449	19.62
226.683	18.62
226.918	33.62
227.152	10.62
227.387	27.62
227.621	38.62
227.856	50.62
228.09	52.62
228.324	60.62
228.559	52.62
228.793	50.62
229.027	51.62
229.262	75.62
229.496	72.62
229.73	71.62
229.964	73.62
230.199	70.62
230.433	63.62
230.667	75.62
230.901	64.62
231.136	76.62
231.37	72.62
231.604	73.62
231.838	87.62
232.072	68.62
232.306	68.62
232.541	69.62
232.775	65.62
233.009	81.62
233.243	82.62
233.477	80.62
233.711	86.62
233.945	79.62
234.179	65.62
234.413	75.62
234.647	99.62
234.881	72.62
235.115	78.62
235.349	72.62
235.583	65.62
235.817	75.62
236.051	84.62
236.285	83.62
236.519	68.62
236.753	74.62
236.987	86.62
237.221	71.62
237.455	64.62
237.689	60.62
237.922	82.62
238.156	72.62
238.39	57.62
238.624	78.62
238.858	87.62
239.091	67.62
239.325	66.62
239.559	80.62
239.793	57.62
240.027	61.62
240.26	67.62
240.494	75.62
240.728	83.62
240.961	71.62
241.195	77.62
241.429	76.62
241.662	95.62
241.896	73.62
242.13	73.62
242.363	70.62
242.597	60.62
242.83	75.62
243.064	59.62
243.298	69.62
243.531	77.62
243.765	62.62
243.998	83.62
244.232	56.62
244.465	71.62
244.699	78.62
244.932	76.62
245.166	74.62
245.399	73.62
245.633	64.62
245.866	63.62
246.099	71.62
246.333	75.62
246.566	73.62
246.8	69.62
247.033	69.62
247.266	80.62
247.5	69.62
247.733	81.62
247.966	75.62
248.2	74.62
248.433	77.62
248.666	88.62
248.899	75.62
249.133	77.62
249.366	90.62
249.599	85.62
249.832	77.62
250.066	77.62
250.299	78.62
250.532	76.62
250.765	86.62
250.998	61.62
251.231	75.62
251.465	87.62
251.698	72.62
251.931	81.62
252.164	83.62
252.397	70.62
252.63	82.62
252.863	73.62
253.096	79.62
253.329	75.62
253.562	79.62
253.795	74.62
254.028	60.62
254.261	69.62
254.494	82.62
254.727	67.62
254.96	83.62
255.193	72.62
255.426	79.62
255.659	79.62
255.892	84.62
256.124	75.62
256.357	73.62
256.59	78.62
256.823	82.62
257.056	69.62
257.289	68.62
257.521	79.62
257.754	78.62
257.987	87.62
258.22	85.62
258.452	76.62
258.685	88.62
258.918	88.62
259.151	83.62
259.383	77.62
259.616	74.62
259.849	65.62
260.081	86.62
260.314	73.62
260.547	81.62
260.779	75.62
261.012	74.62
261.244	87.62
261.477	82.62
261.71	82.62
261.942	71.62
262.175	82.62
262.407	66.62
262.64	92.62
262.872	80.62
263.105	69.62
263.337	83.62
263.57	74.62
263.802	80.62
264.035	81.62
264.267	66.62
264.499	86.62
264.732	85.62
264.964	72.62
265.197	79.62
265.429	90.62
265.661	86.62
265.894	80.62
266.126	61.62
266.358	83.62
266.591	74.62
266.823	89.62
267.055	78.62
267.287	79.62
267.52	76.62
267.752	72.62
267.984	87.62
268.216	87.62
268.448	72.62
268.681	88.62
268.913	79.62
269.145	76.62
269.377	57.62
269.609	64.62
269.841	84.62
270.073	82.62
270.306	82.62
270.538	82.62
270.77	77.62
271.002	75.62
271.234	78.62
271.466	91.62
271.698	68.62
271.93	79.62
272.162	71.62
272.394	80.62
272.626	71.62
272.858	78.62
273.09	65.62
273.322	75.62
273.553	80.62
273.785	79.62
274.017	83.62
274.249	84.62
274.481	84.62
274.713	87.62
274.945	76.62
275.176	85.62
275.408	75.62
275.64	72.62
275.872	84.62
276.104	81.62
276.335	74.62
276.567	74.62
276.799	66.62
277.031	69.62
277.262	87.62
277.494	73.62
277.726	71.62
277.957	84.62
278.189	83.62
278.421	85.62
278.652	85.62
278.884	90.62
279.115	70.62
279.347	89.62
279.579	75.62
279.81	70.62
280.042	87.62
280.273	94.62
280.505	85.62
280.736	87.62
280.968	83.62
281.199	75.62
281.431	68.62
281.662	69.62
281.894	67.62
282.125	100.62
282.356	81.62
282.588	71.62
282.819	67.62
283.051	69.62
283.282	72.62
283.513	72.62
283.745	81.62
283.976	83.62
284.207	89.62
284.439	102.62
284.67	75.62
284.901	90.62
285.132	66.62
285.364	59.62
285.595	77.62
285.826	83.62
286.057	63.62
286.288	79.62
286.52	87.62
286.751	84.62
286.982	92.62
287.213	86.62
287.444	82.62
287.675	73.62
287.906	81.62
288.138	76.62
288.369	80.62
288.6	77.62
288.831	83.62
289.062	67.62
289.293	75.62
289.524	81.62
289.755	81.62
289.986	76.62
290.217	62.62
290.448	83.62
290.679	90.62
290.91	69.62
291.141	63.62
291.371	75.62
291.602	84.62
291.833	88.62
292.064	75.62
292.295	85.62
292.526	75.62
292.757	85.62
292.987	75.62
293.218	80.62
293.449	71.62
293.68	77.62
293.91	69.62
294.141	91.62
294.372	79.62
294.603	77.62
294.833	78.62
295.064	84.62
295.295	88.62
295.525	88.62
295.756	71.62
295.987	81.62
296.217	68.62
296.448	71.62
296.679	83.62
296.909	91.62
297.14	73.62
297.37	87.62
297.601	63.62
297.831	56.62
298.062	87.62
298.292	80.62
298.523	92.62
298.753	99.62
298.984	84.62
299.214	79.62
299.445	86.62
299.675	67.62
299.905	83.62
300.136	80.62
300.366	69.62
300.597	86.62
300.827	90.62
301.057	76.62
301.288	87.62
301.518	74.62
301.748	83.62
301.979	92.62
302.209	79.62
302.439	85.62
302.669	81.62
302.9	69.62
303.13	76.62
303.36	87.62
303.59	87.62
303.82	75.62
304.051	84.62
304.281	79.62
304.511	87.62
304.741	74.62
304.971	90.62
305.201	71.62
305.431	72.62
305.661	79.62
305.891	75.62
306.121	84.62
306.352	74.62
306.582	86.62
306.812	78.62
307.042	95.62
307.272	69.62
307.502	85.62
307.731	95.62
307.961	86.62
308.191	83.62
308.421	92.62
308.651	83.62
308.881	83.62
309.111	75.62
309.341	84.62
309.571	70.62
309.8	66.62
310.03	82.62
310.26	98.62
310.49	97.62
310.72	91.62
310.949	79.62
311.179	79.62
311.409	82.62
311.639	87.62
311.868	83.62
312.098	92.62
312.328	81.62
312.557	88.62
312.787	84.62
313.017	84.62
313.246	71.62
313.476	78.62
313.706	83.62
313.935	65.62
314.165	77.62
314.394	88.62
314.624	86.62
314.853	79.62
315.083	87.62
315.312	68.62
315.542	89.62
315.771	82.62
316.001	77.62
316.23	82.62
316.46	78.62
316.689	85.62
316.919	79.62
317.148	82.62
317.377	79.62
317.607	90.62
317.836	76.62
318.065	72.62
318.295	78.62
318.524	75.62
318.753	75.62
318.983	79.62
319.212	84.62
319.441	76.62
319.67	75.62
319.9	83.62
320.129	81.62
320.358	83.62
320.587	78.62
320.816	81.62
321.046	84.62
321.275	90.62
321.504	71.62
321.733	84.62
321.962	95.62
322.191	76.62
322.42	88.62
322.649	89.62
322.878	84.62
323.108	77.62
323.337	77.62
323.566	91.62
323.795	76.62
324.024	83.62
324.253	67.62
324.482	70.62
324.71	69.62
324.939	62.62
325.168	79.62
325.397	82.62
325.626	89.62
325.855	67.62
326.084	76.62
326.313	69.62
326.542	89.62
326.77	79.62
326.999	86.62
327.228	75.62
327.457	87.62
327.686	68.62
327.914	81.62
328.143	81.62
328.372	76.62
328.6	89.62
328.829	88.62
329.058	60.62
329.287	79.62
329.515	71.62
329.744	90.62
329.972	86.62
330.201	86.62
330.43	74.62
330.658	59.62
330.887	88.62
331.115	69.62
331.344	82.62
331.572	85.62
331.801	79.62
332.03	92.62
332.258	84.62
332.486	84.62
332.715	83.62
332.943	73.62
333.172	71.62
333.4	69.62
333.629	81.62
333.857	95.62
334.085	81.62
334.314	77.62
334.542	76.62
334.771	82.62
334.999	100.62
335.227	77.62
335.455	84.62
335.684	82.62
335.912	70.62
336.14	88.62
336.369	77.62
336.597	68.62
336.825	84.62
337.053	81.62
337.281	85.62
337.51	73.62
337.738	81.62
337.966	75.62
338.194	87.62
338.422	86.62
338.65	65.62
338.878	88.62
339.106	76.62
339.334	83.62
339.562	91.62
339.79	92.62
340.018	74.62
340.246	73.62
340.474	88.62
340.702	71.62
340.93	80.62
341.158	80.62
341.386	64.62
341.614	86.62
341.842	68.62
342.07	85.62
342.298	81.62
342.526	85.62
342.754	79.62
342.981	87.62
343.209	83.62
343.437	90.62
343.665	79.62
343.893	77.62
344.12	85.62
344.348	80.62
344.576	82.62
344.804	83.62
345.031	70.62
345.259	81.62
345.487	82.62
345.714	93.62
345.942	82.62
346.17	80.62
346.397	73.62
346.625	78.62
346.853	81.62
347.08	76.62
347.308	84.62
347.535	72.62
347.763	71.62
347.99	95.62
348.218	77.62
348.445	69.62
348.673	79.62
348.9	81.62
349.128	76.62
349.355	85.62
349.583	80.62
349.81	78.62
350.037	69.62
350.265	84.62
350.492	67.62
350.72	70.62
350.947	75.62
351.174	80.62
351.402	74.62
351.629	83.62
351.856	76.62
352.083	61.62
352.311	77.62
352.538	77.62
352.765	85.62
352.992	85.62
353.22	75.62
353.447	81.62
353.674	65.62
353.901	82.62
354.128	86.62
354.355	81.62
354.583	75.62
354.81	89.62
355.037	69.62
355.264	72.62
355.491	79.62
355.718	81.62
355.945	84.62
356.172	86.62
356.399	83.62
356.626	84.62
356.853	71.62
357.08	91.62
357.307	67.62
357.534	81.62
357.761	81.62
357.988	82.62
358.215	84.62
358.441	79.62
358.668	89.62
358.895	87.62
359.122	88.62
359.349	75.62
359.576	73.62
359.802	72.62
360.029	82.62
360.256	77.62
360.483	81.62
360.709	69.62
360.936	92.62
361.163	76.62
361.39	72.62
361.616	71.62
361.843	91.62
362.07	80.62
362.296	79.62
362.523	69.62
362.749	60.62
362.976	75.62
363.203	83.62
363.429	74.62
363.656	76.62
363.882	69.62
364.109	72.62
364.335	83.62
364.562	85.62
364.788	91.62
365.015	97.62
365.241	79.62
365.468	61.62
365.694	81.62
365.92	82.62
366.147	80.62
366.373	63.62
366.599	83.62
366.826	83.62
367.052	64.62
367.278	80.62
367.505	90.62
367.731	86.62
367.957	81.62
368.184	72.62
368.41	74.62
368.636	88.62
368.862	93.62
369.089	88.62
369.315	81.62
369.541	60.62
369.767	67.62
369.993	87.62
370.219	83.62
370.445	70.62
370.672	71.62
370.898	74.62
371.124	75.62
371.35	73.62
371.576	80.62
371.802	83.62
372.028	69.62
372.254	81.62
372.48	76.62
372.706	66.62
372.932	73.62
373.158	74.62
373.384	82.62
373.61	76.62
373.835	80.62
374.061	85.62
374.287	77.62
374.513	71.62
374.739	82.62
374.965	83.62
375.191	66.62
375.416	79.62
375.642	79.62
375.868	83.62
376.094	77.62
376.319	91.62
376.545	69.62
376.771	69.62
376.997	61.62
377.222	76.62
377.448	79.62
377.674	75.62
377.899	86.62
378.125	84.62
378.35	73.62
378.576	75.62
378.802	87.62
379.027	92.62
379.253	85.62
379.478	72.62
379.704	85.62
379.929	80.62
380.155	76.62
380.38	72.62
380.606	75.62
380.831	61.62
381.057	80.62
381.282	71.62
381.507	91.62
381.733	74.62
381.958	80.62
382.184	73.62
382.409	76.62
382.634	78.62
382.86	80.62
383.085	69.62
383.31	90.62
383.535	79.62
383.761	80.62
383.986	87.62
384.211	81.62
384.436	82.62
384.662	70.62
384.887	89.62
385.112	80.62
385.337	75.62
385.562	83.62
385.787	80.62
386.013	71.62
386.238	80.62
386.463	78.62
386.688	77.62
386.913	87.62
387.138	99.62
387.363	71.62
387.588	65.62
387.813	80.62
388.038	79.62
388.263	72.62
388.488	81.62
388.713	65.62
388.938	82.62
389.163	86.62
389.387	85.62
389.612	73.62
389.837	69.62
390.062	82.62
390.287	76.62
390.512	82.62
390.736	78.62
390.961	68.62
391.186	79.62
391.411	79.62
391.636	81.62
391.86	70.62
392.085	72.62
392.31	62.62
392.534	74.62
392.759	69.62
392.984	82.62
393.208	89.62
393.433	76.62
393.658	68.62
393.882	82.62
394.107	83.62
394.331	78.62
394.556	83.62
394.78	85.62
395.005	79.62
395.229	79.62
395.454	71.62
395.678	71.62
395.903	70.62
396.127	84.62
396.352	85.62
396.576	90.62
396.801	90.62
397.025	88.62
397.249	88.62
397.474	81.62
397.698	85.62
397.922	73.62
398.147	79.62
398.371	83.62
398.595	79.62
398.82	62.62
399.044	82.62
399.268	75.62
399.492	83.62
399.717	88.62
399.941	83.62
400.165	87.62
400.389	83.62
400.613	88.62
400.837	87.62
401.062	71.62
401.286	83.62
401.51	76.62
401.734	76.62
401.958	75.62
402.182	91.62
402.406	82.62
402.63	74.62
402.854	76.62
403.078	73.62
403.302	75.62
403.526	83.62
403.75	79.62
403.974	71.62
404.198	70.62
404.422	84.62
404.645	74.62
404.869	85.62
405.093	59.62
405.317	91.62
405.541	67.62
405.765	82.62
405.988	67.62
406.212	90.62
406.436	74.62
406.66	83.62
406.883	68.62
407.107	70.62
407.331	71.62
407.555	67.62
407.778	70.62
408.002	80.62
408.226	85.62
408.449	75.62
408.673	66.62
408.896	74.62
409.12	74.62
409.344	85.62
409.567	69.62
409.791	80.62
410.014	64.62
410.238	69.62
410.461	70.62
410.685	74.62
410.908	72.62
411.132	90.62
411.355	84.62
411.578	83.62
411.802	81.62
412.025	65.62
412.249	70.62
412.472	67.62
412.695	78.62
412.919	85.62
413.142	75.62
413.365	73.62
413.589	83.62
413.812	79.62
414.035	75.62
414.258	77.62
414.482	81.62
414.705	73.62
414.928	85.62
415.151	72.62
415.374	67.62
415.597	57.62
415.821	76.62
416.044	74.62
416.267	75.62
416.49	82.62
416.713	85.62
416.936	71.62
417.159	84.62
417.382	83.62
417.605	67.62
417.828	85.62
418.051	88.62
418.274	83.62
418.497	86.62
418.72	82.62
418.943	84.62
419.166	77.62
419.389	86.62
419.611	76.62
419.834	75.62
420.057	76.62
420.28	77.62
420.503	79.62
420.726	71.62
420.948	86.62
421.171	85.62
421.394	84.62
421.617	69.62
421.839	75.62
422.062	73.62
422.285	52.62
422.507	79.62
422.73	82.62
422.953	86.62
423.175	59.62
423.398	56.62
423.621	76.62
423.843	78.62
424.066	71.62
424.288	77.62
424.511	73.62
424.733	67.62
424.956	79.62
425.178	67.62
425.401	76.62
425.623	68.62
425.846	78.62
426.068	74.62
426.291	75.62
426.513	91.62
426.735	93.62
426.958	85.62
427.18	84.62
427.402	68.62
427.625	86.62
427.847	85.62
428.069	66.62
428.292	76.62
428.514	86.62
428.736	77.62
428.958	74.62
429.181	92.62
429.403	81.62
429.625	63.62
429.847	76.62
430.069	75.62
430.292	91.62
430.514	87.62
430.736	67.62
430.958	80.62
431.18	79.62
431.402	80.62
431.624	76.62
431.846	73.62
432.068	80.62
432.29	75.62
432.512	73.62
432.734	80.62
432.956	80.62
433.178	83.62
433.4	79.62
433.622	74.62
433.844	75.62
434.066	75.62
434.287	82.62
434.509	83.62
434.731	79.62
434.953	95.62
435.175	73.62
435.397	70.62
435.618	63.62
435.84	83.62
436.062	76.62
436.284	67.62
436.505	75.62
436.727	79.62
436.949	81.62
437.17	76.62
437.392	70.62
437.614	67.62
437.835	80.62
438.057	83.62
438.278	87.62
438.5	76.62
438.721	79.62
438.943	70.62
439.165	59.62
439.386	69.62
439.608	68.62
439.829	80.62
440.05	73.62
440.272	65.62
440.493	66.62
440.715	81.62
440.936	79.62
441.158	66.62
441.379	84.62
441.6	76.62
441.822	65.62
442.043	82.62
442.264	77.62
442.486	77.62
442.707	80.62
442.928	80.62
443.149	68.62
443.371	67.62
443.592	80.62
443.813	78.62
444.034	84.62
444.255	99.62
444.476	84.62
444.698	71.62
444.919	66.62
445.14	148.62
445.361	102.62
445.582	67.62
445.803	80.62
446.024	83.62
446.245	71.62
446.466	76.62
446.687	70.62
446.908	68.62
447.129	61.62
447.35	73.62
447.571	78.62
447.792	72.62
448.013	68.62
448.234	80.62
448.455	70.62
448.675	67.62
448.896	79.62
449.117	86.62
449.338	87.62
449.559	76.62
449.779	69.62
450	66.62
450.221	71.62
450.442	83.62
450.662	71.62
450.883	69.62
451.104	67.62
451.324	73.62
451.545	84.62
451.766	84.62
451.986	87.62
452.207	85.62
452.428	84.62
452.648	80.62
452.869	88.62
453.089	63.62
453.31	65.62
453.53	76.62
453.751	79.62
453.971	72.62
454.192	85.62
454.412	75.62
454.633	81.62
454.853	87.62
455.073	63.62
455.294	62.62
455.514	70.62
455.734	72.62
455.955	76.62
456.175	81.62
456.395	81.62
456.616	80.62
456.836	71.62
457.056	80.62
457.276	73.62
457.497	75.62
457.717	70.62
457.937	76.62
458.157	71.62
458.377	79.62
458.598	65.62
458.818	80.62
459.038	69.62
459.258	74.62
459.478	82.62
459.698	81.62
459.918	80.62
460.138	90.62
460.358	66.62
460.578	83.62
460.798	71.62
461.018	67.62
461.238	90.62
461.458	93.62
461.678	74.62
461.898	66.62
462.118	93.62
462.338	79.62
462.558	68.62
462.777	92.62
462.997	79.62
463.217	77.62
463.437	73.62
463.657	77.62
463.876	85.62
464.096	81.62
464.316	72.62
464.536	78.62
464.755	89.62
464.975	75.62
465.195	77.62
465.414	71.62
465.634	68.62
465.854	73.62
466.073	81.62
466.293	92.62
466.512	85.62
466.732	76.62
466.951	87.62
467.171	85.62
467.391	65.62
467.61	99.62
467.829	91.62
468.049	92.62
468.268	79.62
468.488	77.62
468.707	86.62
468.927	75.62
469.146	80.62
469.365	88.62
469.585	86.62
469.804	77.62
470.023	78.62
470.243	75.62
470.462	79.62
470.681	86.62
470.901	82.62
471.12	87.62
471.339	78.62
471.558	62.62
471.777	72.62
471.997	82.62
472.216	81.62
472.435	81.62
472.654	84.62
472.873	81.62
473.092	81.62
473.311	79.62
473.53	71.62
473.749	85.62
473.968	78.62
474.187	87.62
474.406	81.62
474.625	96.62
474.844	75.62
475.063	73.62
475.282	78.62
475.501	83.62
475.72	90.62
475.939	83.62
476.158	82.62
476.377	76.62
476.596	78.62
476.814	84.62
477.033	81.62
477.252	77.62
477.471	77.62
477.69	74.62
477.908	89.62
478.127	85.62
478.346	74.62
478.564	75.62
478.783	102.62
479.002	68.62
479.22	73.62
479.439	90.62
479.658	76.62
479.876	77.62
480.095	69.62
480.313	78.62
480.532	78.62
480.751	74.62
480.969	72.62
481.188	83.62
481.406	74.62
481.624	67.62
481.843	76.62
482.061	71.62
482.28	68.62
482.498	88.62
482.717	85.62
482.935	81.62
483.153	92.62
483.372	76.62
483.59	76.62
483.808	84.62
484.027	71.62
484.245	75.62
484.463	90.62
484.681	74.62
484.9	67.62
485.118	80.62
485.336	81.62
485.554	82.62
485.772	79.62
485.99	80.62
486.209	75.62
486.427	77.62
486.645	62.62
486.863	68.62
487.081	80.62
487.299	95.62
487.517	83.62
487.735	67.62
487.953	75.62
488.171	73.62
488.389	99.62
488.607	80.62
488.825	83.62
489.043	82.62
489.261	69.62
489.479	90.62
489.696	83.62
489.914	83.62
490.132	75.62
490.35	89.62
490.568	75.62
490.786	77.62
491.003	83.62
491.221	75.62
491.439	91.62
491.657	70.62
491.874	86.62
492.092	75.62
492.31	73.62
492.527	84.62
492.745	85.62
492.963	69.62
493.18	71.62
493.398	72.62
493.615	80.62
493.833	76.62
494.05	85.62
494.268	83.62
494.485	83.62
494.703	77.62
494.92	86.62
495.138	85.62
495.355	85.62
495.573	84.62
495.79	86.62
496.008	75.62
496.225	71.62
496.442	80.62
496.66	83.62
496.877	82.62
497.094	95.62
497.312	81.62
497.529	84.62
497.746	78.62
497.963	72.62
498.181	79.62
498.398	67.62
498.615	71.62
498.832	92.62
499.049	85.62
499.267	83.62
499.484	73.62
499.701	86.62
499.918	53.62
500.135	82.62
500.352	90.62
500.569	76.62
500.786	76.62
501.003	83.62
501.22	84.62
501.437	75.62
501.654	59.62
501.871	88.62
502.088	78.62
502.305	81.62
502.522	67.62
502.739	92.62
502.956	76.62
503.172	80.62
503.389	91.62
503.606	77.62
503.823	80.62
504.04	73.62
504.256	80.62
504.473	88.62
504.69	76.62
504.907	90.62
505.123	81.62
505.34	71.62
505.557	66.62
505.773	69.62
505.99	83.62
506.207	82.62
506.423	65.62
506.64	83.62
506.856	67.62
507.073	70.62
507.289	87.62
507.506	82.62
507.722	67.62
507.939	71.62
508.155	87.62
508.372	86.62
508.588	83.62
508.805	82.62
509.021	85.62
509.238	78.62
509.454	75.62
509.67	85.62
509.887	79.62
510.103	79.62
510.319	85.62
510.536	62.62
510.752	77.62
510.968	79.62
511.184	73.62
511.401	86.62
511.617	84.62
511.833	81.62
512.049	87.62
512.265	72.62
512.481	84.62
512.698	83.62
512.914	67.62
513.13	88.62
513.346	77.62
513.562	74.62
513.778	73.62
513.994	84.62
514.21	71.62
514.426	87.62
514.642	85.62
514.858	76.62
515.074	84.62
515.29	90.62
515.506	90.62
515.721	90.62
515.937	78.62
516.153	72.62
516.369	76.62
516.585	74.62
516.801	66.62
517.016	71.62
517.232	71.62
517.448	76.62
517.664	82.62
517.879	81.62
518.095	91.62
518.311	69.62
518.527	75.62
518.742	75.62
518.958	75.62
519.173	92.62
519.389	72.62
519.605	76.62
519.82	76.62
520.036	88.62
520.251	76.62
