Data from BG_HRD10591_039.txt Node
Date: Fri May 16 15:21:13 EDT 2025
User: Yrep
Spectrometer: HR+D1059
Trigger mode: 1
Integration Time (sec): 1.000000E-1
Scans to average: 1
Electric dark correction enabled: true
Nonlinearity correction enabled: false
Boxcar width: 0
XAxis mode: Wavelengths
Number of Pixels in Spectrum: 2048
>>>>>Begin Spectral Data<<<<<
223.165	-15.19
223.4	-15.19
223.635	-15.19
223.869	-24.19
224.104	-24.19
224.338	-18.19
224.573	-25.19
224.808	-27.19
225.042	-0.19
225.277	-11.19
225.511	-1.19
225.746	0.81
225.98	14.81
226.215	24.81
226.449	17.81
226.683	20.81
226.918	27.81
227.152	39.81
227.387	26.81
227.621	36.81
227.856	30.81
228.09	40.81
228.324	53.81
228.559	46.81
228.793	62.81
229.027	61.81
229.262	78.81
229.496	61.81
229.73	60.81
229.964	68.81
230.199	70.81
230.433	66.81
230.667	77.81
230.901	76.81
231.136	74.81
231.37	72.81
231.604	81.81
231.838	78.81
232.072	78.81
232.306	70.81
232.541	70.81
232.775	68.81
233.009	70.81
233.243	78.81
233.477	73.81
233.711	96.81
233.945	84.81
234.179	72.81
234.413	71.81
234.647	81.81
234.881	77.81
235.115	67.81
235.349	84.81
235.583	61.81
235.817	60.81
236.051	78.81
236.285	71.81
236.519	88.81
236.753	76.81
236.987	75.81
237.221	74.81
237.455	82.81
237.689	75.81
237.922	78.81
238.156	71.81
238.39	60.81
238.624	63.81
238.858	69.81
239.091	77.81
239.325	66.81
239.559	74.81
239.793	83.81
240.027	84.81
240.26	92.81
240.494	70.81
240.728	75.81
240.961	68.81
241.195	82.81
241.429	82.81
241.662	77.81
241.896	86.81
242.13	68.81
242.363	72.81
242.597	64.81
242.83	73.81
243.064	88.81
243.298	85.81
243.531	74.81
243.765	75.81
243.998	88.81
244.232	68.81
244.465	80.81
244.699	82.81
244.932	83.81
245.166	80.81
245.399	67.81
245.633	80.81
245.866	68.81
246.099	76.81
246.333	72.81
246.566	68.81
246.8	84.81
247.033	80.81
247.266	85.81
247.5	75.81
247.733	78.81
247.966	78.81
248.2	83.81
248.433	76.81
248.666	79.81
248.899	85.81
249.133	78.81
249.366	79.81
249.599	69.81
249.832	74.81
250.066	94.81
250.299	76.81
250.532	80.81
250.765	64.81
250.998	82.81
251.231	66.81
251.465	83.81
251.698	86.81
251.931	66.81
252.164	73.81
252.397	95.81
252.63	77.81
252.863	85.81
253.096	68.81
253.329	75.81
253.562	73.81
253.795	74.81
254.028	85.81
254.261	79.81
254.494	86.81
254.727	76.81
254.96	83.81
255.193	84.81
255.426	72.81
255.659	84.81
255.892	73.81
256.124	82.81
256.357	96.81
256.59	90.81
256.823	86.81
257.056	83.81
257.289	74.81
257.521	78.81
257.754	64.81
257.987	76.81
258.22	74.81
258.452	71.81
258.685	80.81
258.918	80.81
259.151	87.81
259.383	87.81
259.616	81.81
259.849	80.81
260.081	93.81
260.314	89.81
260.547	73.81
260.779	93.81
261.012	91.81
261.244	84.81
261.477	74.81
261.71	74.81
261.942	85.81
262.175	65.81
262.407	84.81
262.64	80.81
262.872	81.81
263.105	93.81
263.337	84.81
263.57	79.81
263.802	95.81
264.035	76.81
264.267	79.81
264.499	78.81
264.732	84.81
264.964	77.81
265.197	78.81
265.429	82.81
265.661	83.81
265.894	76.81
266.126	94.81
266.358	76.81
266.591	82.81
266.823	87.81
267.055	80.81
267.287	89.81
267.52	83.81
267.752	84.81
267.984	84.81
268.216	78.81
268.448	85.81
268.681	94.81
268.913	69.81
269.145	73.81
269.377	84.81
269.609	86.81
269.841	88.81
270.073	95.81
270.306	78.81
270.538	82.81
270.77	82.81
271.002	92.81
271.234	91.81
271.466	85.81
271.698	78.81
271.93	86.81
272.162	73.81
272.394	96.81
272.626	100.81
272.858	84.81
273.09	86.81
273.322	95.81
273.553	73.81
273.785	82.81
274.017	90.81
274.249	69.81
274.481	89.81
274.713	86.81
274.945	91.81
275.176	92.81
275.408	85.81
275.64	93.81
275.872	82.81
276.104	85.81
276.335	87.81
276.567	95.81
276.799	84.81
277.031	86.81
277.262	93.81
277.494	82.81
277.726	73.81
277.957	63.81
278.189	79.81
278.421	88.81
278.652	90.81
278.884	87.81
279.115	94.81
279.347	74.81
279.579	84.81
279.81	70.81
280.042	74.81
280.273	88.81
280.505	78.81
280.736	86.81
280.968	88.81
281.199	76.81
281.431	91.81
281.662	84.81
281.894	72.81
282.125	64.81
282.356	89.81
282.588	87.81
282.819	88.81
283.051	87.81
283.282	78.81
283.513	88.81
283.745	74.81
283.976	79.81
284.207	81.81
284.439	83.81
284.67	96.81
284.901	83.81
285.132	89.81
285.364	91.81
285.595	90.81
285.826	78.81
286.057	94.81
286.288	99.81
286.52	82.81
286.751	91.81
286.982	93.81
287.213	79.81
287.444	90.81
287.675	83.81
287.906	78.81
288.138	86.81
288.369	83.81
288.6	70.81
288.831	82.81
289.062	93.81
289.293	74.81
289.524	77.81
289.755	84.81
289.986	71.81
290.217	87.81
290.448	77.81
290.679	93.81
290.91	76.81
291.141	92.81
291.371	89.81
291.602	106.81
291.833	89.81
292.064	102.81
292.295	85.81
292.526	78.81
292.757	78.81
292.987	93.81
293.218	85.81
293.449	96.81
293.68	90.81
293.91	82.81
294.141	93.81
294.372	91.81
294.603	92.81
294.833	73.81
295.064	84.81
295.295	80.81
295.525	86.81
295.756	92.81
295.987	92.81
296.217	99.81
296.448	77.81
296.679	106.81
296.909	86.81
297.14	74.81
297.37	85.81
297.601	88.81
297.831	76.81
298.062	85.81
298.292	86.81
298.523	77.81
298.753	87.81
298.984	88.81
299.214	98.81
299.445	91.81
299.675	86.81
299.905	84.81
300.136	94.81
300.366	94.81
300.597	91.81
300.827	82.81
301.057	86.81
301.288	71.81
301.518	104.81
301.748	88.81
301.979	86.81
302.209	89.81
302.439	80.81
302.669	89.81
302.9	78.81
303.13	83.81
303.36	82.81
303.59	82.81
303.82	83.81
304.051	75.81
304.281	95.81
304.511	93.81
304.741	85.81
304.971	78.81
305.201	84.81
305.431	93.81
305.661	100.81
305.891	86.81
306.121	86.81
306.352	81.81
306.582	96.81
306.812	79.81
307.042	84.81
307.272	80.81
307.502	93.81
307.731	94.81
307.961	75.81
308.191	86.81
308.421	89.81
308.651	95.81
308.881	106.81
309.111	89.81
309.341	76.81
309.571	89.81
309.8	86.81
310.03	88.81
310.26	106.81
310.49	94.81
310.72	73.81
310.949	86.81
311.179	80.81
311.409	93.81
311.639	88.81
311.868	86.81
312.098	90.81
312.328	84.81
312.557	94.81
312.787	88.81
313.017	85.81
313.246	93.81
313.476	88.81
313.706	98.81
313.935	98.81
314.165	79.81
314.394	88.81
314.624	94.81
314.853	95.81
315.083	88.81
315.312	96.81
315.542	95.81
315.771	93.81
316.001	88.81
316.23	83.81
316.46	96.81
316.689	84.81
316.919	89.81
317.148	86.81
317.377	83.81
317.607	84.81
317.836	84.81
318.065	93.81
318.295	93.81
318.524	91.81
318.753	85.81
318.983	78.81
319.212	84.81
319.441	91.81
319.67	103.81
319.9	86.81
320.129	86.81
320.358	85.81
320.587	80.81
320.816	85.81
321.046	84.81
321.275	91.81
321.504	84.81
321.733	85.81
321.962	74.81
322.191	86.81
322.42	96.81
322.649	88.81
322.878	100.81
323.108	87.81
323.337	88.81
323.566	90.81
323.795	84.81
324.024	76.81
324.253	100.81
324.482	81.81
324.71	90.81
324.939	83.81
325.168	82.81
325.397	91.81
325.626	95.81
325.855	85.81
326.084	89.81
326.313	82.81
326.542	88.81
326.77	74.81
326.999	82.81
327.228	87.81
327.457	91.81
327.686	89.81
327.914	86.81
328.143	97.81
328.372	95.81
328.6	78.81
328.829	79.81
329.058	88.81
329.287	91.81
329.515	76.81
329.744	82.81
329.972	94.81
330.201	86.81
330.43	86.81
330.658	84.81
330.887	82.81
331.115	86.81
331.344	80.81
331.572	94.81
331.801	85.81
332.03	85.81
332.258	94.81
332.486	87.81
332.715	74.81
332.943	76.81
333.172	84.81
333.4	89.81
333.629	85.81
333.857	89.81
334.085	79.81
334.314	83.81
334.542	83.81
334.771	87.81
334.999	88.81
335.227	96.81
335.455	95.81
335.684	100.81
335.912	87.81
336.14	98.81
336.369	85.81
336.597	79.81
336.825	86.81
337.053	79.81
337.281	84.81
337.51	96.81
337.738	91.81
337.966	83.81
338.194	94.81
338.422	84.81
338.65	76.81
338.878	91.81
339.106	96.81
339.334	85.81
339.562	75.81
339.79	82.81
340.018	84.81
340.246	96.81
340.474	88.81
340.702	95.81
340.93	83.81
341.158	93.81
341.386	90.81
341.614	93.81
341.842	86.81
342.07	91.81
342.298	89.81
342.526	87.81
342.754	100.81
342.981	88.81
343.209	94.81
343.437	92.81
343.665	105.81
343.893	86.81
344.12	86.81
344.348	86.81
344.576	87.81
344.804	82.81
345.031	93.81
345.259	96.81
345.487	79.81
345.714	88.81
345.942	91.81
346.17	91.81
346.397	89.81
346.625	88.81
346.853	77.81
347.08	84.81
347.308	79.81
347.535	84.81
347.763	84.81
347.99	81.81
348.218	83.81
348.445	86.81
348.673	79.81
348.9	86.81
349.128	85.81
349.355	96.81
349.583	104.81
349.81	90.81
350.037	96.81
350.265	100.81
350.492	82.81
350.72	83.81
350.947	80.81
351.174	79.81
351.402	85.81
351.629	95.81
351.856	90.81
352.083	82.81
352.311	100.81
352.538	100.81
352.765	94.81
352.992	102.81
353.22	75.81
353.447	78.81
353.674	89.81
353.901	71.81
354.128	83.81
354.355	91.81
354.583	96.81
354.81	80.81
355.037	90.81
355.264	92.81
355.491	83.81
355.718	82.81
355.945	82.81
356.172	79.81
356.399	100.81
356.626	93.81
356.853	92.81
357.08	93.81
357.307	93.81
357.534	79.81
357.761	101.81
357.988	92.81
358.215	77.81
358.441	88.81
358.668	91.81
358.895	92.81
359.122	82.81
359.349	102.81
359.576	78.81
359.802	80.81
360.029	101.81
360.256	93.81
360.483	92.81
360.709	82.81
360.936	92.81
361.163	64.81
361.39	95.81
361.616	85.81
361.843	87.81
362.07	85.81
362.296	95.81
362.523	91.81
362.749	86.81
362.976	88.81
363.203	82.81
363.429	77.81
363.656	81.81
363.882	90.81
364.109	76.81
364.335	107.81
364.562	80.81
364.788	73.81
365.015	89.81
365.241	100.81
365.468	84.81
365.694	82.81
365.92	86.81
366.147	78.81
366.373	87.81
366.599	73.81
366.826	84.81
367.052	73.81
367.278	78.81
367.505	92.81
367.731	70.81
367.957	84.81
368.184	93.81
368.41	88.81
368.636	94.81
368.862	85.81
369.089	75.81
369.315	91.81
369.541	84.81
369.767	89.81
369.993	85.81
370.219	78.81
370.445	80.81
370.672	79.81
370.898	88.81
371.124	100.81
371.35	94.81
371.576	99.81
371.802	82.81
372.028	84.81
372.254	77.81
372.48	84.81
372.706	106.81
372.932	94.81
373.158	93.81
373.384	74.81
373.61	93.81
373.835	92.81
374.061	89.81
374.287	72.81
374.513	90.81
374.739	87.81
374.965	92.81
375.191	89.81
375.416	65.81
375.642	91.81
375.868	90.81
376.094	91.81
376.319	74.81
376.545	86.81
376.771	88.81
376.997	84.81
377.222	99.81
377.448	79.81
377.674	94.81
377.899	87.81
378.125	79.81
378.35	88.81
378.576	86.81
378.802	79.81
379.027	78.81
379.253	87.81
379.478	69.81
379.704	91.81
379.929	78.81
380.155	82.81
380.38	85.81
380.606	96.81
380.831	86.81
381.057	89.81
381.282	98.81
381.507	95.81
381.733	90.81
381.958	87.81
382.184	93.81
382.409	79.81
382.634	92.81
382.86	82.81
383.085	93.81
383.31	101.81
383.535	89.81
383.761	91.81
383.986	96.81
384.211	82.81
384.436	78.81
384.662	100.81
384.887	90.81
385.112	94.81
385.337	81.81
385.562	89.81
385.787	103.81
386.013	86.81
386.238	82.81
386.463	87.81
386.688	98.81
386.913	90.81
387.138	83.81
387.363	76.81
387.588	85.81
387.813	75.81
388.038	93.81
388.263	99.81
388.488	85.81
388.713	84.81
388.938	99.81
389.163	96.81
389.387	82.81
389.612	63.81
389.837	91.81
390.062	89.81
390.287	75.81
390.512	76.81
390.736	89.81
390.961	85.81
391.186	95.81
391.411	93.81
391.636	93.81
391.86	85.81
392.085	90.81
392.31	88.81
392.534	93.81
392.759	86.81
392.984	92.81
393.208	87.81
393.433	78.81
393.658	99.81
393.882	99.81
394.107	95.81
394.331	79.81
394.556	78.81
394.78	81.81
395.005	84.81
395.229	100.81
395.454	95.81
395.678	92.81
395.903	72.81
396.127	79.81
396.352	81.81
396.576	82.81
396.801	88.81
397.025	84.81
397.249	93.81
397.474	92.81
397.698	79.81
397.922	94.81
398.147	83.81
398.371	92.81
398.595	95.81
398.82	96.81
399.044	89.81
399.268	78.81
399.492	100.81
399.717	83.81
399.941	90.81
400.165	99.81
400.389	86.81
400.613	100.81
400.837	98.81
401.062	75.81
401.286	77.81
401.51	86.81
401.734	84.81
401.958	81.81
402.182	79.81
402.406	97.81
402.63	89.81
402.854	80.81
403.078	89.81
403.302	101.81
403.526	86.81
403.75	78.81
403.974	76.81
404.198	102.81
404.422	87.81
404.645	66.81
404.869	101.81
405.093	93.81
405.317	87.81
405.541	87.81
405.765	92.81
405.988	91.81
406.212	79.81
406.436	84.81
406.66	92.81
406.883	96.81
407.107	101.81
407.331	96.81
407.555	95.81
407.778	98.81
408.002	72.81
408.226	89.81
408.449	88.81
408.673	78.81
408.896	88.81
409.12	76.81
409.344	89.81
409.567	86.81
409.791	102.81
410.014	100.81
410.238	83.81
410.461	74.81
410.685	100.81
410.908	88.81
411.132	95.81
411.355	76.81
411.578	86.81
411.802	98.81
412.025	80.81
412.249	95.81
412.472	100.81
412.695	85.81
412.919	90.81
413.142	86.81
413.365	79.81
413.589	85.81
413.812	72.81
414.035	91.81
414.258	89.81
414.482	78.81
414.705	103.81
414.928	94.81
415.151	91.81
415.374	84.81
415.597	100.81
415.821	70.81
416.044	74.81
416.267	77.81
416.49	87.81
416.713	95.81
416.936	87.81
417.159	97.81
417.382	70.81
417.605	86.81
417.828	86.81
418.051	86.81
418.274	85.81
418.497	103.81
418.72	79.81
418.943	100.81
419.166	86.81
419.389	91.81
419.611	74.81
419.834	98.81
420.057	83.81
420.28	82.81
420.503	74.81
420.726	71.81
420.948	81.81
421.171	92.81
421.394	79.81
421.617	84.81
421.839	84.81
422.062	87.81
422.285	93.81
422.507	92.81
422.73	91.81
422.953	98.81
423.175	88.81
423.398	66.81
423.621	90.81
423.843	71.81
424.066	88.81
424.288	83.81
424.511	93.81
424.733	83.81
424.956	87.81
425.178	75.81
425.401	87.81
425.623	89.81
425.846	102.81
426.068	87.81
426.291	94.81
426.513	90.81
426.735	82.81
426.958	92.81
427.18	93.81
427.402	89.81
427.625	81.81
427.847	90.81
428.069	100.81
428.292	100.81
428.514	98.81
428.736	107.81
428.958	84.81
429.181	82.81
429.403	88.81
429.625	99.81
429.847	79.81
430.069	72.81
430.292	94.81
430.514	91.81
430.736	92.81
430.958	84.81
431.18	91.81
431.402	84.81
431.624	78.81
431.846	78.81
432.068	84.81
432.29	105.81
432.512	95.81
432.734	82.81
432.956	90.81
433.178	95.81
433.4	88.81
433.622	92.81
433.844	84.81
434.066	82.81
434.287	83.81
434.509	98.81
434.731	92.81
434.953	82.81
435.175	84.81
435.397	91.81
435.618	90.81
435.84	91.81
436.062	92.81
436.284	91.81
436.505	83.81
436.727	84.81
436.949	74.81
437.17	86.81
437.392	75.81
437.614	92.81
437.835	96.81
438.057	86.81
438.278	79.81
438.5	82.81
438.721	90.81
438.943	82.81
439.165	87.81
439.386	90.81
439.608	82.81
439.829	76.81
440.05	91.81
440.272	85.81
440.493	87.81
440.715	86.81
440.936	88.81
441.158	87.81
441.379	88.81
441.6	84.81
441.822	87.81
442.043	105.81
442.264	91.81
442.486	95.81
442.707	89.81
442.928	87.81
443.149	76.81
443.371	92.81
443.592	84.81
443.813	93.81
444.034	85.81
444.255	95.81
444.476	76.81
444.698	87.81
444.919	96.81
445.14	179.81
445.361	123.81
445.582	87.81
445.803	91.81
446.024	84.81
446.245	88.81
446.466	94.81
446.687	71.81
446.908	79.81
447.129	92.81
447.35	81.81
447.571	87.81
447.792	98.81
448.013	84.81
448.234	91.81
448.455	83.81
448.675	93.81
448.896	87.81
449.117	85.81
449.338	94.81
449.559	83.81
449.779	86.81
450	100.81
450.221	83.81
450.442	89.81
450.662	92.81
450.883	83.81
451.104	83.81
451.324	93.81
451.545	84.81
451.766	86.81
451.986	85.81
452.207	82.81
452.428	82.81
452.648	86.81
452.869	92.81
453.089	79.81
453.31	76.81
453.53	89.81
453.751	102.81
453.971	82.81
454.192	106.81
454.412	82.81
454.633	78.81
454.853	75.81
455.073	71.81
455.294	87.81
455.514	92.81
455.734	103.81
455.955	83.81
456.175	81.81
456.395	77.81
456.616	72.81
456.836	83.81
457.056	89.81
457.276	82.81
457.497	83.81
457.717	75.81
457.937	89.81
458.157	84.81
458.377	89.81
458.598	85.81
458.818	92.81
459.038	88.81
459.258	75.81
459.478	78.81
459.698	91.81
459.918	95.81
460.138	72.81
460.358	76.81
460.578	89.81
460.798	87.81
461.018	89.81
461.238	85.81
461.458	90.81
461.678	91.81
461.898	87.81
462.118	87.81
462.338	84.81
462.558	78.81
462.777	75.81
462.997	83.81
463.217	78.81
463.437	92.81
463.657	76.81
463.876	101.81
464.096	78.81
464.316	80.81
464.536	83.81
464.755	87.81
464.975	81.81
465.195	89.81
465.414	93.81
465.634	89.81
465.854	84.81
466.073	88.81
466.293	91.81
466.512	80.81
466.732	83.81
466.951	83.81
467.171	87.81
467.391	86.81
467.61	77.81
467.829	79.81
468.049	88.81
468.268	83.81
468.488	87.81
468.707	85.81
468.927	83.81
469.146	77.81
469.365	86.81
469.585	87.81
469.804	82.81
470.023	84.81
470.243	106.81
470.462	92.81
470.681	87.81
470.901	86.81
471.12	79.81
471.339	89.81
471.558	78.81
471.777	87.81
471.997	76.81
472.216	70.81
472.435	75.81
472.654	83.81
472.873	80.81
473.092	88.81
473.311	89.81
473.53	75.81
473.749	102.81
473.968	89.81
474.187	92.81
474.406	80.81
474.625	81.81
474.844	83.81
475.063	96.81
475.282	88.81
475.501	76.81
475.72	96.81
475.939	80.81
476.158	89.81
476.377	85.81
476.596	76.81
476.814	86.81
477.033	74.81
477.252	77.81
477.471	91.81
477.69	82.81
477.908	101.81
478.127	98.81
478.346	71.81
478.564	82.81
478.783	70.81
479.002	78.81
479.22	85.81
479.439	81.81
479.658	89.81
479.876	91.81
480.095	98.81
480.313	95.81
480.532	89.81
480.751	91.81
480.969	77.81
481.188	90.81
481.406	94.81
481.624	88.81
481.843	82.81
482.061	90.81
482.28	88.81
482.498	87.81
482.717	83.81
482.935	87.81
483.153	83.81
483.372	75.81
483.59	88.81
483.808	94.81
484.027	78.81
484.245	84.81
484.463	93.81
484.681	80.81
484.9	86.81
485.118	96.81
485.336	92.81
485.554	92.81
485.772	83.81
485.99	88.81
486.209	92.81
486.427	84.81
486.645	78.81
486.863	90.81
487.081	93.81
487.299	96.81
487.517	90.81
487.735	102.81
487.953	91.81
488.171	94.81
488.389	81.81
488.607	73.81
488.825	84.81
489.043	92.81
489.261	95.81
489.479	89.81
489.696	89.81
489.914	87.81
490.132	94.81
490.35	92.81
490.568	91.81
490.786	93.81
491.003	88.81
491.221	87.81
491.439	88.81
491.657	95.81
491.874	94.81
492.092	84.81
492.31	86.81
492.527	85.81
492.745	99.81
492.963	98.81
493.18	91.81
493.398	91.81
493.615	89.81
493.833	78.81
494.05	89.81
494.268	71.81
494.485	84.81
494.703	81.81
494.92	95.81
495.138	99.81
495.355	86.81
495.573	89.81
495.79	84.81
496.008	94.81
496.225	91.81
496.442	86.81
496.66	107.81
496.877	95.81
497.094	84.81
497.312	91.81
497.529	87.81
497.746	89.81
497.963	74.81
498.181	85.81
498.398	89.81
498.615	82.81
498.832	81.81
499.049	91.81
499.267	87.81
499.484	102.81
499.701	81.81
499.918	116.81
500.135	102.81
500.352	109.81
500.569	116.81
500.786	103.81
501.003	90.81
501.22	95.81
501.437	90.81
501.654	108.81
501.871	101.81
502.088	95.81
502.305	90.81
502.522	75.81
502.739	91.81
502.956	87.81
503.172	90.81
503.389	98.81
503.606	90.81
503.823	87.81
504.04	99.81
504.256	98.81
504.473	90.81
504.69	83.81
504.907	98.81
505.123	78.81
505.34	86.81
505.557	100.81
505.773	92.81
505.99	94.81
506.207	85.81
506.423	87.81
506.64	88.81
506.856	74.81
507.073	78.81
507.289	82.81
507.506	79.81
507.722	87.81
507.939	93.81
508.155	76.81
508.372	84.81
508.588	100.81
508.805	95.81
509.021	82.81
509.238	86.81
509.454	77.81
509.67	90.81
509.887	102.81
510.103	88.81
510.319	99.81
510.536	94.81
510.752	82.81
510.968	92.81
511.184	86.81
511.401	87.81
511.617	99.81
511.833	90.81
512.049	85.81
512.265	90.81
512.481	81.81
512.698	90.81
512.914	79.81
513.13	77.81
513.346	80.81
513.562	92.81
513.778	86.81
513.994	83.81
514.21	95.81
514.426	91.81
514.642	87.81
514.858	85.81
515.074	92.81
515.29	93.81
515.506	94.81
515.721	77.81
515.937	95.81
516.153	82.81
516.369	92.81
516.585	74.81
516.801	79.81
517.016	80.81
517.232	80.81
517.448	102.81
517.664	95.81
517.879	91.81
518.095	79.81
518.311	78.81
518.527	88.81
518.742	79.81
518.958	100.81
519.173	77.81
