Data from BG_HRD10591_097.txt Node
Date: Fri May 16 15:21:42 EDT 2025
User: Yrep
Spectrometer: HR+D1059
Trigger mode: 1
Integration Time (sec): 1.000000E-1
Scans to average: 1
Electric dark correction enabled: true
Nonlinearity correction enabled: false
Boxcar width: 0
XAxis mode: Wavelengths
Number of Pixels in Spectrum: 2048
>>>>>Begin Spectral Data<<<<<
223.165	-20.69
223.4	-20.69
223.635	-20.69
223.869	-23.69
224.104	-24.69
224.338	-16.69
224.573	0.31
224.808	-10.69
225.042	-5.69
225.277	-21.69
225.511	4.31
225.746	6.31
225.98	21.31
226.215	4.31
226.449	18.31
226.683	21.31
226.918	18.31
227.152	29.31
227.387	29.31
227.621	40.31
227.856	56.31
228.09	41.31
228.324	38.31
228.559	60.31
228.793	59.31
229.027	56.31
229.262	57.31
229.496	59.31
229.73	57.31
229.964	87.31
230.199	73.31
230.433	81.31
230.667	78.31
230.901	78.31
231.136	66.31
231.37	91.31
231.604	73.31
231.838	71.31
232.072	91.31
232.306	83.31
232.541	80.31
232.775	79.31
233.009	73.31
233.243	92.31
233.477	71.31
233.711	70.31
233.945	74.31
234.179	73.31
234.413	88.31
234.647	78.31
234.881	67.31
235.115	86.31
235.349	83.31
235.583	87.31
235.817	76.31
236.051	53.31
236.285	71.31
236.519	77.31
236.753	70.31
236.987	82.31
237.221	76.31
237.455	83.31
237.689	82.31
237.922	75.31
238.156	86.31
238.39	83.31
238.624	76.31
238.858	66.31
239.091	66.31
239.325	85.31
239.559	76.31
239.793	75.31
240.027	83.31
240.26	79.31
240.494	79.31
240.728	78.31
240.961	68.31
241.195	78.31
241.429	80.31
241.662	68.31
241.896	71.31
242.13	77.31
242.363	73.31
242.597	65.31
242.83	78.31
243.064	71.31
243.298	79.31
243.531	69.31
243.765	65.31
243.998	67.31
244.232	69.31
244.465	76.31
244.699	70.31
244.932	65.31
245.166	79.31
245.399	71.31
245.633	87.31
245.866	79.31
246.099	79.31
246.333	68.31
246.566	68.31
246.8	82.31
247.033	75.31
247.266	85.31
247.5	88.31
247.733	84.31
247.966	80.31
248.2	85.31
248.433	85.31
248.666	76.31
248.899	77.31
249.133	67.31
249.366	87.31
249.599	93.31
249.832	75.31
250.066	81.31
250.299	77.31
250.532	80.31
250.765	84.31
250.998	63.31
251.231	89.31
251.465	81.31
251.698	84.31
251.931	75.31
252.164	83.31
252.397	91.31
252.63	83.31
252.863	83.31
253.096	93.31
253.329	78.31
253.562	82.31
253.795	81.31
254.028	99.31
254.261	83.31
254.494	74.31
254.727	71.31
254.96	82.31
255.193	78.31
255.426	68.31
255.659	91.31
255.892	85.31
256.124	80.31
256.357	67.31
256.59	85.31
256.823	81.31
257.056	84.31
257.289	80.31
257.521	97.31
257.754	81.31
257.987	77.31
258.22	89.31
258.452	67.31
258.685	69.31
258.918	86.31
259.151	65.31
259.383	73.31
259.616	82.31
259.849	79.31
260.081	103.31
260.314	85.31
260.547	86.31
260.779	69.31
261.012	77.31
261.244	82.31
261.477	95.31
261.71	93.31
261.942	76.31
262.175	92.31
262.407	77.31
262.64	79.31
262.872	73.31
263.105	76.31
263.337	73.31
263.57	81.31
263.802	83.31
264.035	77.31
264.267	94.31
264.499	82.31
264.732	91.31
264.964	89.31
265.197	77.31
265.429	83.31
265.661	83.31
265.894	79.31
266.126	88.31
266.358	87.31
266.591	79.31
266.823	72.31
267.055	96.31
267.287	92.31
267.52	74.31
267.752	84.31
267.984	91.31
268.216	73.31
268.448	78.31
268.681	83.31
268.913	82.31
269.145	81.31
269.377	82.31
269.609	68.31
269.841	77.31
270.073	89.31
270.306	80.31
270.538	89.31
270.77	94.31
271.002	80.31
271.234	81.31
271.466	86.31
271.698	83.31
271.93	81.31
272.162	94.31
272.394	89.31
272.626	86.31
272.858	82.31
273.09	63.31
273.322	89.31
273.553	74.31
273.785	88.31
274.017	85.31
274.249	85.31
274.481	94.31
274.713	93.31
274.945	95.31
275.176	76.31
275.408	92.31
275.64	80.31
275.872	87.31
276.104	93.31
276.335	87.31
276.567	88.31
276.799	95.31
277.031	83.31
277.262	96.31
277.494	91.31
277.726	80.31
277.957	87.31
278.189	81.31
278.421	79.31
278.652	71.31
278.884	72.31
279.115	92.31
279.347	94.31
279.579	104.31
279.81	89.31
280.042	78.31
280.273	91.31
280.505	80.31
280.736	79.31
280.968	95.31
281.199	81.31
281.431	86.31
281.662	79.31
281.894	83.31
282.125	93.31
282.356	92.31
282.588	92.31
282.819	72.31
283.051	90.31
283.282	91.31
283.513	94.31
283.745	85.31
283.976	85.31
284.207	84.31
284.439	75.31
284.67	82.31
284.901	75.31
285.132	91.31
285.364	87.31
285.595	83.31
285.826	85.31
286.057	90.31
286.288	75.31
286.52	91.31
286.751	89.31
286.982	80.31
287.213	90.31
287.444	105.31
287.675	94.31
287.906	91.31
288.138	94.31
288.369	81.31
288.6	87.31
288.831	79.31
289.062	79.31
289.293	90.31
289.524	93.31
289.755	77.31
289.986	68.31
290.217	90.31
290.448	80.31
290.679	89.31
290.91	108.31
291.141	91.31
291.371	89.31
291.602	80.31
291.833	91.31
292.064	90.31
292.295	90.31
292.526	71.31
292.757	79.31
292.987	102.31
293.218	66.31
293.449	93.31
293.68	78.31
293.91	77.31
294.141	87.31
294.372	79.31
294.603	79.31
294.833	89.31
295.064	90.31
295.295	61.31
295.525	85.31
295.756	93.31
295.987	82.31
296.217	91.31
296.448	95.31
296.679	87.31
296.909	89.31
297.14	87.31
297.37	88.31
297.601	80.31
297.831	76.31
298.062	89.31
298.292	100.31
298.523	81.31
298.753	87.31
298.984	101.31
299.214	99.31
299.445	91.31
299.675	84.31
299.905	76.31
300.136	83.31
300.366	95.31
300.597	90.31
300.827	107.31
301.057	79.31
301.288	100.31
301.518	102.31
301.748	85.31
301.979	92.31
302.209	80.31
302.439	72.31
302.669	90.31
302.9	88.31
303.13	75.31
303.36	85.31
303.59	88.31
303.82	98.31
304.051	90.31
304.281	101.31
304.511	97.31
304.741	96.31
304.971	77.31
305.201	85.31
305.431	77.31
305.661	109.31
305.891	87.31
306.121	87.31
306.352	89.31
306.582	80.31
306.812	87.31
307.042	94.31
307.272	81.31
307.502	90.31
307.731	88.31
307.961	97.31
308.191	96.31
308.421	88.31
308.651	79.31
308.881	83.31
309.111	103.31
309.341	81.31
309.571	85.31
309.8	89.31
310.03	80.31
310.26	82.31
310.49	88.31
310.72	91.31
310.949	81.31
311.179	81.31
311.409	94.31
311.639	94.31
311.868	101.31
312.098	83.31
312.328	88.31
312.557	90.31
312.787	96.31
313.017	100.31
313.246	103.31
313.476	88.31
313.706	83.31
313.935	73.31
314.165	89.31
314.394	89.31
314.624	83.31
314.853	83.31
315.083	80.31
315.312	75.31
315.542	80.31
315.771	104.31
316.001	92.31
316.23	79.31
316.46	83.31
316.689	80.31
316.919	87.31
317.148	80.31
317.377	82.31
317.607	85.31
317.836	99.31
318.065	84.31
318.295	93.31
318.524	82.31
318.753	92.31
318.983	83.31
319.212	85.31
319.441	88.31
319.67	88.31
319.9	80.31
320.129	96.31
320.358	79.31
320.587	81.31
320.816	75.31
321.046	85.31
321.275	97.31
321.504	80.31
321.733	77.31
321.962	81.31
322.191	88.31
322.42	93.31
322.649	85.31
322.878	95.31
323.108	91.31
323.337	89.31
323.566	77.31
323.795	81.31
324.024	81.31
324.253	98.31
324.482	85.31
324.71	98.31
324.939	104.31
325.168	78.31
325.397	79.31
325.626	92.31
325.855	77.31
326.084	80.31
326.313	97.31
326.542	81.31
326.77	80.31
326.999	90.31
327.228	73.31
327.457	75.31
327.686	87.31
327.914	89.31
328.143	93.31
328.372	75.31
328.6	83.31
328.829	81.31
329.058	92.31
329.287	98.31
329.515	104.31
329.744	86.31
329.972	79.31
330.201	80.31
330.43	92.31
330.658	90.31
330.887	91.31
331.115	106.31
331.344	88.31
331.572	81.31
331.801	89.31
332.03	92.31
332.258	75.31
332.486	82.31
332.715	83.31
332.943	94.31
333.172	91.31
333.4	99.31
333.629	104.31
333.857	105.31
334.085	89.31
334.314	86.31
334.542	81.31
334.771	82.31
334.999	81.31
335.227	86.31
335.455	91.31
335.684	90.31
335.912	92.31
336.14	74.31
336.369	82.31
336.597	87.31
336.825	92.31
337.053	75.31
337.281	106.31
337.51	92.31
337.738	87.31
337.966	93.31
338.194	86.31
338.422	95.31
338.65	91.31
338.878	87.31
339.106	104.31
339.334	92.31
339.562	83.31
339.79	86.31
340.018	96.31
340.246	94.31
340.474	77.31
340.702	93.31
340.93	97.31
341.158	87.31
341.386	84.31
341.614	99.31
341.842	86.31
342.07	91.31
342.298	74.31
342.526	77.31
342.754	85.31
342.981	96.31
343.209	81.31
343.437	91.31
343.665	86.31
343.893	80.31
344.12	89.31
344.348	105.31
344.576	93.31
344.804	75.31
345.031	100.31
345.259	97.31
345.487	97.31
345.714	101.31
345.942	103.31
346.17	92.31
346.397	87.31
346.625	81.31
346.853	87.31
347.08	75.31
347.308	89.31
347.535	92.31
347.763	83.31
347.99	101.31
348.218	92.31
348.445	91.31
348.673	91.31
348.9	101.31
349.128	90.31
349.355	92.31
349.583	87.31
349.81	87.31
350.037	93.31
350.265	102.31
350.492	88.31
350.72	87.31
350.947	87.31
351.174	91.31
351.402	83.31
351.629	85.31
351.856	91.31
352.083	92.31
352.311	88.31
352.538	87.31
352.765	88.31
352.992	96.31
353.22	78.31
353.447	94.31
353.674	87.31
353.901	97.31
354.128	89.31
354.355	77.31
354.583	90.31
354.81	90.31
355.037	79.31
355.264	97.31
355.491	84.31
355.718	85.31
355.945	95.31
356.172	80.31
356.399	101.31
356.626	83.31
356.853	91.31
357.08	86.31
357.307	82.31
357.534	91.31
357.761	83.31
357.988	86.31
358.215	88.31
358.441	87.31
358.668	83.31
358.895	87.31
359.122	80.31
359.349	95.31
359.576	83.31
359.802	82.31
360.029	95.31
360.256	84.31
360.483	103.31
360.709	90.31
360.936	87.31
361.163	79.31
361.39	81.31
361.616	99.31
361.843	77.31
362.07	80.31
362.296	82.31
362.523	72.31
362.749	81.31
362.976	75.31
363.203	80.31
363.429	84.31
363.656	93.31
363.882	91.31
364.109	93.31
364.335	104.31
364.562	91.31
364.788	83.31
365.015	92.31
365.241	85.31
365.468	77.31
365.694	75.31
365.92	90.31
366.147	82.31
366.373	85.31
366.599	79.31
366.826	77.31
367.052	78.31
367.278	92.31
367.505	76.31
367.731	84.31
367.957	93.31
368.184	80.31
368.41	94.31
368.636	88.31
368.862	75.31
369.089	91.31
369.315	87.31
369.541	90.31
369.767	88.31
369.993	75.31
370.219	91.31
370.445	93.31
370.672	85.31
370.898	73.31
371.124	82.31
371.35	88.31
371.576	103.31
371.802	83.31
372.028	72.31
372.254	86.31
372.48	90.31
372.706	79.31
372.932	80.31
373.158	77.31
373.384	96.31
373.61	93.31
373.835	81.31
374.061	96.31
374.287	96.31
374.513	88.31
374.739	84.31
374.965	89.31
375.191	93.31
375.416	79.31
375.642	86.31
375.868	89.31
376.094	74.31
376.319	75.31
376.545	87.31
376.771	68.31
376.997	82.31
377.222	88.31
377.448	75.31
377.674	91.31
377.899	76.31
378.125	85.31
378.35	99.31
378.576	77.31
378.802	95.31
379.027	98.31
379.253	94.31
379.478	86.31
379.704	86.31
379.929	88.31
380.155	100.31
380.38	80.31
380.606	82.31
380.831	88.31
381.057	91.31
381.282	77.31
381.507	71.31
381.733	90.31
381.958	86.31
382.184	72.31
382.409	80.31
382.634	81.31
382.86	91.31
383.085	99.31
383.31	83.31
383.535	95.31
383.761	112.31
383.986	89.31
384.211	88.31
384.436	93.31
384.662	103.31
384.887	87.31
385.112	78.31
385.337	75.31
385.562	92.31
385.787	95.31
386.013	91.31
386.238	71.31
386.463	91.31
386.688	101.31
386.913	100.31
387.138	74.31
387.363	103.31
387.588	88.31
387.813	85.31
388.038	91.31
388.263	89.31
388.488	87.31
388.713	96.31
388.938	81.31
389.163	84.31
389.387	85.31
389.612	102.31
389.837	88.31
390.062	92.31
390.287	84.31
390.512	93.31
390.736	87.31
390.961	83.31
391.186	83.31
391.411	93.31
391.636	89.31
391.86	105.31
392.085	99.31
392.31	101.31
392.534	101.31
392.759	88.31
392.984	93.31
393.208	95.31
393.433	89.31
393.658	78.31
393.882	105.31
394.107	102.31
394.331	76.31
394.556	92.31
394.78	91.31
395.005	99.31
395.229	95.31
395.454	94.31
395.678	90.31
395.903	85.31
396.127	68.31
396.352	80.31
396.576	87.31
396.801	97.31
397.025	74.31
397.249	99.31
397.474	91.31
397.698	91.31
397.922	84.31
398.147	87.31
398.371	81.31
398.595	92.31
398.82	79.31
399.044	99.31
399.268	80.31
399.492	96.31
399.717	94.31
399.941	76.31
400.165	95.31
400.389	94.31
400.613	96.31
400.837	87.31
401.062	86.31
401.286	91.31
401.51	92.31
401.734	90.31
401.958	87.31
402.182	92.31
402.406	75.31
402.63	87.31
402.854	85.31
403.078	83.31
403.302	80.31
403.526	93.31
403.75	92.31
403.974	97.31
404.198	90.31
404.422	89.31
404.645	94.31
404.869	93.31
405.093	74.31
405.317	84.31
405.541	84.31
405.765	87.31
405.988	88.31
406.212	76.31
406.436	70.31
406.66	87.31
406.883	85.31
407.107	101.31
407.331	75.31
407.555	77.31
407.778	100.31
408.002	85.31
408.226	96.31
408.449	104.31
408.673	93.31
408.896	93.31
409.12	79.31
409.344	96.31
409.567	84.31
409.791	89.31
410.014	85.31
410.238	90.31
410.461	91.31
410.685	87.31
410.908	88.31
411.132	99.31
411.355	80.31
411.578	91.31
411.802	102.31
412.025	85.31
412.249	91.31
412.472	82.31
412.695	80.31
412.919	88.31
413.142	94.31
413.365	87.31
413.589	81.31
413.812	91.31
414.035	103.31
414.258	87.31
414.482	83.31
414.705	86.31
414.928	90.31
415.151	95.31
415.374	87.31
415.597	76.31
415.821	83.31
416.044	90.31
416.267	96.31
416.49	78.31
416.713	78.31
416.936	88.31
417.159	83.31
417.382	103.31
417.605	88.31
417.828	87.31
418.051	96.31
418.274	87.31
418.497	83.31
418.72	96.31
418.943	95.31
419.166	73.31
419.389	85.31
419.611	93.31
419.834	83.31
420.057	84.31
420.28	93.31
420.503	94.31
420.726	93.31
420.948	84.31
421.171	61.31
421.394	92.31
421.617	77.31
421.839	94.31
422.062	84.31
422.285	89.31
422.507	90.31
422.73	82.31
422.953	85.31
423.175	85.31
423.398	95.31
423.621	86.31
423.843	83.31
424.066	81.31
424.288	86.31
424.511	83.31
424.733	88.31
424.956	95.31
425.178	88.31
425.401	84.31
425.623	92.31
425.846	95.31
426.068	81.31
426.291	93.31
426.513	89.31
426.735	89.31
426.958	82.31
427.18	81.31
427.402	85.31
427.625	101.31
427.847	89.31
428.069	84.31
428.292	65.31
428.514	99.31
428.736	83.31
428.958	87.31
429.181	70.31
429.403	77.31
429.625	86.31
429.847	72.31
430.069	90.31
430.292	83.31
430.514	84.31
430.736	76.31
430.958	93.31
431.18	92.31
431.402	96.31
431.624	81.31
431.846	95.31
432.068	80.31
432.29	76.31
432.512	90.31
432.734	77.31
432.956	89.31
433.178	102.31
433.4	69.31
433.622	92.31
433.844	87.31
434.066	89.31
434.287	80.31
434.509	87.31
434.731	81.31
434.953	79.31
435.175	86.31
435.397	88.31
435.618	80.31
435.84	93.31
436.062	80.31
436.284	101.31
436.505	88.31
436.727	79.31
436.949	81.31
437.17	87.31
437.392	83.31
437.614	99.31
437.835	88.31
438.057	94.31
438.278	91.31
438.5	89.31
438.721	72.31
438.943	83.31
439.165	99.31
439.386	90.31
439.608	95.31
439.829	99.31
440.05	97.31
440.272	102.31
440.493	87.31
440.715	94.31
440.936	101.31
441.158	94.31
441.379	96.31
441.6	86.31
441.822	93.31
442.043	92.31
442.264	91.31
442.486	97.31
442.707	77.31
442.928	102.31
443.149	87.31
443.371	97.31
443.592	81.31
443.813	92.31
444.034	87.31
444.255	96.31
444.476	88.31
444.698	106.31
444.919	96.31
445.14	172.31
445.361	125.31
445.582	97.31
445.803	87.31
446.024	81.31
446.245	77.31
446.466	76.31
446.687	82.31
446.908	92.31
447.129	78.31
447.35	88.31
447.571	92.31
447.792	94.31
448.013	101.31
448.234	91.31
448.455	94.31
448.675	97.31
448.896	86.31
449.117	86.31
449.338	77.31
449.559	78.31
449.779	87.31
450	69.31
450.221	84.31
450.442	89.31
450.662	89.31
450.883	84.31
451.104	84.31
451.324	92.31
451.545	88.31
451.766	90.31
451.986	97.31
452.207	69.31
452.428	79.31
452.648	72.31
452.869	83.31
453.089	87.31
453.31	90.31
453.53	82.31
453.751	99.31
453.971	90.31
454.192	87.31
454.412	103.31
454.633	79.31
454.853	88.31
455.073	87.31
455.294	90.31
455.514	86.31
455.734	98.31
455.955	89.31
456.175	94.31
456.395	79.31
456.616	80.31
456.836	89.31
457.056	93.31
457.276	88.31
457.497	83.31
457.717	84.31
457.937	96.31
458.157	84.31
458.377	88.31
458.598	75.31
458.818	91.31
459.038	90.31
459.258	83.31
459.478	84.31
459.698	81.31
459.918	79.31
460.138	83.31
460.358	87.31
460.578	69.31
460.798	94.31
461.018	77.31
461.238	89.31
461.458	103.31
461.678	79.31
461.898	91.31
462.118	97.31
462.338	97.31
462.558	89.31
462.777	92.31
462.997	93.31
463.217	89.31
463.437	93.31
463.657	97.31
463.876	89.31
464.096	97.31
464.316	93.31
464.536	83.31
464.755	87.31
464.975	75.31
465.195	89.31
465.414	93.31
465.634	80.31
465.854	79.31
466.073	99.31
466.293	75.31
466.512	101.31
466.732	93.31
466.951	93.31
467.171	93.31
467.391	77.31
467.61	87.31
467.829	76.31
468.049	81.31
468.268	77.31
468.488	86.31
468.707	91.31
468.927	94.31
469.146	88.31
469.365	73.31
469.585	97.31
469.804	91.31
470.023	77.31
470.243	89.31
470.462	101.31
470.681	87.31
470.901	69.31
471.12	86.31
471.339	105.31
471.558	88.31
471.777	85.31
471.997	70.31
472.216	87.31
472.435	76.31
472.654	87.31
472.873	89.31
473.092	87.31
473.311	81.31
473.53	83.31
473.749	81.31
473.968	87.31
474.187	88.31
474.406	85.31
474.625	102.31
474.844	106.31
475.063	91.31
475.282	104.31
475.501	100.31
475.72	82.31
475.939	79.31
476.158	75.31
476.377	83.31
476.596	75.31
476.814	91.31
477.033	84.31
477.252	86.31
477.471	81.31
477.69	88.31
477.908	94.31
478.127	100.31
478.346	82.31
478.564	80.31
478.783	103.31
479.002	103.31
479.22	92.31
479.439	87.31
479.658	96.31
479.876	74.31
480.095	87.31
480.313	87.31
480.532	97.31
480.751	101.31
480.969	77.31
481.188	83.31
481.406	91.31
481.624	99.31
481.843	85.31
482.061	92.31
482.28	93.31
482.498	91.31
482.717	86.31
482.935	96.31
483.153	78.31
483.372	92.31
483.59	95.31
483.808	85.31
484.027	95.31
484.245	89.31
484.463	72.31
484.681	93.31
484.9	88.31
485.118	85.31
485.336	70.31
485.554	85.31
485.772	84.31
485.99	74.31
486.209	93.31
486.427	88.31
486.645	76.31
486.863	95.31
487.081	79.31
487.299	94.31
487.517	94.31
487.735	97.31
487.953	91.31
488.171	88.31
488.389	91.31
488.607	86.31
488.825	81.31
489.043	83.31
489.261	90.31
489.479	81.31
489.696	99.31
489.914	88.31
490.132	95.31
490.35	93.31
490.568	90.31
490.786	95.31
491.003	81.31
491.221	84.31
491.439	90.31
491.657	81.31
491.874	81.31
492.092	87.31
492.31	91.31
492.527	85.31
492.745	95.31
492.963	81.31
493.18	80.31
493.398	97.31
493.615	96.31
493.833	68.31
494.05	88.31
494.268	99.31
494.485	89.31
494.703	85.31
494.92	84.31
495.138	96.31
495.355	103.31
495.573	103.31
495.79	95.31
496.008	102.31
496.225	110.31
496.442	93.31
496.66	102.31
496.877	88.31
497.094	91.31
497.312	91.31
497.529	93.31
497.746	72.31
497.963	77.31
498.181	86.31
498.398	81.31
498.615	95.31
498.832	96.31
499.049	78.31
499.267	85.31
499.484	109.31
499.701	95.31
499.918	117.31
500.135	111.31
500.352	118.31
500.569	118.31
500.786	112.31
501.003	97.31
501.22	92.31
501.437	94.31
501.654	101.31
501.871	91.31
502.088	93.31
502.305	98.31
502.522	85.31
502.739	92.31
502.956	93.31
503.172	89.31
503.389	86.31
503.606	89.31
503.823	96.31
504.04	85.31
504.256	83.31
504.473	86.31
504.69	86.31
504.907	98.31
505.123	83.31
505.34	81.31
505.557	96.31
505.773	87.31
505.99	103.31
506.207	88.31
506.423	86.31
506.64	85.31
506.856	102.31
507.073	91.31
507.289	79.31
507.506	84.31
507.722	95.31
507.939	95.31
508.155	100.31
508.372	99.31
508.588	78.31
508.805	89.31
509.021	81.31
509.238	75.31
509.454	81.31
509.67	84.31
509.887	93.31
510.103	94.31
510.319	89.31
510.536	83.31
510.752	90.31
510.968	87.31
511.184	77.31
511.401	83.31
511.617	74.31
511.833	96.31
512.049	80.31
512.265	84.31
512.481	84.31
512.698	71.31
512.914	87.31
513.13	94.31
513.346	95.31
513.562	76.31
513.778	93.31
513.994	92.31
514.21	88.31
514.426	96.31
514.642	92.31
514.858	111.31
515.074	72.31
515.29	93.31
515.506	86.31
515.721	97.31
515.937	86.31
516.153	79.31
516.369	88.31
516.585	86.31
516.801	92.31
517.016	88.31
517.232	79.31
517.448	107.31
517.664	73.31
517.879	83.31
518.095	96.31
518.311	90.31
518.527	96.31
518.742	90.31
518.958	86.31
519.173	86.31
