Data from BG_HRD10591_038.txt Node
Date: Fri May 16 15:21:13 EDT 2025
User: Yrep
Spectrometer: HR+D1059
Trigger mode: 1
Integration Time (sec): 1.000000E-1
Scans to average: 1
Electric dark correction enabled: true
Nonlinearity correction enabled: false
Boxcar width: 0
XAxis mode: Wavelengths
Number of Pixels in Spectrum: 2048
>>>>>Begin Spectral Data<<<<<
223.165	-7.56
223.4	-7.56
223.635	-7.56
223.869	-21.56
224.104	-9.56
224.338	-18.56
224.573	-11.56
224.808	-8.56
225.042	-4.56
225.277	-5.56
225.511	-0.56
225.746	-6.56
225.98	0.44
226.215	18.44
226.449	11.44
226.683	18.44
226.918	21.44
227.152	24.44
227.387	28.44
227.621	31.44
227.856	45.44
228.09	47.44
228.324	55.44
228.559	48.44
228.793	60.44
229.027	55.44
229.262	62.44
229.496	62.44
229.73	73.44
229.964	74.44
230.199	66.44
230.433	59.44
230.667	69.44
230.901	80.44
231.136	74.44
231.37	76.44
231.604	87.44
231.838	80.44
232.072	92.44
232.306	76.44
232.541	79.44
232.775	65.44
233.009	80.44
233.243	94.44
233.477	70.44
233.711	79.44
233.945	89.44
234.179	73.44
234.413	82.44
234.647	84.44
234.881	67.44
235.115	82.44
235.349	69.44
235.583	81.44
235.817	74.44
236.051	75.44
236.285	59.44
236.519	74.44
236.753	79.44
236.987	73.44
237.221	76.44
237.455	73.44
237.689	75.44
237.922	66.44
238.156	79.44
238.39	77.44
238.624	65.44
238.858	71.44
239.091	70.44
239.325	68.44
239.559	81.44
239.793	84.44
240.027	72.44
240.26	69.44
240.494	84.44
240.728	84.44
240.961	76.44
241.195	72.44
241.429	67.44
241.662	67.44
241.896	82.44
242.13	79.44
242.363	69.44
242.597	78.44
242.83	74.44
243.064	67.44
243.298	79.44
243.531	87.44
243.765	85.44
243.998	83.44
244.232	86.44
244.465	80.44
244.699	86.44
244.932	85.44
245.166	70.44
245.399	74.44
245.633	81.44
245.866	91.44
246.099	63.44
246.333	68.44
246.566	56.44
246.8	74.44
247.033	71.44
247.266	75.44
247.5	82.44
247.733	76.44
247.966	92.44
248.2	90.44
248.433	75.44
248.666	77.44
248.899	76.44
249.133	69.44
249.366	75.44
249.599	78.44
249.832	67.44
250.066	68.44
250.299	89.44
250.532	84.44
250.765	74.44
250.998	76.44
251.231	76.44
251.465	87.44
251.698	70.44
251.931	63.44
252.164	78.44
252.397	76.44
252.63	75.44
252.863	82.44
253.096	83.44
253.329	82.44
253.562	87.44
253.795	81.44
254.028	90.44
254.261	85.44
254.494	87.44
254.727	98.44
254.96	66.44
255.193	78.44
255.426	69.44
255.659	84.44
255.892	76.44
256.124	76.44
256.357	73.44
256.59	73.44
256.823	49.44
257.056	70.44
257.289	78.44
257.521	80.44
257.754	74.44
257.987	76.44
258.22	91.44
258.452	72.44
258.685	89.44
258.918	81.44
259.151	76.44
259.383	77.44
259.616	70.44
259.849	77.44
260.081	84.44
260.314	91.44
260.547	73.44
260.779	81.44
261.012	63.44
261.244	77.44
261.477	71.44
261.71	80.44
261.942	68.44
262.175	79.44
262.407	72.44
262.64	75.44
262.872	77.44
263.105	67.44
263.337	89.44
263.57	67.44
263.802	80.44
264.035	82.44
264.267	86.44
264.499	68.44
264.732	83.44
264.964	85.44
265.197	53.44
265.429	60.44
265.661	78.44
265.894	80.44
266.126	94.44
266.358	98.44
266.591	88.44
266.823	84.44
267.055	69.44
267.287	62.44
267.52	75.44
267.752	76.44
267.984	92.44
268.216	81.44
268.448	81.44
268.681	77.44
268.913	77.44
269.145	76.44
269.377	82.44
269.609	81.44
269.841	79.44
270.073	93.44
270.306	72.44
270.538	76.44
270.77	76.44
271.002	88.44
271.234	84.44
271.466	82.44
271.698	86.44
271.93	78.44
272.162	86.44
272.394	77.44
272.626	61.44
272.858	74.44
273.09	89.44
273.322	86.44
273.553	61.44
273.785	66.44
274.017	77.44
274.249	92.44
274.481	87.44
274.713	87.44
274.945	93.44
275.176	71.44
275.408	57.44
275.64	68.44
275.872	80.44
276.104	84.44
276.335	75.44
276.567	84.44
276.799	88.44
277.031	67.44
277.262	76.44
277.494	92.44
277.726	75.44
277.957	70.44
278.189	75.44
278.421	66.44
278.652	86.44
278.884	76.44
279.115	92.44
279.347	83.44
279.579	78.44
279.81	92.44
280.042	94.44
280.273	76.44
280.505	85.44
280.736	84.44
280.968	91.44
281.199	81.44
281.431	88.44
281.662	86.44
281.894	88.44
282.125	82.44
282.356	75.44
282.588	74.44
282.819	78.44
283.051	96.44
283.282	75.44
283.513	80.44
283.745	83.44
283.976	75.44
284.207	88.44
284.439	72.44
284.67	98.44
284.901	79.44
285.132	87.44
285.364	78.44
285.595	93.44
285.826	68.44
286.057	96.44
286.288	84.44
286.52	97.44
286.751	85.44
286.982	91.44
287.213	80.44
287.444	77.44
287.675	85.44
287.906	77.44
288.138	89.44
288.369	84.44
288.6	90.44
288.831	83.44
289.062	70.44
289.293	96.44
289.524	84.44
289.755	86.44
289.986	88.44
290.217	85.44
290.448	86.44
290.679	101.44
290.91	98.44
291.141	68.44
291.371	82.44
291.602	84.44
291.833	85.44
292.064	91.44
292.295	70.44
292.526	61.44
292.757	79.44
292.987	90.44
293.218	78.44
293.449	76.44
293.68	73.44
293.91	91.44
294.141	81.44
294.372	75.44
294.603	91.44
294.833	72.44
295.064	74.44
295.295	82.44
295.525	72.44
295.756	85.44
295.987	82.44
296.217	94.44
296.448	87.44
296.679	78.44
296.909	96.44
297.14	90.44
297.37	73.44
297.601	82.44
297.831	79.44
298.062	78.44
298.292	77.44
298.523	86.44
298.753	79.44
298.984	85.44
299.214	82.44
299.445	75.44
299.675	84.44
299.905	106.44
300.136	75.44
300.366	81.44
300.597	70.44
300.827	77.44
301.057	92.44
301.288	93.44
301.518	98.44
301.748	96.44
301.979	97.44
302.209	92.44
302.439	72.44
302.669	84.44
302.9	87.44
303.13	75.44
303.36	86.44
303.59	67.44
303.82	86.44
304.051	88.44
304.281	73.44
304.511	85.44
304.741	83.44
304.971	91.44
305.201	82.44
305.431	80.44
305.661	90.44
305.891	85.44
306.121	83.44
306.352	81.44
306.582	78.44
306.812	84.44
307.042	80.44
307.272	72.44
307.502	94.44
307.731	98.44
307.961	90.44
308.191	76.44
308.421	76.44
308.651	78.44
308.881	94.44
309.111	75.44
309.341	85.44
309.571	92.44
309.8	86.44
310.03	73.44
310.26	78.44
310.49	80.44
310.72	77.44
310.949	90.44
311.179	90.44
311.409	85.44
311.639	68.44
311.868	81.44
312.098	91.44
312.328	86.44
312.557	78.44
312.787	66.44
313.017	81.44
313.246	91.44
313.476	74.44
313.706	94.44
313.935	76.44
314.165	79.44
314.394	94.44
314.624	96.44
314.853	78.44
315.083	86.44
315.312	86.44
315.542	84.44
315.771	89.44
316.001	90.44
316.23	88.44
316.46	90.44
316.689	66.44
316.919	73.44
317.148	91.44
317.377	88.44
317.607	81.44
317.836	78.44
318.065	74.44
318.295	77.44
318.524	101.44
318.753	89.44
318.983	82.44
319.212	86.44
319.441	76.44
319.67	71.44
319.9	109.44
320.129	90.44
320.358	80.44
320.587	89.44
320.816	85.44
321.046	80.44
321.275	87.44
321.504	89.44
321.733	92.44
321.962	97.44
322.191	78.44
322.42	76.44
322.649	81.44
322.878	88.44
323.108	80.44
323.337	94.44
323.566	90.44
323.795	89.44
324.024	102.44
324.253	88.44
324.482	76.44
324.71	89.44
324.939	73.44
325.168	77.44
325.397	83.44
325.626	79.44
325.855	76.44
326.084	100.44
326.313	81.44
326.542	91.44
326.77	85.44
326.999	90.44
327.228	86.44
327.457	87.44
327.686	92.44
327.914	93.44
328.143	87.44
328.372	90.44
328.6	87.44
328.829	85.44
329.058	68.44
329.287	78.44
329.515	74.44
329.744	84.44
329.972	85.44
330.201	89.44
330.43	84.44
330.658	68.44
330.887	84.44
331.115	89.44
331.344	85.44
331.572	93.44
331.801	86.44
332.03	90.44
332.258	101.44
332.486	77.44
332.715	96.44
332.943	85.44
333.172	90.44
333.4	84.44
333.629	87.44
333.857	76.44
334.085	80.44
334.314	81.44
334.542	81.44
334.771	92.44
334.999	81.44
335.227	81.44
335.455	90.44
335.684	81.44
335.912	76.44
336.14	87.44
336.369	87.44
336.597	92.44
336.825	81.44
337.053	74.44
337.281	102.44
337.51	87.44
337.738	91.44
337.966	82.44
338.194	83.44
338.422	80.44
338.65	82.44
338.878	89.44
339.106	94.44
339.334	77.44
339.562	82.44
339.79	97.44
340.018	72.44
340.246	84.44
340.474	99.44
340.702	88.44
340.93	84.44
341.158	83.44
341.386	91.44
341.614	82.44
341.842	87.44
342.07	100.44
342.298	87.44
342.526	89.44
342.754	90.44
342.981	88.44
343.209	80.44
343.437	96.44
343.665	91.44
343.893	101.44
344.12	90.44
344.348	86.44
344.576	72.44
344.804	87.44
345.031	93.44
345.259	85.44
345.487	83.44
345.714	82.44
345.942	90.44
346.17	84.44
346.397	92.44
346.625	88.44
346.853	62.44
347.08	73.44
347.308	89.44
347.535	93.44
347.763	95.44
347.99	77.44
348.218	92.44
348.445	81.44
348.673	91.44
348.9	73.44
349.128	80.44
349.355	80.44
349.583	84.44
349.81	77.44
350.037	74.44
350.265	82.44
350.492	90.44
350.72	94.44
350.947	93.44
351.174	88.44
351.402	84.44
351.629	83.44
351.856	87.44
352.083	90.44
352.311	88.44
352.538	64.44
352.765	80.44
352.992	83.44
353.22	83.44
353.447	83.44
353.674	90.44
353.901	82.44
354.128	92.44
354.355	86.44
354.583	97.44
354.81	83.44
355.037	90.44
355.264	80.44
355.491	81.44
355.718	78.44
355.945	86.44
356.172	93.44
356.399	100.44
356.626	94.44
356.853	88.44
357.08	89.44
357.307	76.44
357.534	61.44
357.761	81.44
357.988	85.44
358.215	83.44
358.441	81.44
358.668	82.44
358.895	71.44
359.122	84.44
359.349	97.44
359.576	78.44
359.802	94.44
360.029	93.44
360.256	84.44
360.483	83.44
360.709	78.44
360.936	77.44
361.163	82.44
361.39	81.44
361.616	72.44
361.843	84.44
362.07	94.44
362.296	76.44
362.523	96.44
362.749	86.44
362.976	88.44
363.203	98.44
363.429	87.44
363.656	84.44
363.882	78.44
364.109	88.44
364.335	91.44
364.562	93.44
364.788	77.44
365.015	78.44
365.241	90.44
365.468	94.44
365.694	86.44
365.92	90.44
366.147	77.44
366.373	89.44
366.599	102.44
366.826	82.44
367.052	84.44
367.278	95.44
367.505	93.44
367.731	102.44
367.957	80.44
368.184	91.44
368.41	85.44
368.636	92.44
368.862	106.44
369.089	84.44
369.315	84.44
369.541	94.44
369.767	91.44
369.993	84.44
370.219	85.44
370.445	75.44
370.672	78.44
370.898	82.44
371.124	80.44
371.35	80.44
371.576	76.44
371.802	84.44
372.028	82.44
372.254	79.44
372.48	80.44
372.706	90.44
372.932	83.44
373.158	76.44
373.384	96.44
373.61	93.44
373.835	92.44
374.061	88.44
374.287	83.44
374.513	87.44
374.739	91.44
374.965	105.44
375.191	84.44
375.416	68.44
375.642	86.44
375.868	78.44
376.094	94.44
376.319	77.44
376.545	87.44
376.771	98.44
376.997	93.44
377.222	89.44
377.448	91.44
377.674	86.44
377.899	83.44
378.125	72.44
378.35	78.44
378.576	80.44
378.802	76.44
379.027	71.44
379.253	91.44
379.478	87.44
379.704	76.44
379.929	90.44
380.155	82.44
380.38	80.44
380.606	84.44
380.831	86.44
381.057	97.44
381.282	76.44
381.507	92.44
381.733	94.44
381.958	89.44
382.184	86.44
382.409	86.44
382.634	100.44
382.86	83.44
383.085	103.44
383.31	76.44
383.535	89.44
383.761	98.44
383.986	88.44
384.211	95.44
384.436	82.44
384.662	60.44
384.887	84.44
385.112	70.44
385.337	65.44
385.562	90.44
385.787	91.44
386.013	99.44
386.238	84.44
386.463	86.44
386.688	98.44
386.913	85.44
387.138	78.44
387.363	81.44
387.588	91.44
387.813	91.44
388.038	83.44
388.263	90.44
388.488	86.44
388.713	83.44
388.938	85.44
389.163	84.44
389.387	89.44
389.612	97.44
389.837	93.44
390.062	90.44
390.287	98.44
390.512	96.44
390.736	100.44
390.961	81.44
391.186	93.44
391.411	87.44
391.636	92.44
391.86	81.44
392.085	91.44
392.31	77.44
392.534	81.44
392.759	88.44
392.984	86.44
393.208	86.44
393.433	75.44
393.658	94.44
393.882	74.44
394.107	82.44
394.331	90.44
394.556	86.44
394.78	92.44
395.005	86.44
395.229	92.44
395.454	89.44
395.678	75.44
395.903	92.44
396.127	92.44
396.352	81.44
396.576	82.44
396.801	86.44
397.025	84.44
397.249	78.44
397.474	104.44
397.698	89.44
397.922	84.44
398.147	86.44
398.371	85.44
398.595	93.44
398.82	87.44
399.044	93.44
399.268	91.44
399.492	99.44
399.717	98.44
399.941	101.44
400.165	80.44
400.389	84.44
400.613	98.44
400.837	80.44
401.062	80.44
401.286	86.44
401.51	97.44
401.734	89.44
401.958	86.44
402.182	92.44
402.406	82.44
402.63	91.44
402.854	97.44
403.078	92.44
403.302	92.44
403.526	83.44
403.75	92.44
403.974	91.44
404.198	78.44
404.422	85.44
404.645	96.44
404.869	90.44
405.093	86.44
405.317	77.44
405.541	82.44
405.765	81.44
405.988	94.44
406.212	101.44
406.436	84.44
406.66	88.44
406.883	74.44
407.107	89.44
407.331	79.44
407.555	101.44
407.778	78.44
408.002	102.44
408.226	94.44
408.449	93.44
408.673	84.44
408.896	102.44
409.12	94.44
409.344	72.44
409.567	62.44
409.791	87.44
410.014	87.44
410.238	78.44
410.461	95.44
410.685	91.44
410.908	108.44
411.132	85.44
411.355	83.44
411.578	84.44
411.802	76.44
412.025	90.44
412.249	92.44
412.472	80.44
412.695	73.44
412.919	86.44
413.142	81.44
413.365	77.44
413.589	70.44
413.812	93.44
414.035	94.44
414.258	78.44
414.482	88.44
414.705	93.44
414.928	82.44
415.151	86.44
415.374	80.44
415.597	84.44
415.821	78.44
416.044	67.44
416.267	76.44
416.49	76.44
416.713	75.44
416.936	82.44
417.159	82.44
417.382	88.44
417.605	82.44
417.828	81.44
418.051	75.44
418.274	81.44
418.497	82.44
418.72	77.44
418.943	82.44
419.166	81.44
419.389	89.44
419.611	82.44
419.834	92.44
420.057	79.44
420.28	88.44
420.503	78.44
420.726	83.44
420.948	94.44
421.171	90.44
421.394	87.44
421.617	82.44
421.839	87.44
422.062	96.44
422.285	80.44
422.507	92.44
422.73	77.44
422.953	71.44
423.175	75.44
423.398	80.44
423.621	83.44
423.843	81.44
424.066	77.44
424.288	84.44
424.511	75.44
424.733	111.44
424.956	100.44
425.178	85.44
425.401	77.44
425.623	81.44
425.846	68.44
426.068	92.44
426.291	91.44
426.513	75.44
426.735	88.44
426.958	90.44
427.18	73.44
427.402	93.44
427.625	78.44
427.847	72.44
428.069	86.44
428.292	88.44
428.514	79.44
428.736	83.44
428.958	76.44
429.181	93.44
429.403	76.44
429.625	73.44
429.847	78.44
430.069	86.44
430.292	70.44
430.514	93.44
430.736	97.44
430.958	98.44
431.18	67.44
431.402	90.44
431.624	81.44
431.846	83.44
432.068	76.44
432.29	84.44
432.512	92.44
432.734	84.44
432.956	101.44
433.178	93.44
433.4	86.44
433.622	100.44
433.844	85.44
434.066	97.44
434.287	77.44
434.509	74.44
434.731	88.44
434.953	83.44
435.175	82.44
435.397	96.44
435.618	78.44
435.84	98.44
436.062	86.44
436.284	83.44
436.505	74.44
436.727	82.44
436.949	71.44
437.17	85.44
437.392	77.44
437.614	89.44
437.835	62.44
438.057	89.44
438.278	82.44
438.5	85.44
438.721	85.44
438.943	96.44
439.165	89.44
439.386	76.44
439.608	90.44
439.829	81.44
440.05	82.44
440.272	88.44
440.493	90.44
440.715	86.44
440.936	69.44
441.158	72.44
441.379	84.44
441.6	76.44
441.822	89.44
442.043	89.44
442.264	73.44
442.486	86.44
442.707	81.44
442.928	81.44
443.149	74.44
443.371	80.44
443.592	89.44
443.813	86.44
444.034	87.44
444.255	96.44
444.476	86.44
444.698	80.44
444.919	93.44
445.14	161.44
445.361	118.44
445.582	86.44
445.803	77.44
446.024	74.44
446.245	90.44
446.466	100.44
446.687	77.44
446.908	84.44
447.129	92.44
447.35	74.44
447.571	86.44
447.792	75.44
448.013	76.44
448.234	90.44
448.455	77.44
448.675	84.44
448.896	92.44
449.117	73.44
449.338	81.44
449.559	100.44
449.779	82.44
450	83.44
450.221	96.44
450.442	98.44
450.662	79.44
450.883	87.44
451.104	88.44
451.324	88.44
451.545	88.44
451.766	80.44
451.986	78.44
452.207	99.44
452.428	67.44
452.648	85.44
452.869	74.44
453.089	87.44
453.31	104.44
453.53	78.44
453.751	78.44
453.971	75.44
454.192	91.44
454.412	97.44
454.633	96.44
454.853	88.44
455.073	81.44
455.294	72.44
455.514	102.44
455.734	76.44
455.955	84.44
456.175	83.44
456.395	71.44
456.616	88.44
456.836	81.44
457.056	76.44
457.276	79.44
457.497	70.44
457.717	81.44
457.937	93.44
458.157	81.44
458.377	86.44
458.598	90.44
458.818	80.44
459.038	96.44
459.258	88.44
459.478	92.44
459.698	94.44
459.918	91.44
460.138	73.44
460.358	94.44
460.578	76.44
460.798	86.44
461.018	82.44
461.238	80.44
461.458	86.44
461.678	78.44
461.898	80.44
462.118	94.44
462.338	86.44
462.558	88.44
462.777	89.44
462.997	82.44
463.217	87.44
463.437	83.44
463.657	93.44
463.876	100.44
464.096	93.44
464.316	87.44
464.536	72.44
464.755	91.44
464.975	85.44
465.195	78.44
465.414	88.44
465.634	96.44
465.854	87.44
466.073	93.44
466.293	100.44
466.512	80.44
466.732	88.44
466.951	81.44
467.171	91.44
467.391	85.44
467.61	90.44
467.829	82.44
468.049	90.44
468.268	81.44
468.488	81.44
468.707	90.44
468.927	77.44
469.146	77.44
469.365	81.44
469.585	81.44
469.804	79.44
470.023	90.44
470.243	81.44
470.462	73.44
470.681	91.44
470.901	89.44
471.12	83.44
471.339	94.44
471.558	86.44
471.777	80.44
471.997	92.44
472.216	89.44
472.435	74.44
472.654	76.44
472.873	82.44
473.092	72.44
473.311	72.44
473.53	77.44
473.749	91.44
473.968	80.44
474.187	90.44
474.406	92.44
474.625	100.44
474.844	84.44
475.063	84.44
475.282	85.44
475.501	68.44
475.72	92.44
475.939	76.44
476.158	89.44
476.377	75.44
476.596	85.44
476.814	98.44
477.033	80.44
477.252	91.44
477.471	85.44
477.69	74.44
477.908	64.44
478.127	95.44
478.346	86.44
478.564	73.44
478.783	86.44
479.002	89.44
479.22	86.44
479.439	101.44
479.658	77.44
479.876	90.44
480.095	92.44
480.313	76.44
480.532	84.44
480.751	80.44
480.969	81.44
481.188	96.44
481.406	96.44
481.624	83.44
481.843	88.44
482.061	84.44
482.28	85.44
482.498	88.44
482.717	104.44
482.935	87.44
483.153	82.44
483.372	80.44
483.59	99.44
483.808	89.44
484.027	76.44
484.245	82.44
484.463	78.44
484.681	80.44
484.9	99.44
485.118	79.44
485.336	84.44
485.554	100.44
485.772	77.44
485.99	85.44
486.209	77.44
486.427	78.44
486.645	80.44
486.863	86.44
487.081	86.44
487.299	81.44
487.517	95.44
487.735	99.44
487.953	85.44
488.171	92.44
488.389	79.44
488.607	80.44
488.825	87.44
489.043	86.44
489.261	82.44
489.479	94.44
489.696	79.44
489.914	91.44
490.132	73.44
490.35	101.44
490.568	88.44
490.786	96.44
491.003	82.44
491.221	81.44
491.439	88.44
491.657	80.44
491.874	96.44
492.092	96.44
492.31	88.44
492.527	92.44
492.745	88.44
492.963	96.44
493.18	107.44
493.398	84.44
493.615	77.44
493.833	84.44
494.05	78.44
494.268	89.44
494.485	84.44
494.703	80.44
494.92	89.44
495.138	84.44
495.355	93.44
495.573	90.44
495.79	86.44
496.008	68.44
496.225	73.44
496.442	74.44
496.66	100.44
496.877	88.44
497.094	93.44
497.312	81.44
497.529	80.44
497.746	85.44
497.963	89.44
498.181	91.44
498.398	83.44
498.615	91.44
498.832	88.44
499.049	89.44
499.267	87.44
499.484	97.44
499.701	114.44
499.918	104.44
500.135	110.44
500.352	109.44
500.569	106.44
500.786	99.44
501.003	109.44
501.22	85.44
501.437	98.44
501.654	97.44
501.871	85.44
502.088	82.44
502.305	89.44
502.522	94.44
502.739	86.44
502.956	86.44
503.172	85.44
503.389	87.44
503.606	85.44
503.823	93.44
504.04	84.44
504.256	86.44
504.473	94.44
504.69	80.44
504.907	103.44
505.123	82.44
505.34	83.44
505.557	91.44
505.773	91.44
505.99	86.44
506.207	71.44
506.423	102.44
506.64	86.44
506.856	88.44
507.073	84.44
507.289	86.44
507.506	83.44
507.722	86.44
507.939	86.44
508.155	82.44
508.372	90.44
508.588	88.44
508.805	80.44
509.021	86.44
509.238	82.44
509.454	88.44
509.67	81.44
509.887	84.44
510.103	79.44
510.319	85.44
510.536	90.44
510.752	78.44
510.968	93.44
511.184	80.44
511.401	77.44
511.617	98.44
511.833	100.44
512.049	82.44
512.265	69.44
512.481	93.44
512.698	80.44
512.914	92.44
513.13	84.44
513.346	76.44
513.562	89.44
513.778	90.44
513.994	87.44
514.21	82.44
514.426	79.44
514.642	81.44
514.858	86.44
515.074	83.44
515.29	88.44
515.506	98.44
515.721	75.44
515.937	82.44
516.153	87.44
516.369	82.44
516.585	85.44
516.801	83.44
517.016	88.44
517.232	90.44
517.448	86.44
517.664	99.44
517.879	82.44
518.095	92.44
518.311	80.44
518.527	83.44
518.742	75.44
518.958	79.44
519.173	97.44
519.389	96.44
519.605	92.44
