Data from BG_HRD10591_006.txt Node
Date: Fri May 16 15:20:57 EDT 2025
User: Yrep
Spectrometer: HR+D1059
Trigger mode: 1
Integration Time (sec): 1.000000E-1
Scans to average: 1
Electric dark correction enabled: true
Nonlinearity correction enabled: false
Boxcar width: 0
XAxis mode: Wavelengths
Number of Pixels in Spectrum: 2048
>>>>>Begin Spectral Data<<<<<
223.165	-14.75
223.4	-14.75
223.635	-14.75
223.869	-19.75
224.104	-24.75
224.338	-28.75
224.573	-11.75
224.808	-22.75
225.042	-3.75
225.277	10.25
225.511	-3.75
225.746	-2.75
225.98	13.25
226.215	0.25
226.449	29.25
226.683	12.25
226.918	35.25
227.152	32.25
227.387	28.25
227.621	39.25
227.856	47.25
228.09	58.25
228.324	56.25
228.559	56.25
228.793	52.25
229.027	62.25
229.262	57.25
229.496	55.25
229.73	65.25
229.964	84.25
230.199	62.25
230.433	73.25
230.667	71.25
230.901	81.25
231.136	83.25
231.37	79.25
231.604	88.25
231.838	87.25
232.072	70.25
232.306	103.25
232.541	90.25
232.775	85.25
233.009	77.25
233.243	80.25
233.477	92.25
233.711	77.25
233.945	84.25
234.179	74.25
234.413	86.25
234.647	79.25
234.881	81.25
235.115	73.25
235.349	82.25
235.583	71.25
235.817	71.25
236.051	83.25
236.285	81.25
236.519	78.25
236.753	79.25
236.987	73.25
237.221	78.25
237.455	71.25
237.689	91.25
237.922	84.25
238.156	71.25
238.39	64.25
238.624	77.25
238.858	75.25
239.091	70.25
239.325	79.25
239.559	76.25
239.793	59.25
240.027	80.25
240.26	84.25
240.494	80.25
240.728	66.25
240.961	81.25
241.195	71.25
241.429	72.25
241.662	78.25
241.896	69.25
242.13	73.25
242.363	74.25
242.597	73.25
242.83	62.25
243.064	79.25
243.298	80.25
243.531	65.25
243.765	76.25
243.998	72.25
244.232	81.25
244.465	89.25
244.699	75.25
244.932	70.25
245.166	95.25
245.399	74.25
245.633	64.25
245.866	71.25
246.099	96.25
246.333	70.25
246.566	67.25
246.8	76.25
247.033	68.25
247.266	83.25
247.5	80.25
247.733	72.25
247.966	71.25
248.2	77.25
248.433	82.25
248.666	78.25
248.899	85.25
249.133	75.25
249.366	89.25
249.599	79.25
249.832	55.25
250.066	70.25
250.299	71.25
250.532	80.25
250.765	84.25
250.998	87.25
251.231	66.25
251.465	71.25
251.698	75.25
251.931	83.25
252.164	76.25
252.397	76.25
252.63	74.25
252.863	93.25
253.096	68.25
253.329	85.25
253.562	80.25
253.795	82.25
254.028	85.25
254.261	86.25
254.494	88.25
254.727	77.25
254.96	79.25
255.193	76.25
255.426	74.25
255.659	79.25
255.892	80.25
256.124	77.25
256.357	72.25
256.59	88.25
256.823	80.25
257.056	65.25
257.289	90.25
257.521	76.25
257.754	80.25
257.987	79.25
258.22	75.25
258.452	77.25
258.685	81.25
258.918	71.25
259.151	96.25
259.383	90.25
259.616	72.25
259.849	80.25
260.081	80.25
260.314	79.25
260.547	74.25
260.779	87.25
261.012	75.25
261.244	72.25
261.477	92.25
261.71	86.25
261.942	79.25
262.175	73.25
262.407	73.25
262.64	77.25
262.872	78.25
263.105	86.25
263.337	92.25
263.57	77.25
263.802	78.25
264.035	64.25
264.267	74.25
264.499	76.25
264.732	78.25
264.964	80.25
265.197	76.25
265.429	76.25
265.661	84.25
265.894	88.25
266.126	83.25
266.358	106.25
266.591	81.25
266.823	86.25
267.055	91.25
267.287	91.25
267.52	88.25
267.752	81.25
267.984	81.25
268.216	81.25
268.448	80.25
268.681	81.25
268.913	74.25
269.145	76.25
269.377	91.25
269.609	75.25
269.841	71.25
270.073	85.25
270.306	82.25
270.538	86.25
270.77	86.25
271.002	88.25
271.234	92.25
271.466	89.25
271.698	83.25
271.93	87.25
272.162	91.25
272.394	85.25
272.626	73.25
272.858	83.25
273.09	94.25
273.322	92.25
273.553	86.25
273.785	77.25
274.017	84.25
274.249	99.25
274.481	80.25
274.713	74.25
274.945	81.25
275.176	78.25
275.408	83.25
275.64	97.25
275.872	90.25
276.104	93.25
276.335	89.25
276.567	86.25
276.799	78.25
277.031	74.25
277.262	84.25
277.494	105.25
277.726	93.25
277.957	87.25
278.189	96.25
278.421	92.25
278.652	94.25
278.884	79.25
279.115	78.25
279.347	81.25
279.579	81.25
279.81	86.25
280.042	79.25
280.273	79.25
280.505	86.25
280.736	78.25
280.968	91.25
281.199	77.25
281.431	80.25
281.662	90.25
281.894	85.25
282.125	103.25
282.356	92.25
282.588	81.25
282.819	87.25
283.051	87.25
283.282	86.25
283.513	107.25
283.745	93.25
283.976	69.25
284.207	73.25
284.439	95.25
284.67	102.25
284.901	83.25
285.132	89.25
285.364	90.25
285.595	89.25
285.826	79.25
286.057	89.25
286.288	92.25
286.52	85.25
286.751	86.25
286.982	92.25
287.213	92.25
287.444	84.25
287.675	87.25
287.906	105.25
288.138	80.25
288.369	77.25
288.6	95.25
288.831	93.25
289.062	77.25
289.293	76.25
289.524	91.25
289.755	95.25
289.986	85.25
290.217	79.25
290.448	71.25
290.679	91.25
290.91	89.25
291.141	79.25
291.371	89.25
291.602	86.25
291.833	96.25
292.064	71.25
292.295	82.25
292.526	101.25
292.757	87.25
292.987	93.25
293.218	89.25
293.449	103.25
293.68	81.25
293.91	74.25
294.141	73.25
294.372	76.25
294.603	103.25
294.833	101.25
295.064	96.25
295.295	78.25
295.525	85.25
295.756	66.25
295.987	78.25
296.217	96.25
296.448	82.25
296.679	99.25
296.909	100.25
297.14	85.25
297.37	84.25
297.601	85.25
297.831	78.25
298.062	92.25
298.292	103.25
298.523	88.25
298.753	86.25
298.984	81.25
299.214	73.25
299.445	86.25
299.675	82.25
299.905	84.25
300.136	100.25
300.366	80.25
300.597	91.25
300.827	93.25
301.057	91.25
301.288	100.25
301.518	67.25
301.748	80.25
301.979	101.25
302.209	94.25
302.439	77.25
302.669	99.25
302.9	89.25
303.13	79.25
303.36	93.25
303.59	77.25
303.82	86.25
304.051	83.25
304.281	80.25
304.511	88.25
304.741	90.25
304.971	72.25
305.201	80.25
305.431	92.25
305.661	95.25
305.891	82.25
306.121	80.25
306.352	87.25
306.582	82.25
306.812	81.25
307.042	90.25
307.272	91.25
307.502	79.25
307.731	92.25
307.961	88.25
308.191	79.25
308.421	89.25
308.651	90.25
308.881	75.25
309.111	76.25
309.341	78.25
309.571	84.25
309.8	90.25
310.03	85.25
310.26	82.25
310.49	79.25
310.72	93.25
310.949	83.25
311.179	87.25
311.409	98.25
311.639	94.25
311.868	93.25
312.098	78.25
312.328	84.25
312.557	84.25
312.787	79.25
313.017	91.25
313.246	93.25
313.476	81.25
313.706	111.25
313.935	86.25
314.165	86.25
314.394	76.25
314.624	86.25
314.853	89.25
315.083	84.25
315.312	80.25
315.542	72.25
315.771	95.25
316.001	83.25
316.23	86.25
316.46	90.25
316.689	94.25
316.919	91.25
317.148	87.25
317.377	78.25
317.607	84.25
317.836	84.25
318.065	73.25
318.295	90.25
318.524	95.25
318.753	95.25
318.983	87.25
319.212	90.25
319.441	86.25
319.67	78.25
319.9	101.25
320.129	94.25
320.358	107.25
320.587	71.25
320.816	93.25
321.046	92.25
321.275	86.25
321.504	89.25
321.733	85.25
321.962	79.25
322.191	77.25
322.42	90.25
322.649	80.25
322.878	84.25
323.108	89.25
323.337	96.25
323.566	85.25
323.795	85.25
324.024	82.25
324.253	104.25
324.482	108.25
324.71	80.25
324.939	86.25
325.168	100.25
325.397	100.25
325.626	94.25
325.855	89.25
326.084	90.25
326.313	90.25
326.542	80.25
326.77	85.25
326.999	76.25
327.228	78.25
327.457	78.25
327.686	88.25
327.914	78.25
328.143	87.25
328.372	89.25
328.6	92.25
328.829	89.25
329.058	94.25
329.287	76.25
329.515	87.25
329.744	72.25
329.972	80.25
330.201	101.25
330.43	78.25
330.658	81.25
330.887	96.25
331.115	88.25
331.344	93.25
331.572	103.25
331.801	91.25
332.03	108.25
332.258	91.25
332.486	93.25
332.715	88.25
332.943	93.25
333.172	94.25
333.4	87.25
333.629	89.25
333.857	103.25
334.085	93.25
334.314	99.25
334.542	95.25
334.771	91.25
334.999	86.25
335.227	88.25
335.455	89.25
335.684	102.25
335.912	81.25
336.14	80.25
336.369	89.25
336.597	76.25
336.825	78.25
337.053	83.25
337.281	83.25
337.51	85.25
337.738	94.25
337.966	79.25
338.194	73.25
338.422	94.25
338.65	104.25
338.878	92.25
339.106	90.25
339.334	96.25
339.562	84.25
339.79	104.25
340.018	84.25
340.246	89.25
340.474	89.25
340.702	96.25
340.93	95.25
341.158	87.25
341.386	84.25
341.614	82.25
341.842	90.25
342.07	92.25
342.298	94.25
342.526	105.25
342.754	77.25
342.981	83.25
343.209	98.25
343.437	102.25
343.665	76.25
343.893	86.25
344.12	97.25
344.348	75.25
344.576	89.25
344.804	84.25
345.031	80.25
345.259	88.25
345.487	92.25
345.714	91.25
345.942	90.25
346.17	76.25
346.397	89.25
346.625	71.25
346.853	93.25
347.08	91.25
347.308	99.25
347.535	92.25
347.763	85.25
347.99	87.25
348.218	102.25
348.445	57.25
348.673	91.25
348.9	87.25
349.128	102.25
349.355	85.25
349.583	83.25
349.81	84.25
350.037	81.25
350.265	84.25
350.492	80.25
350.72	87.25
350.947	97.25
351.174	84.25
351.402	89.25
351.629	94.25
351.856	95.25
352.083	100.25
352.311	88.25
352.538	86.25
352.765	92.25
352.992	96.25
353.22	86.25
353.447	103.25
353.674	100.25
353.901	82.25
354.128	87.25
354.355	84.25
354.583	102.25
354.81	85.25
355.037	83.25
355.264	100.25
355.491	92.25
355.718	74.25
355.945	87.25
356.172	93.25
356.399	87.25
356.626	77.25
356.853	97.25
357.08	90.25
357.307	92.25
357.534	85.25
357.761	91.25
357.988	93.25
358.215	87.25
358.441	87.25
358.668	91.25
358.895	80.25
359.122	100.25
359.349	78.25
359.576	75.25
359.802	98.25
360.029	69.25
360.256	84.25
360.483	89.25
360.709	90.25
360.936	88.25
361.163	89.25
361.39	92.25
361.616	79.25
361.843	100.25
362.07	92.25
362.296	99.25
362.523	85.25
362.749	90.25
362.976	81.25
363.203	90.25
363.429	96.25
363.656	84.25
363.882	84.25
364.109	85.25
364.335	95.25
364.562	76.25
364.788	58.25
365.015	95.25
365.241	80.25
365.468	84.25
365.694	81.25
365.92	93.25
366.147	81.25
366.373	84.25
366.599	85.25
366.826	67.25
367.052	91.25
367.278	99.25
367.505	83.25
367.731	87.25
367.957	81.25
368.184	83.25
368.41	72.25
368.636	83.25
368.862	74.25
369.089	78.25
369.315	76.25
369.541	103.25
369.767	99.25
369.993	87.25
370.219	89.25
370.445	83.25
370.672	76.25
370.898	87.25
371.124	99.25
371.35	91.25
371.576	89.25
371.802	85.25
372.028	90.25
372.254	93.25
372.48	103.25
372.706	80.25
372.932	75.25
373.158	86.25
373.384	87.25
373.61	92.25
373.835	87.25
374.061	90.25
374.287	94.25
374.513	95.25
374.739	91.25
374.965	88.25
375.191	80.25
375.416	83.25
375.642	78.25
375.868	82.25
376.094	97.25
376.319	92.25
376.545	88.25
376.771	97.25
376.997	89.25
377.222	77.25
377.448	87.25
377.674	75.25
377.899	72.25
378.125	91.25
378.35	86.25
378.576	81.25
378.802	87.25
379.027	78.25
379.253	95.25
379.478	85.25
379.704	87.25
379.929	62.25
380.155	85.25
380.38	87.25
380.606	85.25
380.831	106.25
381.057	102.25
381.282	88.25
381.507	92.25
381.733	90.25
381.958	82.25
382.184	76.25
382.409	82.25
382.634	95.25
382.86	92.25
383.085	80.25
383.31	87.25
383.535	73.25
383.761	88.25
383.986	83.25
384.211	87.25
384.436	79.25
384.662	90.25
384.887	87.25
385.112	85.25
385.337	87.25
385.562	84.25
385.787	88.25
386.013	83.25
386.238	87.25
386.463	81.25
386.688	101.25
386.913	77.25
387.138	91.25
387.363	88.25
387.588	90.25
387.813	75.25
388.038	94.25
388.263	79.25
388.488	88.25
388.713	91.25
388.938	84.25
389.163	79.25
389.387	93.25
389.612	81.25
389.837	77.25
390.062	104.25
390.287	76.25
390.512	77.25
390.736	66.25
390.961	70.25
391.186	72.25
391.411	93.25
391.636	78.25
391.86	82.25
392.085	95.25
392.31	86.25
392.534	76.25
392.759	86.25
392.984	81.25
393.208	88.25
393.433	87.25
393.658	89.25
393.882	81.25
394.107	99.25
394.331	96.25
394.556	90.25
394.78	80.25
395.005	76.25
395.229	91.25
395.454	105.25
395.678	101.25
395.903	101.25
396.127	78.25
396.352	89.25
396.576	96.25
396.801	92.25
397.025	83.25
397.249	81.25
397.474	93.25
397.698	88.25
397.922	89.25
398.147	83.25
398.371	83.25
398.595	82.25
398.82	77.25
399.044	103.25
399.268	89.25
399.492	93.25
399.717	85.25
399.941	94.25
400.165	75.25
400.389	106.25
400.613	78.25
400.837	101.25
401.062	77.25
401.286	93.25
401.51	77.25
401.734	86.25
401.958	101.25
402.182	89.25
402.406	94.25
402.63	83.25
402.854	76.25
403.078	85.25
403.302	85.25
403.526	94.25
403.75	91.25
403.974	103.25
404.198	85.25
404.422	108.25
404.645	77.25
404.869	85.25
405.093	89.25
405.317	85.25
405.541	94.25
405.765	81.25
405.988	92.25
406.212	101.25
406.436	83.25
406.66	87.25
406.883	93.25
407.107	92.25
407.331	91.25
407.555	92.25
407.778	92.25
408.002	92.25
408.226	105.25
408.449	101.25
408.673	87.25
408.896	92.25
409.12	105.25
409.344	94.25
409.567	88.25
409.791	68.25
410.014	84.25
410.238	98.25
410.461	92.25
410.685	88.25
410.908	84.25
411.132	97.25
411.355	87.25
411.578	78.25
411.802	100.25
412.025	103.25
412.249	86.25
412.472	96.25
412.695	87.25
412.919	87.25
413.142	80.25
413.365	84.25
413.589	93.25
413.812	84.25
414.035	92.25
414.258	81.25
414.482	76.25
414.705	101.25
414.928	96.25
415.151	80.25
415.374	80.25
415.597	95.25
415.821	90.25
416.044	78.25
416.267	71.25
416.49	87.25
416.713	82.25
416.936	74.25
417.159	84.25
417.382	99.25
417.605	81.25
417.828	85.25
418.051	84.25
418.274	94.25
418.497	83.25
418.72	96.25
418.943	85.25
419.166	86.25
419.389	85.25
419.611	83.25
419.834	108.25
420.057	87.25
420.28	80.25
420.503	97.25
420.726	93.25
420.948	84.25
421.171	95.25
421.394	69.25
421.617	87.25
421.839	84.25
422.062	83.25
422.285	76.25
422.507	97.25
422.73	101.25
422.953	92.25
423.175	94.25
423.398	85.25
423.621	89.25
423.843	92.25
424.066	88.25
424.288	77.25
424.511	75.25
424.733	93.25
424.956	87.25
425.178	90.25
425.401	88.25
425.623	80.25
425.846	77.25
426.068	108.25
426.291	95.25
426.513	85.25
426.735	89.25
426.958	75.25
427.18	94.25
427.402	93.25
427.625	77.25
427.847	92.25
428.069	89.25
428.292	98.25
428.514	82.25
428.736	80.25
428.958	89.25
429.181	80.25
429.403	88.25
429.625	78.25
429.847	94.25
430.069	87.25
430.292	85.25
430.514	90.25
430.736	84.25
430.958	86.25
431.18	71.25
431.402	72.25
431.624	75.25
431.846	99.25
432.068	88.25
432.29	89.25
432.512	74.25
432.734	87.25
432.956	94.25
433.178	79.25
433.4	81.25
433.622	83.25
433.844	91.25
434.066	96.25
434.287	92.25
434.509	79.25
434.731	95.25
434.953	87.25
435.175	87.25
435.397	89.25
435.618	84.25
435.84	84.25
436.062	92.25
436.284	72.25
436.505	74.25
436.727	80.25
436.949	104.25
437.17	79.25
437.392	90.25
437.614	96.25
437.835	86.25
438.057	75.25
438.278	87.25
438.5	90.25
438.721	84.25
438.943	94.25
439.165	91.25
439.386	84.25
439.608	85.25
439.829	77.25
440.05	94.25
440.272	79.25
440.493	92.25
440.715	81.25
440.936	89.25
441.158	95.25
441.379	98.25
441.6	83.25
441.822	106.25
442.043	95.25
442.264	85.25
442.486	106.25
442.707	77.25
442.928	102.25
443.149	89.25
443.371	90.25
443.592	100.25
443.813	85.25
444.034	90.25
444.255	89.25
444.476	83.25
444.698	93.25
444.919	102.25
445.14	147.25
445.361	121.25
445.582	92.25
445.803	79.25
446.024	76.25
446.245	95.25
446.466	92.25
446.687	77.25
446.908	84.25
447.129	103.25
447.35	62.25
447.571	85.25
447.792	99.25
448.013	83.25
448.234	88.25
448.455	78.25
448.675	76.25
448.896	67.25
449.117	81.25
449.338	61.25
449.559	87.25
449.779	76.25
450	75.25
450.221	101.25
450.442	101.25
450.662	88.25
450.883	82.25
451.104	86.25
451.324	80.25
451.545	79.25
451.766	92.25
451.986	85.25
452.207	75.25
452.428	84.25
452.648	90.25
452.869	84.25
453.089	94.25
453.31	97.25
453.53	93.25
453.751	89.25
453.971	103.25
454.192	96.25
454.412	79.25
454.633	86.25
454.853	85.25
455.073	73.25
455.294	86.25
455.514	77.25
455.734	97.25
455.955	78.25
456.175	76.25
456.395	73.25
456.616	77.25
456.836	77.25
457.056	81.25
457.276	86.25
457.497	85.25
457.717	75.25
457.937	80.25
458.157	88.25
458.377	99.25
458.598	83.25
458.818	75.25
459.038	71.25
459.258	96.25
459.478	105.25
459.698	101.25
459.918	75.25
460.138	88.25
460.358	83.25
460.578	102.25
460.798	87.25
461.018	93.25
461.238	79.25
461.458	85.25
461.678	71.25
461.898	82.25
462.118	72.25
462.338	91.25
462.558	88.25
462.777	87.25
462.997	86.25
463.217	90.25
463.437	81.25
463.657	69.25
463.876	86.25
464.096	87.25
464.316	89.25
464.536	84.25
464.755	90.25
464.975	99.25
465.195	86.25
465.414	91.25
465.634	77.25
465.854	84.25
466.073	95.25
466.293	88.25
466.512	93.25
466.732	72.25
466.951	78.25
467.171	87.25
467.391	89.25
467.61	101.25
467.829	91.25
468.049	88.25
468.268	75.25
468.488	80.25
468.707	93.25
468.927	88.25
469.146	78.25
469.365	87.25
469.585	91.25
469.804	77.25
470.023	82.25
470.243	89.25
470.462	99.25
470.681	88.25
470.901	80.25
471.12	89.25
471.339	94.25
471.558	88.25
471.777	90.25
471.997	97.25
472.216	83.25
472.435	87.25
472.654	84.25
472.873	98.25
473.092	86.25
473.311	92.25
473.53	91.25
473.749	78.25
473.968	94.25
474.187	88.25
474.406	81.25
474.625	87.25
474.844	90.25
475.063	87.25
475.282	95.25
475.501	86.25
475.72	97.25
475.939	94.25
476.158	95.25
476.377	78.25
476.596	100.25
476.814	99.25
477.033	83.25
477.252	83.25
477.471	87.25
477.69	79.25
477.908	77.25
478.127	87.25
478.346	85.25
478.564	88.25
478.783	101.25
479.002	73.25
479.22	88.25
479.439	97.25
479.658	86.25
479.876	88.25
480.095	88.25
480.313	88.25
480.532	90.25
480.751	107.25
480.969	80.25
481.188	95.25
481.406	80.25
481.624	64.25
481.843	85.25
482.061	92.25
482.28	89.25
482.498	87.25
482.717	76.25
482.935	94.25
483.153	100.25
483.372	82.25
483.59	94.25
483.808	92.25
484.027	88.25
484.245	75.25
484.463	83.25
484.681	103.25
484.9	92.25
485.118	87.25
485.336	84.25
485.554	71.25
485.772	78.25
485.99	94.25
486.209	96.25
486.427	88.25
486.645	83.25
486.863	88.25
487.081	92.25
487.299	87.25
487.517	89.25
487.735	86.25
487.953	74.25
488.171	96.25
488.389	95.25
488.607	105.25
488.825	93.25
489.043	85.25
489.261	85.25
489.479	80.25
489.696	83.25
489.914	77.25
490.132	88.25
490.35	86.25
490.568	94.25
490.786	94.25
491.003	106.25
491.221	83.25
491.439	89.25
491.657	85.25
491.874	103.25
492.092	93.25
492.31	85.25
492.527	90.25
492.745	90.25
492.963	82.25
493.18	102.25
493.398	78.25
493.615	77.25
493.833	91.25
494.05	101.25
494.268	96.25
494.485	93.25
494.703	92.25
494.92	83.25
495.138	77.25
495.355	92.25
495.573	96.25
495.79	100.25
496.008	94.25
496.225	89.25
496.442	96.25
496.66	94.25
496.877	111.25
497.094	104.25
497.312	95.25
497.529	99.25
497.746	89.25
497.963	101.25
498.181	93.25
498.398	85.25
498.615	93.25
498.832	82.25
499.049	86.25
499.267	95.25
499.484	85.25
499.701	99.25
499.918	112.25
500.135	87.25
500.352	112.25
500.569	122.25
500.786	102.25
501.003	102.25
501.22	102.25
501.437	89.25
501.654	85.25
501.871	101.25
502.088	97.25
502.305	95.25
502.522	106.25
502.739	98.25
502.956	102.25
503.172	87.25
503.389	72.25
503.606	100.25
503.823	91.25
504.04	97.25
504.256	97.25
504.473	89.25
504.69	104.25
504.907	103.25
505.123	87.25
505.34	83.25
505.557	87.25
505.773	99.25
505.99	83.25
506.207	83.25
506.423	84.25
506.64	89.25
506.856	80.25
507.073	89.25
507.289	85.25
507.506	81.25
507.722	87.25
507.939	92.25
508.155	84.25
508.372	91.25
508.588	76.25
508.805	90.25
509.021	83.25
509.238	78.25
509.454	84.25
509.67	89.25
509.887	101.25
510.103	86.25
510.319	78.25
510.536	96.25
510.752	84.25
510.968	101.25
511.184	92.25
511.401	91.25
511.617	92.25
511.833	111.25
512.049	106.25
512.265	108.25
512.481	77.25
512.698	94.25
512.914	91.25
513.13	99.25
513.346	90.25
513.562	101.25
513.778	87.25
513.994	91.25
514.21	99.25
514.426	99.25
514.642	97.25
514.858	100.25
515.074	92.25
515.29	86.25
515.506	88.25
515.721	90.25
515.937	99.25
516.153	85.25
516.369	94.25
516.585	89.25
516.801	99.25
517.016	90.25
517.232	94.25
517.448	88.25
517.664	95.25
517.879	96.25
518.095	86.25
518.311	65.25
518.527	81.25
518.742	79.25
