Data from BG_HRD10591_052.txt Node
Date: Fri May 16 15:21:20 EDT 2025
User: Yrep
Spectrometer: HR+D1059
Trigger mode: 1
Integration Time (sec): 1.000000E-1
Scans to average: 1
Electric dark correction enabled: true
Nonlinearity correction enabled: false
Boxcar width: 0
XAxis mode: Wavelengths
Number of Pixels in Spectrum: 2048
>>>>>Begin Spectral Data<<<<<
223.165	-20.88
223.4	-20.88
223.635	-20.88
223.869	-32.88
224.104	-12.88
224.338	-10.88
224.573	-10.88
224.808	-15.88
225.042	2.12
225.277	-7.88
225.511	-0.88
225.746	-8.88
225.98	10.12
226.215	6.12
226.449	17.12
226.683	18.12
226.918	31.12
227.152	37.12
227.387	28.12
227.621	31.12
227.856	46.12
228.09	30.12
228.324	41.12
228.559	46.12
228.793	54.12
229.027	49.12
229.262	63.12
229.496	59.12
229.73	72.12
229.964	68.12
230.199	75.12
230.433	76.12
230.667	78.12
230.901	75.12
231.136	69.12
231.37	78.12
231.604	78.12
231.838	77.12
232.072	70.12
232.306	74.12
232.541	70.12
232.775	72.12
233.009	84.12
233.243	93.12
233.477	73.12
233.711	73.12
233.945	71.12
234.179	95.12
234.413	69.12
234.647	74.12
234.881	87.12
235.115	80.12
235.349	66.12
235.583	62.12
235.817	72.12
236.051	67.12
236.285	90.12
236.519	76.12
236.753	79.12
236.987	73.12
237.221	74.12
237.455	82.12
237.689	83.12
237.922	52.12
238.156	69.12
238.39	75.12
238.624	68.12
238.858	82.12
239.091	70.12
239.325	58.12
239.559	76.12
239.793	70.12
240.027	73.12
240.26	84.12
240.494	66.12
240.728	88.12
240.961	71.12
241.195	94.12
241.429	76.12
241.662	88.12
241.896	76.12
242.13	78.12
242.363	76.12
242.597	70.12
242.83	71.12
243.064	55.12
243.298	79.12
243.531	68.12
243.765	82.12
243.998	80.12
244.232	74.12
244.465	70.12
244.699	76.12
244.932	79.12
245.166	67.12
245.399	90.12
245.633	72.12
245.866	76.12
246.099	74.12
246.333	79.12
246.566	66.12
246.8	72.12
247.033	92.12
247.266	81.12
247.5	72.12
247.733	70.12
247.966	79.12
248.2	64.12
248.433	63.12
248.666	83.12
248.899	84.12
249.133	93.12
249.366	79.12
249.599	77.12
249.832	65.12
250.066	71.12
250.299	72.12
250.532	81.12
250.765	81.12
250.998	71.12
251.231	76.12
251.465	88.12
251.698	76.12
251.931	72.12
252.164	59.12
252.397	91.12
252.63	58.12
252.863	81.12
253.096	80.12
253.329	79.12
253.562	79.12
253.795	75.12
254.028	78.12
254.261	84.12
254.494	82.12
254.727	82.12
254.96	73.12
255.193	74.12
255.426	72.12
255.659	78.12
255.892	74.12
256.124	78.12
256.357	62.12
256.59	59.12
256.823	78.12
257.056	87.12
257.289	77.12
257.521	73.12
257.754	67.12
257.987	76.12
258.22	83.12
258.452	78.12
258.685	76.12
258.918	84.12
259.151	76.12
259.383	76.12
259.616	90.12
259.849	82.12
260.081	83.12
260.314	75.12
260.547	89.12
260.779	70.12
261.012	86.12
261.244	69.12
261.477	83.12
261.71	67.12
261.942	79.12
262.175	85.12
262.407	93.12
262.64	84.12
262.872	79.12
263.105	77.12
263.337	71.12
263.57	75.12
263.802	69.12
264.035	88.12
264.267	88.12
264.499	87.12
264.732	86.12
264.964	73.12
265.197	70.12
265.429	78.12
265.661	78.12
265.894	93.12
266.126	88.12
266.358	80.12
266.591	80.12
266.823	83.12
267.055	79.12
267.287	90.12
267.52	80.12
267.752	85.12
267.984	83.12
268.216	87.12
268.448	93.12
268.681	76.12
268.913	79.12
269.145	71.12
269.377	79.12
269.609	90.12
269.841	86.12
270.073	92.12
270.306	78.12
270.538	79.12
270.77	72.12
271.002	68.12
271.234	70.12
271.466	87.12
271.698	67.12
271.93	76.12
272.162	84.12
272.394	77.12
272.626	84.12
272.858	94.12
273.09	77.12
273.322	82.12
273.553	63.12
273.785	84.12
274.017	106.12
274.249	77.12
274.481	100.12
274.713	81.12
274.945	93.12
275.176	80.12
275.408	79.12
275.64	80.12
275.872	84.12
276.104	74.12
276.335	79.12
276.567	71.12
276.799	73.12
277.031	87.12
277.262	64.12
277.494	84.12
277.726	78.12
277.957	88.12
278.189	85.12
278.421	87.12
278.652	85.12
278.884	67.12
279.115	79.12
279.347	78.12
279.579	91.12
279.81	80.12
280.042	76.12
280.273	86.12
280.505	83.12
280.736	97.12
280.968	78.12
281.199	76.12
281.431	84.12
281.662	82.12
281.894	87.12
282.125	76.12
282.356	90.12
282.588	91.12
282.819	85.12
283.051	79.12
283.282	68.12
283.513	85.12
283.745	73.12
283.976	77.12
284.207	89.12
284.439	103.12
284.67	83.12
284.901	80.12
285.132	82.12
285.364	82.12
285.595	86.12
285.826	73.12
286.057	94.12
286.288	70.12
286.52	70.12
286.751	75.12
286.982	84.12
287.213	94.12
287.444	94.12
287.675	75.12
287.906	90.12
288.138	91.12
288.369	71.12
288.6	75.12
288.831	79.12
289.062	91.12
289.293	81.12
289.524	85.12
289.755	91.12
289.986	87.12
290.217	88.12
290.448	78.12
290.679	80.12
290.91	81.12
291.141	79.12
291.371	85.12
291.602	100.12
291.833	100.12
292.064	81.12
292.295	81.12
292.526	80.12
292.757	91.12
292.987	91.12
293.218	78.12
293.449	104.12
293.68	84.12
293.91	80.12
294.141	82.12
294.372	89.12
294.603	95.12
294.833	88.12
295.064	79.12
295.295	77.12
295.525	73.12
295.756	81.12
295.987	78.12
296.217	76.12
296.448	84.12
296.679	77.12
296.909	86.12
297.14	105.12
297.37	90.12
297.601	78.12
297.831	94.12
298.062	90.12
298.292	76.12
298.523	80.12
298.753	82.12
298.984	94.12
299.214	93.12
299.445	87.12
299.675	85.12
299.905	91.12
300.136	90.12
300.366	73.12
300.597	79.12
300.827	83.12
301.057	82.12
301.288	83.12
301.518	78.12
301.748	91.12
301.979	107.12
302.209	89.12
302.439	84.12
302.669	80.12
302.9	83.12
303.13	77.12
303.36	87.12
303.59	82.12
303.82	91.12
304.051	94.12
304.281	84.12
304.511	82.12
304.741	85.12
304.971	90.12
305.201	75.12
305.431	88.12
305.661	95.12
305.891	71.12
306.121	84.12
306.352	77.12
306.582	74.12
306.812	72.12
307.042	78.12
307.272	78.12
307.502	77.12
307.731	87.12
307.961	85.12
308.191	73.12
308.421	92.12
308.651	75.12
308.881	87.12
309.111	80.12
309.341	91.12
309.571	77.12
309.8	83.12
310.03	91.12
310.26	87.12
310.49	92.12
310.72	88.12
310.949	93.12
311.179	67.12
311.409	80.12
311.639	91.12
311.868	78.12
312.098	94.12
312.328	88.12
312.557	80.12
312.787	82.12
313.017	78.12
313.246	84.12
313.476	85.12
313.706	101.12
313.935	82.12
314.165	78.12
314.394	86.12
314.624	87.12
314.853	78.12
315.083	100.12
315.312	90.12
315.542	98.12
315.771	85.12
316.001	93.12
316.23	87.12
316.46	93.12
316.689	90.12
316.919	77.12
317.148	70.12
317.377	83.12
317.607	78.12
317.836	87.12
318.065	82.12
318.295	65.12
318.524	80.12
318.753	80.12
318.983	78.12
319.212	92.12
319.441	83.12
319.67	78.12
319.9	94.12
320.129	81.12
320.358	72.12
320.587	84.12
320.816	84.12
321.046	79.12
321.275	103.12
321.504	77.12
321.733	78.12
321.962	78.12
322.191	80.12
322.42	83.12
322.649	71.12
322.878	71.12
323.108	74.12
323.337	92.12
323.566	86.12
323.795	76.12
324.024	90.12
324.253	80.12
324.482	78.12
324.71	85.12
324.939	85.12
325.168	75.12
325.397	70.12
325.626	82.12
325.855	83.12
326.084	89.12
326.313	94.12
326.542	74.12
326.77	84.12
326.999	90.12
327.228	75.12
327.457	82.12
327.686	89.12
327.914	101.12
328.143	86.12
328.372	86.12
328.6	90.12
328.829	86.12
329.058	82.12
329.287	87.12
329.515	95.12
329.744	70.12
329.972	80.12
330.201	94.12
330.43	93.12
330.658	92.12
330.887	87.12
331.115	82.12
331.344	73.12
331.572	80.12
331.801	86.12
332.03	74.12
332.258	76.12
332.486	72.12
332.715	86.12
332.943	86.12
333.172	87.12
333.4	91.12
333.629	70.12
333.857	84.12
334.085	85.12
334.314	91.12
334.542	76.12
334.771	93.12
334.999	92.12
335.227	86.12
335.455	86.12
335.684	83.12
335.912	84.12
336.14	101.12
336.369	103.12
336.597	91.12
336.825	78.12
337.053	90.12
337.281	84.12
337.51	84.12
337.738	93.12
337.966	86.12
338.194	79.12
338.422	85.12
338.65	81.12
338.878	72.12
339.106	86.12
339.334	98.12
339.562	83.12
339.79	88.12
340.018	87.12
340.246	99.12
340.474	86.12
340.702	82.12
340.93	86.12
341.158	87.12
341.386	83.12
341.614	82.12
341.842	82.12
342.07	80.12
342.298	76.12
342.526	86.12
342.754	93.12
342.981	87.12
343.209	88.12
343.437	97.12
343.665	70.12
343.893	78.12
344.12	90.12
344.348	81.12
344.576	86.12
344.804	91.12
345.031	89.12
345.259	91.12
345.487	87.12
345.714	82.12
345.942	88.12
346.17	78.12
346.397	92.12
346.625	75.12
346.853	86.12
347.08	77.12
347.308	86.12
347.535	84.12
347.763	84.12
347.99	89.12
348.218	87.12
348.445	74.12
348.673	100.12
348.9	96.12
349.128	83.12
349.355	94.12
349.583	82.12
349.81	74.12
350.037	93.12
350.265	96.12
350.492	83.12
350.72	78.12
350.947	87.12
351.174	79.12
351.402	78.12
351.629	96.12
351.856	102.12
352.083	84.12
352.311	89.12
352.538	75.12
352.765	90.12
352.992	93.12
353.22	84.12
353.447	89.12
353.674	83.12
353.901	94.12
354.128	77.12
354.355	92.12
354.583	86.12
354.81	88.12
355.037	91.12
355.264	80.12
355.491	85.12
355.718	86.12
355.945	83.12
356.172	74.12
356.399	102.12
356.626	88.12
356.853	86.12
357.08	84.12
357.307	87.12
357.534	86.12
357.761	87.12
357.988	99.12
358.215	94.12
358.441	92.12
358.668	77.12
358.895	87.12
359.122	80.12
359.349	80.12
359.576	61.12
359.802	78.12
360.029	86.12
360.256	84.12
360.483	85.12
360.709	77.12
360.936	98.12
361.163	87.12
361.39	76.12
361.616	85.12
361.843	92.12
362.07	76.12
362.296	84.12
362.523	86.12
362.749	73.12
362.976	79.12
363.203	99.12
363.429	74.12
363.656	87.12
363.882	84.12
364.109	90.12
364.335	90.12
364.562	78.12
364.788	84.12
365.015	87.12
365.241	80.12
365.468	85.12
365.694	75.12
365.92	83.12
366.147	84.12
366.373	92.12
366.599	92.12
366.826	83.12
367.052	77.12
367.278	91.12
367.505	81.12
367.731	77.12
367.957	82.12
368.184	82.12
368.41	74.12
368.636	77.12
368.862	92.12
369.089	78.12
369.315	85.12
369.541	88.12
369.767	89.12
369.993	82.12
370.219	98.12
370.445	75.12
370.672	78.12
370.898	101.12
371.124	83.12
371.35	78.12
371.576	89.12
371.802	88.12
372.028	79.12
372.254	79.12
372.48	94.12
372.706	86.12
372.932	85.12
373.158	92.12
373.384	68.12
373.61	89.12
373.835	84.12
374.061	74.12
374.287	82.12
374.513	87.12
374.739	78.12
374.965	88.12
375.191	75.12
375.416	92.12
375.642	82.12
375.868	80.12
376.094	83.12
376.319	75.12
376.545	83.12
376.771	74.12
376.997	77.12
377.222	88.12
377.448	82.12
377.674	80.12
377.899	86.12
378.125	74.12
378.35	95.12
378.576	100.12
378.802	94.12
379.027	84.12
379.253	77.12
379.478	81.12
379.704	87.12
379.929	87.12
380.155	90.12
380.38	84.12
380.606	78.12
380.831	88.12
381.057	78.12
381.282	91.12
381.507	95.12
381.733	95.12
381.958	87.12
382.184	80.12
382.409	71.12
382.634	79.12
382.86	71.12
383.085	89.12
383.31	86.12
383.535	94.12
383.761	87.12
383.986	93.12
384.211	82.12
384.436	84.12
384.662	76.12
384.887	87.12
385.112	80.12
385.337	95.12
385.562	84.12
385.787	99.12
386.013	95.12
386.238	86.12
386.463	85.12
386.688	106.12
386.913	90.12
387.138	91.12
387.363	86.12
387.588	91.12
387.813	99.12
388.038	84.12
388.263	88.12
388.488	96.12
388.713	84.12
388.938	83.12
389.163	88.12
389.387	89.12
389.612	84.12
389.837	82.12
390.062	83.12
390.287	94.12
390.512	93.12
390.736	85.12
390.961	95.12
391.186	78.12
391.411	80.12
391.636	103.12
391.86	99.12
392.085	93.12
392.31	87.12
392.534	82.12
392.759	87.12
392.984	79.12
393.208	70.12
393.433	69.12
393.658	92.12
393.882	88.12
394.107	77.12
394.331	88.12
394.556	84.12
394.78	84.12
395.005	78.12
395.229	91.12
395.454	89.12
395.678	69.12
395.903	99.12
396.127	87.12
396.352	86.12
396.576	82.12
396.801	82.12
397.025	70.12
397.249	81.12
397.474	79.12
397.698	85.12
397.922	86.12
398.147	102.12
398.371	83.12
398.595	86.12
398.82	87.12
399.044	103.12
399.268	100.12
399.492	100.12
399.717	89.12
399.941	98.12
400.165	92.12
400.389	102.12
400.613	79.12
400.837	82.12
401.062	75.12
401.286	68.12
401.51	90.12
401.734	93.12
401.958	88.12
402.182	86.12
402.406	77.12
402.63	80.12
402.854	89.12
403.078	78.12
403.302	84.12
403.526	89.12
403.75	98.12
403.974	86.12
404.198	101.12
404.422	104.12
404.645	87.12
404.869	90.12
405.093	82.12
405.317	82.12
405.541	86.12
405.765	84.12
405.988	85.12
406.212	91.12
406.436	74.12
406.66	96.12
406.883	88.12
407.107	81.12
407.331	93.12
407.555	87.12
407.778	95.12
408.002	98.12
408.226	79.12
408.449	93.12
408.673	79.12
408.896	80.12
409.12	92.12
409.344	95.12
409.567	92.12
409.791	89.12
410.014	97.12
410.238	108.12
410.461	75.12
410.685	87.12
410.908	74.12
411.132	78.12
411.355	88.12
411.578	73.12
411.802	89.12
412.025	72.12
412.249	72.12
412.472	94.12
412.695	80.12
412.919	86.12
413.142	74.12
413.365	94.12
413.589	86.12
413.812	78.12
414.035	86.12
414.258	88.12
414.482	78.12
414.705	92.12
414.928	87.12
415.151	106.12
415.374	92.12
415.597	83.12
415.821	71.12
416.044	87.12
416.267	87.12
416.49	86.12
416.713	88.12
416.936	65.12
417.159	78.12
417.382	99.12
417.605	83.12
417.828	95.12
418.051	85.12
418.274	69.12
418.497	79.12
418.72	77.12
418.943	78.12
419.166	98.12
419.389	83.12
419.611	89.12
419.834	92.12
420.057	93.12
420.28	82.12
420.503	86.12
420.726	92.12
420.948	85.12
421.171	76.12
421.394	80.12
421.617	83.12
421.839	88.12
422.062	72.12
422.285	78.12
422.507	97.12
422.73	111.12
422.953	87.12
423.175	88.12
423.398	92.12
423.621	92.12
423.843	92.12
424.066	91.12
424.288	86.12
424.511	90.12
424.733	80.12
424.956	79.12
425.178	74.12
425.401	70.12
425.623	91.12
425.846	96.12
426.068	94.12
426.291	83.12
426.513	85.12
426.735	88.12
426.958	85.12
427.18	92.12
427.402	102.12
427.625	86.12
427.847	82.12
428.069	88.12
428.292	93.12
428.514	84.12
428.736	90.12
428.958	72.12
429.181	85.12
429.403	86.12
429.625	84.12
429.847	90.12
430.069	102.12
430.292	82.12
430.514	89.12
430.736	79.12
430.958	90.12
431.18	78.12
431.402	82.12
431.624	86.12
431.846	84.12
432.068	79.12
432.29	87.12
432.512	87.12
432.734	78.12
432.956	91.12
433.178	102.12
433.4	95.12
433.622	87.12
433.844	90.12
434.066	92.12
434.287	94.12
434.509	85.12
434.731	89.12
434.953	90.12
435.175	80.12
435.397	80.12
435.618	73.12
435.84	84.12
436.062	80.12
436.284	93.12
436.505	88.12
436.727	65.12
436.949	84.12
437.17	95.12
437.392	81.12
437.614	83.12
437.835	92.12
438.057	80.12
438.278	95.12
438.5	79.12
438.721	82.12
438.943	82.12
439.165	85.12
439.386	71.12
439.608	87.12
439.829	79.12
440.05	90.12
440.272	70.12
440.493	88.12
440.715	99.12
440.936	74.12
441.158	78.12
441.379	91.12
441.6	85.12
441.822	76.12
442.043	86.12
442.264	89.12
442.486	68.12
442.707	89.12
442.928	87.12
443.149	101.12
443.371	78.12
443.592	79.12
443.813	82.12
444.034	80.12
444.255	84.12
444.476	66.12
444.698	91.12
444.919	95.12
445.14	160.12
445.361	120.12
445.582	102.12
445.803	83.12
446.024	71.12
446.245	78.12
446.466	78.12
446.687	83.12
446.908	77.12
447.129	83.12
447.35	87.12
447.571	92.12
447.792	82.12
448.013	77.12
448.234	86.12
448.455	91.12
448.675	87.12
448.896	81.12
449.117	88.12
449.338	83.12
449.559	88.12
449.779	77.12
450	75.12
450.221	90.12
450.442	74.12
450.662	84.12
450.883	80.12
451.104	85.12
451.324	84.12
451.545	83.12
451.766	84.12
451.986	82.12
452.207	91.12
452.428	78.12
452.648	90.12
452.869	80.12
453.089	87.12
453.31	84.12
453.53	96.12
453.751	94.12
453.971	73.12
454.192	98.12
454.412	77.12
454.633	91.12
454.853	94.12
455.073	83.12
455.294	77.12
455.514	99.12
455.734	92.12
455.955	76.12
456.175	94.12
456.395	78.12
456.616	74.12
456.836	82.12
457.056	98.12
457.276	74.12
457.497	102.12
457.717	102.12
457.937	79.12
458.157	86.12
458.377	103.12
458.598	82.12
458.818	75.12
459.038	86.12
459.258	93.12
459.478	89.12
459.698	91.12
459.918	96.12
460.138	84.12
460.358	94.12
460.578	98.12
460.798	84.12
461.018	98.12
461.238	84.12
461.458	84.12
461.678	83.12
461.898	94.12
462.118	91.12
462.338	87.12
462.558	79.12
462.777	71.12
462.997	88.12
463.217	91.12
463.437	87.12
463.657	89.12
463.876	96.12
464.096	84.12
464.316	79.12
464.536	88.12
464.755	83.12
464.975	90.12
465.195	89.12
465.414	71.12
465.634	86.12
465.854	88.12
466.073	83.12
466.293	87.12
466.512	85.12
466.732	84.12
466.951	93.12
467.171	94.12
467.391	97.12
467.61	90.12
467.829	96.12
468.049	83.12
468.268	98.12
468.488	93.12
468.707	95.12
468.927	86.12
469.146	79.12
469.365	95.12
469.585	100.12
469.804	91.12
470.023	90.12
470.243	89.12
470.462	73.12
470.681	89.12
470.901	91.12
471.12	87.12
471.339	86.12
471.558	92.12
471.777	80.12
471.997	78.12
472.216	82.12
472.435	84.12
472.654	98.12
472.873	93.12
473.092	92.12
473.311	70.12
473.53	87.12
473.749	83.12
473.968	79.12
474.187	94.12
474.406	90.12
474.625	83.12
474.844	94.12
475.063	87.12
475.282	83.12
475.501	89.12
475.72	86.12
475.939	95.12
476.158	68.12
476.377	91.12
476.596	74.12
476.814	82.12
477.033	86.12
477.252	100.12
477.471	81.12
477.69	80.12
477.908	91.12
478.127	92.12
478.346	81.12
478.564	77.12
478.783	103.12
479.002	92.12
479.22	86.12
479.439	85.12
479.658	92.12
479.876	90.12
480.095	91.12
480.313	87.12
480.532	96.12
480.751	90.12
480.969	87.12
481.188	110.12
481.406	104.12
481.624	86.12
481.843	83.12
482.061	87.12
482.28	91.12
482.498	83.12
482.717	96.12
482.935	86.12
483.153	74.12
483.372	82.12
483.59	76.12
483.808	87.12
484.027	86.12
484.245	90.12
484.463	84.12
484.681	90.12
484.9	80.12
485.118	91.12
485.336	77.12
485.554	91.12
485.772	78.12
485.99	91.12
486.209	80.12
486.427	88.12
486.645	102.12
486.863	78.12
487.081	88.12
487.299	82.12
487.517	85.12
487.735	70.12
487.953	89.12
488.171	84.12
488.389	79.12
488.607	81.12
488.825	75.12
489.043	85.12
489.261	91.12
489.479	82.12
489.696	93.12
489.914	90.12
490.132	84.12
490.35	77.12
490.568	93.12
490.786	75.12
491.003	87.12
491.221	82.12
491.439	96.12
491.657	88.12
491.874	78.12
492.092	103.12
492.31	67.12
492.527	88.12
492.745	80.12
492.963	76.12
493.18	81.12
493.398	84.12
493.615	87.12
493.833	79.12
494.05	88.12
494.268	80.12
494.485	80.12
494.703	99.12
494.92	91.12
495.138	94.12
495.355	90.12
495.573	82.12
495.79	75.12
496.008	83.12
496.225	94.12
496.442	80.12
496.66	92.12
496.877	79.12
497.094	86.12
497.312	86.12
497.529	82.12
497.746	92.12
497.963	100.12
498.181	82.12
498.398	83.12
498.615	82.12
498.832	88.12
499.049	93.12
499.267	98.12
499.484	91.12
499.701	85.12
499.918	110.12
500.135	90.12
500.352	103.12
500.569	102.12
500.786	105.12
501.003	102.12
501.22	109.12
501.437	103.12
501.654	96.12
501.871	88.12
502.088	103.12
502.305	102.12
502.522	109.12
502.739	90.12
502.956	93.12
503.172	94.12
503.389	88.12
503.606	87.12
503.823	69.12
504.04	97.12
504.256	79.12
504.473	93.12
504.69	77.12
504.907	74.12
505.123	94.12
505.34	103.12
505.557	91.12
505.773	92.12
505.99	80.12
506.207	94.12
506.423	89.12
506.64	80.12
506.856	76.12
507.073	93.12
507.289	70.12
507.506	86.12
507.722	87.12
507.939	86.12
508.155	93.12
508.372	91.12
508.588	70.12
508.805	83.12
509.021	84.12
509.238	85.12
509.454	73.12
509.67	94.12
509.887	93.12
510.103	90.12
510.319	83.12
510.536	79.12
510.752	84.12
510.968	83.12
511.184	87.12
511.401	78.12
511.617	87.12
511.833	89.12
512.049	82.12
512.265	91.12
512.481	85.12
512.698	101.12
512.914	93.12
513.13	84.12
513.346	98.12
513.562	84.12
513.778	84.12
513.994	74.12
514.21	81.12
514.426	79.12
514.642	74.12
514.858	93.12
515.074	90.12
515.29	93.12
515.506	92.12
515.721	82.12
515.937	85.12
516.153	93.12
516.369	87.12
516.585	94.12
516.801	82.12
517.016	88.12
517.232	91.12
517.448	88.12
517.664	77.12
517.879	80.12
518.095	91.12
518.311	93.12
518.527	80.12
518.742	89.12
518.958	84.12
519.173	88.12
519.389	80.12
519.605	89.12
