Data from BG_HRD10591_041.txt Node
Date: Fri May 16 15:21:14 EDT 2025
User: Yrep
Spectrometer: HR+D1059
Trigger mode: 1
Integration Time (sec): 1.000000E-1
Scans to average: 1
Electric dark correction enabled: true
Nonlinearity correction enabled: false
Boxcar width: 0
XAxis mode: Wavelengths
Number of Pixels in Spectrum: 2048
>>>>>Begin Spectral Data<<<<<
223.165	-15.94
223.4	-15.94
223.635	-15.94
223.869	-21.94
224.104	-16.94
224.338	-19.94
224.573	-13.94
224.808	-11.94
225.042	-3.94
225.277	-11.94
225.511	10.06
225.746	11.06
225.98	10.06
226.215	11.06
226.449	10.06
226.683	11.06
226.918	16.06
227.152	37.06
227.387	40.06
227.621	40.06
227.856	47.06
228.09	54.06
228.324	60.06
228.559	52.06
228.793	75.06
229.027	54.06
229.262	68.06
229.496	65.06
229.73	60.06
229.964	55.06
230.199	71.06
230.433	65.06
230.667	66.06
230.901	70.06
231.136	78.06
231.37	81.06
231.604	63.06
231.838	78.06
232.072	73.06
232.306	80.06
232.541	82.06
232.775	76.06
233.009	83.06
233.243	74.06
233.477	77.06
233.711	78.06
233.945	81.06
234.179	72.06
234.413	85.06
234.647	77.06
234.881	70.06
235.115	73.06
235.349	70.06
235.583	73.06
235.817	87.06
236.051	73.06
236.285	69.06
236.519	77.06
236.753	82.06
236.987	71.06
237.221	68.06
237.455	62.06
237.689	73.06
237.922	79.06
238.156	68.06
238.39	68.06
238.624	73.06
238.858	64.06
239.091	74.06
239.325	76.06
239.559	56.06
239.793	79.06
240.027	74.06
240.26	77.06
240.494	68.06
240.728	78.06
240.961	64.06
241.195	71.06
241.429	70.06
241.662	70.06
241.896	67.06
242.13	68.06
242.363	63.06
242.597	72.06
242.83	75.06
243.064	65.06
243.298	81.06
243.531	84.06
243.765	63.06
243.998	85.06
244.232	84.06
244.465	78.06
244.699	68.06
244.932	86.06
245.166	72.06
245.399	81.06
245.633	72.06
245.866	66.06
246.099	68.06
246.333	72.06
246.566	84.06
246.8	70.06
247.033	67.06
247.266	69.06
247.5	76.06
247.733	69.06
247.966	80.06
248.2	74.06
248.433	75.06
248.666	60.06
248.899	76.06
249.133	68.06
249.366	77.06
249.599	85.06
249.832	75.06
250.066	81.06
250.299	73.06
250.532	74.06
250.765	75.06
250.998	72.06
251.231	85.06
251.465	76.06
251.698	72.06
251.931	70.06
252.164	56.06
252.397	71.06
252.63	80.06
252.863	86.06
253.096	64.06
253.329	60.06
253.562	82.06
253.795	74.06
254.028	76.06
254.261	84.06
254.494	76.06
254.727	77.06
254.96	70.06
255.193	71.06
255.426	70.06
255.659	68.06
255.892	75.06
256.124	81.06
256.357	86.06
256.59	85.06
256.823	73.06
257.056	74.06
257.289	69.06
257.521	72.06
257.754	75.06
257.987	67.06
258.22	76.06
258.452	74.06
258.685	60.06
258.918	77.06
259.151	86.06
259.383	76.06
259.616	80.06
259.849	93.06
260.081	70.06
260.314	69.06
260.547	82.06
260.779	83.06
261.012	78.06
261.244	83.06
261.477	66.06
261.71	72.06
261.942	75.06
262.175	78.06
262.407	60.06
262.64	62.06
262.872	82.06
263.105	77.06
263.337	76.06
263.57	80.06
263.802	89.06
264.035	82.06
264.267	93.06
264.499	81.06
264.732	77.06
264.964	81.06
265.197	63.06
265.429	75.06
265.661	76.06
265.894	85.06
266.126	82.06
266.358	70.06
266.591	77.06
266.823	69.06
267.055	76.06
267.287	81.06
267.52	85.06
267.752	78.06
267.984	85.06
268.216	91.06
268.448	74.06
268.681	62.06
268.913	99.06
269.145	72.06
269.377	80.06
269.609	68.06
269.841	82.06
270.073	77.06
270.306	74.06
270.538	66.06
270.77	87.06
271.002	77.06
271.234	82.06
271.466	82.06
271.698	82.06
271.93	79.06
272.162	83.06
272.394	77.06
272.626	87.06
272.858	78.06
273.09	67.06
273.322	87.06
273.553	75.06
273.785	76.06
274.017	74.06
274.249	72.06
274.481	87.06
274.713	77.06
274.945	77.06
275.176	73.06
275.408	76.06
275.64	86.06
275.872	79.06
276.104	81.06
276.335	84.06
276.567	79.06
276.799	89.06
277.031	90.06
277.262	84.06
277.494	73.06
277.726	75.06
277.957	57.06
278.189	82.06
278.421	81.06
278.652	83.06
278.884	92.06
279.115	80.06
279.347	86.06
279.579	67.06
279.81	84.06
280.042	86.06
280.273	86.06
280.505	78.06
280.736	77.06
280.968	79.06
281.199	82.06
281.431	90.06
281.662	84.06
281.894	86.06
282.125	79.06
282.356	80.06
282.588	68.06
282.819	82.06
283.051	81.06
283.282	75.06
283.513	89.06
283.745	77.06
283.976	85.06
284.207	93.06
284.439	76.06
284.67	93.06
284.901	86.06
285.132	69.06
285.364	73.06
285.595	80.06
285.826	72.06
286.057	81.06
286.288	84.06
286.52	83.06
286.751	78.06
286.982	79.06
287.213	77.06
287.444	89.06
287.675	77.06
287.906	91.06
288.138	76.06
288.369	85.06
288.6	86.06
288.831	72.06
289.062	84.06
289.293	77.06
289.524	82.06
289.755	98.06
289.986	84.06
290.217	82.06
290.448	74.06
290.679	69.06
290.91	77.06
291.141	80.06
291.371	84.06
291.602	80.06
291.833	73.06
292.064	93.06
292.295	68.06
292.526	81.06
292.757	98.06
292.987	85.06
293.218	79.06
293.449	91.06
293.68	86.06
293.91	73.06
294.141	103.06
294.372	66.06
294.603	76.06
294.833	82.06
295.064	72.06
295.295	82.06
295.525	76.06
295.756	84.06
295.987	90.06
296.217	80.06
296.448	90.06
296.679	66.06
296.909	83.06
297.14	84.06
297.37	83.06
297.601	75.06
297.831	76.06
298.062	90.06
298.292	85.06
298.523	83.06
298.753	83.06
298.984	100.06
299.214	74.06
299.445	70.06
299.675	77.06
299.905	81.06
300.136	79.06
300.366	79.06
300.597	77.06
300.827	86.06
301.057	82.06
301.288	79.06
301.518	84.06
301.748	77.06
301.979	96.06
302.209	74.06
302.439	89.06
302.669	96.06
302.9	68.06
303.13	85.06
303.36	81.06
303.59	70.06
303.82	86.06
304.051	86.06
304.281	86.06
304.511	75.06
304.741	78.06
304.971	90.06
305.201	83.06
305.431	70.06
305.661	74.06
305.891	76.06
306.121	75.06
306.352	86.06
306.582	79.06
306.812	83.06
307.042	89.06
307.272	80.06
307.502	74.06
307.731	81.06
307.961	75.06
308.191	78.06
308.421	101.06
308.651	69.06
308.881	80.06
309.111	75.06
309.341	84.06
309.571	86.06
309.8	87.06
310.03	71.06
310.26	76.06
310.49	72.06
310.72	68.06
310.949	68.06
311.179	77.06
311.409	76.06
311.639	63.06
311.868	85.06
312.098	85.06
312.328	77.06
312.557	87.06
312.787	90.06
313.017	65.06
313.246	82.06
313.476	87.06
313.706	71.06
313.935	77.06
314.165	86.06
314.394	92.06
314.624	79.06
314.853	80.06
315.083	74.06
315.312	90.06
315.542	84.06
315.771	81.06
316.001	90.06
316.23	76.06
316.46	81.06
316.689	90.06
316.919	85.06
317.148	88.06
317.377	76.06
317.607	89.06
317.836	75.06
318.065	79.06
318.295	92.06
318.524	82.06
318.753	81.06
318.983	77.06
319.212	69.06
319.441	76.06
319.67	81.06
319.9	81.06
320.129	73.06
320.358	77.06
320.587	91.06
320.816	93.06
321.046	91.06
321.275	76.06
321.504	85.06
321.733	86.06
321.962	94.06
322.191	89.06
322.42	77.06
322.649	82.06
322.878	69.06
323.108	80.06
323.337	75.06
323.566	71.06
323.795	90.06
324.024	80.06
324.253	84.06
324.482	84.06
324.71	82.06
324.939	78.06
325.168	97.06
325.397	68.06
325.626	61.06
325.855	80.06
326.084	82.06
326.313	98.06
326.542	90.06
326.77	79.06
326.999	88.06
327.228	88.06
327.457	80.06
327.686	83.06
327.914	74.06
328.143	83.06
328.372	84.06
328.6	88.06
328.829	75.06
329.058	75.06
329.287	81.06
329.515	74.06
329.744	81.06
329.972	87.06
330.201	86.06
330.43	80.06
330.658	87.06
330.887	78.06
331.115	75.06
331.344	76.06
331.572	92.06
331.801	84.06
332.03	77.06
332.258	76.06
332.486	90.06
332.715	91.06
332.943	84.06
333.172	75.06
333.4	88.06
333.629	85.06
333.857	75.06
334.085	82.06
334.314	89.06
334.542	80.06
334.771	85.06
334.999	89.06
335.227	85.06
335.455	84.06
335.684	85.06
335.912	82.06
336.14	72.06
336.369	84.06
336.597	86.06
336.825	80.06
337.053	76.06
337.281	97.06
337.51	74.06
337.738	81.06
337.966	66.06
338.194	85.06
338.422	91.06
338.65	90.06
338.878	80.06
339.106	88.06
339.334	75.06
339.562	70.06
339.79	85.06
340.018	84.06
340.246	73.06
340.474	70.06
340.702	86.06
340.93	73.06
341.158	91.06
341.386	80.06
341.614	89.06
341.842	86.06
342.07	56.06
342.298	80.06
342.526	79.06
342.754	82.06
342.981	77.06
343.209	90.06
343.437	92.06
343.665	93.06
343.893	76.06
344.12	78.06
344.348	76.06
344.576	76.06
344.804	84.06
345.031	78.06
345.259	76.06
345.487	72.06
345.714	81.06
345.942	78.06
346.17	76.06
346.397	73.06
346.625	91.06
346.853	67.06
347.08	81.06
347.308	90.06
347.535	76.06
347.763	76.06
347.99	74.06
348.218	81.06
348.445	85.06
348.673	78.06
348.9	77.06
349.128	75.06
349.355	65.06
349.583	85.06
349.81	77.06
350.037	102.06
350.265	82.06
350.492	89.06
350.72	78.06
350.947	79.06
351.174	84.06
351.402	71.06
351.629	66.06
351.856	89.06
352.083	73.06
352.311	88.06
352.538	82.06
352.765	86.06
352.992	89.06
353.22	78.06
353.447	68.06
353.674	85.06
353.901	88.06
354.128	77.06
354.355	76.06
354.583	79.06
354.81	76.06
355.037	77.06
355.264	88.06
355.491	84.06
355.718	83.06
355.945	82.06
356.172	72.06
356.399	82.06
356.626	78.06
356.853	81.06
357.08	75.06
357.307	82.06
357.534	81.06
357.761	84.06
357.988	87.06
358.215	76.06
358.441	69.06
358.668	70.06
358.895	81.06
359.122	77.06
359.349	92.06
359.576	86.06
359.802	86.06
360.029	82.06
360.256	90.06
360.483	66.06
360.709	79.06
360.936	74.06
361.163	91.06
361.39	83.06
361.616	89.06
361.843	86.06
362.07	96.06
362.296	80.06
362.523	76.06
362.749	71.06
362.976	86.06
363.203	90.06
363.429	80.06
363.656	77.06
363.882	62.06
364.109	84.06
364.335	77.06
364.562	75.06
364.788	78.06
365.015	82.06
365.241	91.06
365.468	86.06
365.694	82.06
365.92	73.06
366.147	76.06
366.373	63.06
366.599	64.06
366.826	92.06
367.052	90.06
367.278	85.06
367.505	85.06
367.731	72.06
367.957	75.06
368.184	78.06
368.41	79.06
368.636	75.06
368.862	89.06
369.089	81.06
369.315	77.06
369.541	93.06
369.767	87.06
369.993	78.06
370.219	89.06
370.445	85.06
370.672	94.06
370.898	74.06
371.124	73.06
371.35	73.06
371.576	70.06
371.802	78.06
372.028	84.06
372.254	68.06
372.48	88.06
372.706	70.06
372.932	76.06
373.158	80.06
373.384	80.06
373.61	75.06
373.835	76.06
374.061	69.06
374.287	83.06
374.513	69.06
374.739	94.06
374.965	79.06
375.191	86.06
375.416	72.06
375.642	76.06
375.868	79.06
376.094	74.06
376.319	79.06
376.545	70.06
376.771	80.06
376.997	72.06
377.222	81.06
377.448	75.06
377.674	80.06
377.899	80.06
378.125	82.06
378.35	101.06
378.576	85.06
378.802	68.06
379.027	73.06
379.253	93.06
379.478	80.06
379.704	66.06
379.929	80.06
380.155	70.06
380.38	78.06
380.606	66.06
380.831	83.06
381.057	76.06
381.282	71.06
381.507	82.06
381.733	84.06
381.958	86.06
382.184	80.06
382.409	75.06
382.634	69.06
382.86	69.06
383.085	88.06
383.31	82.06
383.535	65.06
383.761	86.06
383.986	71.06
384.211	76.06
384.436	79.06
384.662	80.06
384.887	67.06
385.112	75.06
385.337	76.06
385.562	82.06
385.787	89.06
386.013	84.06
386.238	77.06
386.463	93.06
386.688	83.06
386.913	74.06
387.138	77.06
387.363	67.06
387.588	73.06
387.813	91.06
388.038	92.06
388.263	81.06
388.488	68.06
388.713	68.06
388.938	79.06
389.163	72.06
389.387	60.06
389.612	85.06
389.837	75.06
390.062	76.06
390.287	86.06
390.512	90.06
390.736	84.06
390.961	74.06
391.186	78.06
391.411	70.06
391.636	80.06
391.86	84.06
392.085	75.06
392.31	73.06
392.534	71.06
392.759	86.06
392.984	82.06
393.208	74.06
393.433	84.06
393.658	88.06
393.882	98.06
394.107	90.06
394.331	87.06
394.556	76.06
394.78	68.06
395.005	82.06
395.229	67.06
395.454	76.06
395.678	78.06
395.903	64.06
396.127	80.06
396.352	85.06
396.576	76.06
396.801	70.06
397.025	90.06
397.249	83.06
397.474	83.06
397.698	83.06
397.922	89.06
398.147	77.06
398.371	75.06
398.595	75.06
398.82	91.06
399.044	75.06
399.268	94.06
399.492	76.06
399.717	80.06
399.941	93.06
400.165	84.06
400.389	68.06
400.613	67.06
400.837	61.06
401.062	78.06
401.286	83.06
401.51	76.06
401.734	67.06
401.958	88.06
402.182	71.06
402.406	90.06
402.63	71.06
402.854	69.06
403.078	76.06
403.302	74.06
403.526	74.06
403.75	84.06
403.974	84.06
404.198	86.06
404.422	73.06
404.645	61.06
404.869	65.06
405.093	76.06
405.317	81.06
405.541	83.06
405.765	72.06
405.988	90.06
406.212	86.06
406.436	72.06
406.66	64.06
406.883	79.06
407.107	67.06
407.331	71.06
407.555	70.06
407.778	86.06
408.002	83.06
408.226	63.06
408.449	75.06
408.673	83.06
408.896	70.06
409.12	77.06
409.344	82.06
409.567	80.06
409.791	70.06
410.014	69.06
410.238	80.06
410.461	86.06
410.685	73.06
410.908	65.06
411.132	69.06
411.355	92.06
411.578	89.06
411.802	78.06
412.025	69.06
412.249	80.06
412.472	76.06
412.695	76.06
412.919	69.06
413.142	79.06
413.365	66.06
413.589	75.06
413.812	71.06
414.035	86.06
414.258	68.06
414.482	81.06
414.705	94.06
414.928	84.06
415.151	67.06
415.374	88.06
415.597	79.06
415.821	75.06
416.044	82.06
416.267	72.06
416.49	80.06
416.713	69.06
416.936	77.06
417.159	68.06
417.382	83.06
417.605	80.06
417.828	77.06
418.051	64.06
418.274	60.06
418.497	70.06
418.72	84.06
418.943	81.06
419.166	77.06
419.389	76.06
419.611	85.06
419.834	74.06
420.057	80.06
420.28	78.06
420.503	93.06
420.726	85.06
420.948	78.06
421.171	77.06
421.394	91.06
421.617	88.06
421.839	62.06
422.062	74.06
422.285	80.06
422.507	77.06
422.73	81.06
422.953	71.06
423.175	89.06
423.398	81.06
423.621	80.06
423.843	89.06
424.066	79.06
424.288	74.06
424.511	84.06
424.733	86.06
424.956	80.06
425.178	69.06
425.401	78.06
425.623	64.06
425.846	78.06
426.068	68.06
426.291	69.06
426.513	73.06
426.735	80.06
426.958	78.06
427.18	85.06
427.402	78.06
427.625	66.06
427.847	84.06
428.069	73.06
428.292	68.06
428.514	84.06
428.736	89.06
428.958	70.06
429.181	72.06
429.403	85.06
429.625	75.06
429.847	86.06
430.069	80.06
430.292	78.06
430.514	72.06
430.736	80.06
430.958	62.06
431.18	72.06
431.402	68.06
431.624	72.06
431.846	73.06
432.068	74.06
432.29	67.06
432.512	85.06
432.734	77.06
432.956	80.06
433.178	78.06
433.4	74.06
433.622	85.06
433.844	80.06
434.066	75.06
434.287	78.06
434.509	60.06
434.731	75.06
434.953	68.06
435.175	68.06
435.397	77.06
435.618	78.06
435.84	56.06
436.062	81.06
436.284	67.06
436.505	67.06
436.727	80.06
436.949	86.06
437.17	90.06
437.392	80.06
437.614	66.06
437.835	64.06
438.057	65.06
438.278	75.06
438.5	87.06
438.721	88.06
438.943	76.06
439.165	74.06
439.386	77.06
439.608	72.06
439.829	79.06
440.05	77.06
440.272	80.06
440.493	77.06
440.715	72.06
440.936	74.06
441.158	84.06
441.379	84.06
441.6	78.06
441.822	76.06
442.043	88.06
442.264	84.06
442.486	81.06
442.707	70.06
442.928	86.06
443.149	73.06
443.371	85.06
443.592	78.06
443.813	69.06
444.034	76.06
444.255	73.06
444.476	82.06
444.698	71.06
444.919	77.06
445.14	147.06
445.361	122.06
445.582	86.06
445.803	89.06
446.024	76.06
446.245	89.06
446.466	68.06
446.687	81.06
446.908	80.06
447.129	77.06
447.35	72.06
447.571	65.06
447.792	66.06
448.013	82.06
448.234	85.06
448.455	70.06
448.675	83.06
448.896	88.06
449.117	69.06
449.338	68.06
449.559	89.06
449.779	80.06
450	68.06
450.221	87.06
450.442	84.06
450.662	77.06
450.883	72.06
451.104	91.06
451.324	89.06
451.545	75.06
451.766	70.06
451.986	63.06
452.207	77.06
452.428	73.06
452.648	82.06
452.869	82.06
453.089	76.06
453.31	75.06
453.53	84.06
453.751	78.06
453.971	73.06
454.192	80.06
454.412	82.06
454.633	77.06
454.853	65.06
455.073	74.06
455.294	59.06
455.514	74.06
455.734	78.06
455.955	82.06
456.175	72.06
456.395	66.06
456.616	66.06
456.836	86.06
457.056	74.06
457.276	73.06
457.497	74.06
457.717	78.06
457.937	89.06
458.157	90.06
458.377	81.06
458.598	73.06
458.818	72.06
459.038	78.06
459.258	83.06
459.478	74.06
459.698	83.06
459.918	73.06
460.138	76.06
460.358	68.06
460.578	77.06
460.798	78.06
461.018	66.06
461.238	83.06
461.458	68.06
461.678	77.06
461.898	82.06
462.118	80.06
462.338	78.06
462.558	77.06
462.777	82.06
462.997	80.06
463.217	81.06
463.437	61.06
463.657	73.06
463.876	80.06
464.096	104.06
464.316	89.06
464.536	78.06
464.755	75.06
464.975	60.06
465.195	83.06
465.414	87.06
465.634	90.06
465.854	76.06
466.073	84.06
466.293	69.06
466.512	76.06
466.732	76.06
466.951	85.06
467.171	94.06
467.391	68.06
467.61	65.06
467.829	83.06
468.049	83.06
468.268	80.06
468.488	63.06
468.707	74.06
468.927	69.06
469.146	82.06
469.365	69.06
469.585	74.06
469.804	79.06
470.023	68.06
470.243	84.06
470.462	64.06
470.681	81.06
470.901	73.06
471.12	67.06
471.339	74.06
471.558	80.06
471.777	74.06
471.997	78.06
472.216	71.06
472.435	80.06
472.654	76.06
472.873	77.06
473.092	80.06
473.311	72.06
473.53	85.06
473.749	81.06
473.968	93.06
474.187	80.06
474.406	87.06
474.625	77.06
474.844	78.06
475.063	86.06
475.282	83.06
475.501	87.06
475.72	90.06
475.939	68.06
476.158	96.06
476.377	87.06
476.596	80.06
476.814	76.06
477.033	75.06
477.252	85.06
477.471	62.06
477.69	70.06
477.908	94.06
478.127	72.06
478.346	89.06
478.564	88.06
478.783	74.06
479.002	81.06
479.22	82.06
479.439	63.06
479.658	73.06
479.876	85.06
480.095	93.06
480.313	74.06
480.532	92.06
480.751	77.06
480.969	76.06
481.188	87.06
481.406	89.06
481.624	75.06
481.843	76.06
482.061	86.06
482.28	73.06
482.498	75.06
482.717	83.06
482.935	79.06
483.153	77.06
483.372	70.06
483.59	83.06
483.808	80.06
484.027	75.06
484.245	82.06
484.463	85.06
484.681	78.06
484.9	74.06
485.118	94.06
485.336	69.06
485.554	73.06
485.772	86.06
485.99	86.06
486.209	78.06
486.427	75.06
486.645	86.06
486.863	88.06
487.081	85.06
487.299	85.06
487.517	73.06
487.735	84.06
487.953	92.06
488.171	83.06
488.389	71.06
488.607	84.06
488.825	75.06
489.043	78.06
489.261	87.06
489.479	74.06
489.696	80.06
489.914	72.06
490.132	71.06
490.35	86.06
490.568	84.06
490.786	80.06
491.003	94.06
491.221	93.06
491.439	91.06
491.657	91.06
491.874	82.06
492.092	91.06
492.31	84.06
492.527	82.06
492.745	62.06
492.963	76.06
493.18	78.06
493.398	78.06
493.615	92.06
493.833	72.06
494.05	86.06
494.268	69.06
494.485	80.06
494.703	78.06
494.92	76.06
495.138	80.06
495.355	91.06
495.573	99.06
495.79	80.06
496.008	68.06
496.225	73.06
496.442	84.06
496.66	71.06
496.877	77.06
497.094	90.06
497.312	80.06
497.529	84.06
497.746	85.06
497.963	80.06
498.181	72.06
498.398	72.06
498.615	75.06
498.832	82.06
499.049	86.06
499.267	84.06
499.484	93.06
499.701	86.06
499.918	84.06
500.135	86.06
500.352	101.06
500.569	82.06
500.786	90.06
501.003	88.06
501.22	89.06
501.437	100.06
501.654	96.06
501.871	80.06
502.088	86.06
502.305	65.06
502.522	82.06
502.739	83.06
502.956	78.06
503.172	98.06
503.389	69.06
503.606	73.06
503.823	78.06
504.04	82.06
504.256	63.06
504.473	70.06
504.69	85.06
504.907	91.06
505.123	84.06
505.34	79.06
505.557	75.06
505.773	90.06
505.99	82.06
506.207	86.06
506.423	77.06
506.64	81.06
506.856	76.06
507.073	87.06
507.289	75.06
507.506	80.06
507.722	88.06
507.939	88.06
508.155	65.06
508.372	68.06
508.588	102.06
508.805	73.06
509.021	80.06
509.238	82.06
509.454	80.06
509.67	77.06
509.887	78.06
510.103	73.06
510.319	89.06
510.536	83.06
510.752	74.06
510.968	87.06
511.184	100.06
511.401	81.06
511.617	87.06
511.833	76.06
512.049	100.06
512.265	75.06
512.481	81.06
512.698	86.06
512.914	82.06
513.13	89.06
513.346	84.06
513.562	68.06
513.778	72.06
513.994	82.06
514.21	105.06
514.426	82.06
514.642	72.06
514.858	84.06
515.074	77.06
515.29	94.06
515.506	88.06
515.721	82.06
515.937	74.06
516.153	80.06
516.369	70.06
516.585	81.06
516.801	68.06
517.016	91.06
517.232	84.06
517.448	86.06
517.664	88.06
517.879	72.06
518.095	73.06
518.311	90.06
518.527	81.06
518.742	84.06
518.958	74.06
519.173	88.06
519.389	91.06
519.605	77.06
519.82	68.06
520.036	88.06
520.251	87.06
