Data from BG_HRD10591_053.txt Node
Date: Fri May 16 15:21:20 EDT 2025
User: Yrep
Spectrometer: HR+D1059
Trigger mode: 1
Integration Time (sec): 1.000000E-1
Scans to average: 1
Electric dark correction enabled: true
Nonlinearity correction enabled: false
Boxcar width: 0
XAxis mode: Wavelengths
Number of Pixels in Spectrum: 2048
>>>>>Begin Spectral Data<<<<<
223.165	0.56
223.4	0.56
223.635	0.56
223.869	-22.44
224.104	-19.44
224.338	-20.44
224.573	-15.44
224.808	-6.44
225.042	-3.44
225.277	-3.44
225.511	-9.44
225.746	8.56
225.98	4.56
226.215	15.56
226.449	10.56
226.683	19.56
226.918	21.56
227.152	19.56
227.387	29.56
227.621	36.56
227.856	44.56
228.09	47.56
228.324	53.56
228.559	52.56
228.793	60.56
229.027	75.56
229.262	71.56
229.496	68.56
229.73	69.56
229.964	60.56
230.199	85.56
230.433	81.56
230.667	75.56
230.901	80.56
231.136	78.56
231.37	62.56
231.604	71.56
231.838	89.56
232.072	94.56
232.306	71.56
232.541	76.56
232.775	85.56
233.009	83.56
233.243	61.56
233.477	73.56
233.711	79.56
233.945	75.56
234.179	81.56
234.413	86.56
234.647	87.56
234.881	75.56
235.115	63.56
235.349	72.56
235.583	84.56
235.817	75.56
236.051	83.56
236.285	94.56
236.519	75.56
236.753	66.56
236.987	67.56
237.221	60.56
237.455	79.56
237.689	65.56
237.922	78.56
238.156	70.56
238.39	79.56
238.624	82.56
238.858	82.56
239.091	71.56
239.325	67.56
239.559	71.56
239.793	78.56
240.027	79.56
240.26	78.56
240.494	70.56
240.728	72.56
240.961	83.56
241.195	74.56
241.429	75.56
241.662	79.56
241.896	87.56
242.13	66.56
242.363	63.56
242.597	80.56
242.83	78.56
243.064	85.56
243.298	61.56
243.531	55.56
243.765	74.56
243.998	85.56
244.232	89.56
244.465	100.56
244.699	81.56
244.932	73.56
245.166	72.56
245.399	71.56
245.633	76.56
245.866	80.56
246.099	87.56
246.333	72.56
246.566	81.56
246.8	76.56
247.033	83.56
247.266	80.56
247.5	78.56
247.733	61.56
247.966	62.56
248.2	70.56
248.433	81.56
248.666	65.56
248.899	78.56
249.133	80.56
249.366	87.56
249.599	76.56
249.832	79.56
250.066	71.56
250.299	71.56
250.532	80.56
250.765	81.56
250.998	88.56
251.231	78.56
251.465	63.56
251.698	69.56
251.931	77.56
252.164	86.56
252.397	71.56
252.63	92.56
252.863	77.56
253.096	71.56
253.329	73.56
253.562	84.56
253.795	73.56
254.028	71.56
254.261	91.56
254.494	77.56
254.727	82.56
254.96	75.56
255.193	90.56
255.426	95.56
255.659	72.56
255.892	78.56
256.124	68.56
256.357	78.56
256.59	75.56
256.823	82.56
257.056	78.56
257.289	88.56
257.521	76.56
257.754	83.56
257.987	80.56
258.22	67.56
258.452	83.56
258.685	77.56
258.918	79.56
259.151	75.56
259.383	90.56
259.616	77.56
259.849	83.56
260.081	84.56
260.314	81.56
260.547	84.56
260.779	69.56
261.012	79.56
261.244	75.56
261.477	82.56
261.71	86.56
261.942	84.56
262.175	84.56
262.407	67.56
262.64	96.56
262.872	76.56
263.105	73.56
263.337	73.56
263.57	71.56
263.802	86.56
264.035	85.56
264.267	77.56
264.499	85.56
264.732	73.56
264.964	77.56
265.197	91.56
265.429	79.56
265.661	82.56
265.894	78.56
266.126	65.56
266.358	76.56
266.591	75.56
266.823	92.56
267.055	71.56
267.287	79.56
267.52	77.56
267.752	87.56
267.984	91.56
268.216	93.56
268.448	84.56
268.681	86.56
268.913	82.56
269.145	85.56
269.377	89.56
269.609	91.56
269.841	63.56
270.073	80.56
270.306	88.56
270.538	71.56
270.77	85.56
271.002	81.56
271.234	94.56
271.466	86.56
271.698	79.56
271.93	79.56
272.162	87.56
272.394	77.56
272.626	85.56
272.858	89.56
273.09	77.56
273.322	91.56
273.553	79.56
273.785	83.56
274.017	89.56
274.249	97.56
274.481	71.56
274.713	80.56
274.945	86.56
275.176	77.56
275.408	75.56
275.64	79.56
275.872	91.56
276.104	84.56
276.335	92.56
276.567	91.56
276.799	85.56
277.031	78.56
277.262	87.56
277.494	91.56
277.726	79.56
277.957	84.56
278.189	90.56
278.421	93.56
278.652	76.56
278.884	93.56
279.115	75.56
279.347	95.56
279.579	83.56
279.81	79.56
280.042	84.56
280.273	85.56
280.505	81.56
280.736	76.56
280.968	84.56
281.199	99.56
281.431	85.56
281.662	80.56
281.894	73.56
282.125	77.56
282.356	84.56
282.588	76.56
282.819	75.56
283.051	78.56
283.282	79.56
283.513	79.56
283.745	97.56
283.976	81.56
284.207	73.56
284.439	86.56
284.67	73.56
284.901	71.56
285.132	82.56
285.364	78.56
285.595	92.56
285.826	78.56
286.057	77.56
286.288	83.56
286.52	88.56
286.751	84.56
286.982	83.56
287.213	73.56
287.444	69.56
287.675	95.56
287.906	91.56
288.138	78.56
288.369	88.56
288.6	92.56
288.831	87.56
289.062	77.56
289.293	94.56
289.524	96.56
289.755	83.56
289.986	80.56
290.217	79.56
290.448	94.56
290.679	86.56
290.91	93.56
291.141	83.56
291.371	72.56
291.602	93.56
291.833	77.56
292.064	95.56
292.295	87.56
292.526	62.56
292.757	72.56
292.987	72.56
293.218	63.56
293.449	75.56
293.68	75.56
293.91	94.56
294.141	97.56
294.372	89.56
294.603	89.56
294.833	86.56
295.064	98.56
295.295	93.56
295.525	83.56
295.756	80.56
295.987	75.56
296.217	90.56
296.448	83.56
296.679	89.56
296.909	83.56
297.14	84.56
297.37	85.56
297.601	78.56
297.831	71.56
298.062	87.56
298.292	80.56
298.523	88.56
298.753	94.56
298.984	92.56
299.214	86.56
299.445	69.56
299.675	86.56
299.905	83.56
300.136	83.56
300.366	79.56
300.597	86.56
300.827	91.56
301.057	97.56
301.288	92.56
301.518	94.56
301.748	87.56
301.979	100.56
302.209	95.56
302.439	87.56
302.669	92.56
302.9	88.56
303.13	79.56
303.36	92.56
303.59	83.56
303.82	78.56
304.051	69.56
304.281	87.56
304.511	79.56
304.741	84.56
304.971	83.56
305.201	88.56
305.431	94.56
305.661	78.56
305.891	75.56
306.121	101.56
306.352	92.56
306.582	94.56
306.812	88.56
307.042	81.56
307.272	84.56
307.502	90.56
307.731	71.56
307.961	96.56
308.191	98.56
308.421	93.56
308.651	81.56
308.881	87.56
309.111	86.56
309.341	87.56
309.571	72.56
309.8	79.56
310.03	90.56
310.26	96.56
310.49	83.56
310.72	90.56
310.949	83.56
311.179	80.56
311.409	91.56
311.639	77.56
311.868	90.56
312.098	88.56
312.328	81.56
312.557	87.56
312.787	81.56
313.017	88.56
313.246	94.56
313.476	90.56
313.706	78.56
313.935	90.56
314.165	83.56
314.394	76.56
314.624	73.56
314.853	79.56
315.083	89.56
315.312	78.56
315.542	81.56
315.771	84.56
316.001	102.56
316.23	92.56
316.46	84.56
316.689	87.56
316.919	87.56
317.148	91.56
317.377	91.56
317.607	77.56
317.836	91.56
318.065	85.56
318.295	90.56
318.524	81.56
318.753	81.56
318.983	83.56
319.212	73.56
319.441	79.56
319.67	84.56
319.9	88.56
320.129	92.56
320.358	83.56
320.587	87.56
320.816	95.56
321.046	93.56
321.275	101.56
321.504	86.56
321.733	75.56
321.962	95.56
322.191	85.56
322.42	87.56
322.649	90.56
322.878	86.56
323.108	80.56
323.337	83.56
323.566	80.56
323.795	98.56
324.024	93.56
324.253	76.56
324.482	79.56
324.71	91.56
324.939	77.56
325.168	88.56
325.397	82.56
325.626	75.56
325.855	80.56
326.084	79.56
326.313	83.56
326.542	76.56
326.77	95.56
326.999	78.56
327.228	105.56
327.457	89.56
327.686	100.56
327.914	79.56
328.143	103.56
328.372	85.56
328.6	81.56
328.829	83.56
329.058	86.56
329.287	80.56
329.515	88.56
329.744	91.56
329.972	73.56
330.201	90.56
330.43	76.56
330.658	71.56
330.887	76.56
331.115	69.56
331.344	71.56
331.572	82.56
331.801	90.56
332.03	85.56
332.258	69.56
332.486	87.56
332.715	78.56
332.943	87.56
333.172	84.56
333.4	80.56
333.629	89.56
333.857	107.56
334.085	81.56
334.314	76.56
334.542	100.56
334.771	80.56
334.999	89.56
335.227	84.56
335.455	75.56
335.684	94.56
335.912	81.56
336.14	96.56
336.369	71.56
336.597	77.56
336.825	79.56
337.053	88.56
337.281	101.56
337.51	87.56
337.738	81.56
337.966	85.56
338.194	77.56
338.422	78.56
338.65	94.56
338.878	103.56
339.106	72.56
339.334	85.56
339.562	76.56
339.79	90.56
340.018	91.56
340.246	76.56
340.474	99.56
340.702	80.56
340.93	81.56
341.158	92.56
341.386	96.56
341.614	76.56
341.842	90.56
342.07	83.56
342.298	77.56
342.526	90.56
342.754	80.56
342.981	87.56
343.209	91.56
343.437	100.56
343.665	86.56
343.893	91.56
344.12	93.56
344.348	98.56
344.576	75.56
344.804	84.56
345.031	91.56
345.259	92.56
345.487	78.56
345.714	85.56
345.942	73.56
346.17	90.56
346.397	80.56
346.625	82.56
346.853	85.56
347.08	76.56
347.308	83.56
347.535	87.56
347.763	95.56
347.99	98.56
348.218	83.56
348.445	95.56
348.673	85.56
348.9	86.56
349.128	77.56
349.355	73.56
349.583	87.56
349.81	87.56
350.037	83.56
350.265	82.56
350.492	87.56
350.72	89.56
350.947	73.56
351.174	78.56
351.402	94.56
351.629	85.56
351.856	91.56
352.083	80.56
352.311	81.56
352.538	77.56
352.765	85.56
352.992	84.56
353.22	90.56
353.447	88.56
353.674	87.56
353.901	99.56
354.128	78.56
354.355	78.56
354.583	80.56
354.81	89.56
355.037	77.56
355.264	84.56
355.491	81.56
355.718	84.56
355.945	86.56
356.172	85.56
356.399	86.56
356.626	81.56
356.853	76.56
357.08	94.56
357.307	84.56
357.534	79.56
357.761	87.56
357.988	72.56
358.215	84.56
358.441	87.56
358.668	90.56
358.895	83.56
359.122	77.56
359.349	78.56
359.576	88.56
359.802	95.56
360.029	85.56
360.256	84.56
360.483	86.56
360.709	85.56
360.936	86.56
361.163	95.56
361.39	88.56
361.616	81.56
361.843	78.56
362.07	83.56
362.296	80.56
362.523	84.56
362.749	95.56
362.976	87.56
363.203	90.56
363.429	87.56
363.656	77.56
363.882	99.56
364.109	78.56
364.335	95.56
364.562	90.56
364.788	91.56
365.015	88.56
365.241	79.56
365.468	66.56
365.694	73.56
365.92	76.56
366.147	63.56
366.373	80.56
366.599	74.56
366.826	79.56
367.052	94.56
367.278	97.56
367.505	97.56
367.731	85.56
367.957	94.56
368.184	75.56
368.41	77.56
368.636	78.56
368.862	72.56
369.089	78.56
369.315	90.56
369.541	88.56
369.767	96.56
369.993	79.56
370.219	85.56
370.445	59.56
370.672	77.56
370.898	79.56
371.124	89.56
371.35	85.56
371.576	91.56
371.802	87.56
372.028	73.56
372.254	84.56
372.48	80.56
372.706	80.56
372.932	73.56
373.158	81.56
373.384	84.56
373.61	85.56
373.835	89.56
374.061	77.56
374.287	76.56
374.513	88.56
374.739	92.56
374.965	89.56
375.191	89.56
375.416	90.56
375.642	86.56
375.868	94.56
376.094	84.56
376.319	89.56
376.545	85.56
376.771	87.56
376.997	82.56
377.222	82.56
377.448	84.56
377.674	88.56
377.899	80.56
378.125	92.56
378.35	99.56
378.576	85.56
378.802	83.56
379.027	77.56
379.253	71.56
379.478	69.56
379.704	77.56
379.929	69.56
380.155	83.56
380.38	77.56
380.606	96.56
380.831	92.56
381.057	104.56
381.282	79.56
381.507	81.56
381.733	99.56
381.958	101.56
382.184	84.56
382.409	77.56
382.634	75.56
382.86	87.56
383.085	78.56
383.31	85.56
383.535	81.56
383.761	90.56
383.986	83.56
384.211	77.56
384.436	72.56
384.662	80.56
384.887	87.56
385.112	92.56
385.337	89.56
385.562	67.56
385.787	79.56
386.013	84.56
386.238	67.56
386.463	81.56
386.688	89.56
386.913	88.56
387.138	72.56
387.363	74.56
387.588	75.56
387.813	88.56
388.038	76.56
388.263	83.56
388.488	75.56
388.713	82.56
388.938	91.56
389.163	70.56
389.387	87.56
389.612	78.56
389.837	87.56
390.062	90.56
390.287	87.56
390.512	93.56
390.736	73.56
390.961	89.56
391.186	90.56
391.411	80.56
391.636	90.56
391.86	90.56
392.085	90.56
392.31	87.56
392.534	91.56
392.759	81.56
392.984	81.56
393.208	69.56
393.433	76.56
393.658	85.56
393.882	81.56
394.107	78.56
394.331	96.56
394.556	87.56
394.78	95.56
395.005	96.56
395.229	94.56
395.454	89.56
395.678	72.56
395.903	81.56
396.127	76.56
396.352	82.56
396.576	77.56
396.801	65.56
397.025	83.56
397.249	77.56
397.474	76.56
397.698	82.56
397.922	86.56
398.147	74.56
398.371	77.56
398.595	99.56
398.82	64.56
399.044	77.56
399.268	83.56
399.492	77.56
399.717	83.56
399.941	89.56
400.165	86.56
400.389	72.56
400.613	86.56
400.837	76.56
401.062	72.56
401.286	77.56
401.51	87.56
401.734	79.56
401.958	71.56
402.182	68.56
402.406	82.56
402.63	76.56
402.854	78.56
403.078	75.56
403.302	77.56
403.526	84.56
403.75	75.56
403.974	75.56
404.198	82.56
404.422	75.56
404.645	78.56
404.869	78.56
405.093	90.56
405.317	84.56
405.541	84.56
405.765	80.56
405.988	94.56
406.212	70.56
406.436	79.56
406.66	103.56
406.883	78.56
407.107	89.56
407.331	91.56
407.555	88.56
407.778	76.56
408.002	79.56
408.226	85.56
408.449	75.56
408.673	87.56
408.896	96.56
409.12	76.56
409.344	90.56
409.567	93.56
409.791	95.56
410.014	87.56
410.238	83.56
410.461	80.56
410.685	75.56
410.908	86.56
411.132	90.56
411.355	81.56
411.578	87.56
411.802	78.56
412.025	66.56
412.249	87.56
412.472	85.56
412.695	89.56
412.919	82.56
413.142	81.56
413.365	73.56
413.589	91.56
413.812	78.56
414.035	77.56
414.258	77.56
414.482	71.56
414.705	72.56
414.928	86.56
415.151	91.56
415.374	79.56
415.597	74.56
415.821	79.56
416.044	94.56
416.267	82.56
416.49	80.56
416.713	68.56
416.936	73.56
417.159	72.56
417.382	80.56
417.605	83.56
417.828	78.56
418.051	81.56
418.274	84.56
418.497	69.56
418.72	85.56
418.943	97.56
419.166	83.56
419.389	70.56
419.611	77.56
419.834	69.56
420.057	74.56
420.28	83.56
420.503	75.56
420.726	80.56
420.948	76.56
421.171	69.56
421.394	78.56
421.617	80.56
421.839	80.56
422.062	90.56
422.285	93.56
422.507	78.56
422.73	82.56
422.953	73.56
423.175	80.56
423.398	63.56
423.621	85.56
423.843	77.56
424.066	95.56
424.288	87.56
424.511	89.56
424.733	73.56
424.956	93.56
425.178	93.56
425.401	84.56
425.623	76.56
425.846	74.56
426.068	78.56
426.291	96.56
426.513	86.56
426.735	78.56
426.958	71.56
427.18	83.56
427.402	88.56
427.625	79.56
427.847	63.56
428.069	81.56
428.292	75.56
428.514	88.56
428.736	78.56
428.958	75.56
429.181	68.56
429.403	69.56
429.625	78.56
429.847	72.56
430.069	73.56
430.292	76.56
430.514	83.56
430.736	79.56
430.958	88.56
431.18	93.56
431.402	71.56
431.624	84.56
431.846	71.56
432.068	68.56
432.29	74.56
432.512	87.56
432.734	81.56
432.956	91.56
433.178	73.56
433.4	91.56
433.622	65.56
433.844	87.56
434.066	84.56
434.287	82.56
434.509	71.56
434.731	87.56
434.953	78.56
435.175	75.56
435.397	88.56
435.618	82.56
435.84	78.56
436.062	88.56
436.284	84.56
436.505	95.56
436.727	73.56
436.949	88.56
437.17	79.56
437.392	82.56
437.614	79.56
437.835	80.56
438.057	84.56
438.278	78.56
438.5	76.56
438.721	89.56
438.943	84.56
439.165	84.56
439.386	85.56
439.608	76.56
439.829	69.56
440.05	79.56
440.272	74.56
440.493	87.56
440.715	94.56
440.936	73.56
441.158	94.56
441.379	90.56
441.6	91.56
441.822	81.56
442.043	85.56
442.264	90.56
442.486	80.56
442.707	90.56
442.928	85.56
443.149	74.56
443.371	76.56
443.592	88.56
443.813	81.56
444.034	94.56
444.255	76.56
444.476	71.56
444.698	71.56
444.919	92.56
445.14	135.56
445.361	115.56
445.582	81.56
445.803	67.56
446.024	82.56
446.245	87.56
446.466	80.56
446.687	92.56
446.908	90.56
447.129	85.56
447.35	76.56
447.571	87.56
447.792	80.56
448.013	62.56
448.234	73.56
448.455	78.56
448.675	73.56
448.896	73.56
449.117	79.56
449.338	83.56
449.559	88.56
449.779	60.56
450	86.56
450.221	76.56
450.442	63.56
450.662	75.56
450.883	87.56
451.104	95.56
451.324	79.56
451.545	66.56
451.766	80.56
451.986	73.56
452.207	87.56
452.428	81.56
452.648	101.56
452.869	70.56
453.089	84.56
453.31	72.56
453.53	77.56
453.751	85.56
453.971	87.56
454.192	78.56
454.412	73.56
454.633	84.56
454.853	78.56
455.073	71.56
455.294	79.56
455.514	88.56
455.734	78.56
455.955	74.56
456.175	73.56
456.395	73.56
456.616	88.56
456.836	108.56
457.056	88.56
457.276	72.56
457.497	78.56
457.717	82.56
457.937	87.56
458.157	78.56
458.377	83.56
458.598	73.56
458.818	79.56
459.038	83.56
459.258	81.56
459.478	86.56
459.698	86.56
459.918	68.56
460.138	87.56
460.358	81.56
460.578	83.56
460.798	79.56
461.018	81.56
461.238	80.56
461.458	84.56
461.678	66.56
461.898	79.56
462.118	72.56
462.338	83.56
462.558	87.56
462.777	77.56
462.997	85.56
463.217	78.56
463.437	72.56
463.657	87.56
463.876	71.56
464.096	87.56
464.316	80.56
464.536	72.56
464.755	91.56
464.975	89.56
465.195	75.56
465.414	83.56
465.634	94.56
465.854	83.56
466.073	76.56
466.293	71.56
466.512	86.56
466.732	78.56
466.951	93.56
467.171	85.56
467.391	73.56
467.61	84.56
467.829	78.56
468.049	71.56
468.268	79.56
468.488	77.56
468.707	79.56
468.927	80.56
469.146	86.56
469.365	79.56
469.585	77.56
469.804	86.56
470.023	73.56
470.243	79.56
470.462	83.56
470.681	84.56
470.901	78.56
471.12	77.56
471.339	73.56
471.558	87.56
471.777	71.56
471.997	80.56
472.216	77.56
472.435	75.56
472.654	92.56
472.873	108.56
473.092	86.56
473.311	66.56
473.53	77.56
473.749	75.56
473.968	75.56
474.187	80.56
474.406	74.56
474.625	86.56
474.844	78.56
475.063	76.56
475.282	83.56
475.501	87.56
475.72	89.56
475.939	71.56
476.158	84.56
476.377	83.56
476.596	87.56
476.814	92.56
477.033	81.56
477.252	77.56
477.471	79.56
477.69	78.56
477.908	67.56
478.127	84.56
478.346	86.56
478.564	78.56
478.783	94.56
479.002	82.56
479.22	79.56
479.439	76.56
479.658	78.56
479.876	71.56
480.095	84.56
480.313	85.56
480.532	79.56
480.751	78.56
480.969	66.56
481.188	74.56
481.406	80.56
481.624	61.56
481.843	81.56
482.061	79.56
482.28	85.56
482.498	80.56
482.717	76.56
482.935	63.56
483.153	86.56
483.372	74.56
483.59	84.56
483.808	83.56
484.027	90.56
484.245	89.56
484.463	76.56
484.681	87.56
484.9	66.56
485.118	82.56
485.336	76.56
485.554	73.56
485.772	88.56
485.99	91.56
486.209	73.56
486.427	83.56
486.645	97.56
486.863	76.56
487.081	79.56
487.299	88.56
487.517	79.56
487.735	79.56
487.953	88.56
488.171	83.56
488.389	87.56
488.607	78.56
488.825	67.56
489.043	91.56
489.261	70.56
489.479	67.56
489.696	90.56
489.914	78.56
490.132	77.56
490.35	83.56
490.568	81.56
490.786	85.56
491.003	82.56
491.221	84.56
491.439	73.56
491.657	81.56
491.874	87.56
492.092	73.56
492.31	93.56
492.527	66.56
492.745	91.56
492.963	89.56
493.18	88.56
493.398	88.56
493.615	81.56
493.833	84.56
494.05	79.56
494.268	73.56
494.485	100.56
494.703	78.56
494.92	81.56
495.138	80.56
495.355	75.56
495.573	79.56
495.79	81.56
496.008	92.56
496.225	83.56
496.442	76.56
496.66	84.56
496.877	83.56
497.094	90.56
497.312	84.56
497.529	83.56
497.746	89.56
497.963	99.56
498.181	80.56
498.398	92.56
498.615	69.56
498.832	83.56
499.049	92.56
499.267	85.56
499.484	82.56
499.701	80.56
499.918	84.56
500.135	89.56
500.352	71.56
500.569	71.56
500.786	70.56
501.003	74.56
501.22	62.56
501.437	82.56
501.654	88.56
501.871	77.56
502.088	78.56
502.305	73.56
502.522	80.56
502.739	91.56
502.956	79.56
503.172	73.56
503.389	75.56
503.606	91.56
503.823	86.56
504.04	73.56
504.256	75.56
504.473	85.56
504.69	63.56
504.907	84.56
505.123	83.56
505.34	79.56
505.557	79.56
505.773	76.56
505.99	70.56
506.207	75.56
506.423	55.56
506.64	78.56
506.856	86.56
507.073	79.56
507.289	72.56
507.506	75.56
507.722	74.56
507.939	89.56
508.155	79.56
508.372	75.56
508.588	68.56
508.805	70.56
509.021	81.56
509.238	79.56
509.454	87.56
509.67	93.56
509.887	75.56
510.103	78.56
510.319	75.56
510.536	90.56
510.752	82.56
510.968	79.56
511.184	77.56
511.401	65.56
511.617	83.56
511.833	77.56
512.049	68.56
512.265	74.56
512.481	87.56
512.698	95.56
512.914	85.56
513.13	81.56
513.346	87.56
513.562	97.56
513.778	84.56
513.994	85.56
514.21	86.56
514.426	77.56
514.642	87.56
514.858	83.56
515.074	63.56
515.29	82.56
515.506	82.56
515.721	95.56
515.937	79.56
516.153	93.56
516.369	63.56
516.585	76.56
516.801	87.56
517.016	79.56
517.232	88.56
517.448	85.56
517.664	90.56
517.879	82.56
518.095	83.56
518.311	77.56
518.527	70.56
518.742	77.56
518.958	75.56
519.173	92.56
519.389	65.56
519.605	85.56
519.82	84.56
520.036	91.56
520.251	78.56
