Data from BG_HRD10591_035.txt Node
Date: Fri May 16 15:21:11 EDT 2025
User: Yrep
Spectrometer: HR+D1059
Trigger mode: 1
Integration Time (sec): 1.000000E-1
Scans to average: 1
Electric dark correction enabled: true
Nonlinearity correction enabled: false
Boxcar width: 0
XAxis mode: Wavelengths
Number of Pixels in Spectrum: 2048
>>>>>Begin Spectral Data<<<<<
223.165	-10.25
223.4	-10.25
223.635	-10.25
223.869	-23.25
224.104	-18.25
224.338	-4.25
224.573	-15.25
224.808	-6.25
225.042	-15.25
225.277	-18.25
225.511	-2.25
225.746	13.75
225.98	3.75
226.215	8.75
226.449	17.75
226.683	16.75
226.918	38.75
227.152	13.75
227.387	27.75
227.621	39.75
227.856	41.75
228.09	52.75
228.324	45.75
228.559	67.75
228.793	62.75
229.027	59.75
229.262	89.75
229.496	50.75
229.73	77.75
229.964	77.75
230.199	81.75
230.433	74.75
230.667	76.75
230.901	75.75
231.136	76.75
231.37	79.75
231.604	82.75
231.838	82.75
232.072	84.75
232.306	78.75
232.541	88.75
232.775	79.75
233.009	80.75
233.243	74.75
233.477	81.75
233.711	68.75
233.945	73.75
234.179	77.75
234.413	75.75
234.647	94.75
234.881	84.75
235.115	86.75
235.349	83.75
235.583	73.75
235.817	70.75
236.051	77.75
236.285	75.75
236.519	89.75
236.753	70.75
236.987	66.75
237.221	82.75
237.455	76.75
237.689	67.75
237.922	79.75
238.156	79.75
238.39	74.75
238.624	90.75
238.858	90.75
239.091	78.75
239.325	66.75
239.559	84.75
239.793	67.75
240.027	80.75
240.26	79.75
240.494	76.75
240.728	81.75
240.961	72.75
241.195	74.75
241.429	88.75
241.662	75.75
241.896	92.75
242.13	76.75
242.363	80.75
242.597	80.75
242.83	89.75
243.064	82.75
243.298	81.75
243.531	77.75
243.765	73.75
243.998	72.75
244.232	83.75
244.465	79.75
244.699	82.75
244.932	81.75
245.166	100.75
245.399	79.75
245.633	75.75
245.866	97.75
246.099	71.75
246.333	78.75
246.566	79.75
246.8	82.75
247.033	87.75
247.266	72.75
247.5	73.75
247.733	77.75
247.966	83.75
248.2	82.75
248.433	75.75
248.666	79.75
248.899	73.75
249.133	97.75
249.366	79.75
249.599	88.75
249.832	91.75
250.066	76.75
250.299	77.75
250.532	84.75
250.765	87.75
250.998	77.75
251.231	75.75
251.465	86.75
251.698	89.75
251.931	95.75
252.164	70.75
252.397	71.75
252.63	75.75
252.863	86.75
253.096	73.75
253.329	76.75
253.562	81.75
253.795	81.75
254.028	85.75
254.261	73.75
254.494	79.75
254.727	95.75
254.96	83.75
255.193	98.75
255.426	73.75
255.659	84.75
255.892	79.75
256.124	80.75
256.357	81.75
256.59	86.75
256.823	89.75
257.056	82.75
257.289	92.75
257.521	83.75
257.754	79.75
257.987	76.75
258.22	87.75
258.452	82.75
258.685	83.75
258.918	86.75
259.151	72.75
259.383	87.75
259.616	73.75
259.849	87.75
260.081	82.75
260.314	91.75
260.547	75.75
260.779	80.75
261.012	83.75
261.244	85.75
261.477	85.75
261.71	81.75
261.942	85.75
262.175	71.75
262.407	72.75
262.64	83.75
262.872	78.75
263.105	81.75
263.337	93.75
263.57	92.75
263.802	94.75
264.035	90.75
264.267	81.75
264.499	77.75
264.732	82.75
264.964	78.75
265.197	76.75
265.429	89.75
265.661	86.75
265.894	75.75
266.126	87.75
266.358	86.75
266.591	90.75
266.823	64.75
267.055	99.75
267.287	94.75
267.52	80.75
267.752	75.75
267.984	78.75
268.216	91.75
268.448	91.75
268.681	89.75
268.913	82.75
269.145	84.75
269.377	85.75
269.609	85.75
269.841	87.75
270.073	82.75
270.306	92.75
270.538	89.75
270.77	90.75
271.002	88.75
271.234	88.75
271.466	92.75
271.698	86.75
271.93	89.75
272.162	98.75
272.394	76.75
272.626	72.75
272.858	90.75
273.09	75.75
273.322	83.75
273.553	68.75
273.785	69.75
274.017	85.75
274.249	89.75
274.481	83.75
274.713	76.75
274.945	86.75
275.176	86.75
275.408	88.75
275.64	95.75
275.872	78.75
276.104	82.75
276.335	78.75
276.567	86.75
276.799	80.75
277.031	79.75
277.262	75.75
277.494	88.75
277.726	93.75
277.957	82.75
278.189	69.75
278.421	87.75
278.652	85.75
278.884	89.75
279.115	91.75
279.347	96.75
279.579	80.75
279.81	84.75
280.042	80.75
280.273	85.75
280.505	85.75
280.736	85.75
280.968	88.75
281.199	81.75
281.431	73.75
281.662	82.75
281.894	94.75
282.125	89.75
282.356	81.75
282.588	86.75
282.819	77.75
283.051	81.75
283.282	93.75
283.513	73.75
283.745	74.75
283.976	80.75
284.207	81.75
284.439	66.75
284.67	87.75
284.901	75.75
285.132	83.75
285.364	71.75
285.595	78.75
285.826	88.75
286.057	93.75
286.288	91.75
286.52	95.75
286.751	86.75
286.982	77.75
287.213	77.75
287.444	89.75
287.675	75.75
287.906	78.75
288.138	85.75
288.369	87.75
288.6	82.75
288.831	85.75
289.062	84.75
289.293	89.75
289.524	94.75
289.755	80.75
289.986	83.75
290.217	81.75
290.448	92.75
290.679	89.75
290.91	86.75
291.141	86.75
291.371	78.75
291.602	85.75
291.833	86.75
292.064	92.75
292.295	79.75
292.526	94.75
292.757	96.75
292.987	94.75
293.218	89.75
293.449	95.75
293.68	83.75
293.91	102.75
294.141	101.75
294.372	89.75
294.603	79.75
294.833	96.75
295.064	85.75
295.295	91.75
295.525	81.75
295.756	77.75
295.987	94.75
296.217	95.75
296.448	87.75
296.679	77.75
296.909	75.75
297.14	90.75
297.37	84.75
297.601	86.75
297.831	82.75
298.062	81.75
298.292	72.75
298.523	85.75
298.753	95.75
298.984	85.75
299.214	76.75
299.445	87.75
299.675	89.75
299.905	81.75
300.136	89.75
300.366	85.75
300.597	81.75
300.827	85.75
301.057	80.75
301.288	79.75
301.518	96.75
301.748	83.75
301.979	109.75
302.209	71.75
302.439	79.75
302.669	75.75
302.9	103.75
303.13	101.75
303.36	106.75
303.59	79.75
303.82	80.75
304.051	78.75
304.281	93.75
304.511	85.75
304.741	88.75
304.971	97.75
305.201	83.75
305.431	90.75
305.661	77.75
305.891	82.75
306.121	89.75
306.352	75.75
306.582	86.75
306.812	93.75
307.042	77.75
307.272	82.75
307.502	76.75
307.731	79.75
307.961	80.75
308.191	87.75
308.421	82.75
308.651	85.75
308.881	106.75
309.111	98.75
309.341	74.75
309.571	89.75
309.8	80.75
310.03	85.75
310.26	86.75
310.49	82.75
310.72	81.75
310.949	97.75
311.179	103.75
311.409	84.75
311.639	92.75
311.868	81.75
312.098	82.75
312.328	75.75
312.557	67.75
312.787	82.75
313.017	85.75
313.246	90.75
313.476	73.75
313.706	87.75
313.935	85.75
314.165	80.75
314.394	91.75
314.624	93.75
314.853	82.75
315.083	93.75
315.312	98.75
315.542	95.75
315.771	95.75
316.001	82.75
316.23	98.75
316.46	80.75
316.689	90.75
316.919	91.75
317.148	102.75
317.377	88.75
317.607	81.75
317.836	85.75
318.065	76.75
318.295	71.75
318.524	89.75
318.753	82.75
318.983	90.75
319.212	82.75
319.441	90.75
319.67	93.75
319.9	97.75
320.129	85.75
320.358	73.75
320.587	90.75
320.816	88.75
321.046	83.75
321.275	76.75
321.504	88.75
321.733	86.75
321.962	90.75
322.191	83.75
322.42	89.75
322.649	81.75
322.878	77.75
323.108	92.75
323.337	96.75
323.566	74.75
323.795	87.75
324.024	81.75
324.253	97.75
324.482	86.75
324.71	87.75
324.939	84.75
325.168	82.75
325.397	89.75
325.626	80.75
325.855	71.75
326.084	91.75
326.313	82.75
326.542	82.75
326.77	87.75
326.999	97.75
327.228	87.75
327.457	73.75
327.686	92.75
327.914	81.75
328.143	86.75
328.372	77.75
328.6	88.75
328.829	85.75
329.058	74.75
329.287	96.75
329.515	93.75
329.744	87.75
329.972	77.75
330.201	71.75
330.43	78.75
330.658	73.75
330.887	81.75
331.115	91.75
331.344	89.75
331.572	73.75
331.801	90.75
332.03	85.75
332.258	85.75
332.486	92.75
332.715	90.75
332.943	110.75
333.172	94.75
333.4	92.75
333.629	80.75
333.857	88.75
334.085	78.75
334.314	88.75
334.542	87.75
334.771	86.75
334.999	88.75
335.227	86.75
335.455	87.75
335.684	75.75
335.912	89.75
336.14	81.75
336.369	91.75
336.597	95.75
336.825	101.75
337.053	81.75
337.281	82.75
337.51	84.75
337.738	95.75
337.966	101.75
338.194	82.75
338.422	71.75
338.65	85.75
338.878	85.75
339.106	90.75
339.334	91.75
339.562	90.75
339.79	95.75
340.018	79.75
340.246	74.75
340.474	91.75
340.702	94.75
340.93	82.75
341.158	98.75
341.386	77.75
341.614	79.75
341.842	85.75
342.07	91.75
342.298	79.75
342.526	83.75
342.754	87.75
342.981	74.75
343.209	77.75
343.437	95.75
343.665	91.75
343.893	83.75
344.12	88.75
344.348	78.75
344.576	91.75
344.804	95.75
345.031	83.75
345.259	65.75
345.487	83.75
345.714	89.75
345.942	83.75
346.17	79.75
346.397	75.75
346.625	87.75
346.853	86.75
347.08	70.75
347.308	103.75
347.535	98.75
347.763	88.75
347.99	78.75
348.218	77.75
348.445	84.75
348.673	85.75
348.9	81.75
349.128	69.75
349.355	70.75
349.583	91.75
349.81	78.75
350.037	80.75
350.265	96.75
350.492	80.75
350.72	75.75
350.947	89.75
351.174	80.75
351.402	81.75
351.629	83.75
351.856	79.75
352.083	88.75
352.311	80.75
352.538	87.75
352.765	89.75
352.992	93.75
353.22	94.75
353.447	89.75
353.674	94.75
353.901	88.75
354.128	94.75
354.355	85.75
354.583	80.75
354.81	73.75
355.037	88.75
355.264	90.75
355.491	109.75
355.718	94.75
355.945	83.75
356.172	79.75
356.399	89.75
356.626	90.75
356.853	94.75
357.08	89.75
357.307	85.75
357.534	90.75
357.761	94.75
357.988	90.75
358.215	84.75
358.441	91.75
358.668	85.75
358.895	77.75
359.122	67.75
359.349	81.75
359.576	101.75
359.802	74.75
360.029	92.75
360.256	91.75
360.483	88.75
360.709	88.75
360.936	82.75
361.163	75.75
361.39	78.75
361.616	77.75
361.843	74.75
362.07	79.75
362.296	89.75
362.523	104.75
362.749	69.75
362.976	65.75
363.203	85.75
363.429	93.75
363.656	90.75
363.882	93.75
364.109	89.75
364.335	93.75
364.562	89.75
364.788	78.75
365.015	74.75
365.241	90.75
365.468	78.75
365.694	83.75
365.92	81.75
366.147	77.75
366.373	93.75
366.599	78.75
366.826	79.75
367.052	74.75
367.278	84.75
367.505	83.75
367.731	87.75
367.957	72.75
368.184	75.75
368.41	74.75
368.636	87.75
368.862	86.75
369.089	90.75
369.315	82.75
369.541	91.75
369.767	84.75
369.993	88.75
370.219	88.75
370.445	82.75
370.672	83.75
370.898	78.75
371.124	74.75
371.35	77.75
371.576	83.75
371.802	102.75
372.028	77.75
372.254	90.75
372.48	83.75
372.706	95.75
372.932	91.75
373.158	86.75
373.384	77.75
373.61	97.75
373.835	67.75
374.061	82.75
374.287	94.75
374.513	75.75
374.739	103.75
374.965	82.75
375.191	94.75
375.416	87.75
375.642	91.75
375.868	71.75
376.094	82.75
376.319	88.75
376.545	75.75
376.771	82.75
376.997	93.75
377.222	93.75
377.448	90.75
377.674	97.75
377.899	91.75
378.125	66.75
378.35	88.75
378.576	96.75
378.802	82.75
379.027	92.75
379.253	87.75
379.478	78.75
379.704	87.75
379.929	72.75
380.155	92.75
380.38	76.75
380.606	76.75
380.831	81.75
381.057	81.75
381.282	75.75
381.507	78.75
381.733	83.75
381.958	82.75
382.184	68.75
382.409	83.75
382.634	89.75
382.86	81.75
383.085	95.75
383.31	82.75
383.535	77.75
383.761	81.75
383.986	83.75
384.211	81.75
384.436	95.75
384.662	80.75
384.887	75.75
385.112	82.75
385.337	82.75
385.562	78.75
385.787	60.75
386.013	91.75
386.238	85.75
386.463	86.75
386.688	88.75
386.913	92.75
387.138	68.75
387.363	82.75
387.588	75.75
387.813	81.75
388.038	89.75
388.263	79.75
388.488	77.75
388.713	80.75
388.938	75.75
389.163	83.75
389.387	78.75
389.612	95.75
389.837	96.75
390.062	94.75
390.287	81.75
390.512	95.75
390.736	86.75
390.961	87.75
391.186	87.75
391.411	87.75
391.636	93.75
391.86	85.75
392.085	79.75
392.31	77.75
392.534	92.75
392.759	87.75
392.984	83.75
393.208	66.75
393.433	89.75
393.658	89.75
393.882	87.75
394.107	77.75
394.331	84.75
394.556	91.75
394.78	78.75
395.005	81.75
395.229	78.75
395.454	90.75
395.678	99.75
395.903	98.75
396.127	91.75
396.352	81.75
396.576	84.75
396.801	81.75
397.025	78.75
397.249	70.75
397.474	77.75
397.698	87.75
397.922	87.75
398.147	91.75
398.371	94.75
398.595	83.75
398.82	85.75
399.044	89.75
399.268	94.75
399.492	78.75
399.717	93.75
399.941	90.75
400.165	76.75
400.389	103.75
400.613	84.75
400.837	86.75
401.062	83.75
401.286	87.75
401.51	77.75
401.734	80.75
401.958	77.75
402.182	72.75
402.406	72.75
402.63	88.75
402.854	70.75
403.078	85.75
403.302	80.75
403.526	83.75
403.75	88.75
403.974	87.75
404.198	77.75
404.422	85.75
404.645	89.75
404.869	89.75
405.093	75.75
405.317	88.75
405.541	73.75
405.765	81.75
405.988	86.75
406.212	82.75
406.436	78.75
406.66	79.75
406.883	80.75
407.107	82.75
407.331	77.75
407.555	81.75
407.778	96.75
408.002	91.75
408.226	98.75
408.449	89.75
408.673	84.75
408.896	93.75
409.12	84.75
409.344	82.75
409.567	83.75
409.791	88.75
410.014	91.75
410.238	63.75
410.461	74.75
410.685	86.75
410.908	86.75
411.132	89.75
411.355	85.75
411.578	79.75
411.802	82.75
412.025	81.75
412.249	86.75
412.472	91.75
412.695	77.75
412.919	75.75
413.142	77.75
413.365	91.75
413.589	89.75
413.812	83.75
414.035	89.75
414.258	87.75
414.482	94.75
414.705	81.75
414.928	66.75
415.151	89.75
415.374	76.75
415.597	81.75
415.821	93.75
416.044	81.75
416.267	89.75
416.49	88.75
416.713	71.75
416.936	77.75
417.159	89.75
417.382	80.75
417.605	78.75
417.828	80.75
418.051	81.75
418.274	87.75
418.497	72.75
418.72	90.75
418.943	87.75
419.166	77.75
419.389	90.75
419.611	82.75
419.834	84.75
420.057	101.75
420.28	97.75
420.503	81.75
420.726	85.75
420.948	94.75
421.171	78.75
421.394	81.75
421.617	74.75
421.839	91.75
422.062	80.75
422.285	90.75
422.507	85.75
422.73	103.75
422.953	77.75
423.175	79.75
423.398	86.75
423.621	90.75
423.843	81.75
424.066	82.75
424.288	70.75
424.511	93.75
424.733	74.75
424.956	83.75
425.178	82.75
425.401	75.75
425.623	80.75
425.846	82.75
426.068	78.75
426.291	87.75
426.513	84.75
426.735	86.75
426.958	84.75
427.18	107.75
427.402	93.75
427.625	85.75
427.847	81.75
428.069	85.75
428.292	78.75
428.514	87.75
428.736	78.75
428.958	83.75
429.181	92.75
429.403	90.75
429.625	79.75
429.847	77.75
430.069	69.75
430.292	78.75
430.514	83.75
430.736	99.75
430.958	89.75
431.18	89.75
431.402	83.75
431.624	87.75
431.846	74.75
432.068	86.75
432.29	85.75
432.512	93.75
432.734	83.75
432.956	79.75
433.178	79.75
433.4	87.75
433.622	93.75
433.844	81.75
434.066	75.75
434.287	81.75
434.509	76.75
434.731	78.75
434.953	94.75
435.175	80.75
435.397	83.75
435.618	76.75
435.84	79.75
436.062	75.75
436.284	87.75
436.505	87.75
436.727	73.75
436.949	94.75
437.17	86.75
437.392	83.75
437.614	77.75
437.835	82.75
438.057	81.75
438.278	88.75
438.5	85.75
438.721	81.75
438.943	80.75
439.165	87.75
439.386	91.75
439.608	78.75
439.829	72.75
440.05	77.75
440.272	81.75
440.493	77.75
440.715	78.75
440.936	87.75
441.158	98.75
441.379	95.75
441.6	90.75
441.822	79.75
442.043	79.75
442.264	86.75
442.486	86.75
442.707	88.75
442.928	80.75
443.149	78.75
443.371	81.75
443.592	94.75
443.813	79.75
444.034	85.75
444.255	97.75
444.476	81.75
444.698	75.75
444.919	71.75
445.14	147.75
445.361	125.75
445.582	95.75
445.803	79.75
446.024	74.75
446.245	101.75
446.466	83.75
446.687	75.75
446.908	80.75
447.129	83.75
447.35	85.75
447.571	81.75
447.792	91.75
448.013	70.75
448.234	93.75
448.455	94.75
448.675	79.75
448.896	78.75
449.117	94.75
449.338	87.75
449.559	81.75
449.779	77.75
450	94.75
450.221	90.75
450.442	70.75
450.662	76.75
450.883	74.75
451.104	89.75
451.324	88.75
451.545	84.75
451.766	88.75
451.986	78.75
452.207	79.75
452.428	76.75
452.648	80.75
452.869	78.75
453.089	86.75
453.31	86.75
453.53	80.75
453.751	94.75
453.971	71.75
454.192	85.75
454.412	97.75
454.633	86.75
454.853	76.75
455.073	90.75
455.294	79.75
455.514	82.75
455.734	86.75
455.955	71.75
456.175	83.75
456.395	78.75
456.616	77.75
456.836	83.75
457.056	78.75
457.276	75.75
457.497	67.75
457.717	90.75
457.937	69.75
458.157	73.75
458.377	71.75
458.598	75.75
458.818	77.75
459.038	84.75
459.258	92.75
459.478	92.75
459.698	79.75
459.918	73.75
460.138	78.75
460.358	91.75
460.578	80.75
460.798	88.75
461.018	97.75
461.238	80.75
461.458	87.75
461.678	96.75
461.898	88.75
462.118	88.75
462.338	85.75
462.558	78.75
462.777	87.75
462.997	77.75
463.217	90.75
463.437	82.75
463.657	96.75
463.876	82.75
464.096	93.75
464.316	86.75
464.536	102.75
464.755	90.75
464.975	80.75
465.195	83.75
465.414	91.75
465.634	95.75
465.854	93.75
466.073	72.75
466.293	82.75
466.512	87.75
466.732	95.75
466.951	92.75
467.171	81.75
467.391	89.75
467.61	81.75
467.829	86.75
468.049	86.75
468.268	85.75
468.488	81.75
468.707	81.75
468.927	84.75
469.146	90.75
469.365	78.75
469.585	94.75
469.804	94.75
470.023	87.75
470.243	95.75
470.462	94.75
470.681	80.75
470.901	74.75
471.12	92.75
471.339	87.75
471.558	88.75
471.777	76.75
471.997	66.75
472.216	81.75
472.435	73.75
472.654	81.75
472.873	92.75
473.092	85.75
473.311	88.75
473.53	84.75
473.749	93.75
473.968	92.75
474.187	98.75
474.406	78.75
474.625	89.75
474.844	75.75
475.063	77.75
475.282	99.75
475.501	79.75
475.72	82.75
475.939	84.75
476.158	85.75
476.377	94.75
476.596	80.75
476.814	84.75
477.033	93.75
477.252	82.75
477.471	93.75
477.69	88.75
477.908	77.75
478.127	74.75
478.346	91.75
478.564	70.75
478.783	87.75
479.002	86.75
479.22	102.75
479.439	94.75
479.658	89.75
479.876	82.75
480.095	75.75
480.313	74.75
480.532	98.75
480.751	89.75
480.969	85.75
481.188	85.75
481.406	81.75
481.624	90.75
481.843	95.75
482.061	92.75
482.28	72.75
482.498	75.75
482.717	89.75
482.935	91.75
483.153	82.75
483.372	93.75
483.59	77.75
483.808	88.75
484.027	90.75
484.245	84.75
484.463	80.75
484.681	97.75
484.9	89.75
485.118	82.75
485.336	99.75
485.554	103.75
485.772	77.75
485.99	82.75
486.209	73.75
486.427	81.75
486.645	91.75
486.863	93.75
487.081	81.75
487.299	81.75
487.517	78.75
487.735	86.75
487.953	94.75
488.171	82.75
488.389	65.75
488.607	79.75
488.825	90.75
489.043	82.75
489.261	85.75
489.479	95.75
489.696	85.75
489.914	82.75
490.132	83.75
490.35	86.75
490.568	77.75
490.786	83.75
491.003	95.75
491.221	82.75
491.439	98.75
491.657	78.75
491.874	96.75
492.092	86.75
492.31	96.75
492.527	96.75
492.745	94.75
492.963	93.75
493.18	90.75
493.398	91.75
493.615	95.75
493.833	90.75
494.05	83.75
494.268	85.75
494.485	87.75
494.703	89.75
494.92	76.75
495.138	93.75
495.355	95.75
495.573	77.75
495.79	91.75
496.008	89.75
496.225	85.75
496.442	98.75
496.66	107.75
496.877	91.75
497.094	87.75
497.312	82.75
497.529	88.75
497.746	93.75
497.963	98.75
498.181	77.75
498.398	79.75
498.615	94.75
498.832	78.75
499.049	90.75
499.267	75.75
499.484	87.75
499.701	89.75
499.918	86.75
500.135	71.75
500.352	90.75
500.569	78.75
500.786	92.75
501.003	89.75
501.22	79.75
501.437	79.75
501.654	72.75
501.871	88.75
502.088	77.75
502.305	85.75
502.522	93.75
502.739	94.75
502.956	87.75
503.172	74.75
503.389	67.75
503.606	91.75
503.823	86.75
504.04	88.75
504.256	92.75
504.473	82.75
504.69	83.75
504.907	80.75
505.123	93.75
505.34	63.75
505.557	92.75
505.773	93.75
505.99	102.75
506.207	97.75
506.423	81.75
506.64	68.75
506.856	85.75
507.073	88.75
507.289	83.75
507.506	94.75
507.722	81.75
507.939	83.75
508.155	89.75
508.372	79.75
508.588	87.75
508.805	96.75
509.021	89.75
509.238	76.75
509.454	83.75
509.67	81.75
509.887	70.75
510.103	89.75
510.319	90.75
510.536	81.75
510.752	87.75
510.968	74.75
511.184	87.75
511.401	84.75
511.617	92.75
511.833	87.75
512.049	85.75
512.265	92.75
512.481	74.75
512.698	94.75
512.914	90.75
513.13	80.75
513.346	94.75
513.562	82.75
513.778	87.75
513.994	83.75
514.21	75.75
514.426	90.75
514.642	71.75
514.858	76.75
515.074	76.75
515.29	89.75
515.506	90.75
515.721	92.75
515.937	94.75
516.153	98.75
516.369	76.75
516.585	84.75
516.801	79.75
517.016	76.75
517.232	90.75
517.448	85.75
517.664	79.75
517.879	73.75
518.095	86.75
518.311	85.75
518.527	79.75
518.742	88.75
518.958	81.75
519.173	87.75
519.389	93.75
519.605	86.75
519.82	89.75
520.036	78.75
