Data from BG_HRD10591_036.txt Node
Date: Fri May 16 15:21:12 EDT 2025
User: Yrep
Spectrometer: HR+D1059
Trigger mode: 1
Integration Time (sec): 1.000000E-1
Scans to average: 1
Electric dark correction enabled: true
Nonlinearity correction enabled: false
Boxcar width: 0
XAxis mode: Wavelengths
Number of Pixels in Spectrum: 2048
>>>>>Begin Spectral Data<<<<<
223.165	-15.75
223.4	-15.75
223.635	-15.75
223.869	-23.75
224.104	-22.75
224.338	-21.75
224.573	-16.75
224.808	-10.75
225.042	-11.75
225.277	-1.75
225.511	5.25
225.746	1.25
225.98	6.25
226.215	3.25
226.449	18.25
226.683	20.25
226.918	29.25
227.152	41.25
227.387	31.25
227.621	42.25
227.856	48.25
228.09	34.25
228.324	46.25
228.559	53.25
228.793	50.25
229.027	62.25
229.262	71.25
229.496	44.25
229.73	76.25
229.964	65.25
230.199	81.25
230.433	74.25
230.667	70.25
230.901	78.25
231.136	69.25
231.37	70.25
231.604	60.25
231.838	72.25
232.072	78.25
232.306	81.25
232.541	80.25
232.775	88.25
233.009	61.25
233.243	65.25
233.477	81.25
233.711	86.25
233.945	83.25
234.179	67.25
234.413	64.25
234.647	75.25
234.881	94.25
235.115	74.25
235.349	85.25
235.583	72.25
235.817	81.25
236.051	92.25
236.285	63.25
236.519	82.25
236.753	69.25
236.987	92.25
237.221	83.25
237.455	79.25
237.689	83.25
237.922	76.25
238.156	64.25
238.39	77.25
238.624	89.25
238.858	77.25
239.091	77.25
239.325	88.25
239.559	83.25
239.793	68.25
240.027	79.25
240.26	84.25
240.494	74.25
240.728	61.25
240.961	61.25
241.195	87.25
241.429	74.25
241.662	75.25
241.896	71.25
242.13	82.25
242.363	76.25
242.597	73.25
242.83	77.25
243.064	76.25
243.298	68.25
243.531	83.25
243.765	72.25
243.998	72.25
244.232	82.25
244.465	85.25
244.699	70.25
244.932	85.25
245.166	70.25
245.399	74.25
245.633	89.25
245.866	90.25
246.099	72.25
246.333	77.25
246.566	80.25
246.8	81.25
247.033	77.25
247.266	68.25
247.5	66.25
247.733	77.25
247.966	69.25
248.2	83.25
248.433	86.25
248.666	75.25
248.899	75.25
249.133	75.25
249.366	80.25
249.599	90.25
249.832	72.25
250.066	77.25
250.299	87.25
250.532	80.25
250.765	77.25
250.998	69.25
251.231	71.25
251.465	69.25
251.698	80.25
251.931	82.25
252.164	84.25
252.397	86.25
252.63	85.25
252.863	77.25
253.096	80.25
253.329	67.25
253.562	83.25
253.795	68.25
254.028	86.25
254.261	73.25
254.494	76.25
254.727	84.25
254.96	83.25
255.193	79.25
255.426	73.25
255.659	78.25
255.892	68.25
256.124	83.25
256.357	77.25
256.59	69.25
256.823	68.25
257.056	80.25
257.289	83.25
257.521	69.25
257.754	87.25
257.987	83.25
258.22	67.25
258.452	72.25
258.685	76.25
258.918	89.25
259.151	83.25
259.383	98.25
259.616	68.25
259.849	81.25
260.081	79.25
260.314	72.25
260.547	70.25
260.779	72.25
261.012	82.25
261.244	83.25
261.477	100.25
261.71	84.25
261.942	90.25
262.175	80.25
262.407	82.25
262.64	87.25
262.872	63.25
263.105	67.25
263.337	80.25
263.57	77.25
263.802	87.25
264.035	81.25
264.267	84.25
264.499	81.25
264.732	78.25
264.964	72.25
265.197	75.25
265.429	83.25
265.661	84.25
265.894	85.25
266.126	87.25
266.358	87.25
266.591	65.25
266.823	85.25
267.055	88.25
267.287	92.25
267.52	72.25
267.752	84.25
267.984	73.25
268.216	82.25
268.448	86.25
268.681	78.25
268.913	74.25
269.145	74.25
269.377	80.25
269.609	77.25
269.841	84.25
270.073	69.25
270.306	74.25
270.538	80.25
270.77	86.25
271.002	90.25
271.234	95.25
271.466	90.25
271.698	79.25
271.93	75.25
272.162	79.25
272.394	88.25
272.626	83.25
272.858	84.25
273.09	74.25
273.322	79.25
273.553	86.25
273.785	77.25
274.017	74.25
274.249	72.25
274.481	75.25
274.713	85.25
274.945	91.25
275.176	86.25
275.408	97.25
275.64	100.25
275.872	84.25
276.104	86.25
276.335	69.25
276.567	75.25
276.799	74.25
277.031	86.25
277.262	79.25
277.494	89.25
277.726	80.25
277.957	74.25
278.189	88.25
278.421	75.25
278.652	79.25
278.884	86.25
279.115	73.25
279.347	74.25
279.579	76.25
279.81	88.25
280.042	88.25
280.273	71.25
280.505	70.25
280.736	78.25
280.968	73.25
281.199	70.25
281.431	86.25
281.662	90.25
281.894	79.25
282.125	81.25
282.356	76.25
282.588	86.25
282.819	81.25
283.051	78.25
283.282	86.25
283.513	85.25
283.745	88.25
283.976	75.25
284.207	69.25
284.439	68.25
284.67	87.25
284.901	95.25
285.132	83.25
285.364	90.25
285.595	90.25
285.826	76.25
286.057	75.25
286.288	90.25
286.52	91.25
286.751	93.25
286.982	83.25
287.213	96.25
287.444	82.25
287.675	78.25
287.906	92.25
288.138	80.25
288.369	89.25
288.6	95.25
288.831	84.25
289.062	95.25
289.293	68.25
289.524	80.25
289.755	88.25
289.986	81.25
290.217	81.25
290.448	79.25
290.679	91.25
290.91	91.25
291.141	82.25
291.371	90.25
291.602	74.25
291.833	81.25
292.064	78.25
292.295	85.25
292.526	80.25
292.757	72.25
292.987	87.25
293.218	79.25
293.449	92.25
293.68	88.25
293.91	76.25
294.141	92.25
294.372	85.25
294.603	82.25
294.833	78.25
295.064	80.25
295.295	95.25
295.525	82.25
295.756	79.25
295.987	86.25
296.217	92.25
296.448	68.25
296.679	77.25
296.909	84.25
297.14	95.25
297.37	88.25
297.601	87.25
297.831	74.25
298.062	78.25
298.292	101.25
298.523	90.25
298.753	74.25
298.984	82.25
299.214	88.25
299.445	83.25
299.675	85.25
299.905	85.25
300.136	81.25
300.366	86.25
300.597	78.25
300.827	88.25
301.057	75.25
301.288	86.25
301.518	84.25
301.748	75.25
301.979	99.25
302.209	82.25
302.439	78.25
302.669	92.25
302.9	78.25
303.13	82.25
303.36	76.25
303.59	76.25
303.82	82.25
304.051	92.25
304.281	87.25
304.511	84.25
304.741	82.25
304.971	91.25
305.201	82.25
305.431	77.25
305.661	78.25
305.891	87.25
306.121	83.25
306.352	78.25
306.582	83.25
306.812	88.25
307.042	90.25
307.272	87.25
307.502	91.25
307.731	82.25
307.961	73.25
308.191	86.25
308.421	91.25
308.651	87.25
308.881	74.25
309.111	77.25
309.341	86.25
309.571	77.25
309.8	70.25
310.03	79.25
310.26	80.25
310.49	80.25
310.72	103.25
310.949	85.25
311.179	83.25
311.409	78.25
311.639	88.25
311.868	88.25
312.098	76.25
312.328	76.25
312.557	82.25
312.787	89.25
313.017	87.25
313.246	77.25
313.476	84.25
313.706	86.25
313.935	75.25
314.165	82.25
314.394	78.25
314.624	73.25
314.853	82.25
315.083	83.25
315.312	75.25
315.542	83.25
315.771	92.25
316.001	83.25
316.23	80.25
316.46	73.25
316.689	75.25
316.919	85.25
317.148	96.25
317.377	86.25
317.607	87.25
317.836	86.25
318.065	77.25
318.295	87.25
318.524	96.25
318.753	86.25
318.983	78.25
319.212	75.25
319.441	93.25
319.67	91.25
319.9	83.25
320.129	76.25
320.358	74.25
320.587	75.25
320.816	79.25
321.046	77.25
321.275	91.25
321.504	72.25
321.733	82.25
321.962	94.25
322.191	74.25
322.42	84.25
322.649	104.25
322.878	93.25
323.108	78.25
323.337	87.25
323.566	82.25
323.795	89.25
324.024	80.25
324.253	85.25
324.482	73.25
324.71	72.25
324.939	82.25
325.168	78.25
325.397	79.25
325.626	86.25
325.855	68.25
326.084	73.25
326.313	84.25
326.542	100.25
326.77	95.25
326.999	88.25
327.228	82.25
327.457	80.25
327.686	82.25
327.914	78.25
328.143	79.25
328.372	84.25
328.6	75.25
328.829	74.25
329.058	76.25
329.287	79.25
329.515	80.25
329.744	79.25
329.972	87.25
330.201	78.25
330.43	90.25
330.658	70.25
330.887	88.25
331.115	80.25
331.344	79.25
331.572	82.25
331.801	86.25
332.03	81.25
332.258	83.25
332.486	72.25
332.715	82.25
332.943	75.25
333.172	83.25
333.4	79.25
333.629	99.25
333.857	73.25
334.085	82.25
334.314	76.25
334.542	80.25
334.771	74.25
334.999	84.25
335.227	73.25
335.455	74.25
335.684	84.25
335.912	82.25
336.14	67.25
336.369	76.25
336.597	87.25
336.825	86.25
337.053	74.25
337.281	81.25
337.51	99.25
337.738	84.25
337.966	75.25
338.194	58.25
338.422	75.25
338.65	84.25
338.878	75.25
339.106	80.25
339.334	82.25
339.562	70.25
339.79	87.25
340.018	77.25
340.246	72.25
340.474	80.25
340.702	91.25
340.93	81.25
341.158	74.25
341.386	82.25
341.614	102.25
341.842	71.25
342.07	98.25
342.298	71.25
342.526	98.25
342.754	77.25
342.981	80.25
343.209	82.25
343.437	98.25
343.665	77.25
343.893	82.25
344.12	71.25
344.348	78.25
344.576	87.25
344.804	82.25
345.031	58.25
345.259	86.25
345.487	84.25
345.714	85.25
345.942	77.25
346.17	80.25
346.397	83.25
346.625	76.25
346.853	76.25
347.08	84.25
347.308	99.25
347.535	79.25
347.763	81.25
347.99	91.25
348.218	69.25
348.445	74.25
348.673	88.25
348.9	77.25
349.128	83.25
349.355	77.25
349.583	84.25
349.81	96.25
350.037	71.25
350.265	69.25
350.492	72.25
350.72	79.25
350.947	83.25
351.174	70.25
351.402	87.25
351.629	85.25
351.856	87.25
352.083	91.25
352.311	77.25
352.538	75.25
352.765	79.25
352.992	85.25
353.22	87.25
353.447	81.25
353.674	78.25
353.901	86.25
354.128	79.25
354.355	73.25
354.583	81.25
354.81	79.25
355.037	88.25
355.264	85.25
355.491	76.25
355.718	75.25
355.945	71.25
356.172	83.25
356.399	88.25
356.626	80.25
356.853	79.25
357.08	68.25
357.307	73.25
357.534	68.25
357.761	90.25
357.988	102.25
358.215	86.25
358.441	63.25
358.668	73.25
358.895	72.25
359.122	83.25
359.349	77.25
359.576	93.25
359.802	72.25
360.029	64.25
360.256	78.25
360.483	75.25
360.709	74.25
360.936	81.25
361.163	93.25
361.39	87.25
361.616	88.25
361.843	77.25
362.07	94.25
362.296	83.25
362.523	94.25
362.749	78.25
362.976	79.25
363.203	86.25
363.429	82.25
363.656	79.25
363.882	78.25
364.109	79.25
364.335	85.25
364.562	91.25
364.788	79.25
365.015	76.25
365.241	76.25
365.468	81.25
365.694	82.25
365.92	74.25
366.147	83.25
366.373	82.25
366.599	79.25
366.826	79.25
367.052	84.25
367.278	88.25
367.505	88.25
367.731	94.25
367.957	93.25
368.184	76.25
368.41	82.25
368.636	71.25
368.862	86.25
369.089	85.25
369.315	87.25
369.541	80.25
369.767	80.25
369.993	95.25
370.219	92.25
370.445	79.25
370.672	78.25
370.898	67.25
371.124	74.25
371.35	78.25
371.576	94.25
371.802	80.25
372.028	84.25
372.254	77.25
372.48	88.25
372.706	95.25
372.932	92.25
373.158	95.25
373.384	86.25
373.61	81.25
373.835	73.25
374.061	73.25
374.287	76.25
374.513	82.25
374.739	70.25
374.965	76.25
375.191	86.25
375.416	83.25
375.642	82.25
375.868	74.25
376.094	72.25
376.319	86.25
376.545	68.25
376.771	72.25
376.997	85.25
377.222	74.25
377.448	82.25
377.674	94.25
377.899	65.25
378.125	82.25
378.35	86.25
378.576	77.25
378.802	76.25
379.027	85.25
379.253	64.25
379.478	78.25
379.704	78.25
379.929	85.25
380.155	76.25
380.38	86.25
380.606	80.25
380.831	70.25
381.057	90.25
381.282	82.25
381.507	76.25
381.733	77.25
381.958	82.25
382.184	75.25
382.409	77.25
382.634	74.25
382.86	90.25
383.085	80.25
383.31	73.25
383.535	77.25
383.761	87.25
383.986	85.25
384.211	76.25
384.436	76.25
384.662	61.25
384.887	89.25
385.112	78.25
385.337	70.25
385.562	79.25
385.787	86.25
386.013	72.25
386.238	91.25
386.463	82.25
386.688	88.25
386.913	76.25
387.138	88.25
387.363	79.25
387.588	82.25
387.813	73.25
388.038	75.25
388.263	79.25
388.488	86.25
388.713	88.25
388.938	73.25
389.163	87.25
389.387	78.25
389.612	81.25
389.837	86.25
390.062	82.25
390.287	65.25
390.512	78.25
390.736	64.25
390.961	79.25
391.186	88.25
391.411	82.25
391.636	78.25
391.86	87.25
392.085	88.25
392.31	86.25
392.534	85.25
392.759	76.25
392.984	75.25
393.208	82.25
393.433	80.25
393.658	70.25
393.882	83.25
394.107	81.25
394.331	82.25
394.556	71.25
394.78	79.25
395.005	79.25
395.229	79.25
395.454	72.25
395.678	85.25
395.903	94.25
396.127	86.25
396.352	70.25
396.576	80.25
396.801	84.25
397.025	82.25
397.249	80.25
397.474	72.25
397.698	73.25
397.922	92.25
398.147	78.25
398.371	82.25
398.595	69.25
398.82	72.25
399.044	75.25
399.268	80.25
399.492	87.25
399.717	78.25
399.941	78.25
400.165	80.25
400.389	78.25
400.613	82.25
400.837	86.25
401.062	96.25
401.286	83.25
401.51	94.25
401.734	83.25
401.958	66.25
402.182	82.25
402.406	77.25
402.63	77.25
402.854	80.25
403.078	71.25
403.302	86.25
403.526	67.25
403.75	88.25
403.974	78.25
404.198	91.25
404.422	68.25
404.645	75.25
404.869	84.25
405.093	99.25
405.317	80.25
405.541	84.25
405.765	79.25
405.988	68.25
406.212	73.25
406.436	76.25
406.66	90.25
406.883	80.25
407.107	79.25
407.331	84.25
407.555	69.25
407.778	72.25
408.002	76.25
408.226	76.25
408.449	85.25
408.673	77.25
408.896	80.25
409.12	74.25
409.344	72.25
409.567	67.25
409.791	92.25
410.014	85.25
410.238	71.25
410.461	77.25
410.685	73.25
410.908	74.25
411.132	79.25
411.355	84.25
411.578	78.25
411.802	90.25
412.025	75.25
412.249	78.25
412.472	74.25
412.695	76.25
412.919	69.25
413.142	71.25
413.365	81.25
413.589	83.25
413.812	77.25
414.035	83.25
414.258	91.25
414.482	85.25
414.705	72.25
414.928	75.25
415.151	61.25
415.374	80.25
415.597	79.25
415.821	85.25
416.044	80.25
416.267	82.25
416.49	73.25
416.713	84.25
416.936	85.25
417.159	78.25
417.382	86.25
417.605	70.25
417.828	99.25
418.051	85.25
418.274	79.25
418.497	78.25
418.72	81.25
418.943	79.25
419.166	85.25
419.389	82.25
419.611	91.25
419.834	100.25
420.057	85.25
420.28	82.25
420.503	75.25
420.726	72.25
420.948	84.25
421.171	75.25
421.394	77.25
421.617	75.25
421.839	87.25
422.062	92.25
422.285	82.25
422.507	82.25
422.73	62.25
422.953	69.25
423.175	73.25
423.398	72.25
423.621	82.25
423.843	80.25
424.066	71.25
424.288	78.25
424.511	79.25
424.733	102.25
424.956	82.25
425.178	80.25
425.401	89.25
425.623	76.25
425.846	80.25
426.068	73.25
426.291	75.25
426.513	68.25
426.735	82.25
426.958	69.25
427.18	86.25
427.402	87.25
427.625	85.25
427.847	72.25
428.069	78.25
428.292	87.25
428.514	84.25
428.736	73.25
428.958	85.25
429.181	85.25
429.403	77.25
429.625	77.25
429.847	88.25
430.069	87.25
430.292	79.25
430.514	64.25
430.736	58.25
430.958	90.25
431.18	79.25
431.402	84.25
431.624	94.25
431.846	70.25
432.068	89.25
432.29	72.25
432.512	79.25
432.734	69.25
432.956	72.25
433.178	79.25
433.4	79.25
433.622	85.25
433.844	92.25
434.066	87.25
434.287	79.25
434.509	69.25
434.731	75.25
434.953	76.25
435.175	60.25
435.397	85.25
435.618	83.25
435.84	84.25
436.062	58.25
436.284	93.25
436.505	82.25
436.727	92.25
436.949	75.25
437.17	78.25
437.392	80.25
437.614	90.25
437.835	70.25
438.057	71.25
438.278	77.25
438.5	78.25
438.721	77.25
438.943	84.25
439.165	69.25
439.386	81.25
439.608	68.25
439.829	77.25
440.05	102.25
440.272	82.25
440.493	84.25
440.715	85.25
440.936	87.25
441.158	92.25
441.379	86.25
441.6	83.25
441.822	89.25
442.043	71.25
442.264	78.25
442.486	79.25
442.707	69.25
442.928	75.25
443.149	70.25
443.371	80.25
443.592	78.25
443.813	81.25
444.034	88.25
444.255	75.25
444.476	94.25
444.698	84.25
444.919	82.25
445.14	162.25
445.361	107.25
445.582	65.25
445.803	59.25
446.024	84.25
446.245	80.25
446.466	90.25
446.687	80.25
446.908	77.25
447.129	62.25
447.35	78.25
447.571	89.25
447.792	73.25
448.013	76.25
448.234	63.25
448.455	82.25
448.675	89.25
448.896	88.25
449.117	75.25
449.338	60.25
449.559	80.25
449.779	87.25
450	72.25
450.221	81.25
450.442	80.25
450.662	82.25
450.883	80.25
451.104	80.25
451.324	66.25
451.545	78.25
451.766	71.25
451.986	68.25
452.207	67.25
452.428	80.25
452.648	84.25
452.869	72.25
453.089	86.25
453.31	67.25
453.53	78.25
453.751	84.25
453.971	82.25
454.192	90.25
454.412	62.25
454.633	64.25
454.853	86.25
455.073	84.25
455.294	85.25
455.514	83.25
455.734	74.25
455.955	76.25
456.175	100.25
456.395	92.25
456.616	88.25
456.836	86.25
457.056	78.25
457.276	77.25
457.497	88.25
457.717	87.25
457.937	71.25
458.157	78.25
458.377	78.25
458.598	82.25
458.818	75.25
459.038	79.25
459.258	80.25
459.478	71.25
459.698	74.25
459.918	87.25
460.138	77.25
460.358	76.25
460.578	64.25
460.798	77.25
461.018	72.25
461.238	67.25
461.458	92.25
461.678	80.25
461.898	70.25
462.118	65.25
462.338	85.25
462.558	73.25
462.777	78.25
462.997	79.25
463.217	92.25
463.437	90.25
463.657	61.25
463.876	83.25
464.096	68.25
464.316	80.25
464.536	91.25
464.755	76.25
464.975	71.25
465.195	74.25
465.414	89.25
465.634	69.25
465.854	83.25
466.073	72.25
466.293	79.25
466.512	76.25
466.732	77.25
466.951	68.25
467.171	73.25
467.391	80.25
467.61	78.25
467.829	79.25
468.049	53.25
468.268	75.25
468.488	76.25
468.707	72.25
468.927	82.25
469.146	66.25
469.365	77.25
469.585	79.25
469.804	81.25
470.023	83.25
470.243	75.25
470.462	93.25
470.681	84.25
470.901	84.25
471.12	78.25
471.339	68.25
471.558	80.25
471.777	71.25
471.997	82.25
472.216	76.25
472.435	85.25
472.654	82.25
472.873	87.25
473.092	77.25
473.311	83.25
473.53	79.25
473.749	67.25
473.968	88.25
474.187	69.25
474.406	68.25
474.625	107.25
474.844	79.25
475.063	83.25
475.282	75.25
475.501	73.25
475.72	71.25
475.939	86.25
476.158	86.25
476.377	75.25
476.596	84.25
476.814	83.25
477.033	82.25
477.252	76.25
477.471	79.25
477.69	67.25
477.908	72.25
478.127	68.25
478.346	92.25
478.564	74.25
478.783	83.25
479.002	82.25
479.22	93.25
479.439	78.25
479.658	78.25
479.876	85.25
480.095	70.25
480.313	70.25
480.532	80.25
480.751	99.25
480.969	75.25
481.188	85.25
481.406	73.25
481.624	73.25
481.843	88.25
482.061	78.25
482.28	83.25
482.498	94.25
482.717	68.25
482.935	77.25
483.153	69.25
483.372	85.25
483.59	97.25
483.808	87.25
484.027	78.25
484.245	74.25
484.463	73.25
484.681	85.25
484.9	78.25
485.118	72.25
485.336	70.25
485.554	82.25
485.772	87.25
485.99	74.25
486.209	68.25
486.427	80.25
486.645	74.25
486.863	83.25
487.081	68.25
487.299	83.25
487.517	70.25
487.735	78.25
487.953	91.25
488.171	90.25
488.389	80.25
488.607	83.25
488.825	86.25
489.043	80.25
489.261	79.25
489.479	77.25
489.696	83.25
489.914	84.25
490.132	80.25
490.35	86.25
490.568	82.25
490.786	68.25
491.003	86.25
491.221	76.25
491.439	86.25
491.657	76.25
491.874	75.25
492.092	86.25
492.31	90.25
492.527	71.25
492.745	85.25
492.963	64.25
493.18	78.25
493.398	85.25
493.615	75.25
493.833	75.25
494.05	74.25
494.268	98.25
494.485	82.25
494.703	86.25
494.92	80.25
495.138	73.25
495.355	67.25
495.573	82.25
495.79	90.25
496.008	88.25
496.225	91.25
496.442	65.25
496.66	90.25
496.877	90.25
497.094	84.25
497.312	78.25
497.529	91.25
497.746	83.25
497.963	71.25
498.181	70.25
498.398	86.25
498.615	87.25
498.832	76.25
499.049	76.25
499.267	98.25
499.484	82.25
499.701	82.25
499.918	86.25
500.135	91.25
500.352	94.25
500.569	74.25
500.786	83.25
501.003	78.25
501.22	85.25
501.437	77.25
501.654	79.25
501.871	87.25
502.088	80.25
502.305	89.25
502.522	86.25
502.739	83.25
502.956	88.25
503.172	87.25
503.389	74.25
503.606	86.25
503.823	86.25
504.04	88.25
504.256	71.25
504.473	89.25
504.69	90.25
504.907	92.25
505.123	90.25
505.34	89.25
505.557	88.25
505.773	86.25
505.99	78.25
506.207	62.25
506.423	61.25
506.64	87.25
506.856	83.25
507.073	86.25
507.289	79.25
507.506	86.25
507.722	84.25
507.939	72.25
508.155	76.25
508.372	86.25
508.588	95.25
508.805	84.25
509.021	76.25
509.238	84.25
509.454	65.25
509.67	84.25
509.887	78.25
510.103	85.25
510.319	80.25
510.536	76.25
510.752	91.25
510.968	70.25
511.184	82.25
511.401	81.25
511.617	88.25
511.833	78.25
512.049	77.25
512.265	78.25
512.481	69.25
512.698	76.25
512.914	85.25
513.13	89.25
513.346	83.25
513.562	83.25
513.778	80.25
513.994	85.25
514.21	94.25
514.426	76.25
514.642	84.25
514.858	77.25
515.074	68.25
515.29	89.25
515.506	86.25
515.721	68.25
515.937	79.25
516.153	79.25
516.369	75.25
516.585	73.25
516.801	74.25
517.016	75.25
517.232	80.25
517.448	76.25
517.664	80.25
517.879	81.25
518.095	75.25
518.311	77.25
518.527	87.25
518.742	90.25
518.958	77.25
519.173	85.25
519.389	76.25
519.605	79.25
519.82	73.25
520.036	84.25
520.251	75.25
