Data from BG_HRD10591_070.txt Node
Date: Fri May 16 15:21:28 EDT 2025
User: Yrep
Spectrometer: HR+D1059
Trigger mode: 1
Integration Time (sec): 1.000000E-1
Scans to average: 1
Electric dark correction enabled: true
Nonlinearity correction enabled: false
Boxcar width: 0
XAxis mode: Wavelengths
Number of Pixels in Spectrum: 2048
>>>>>Begin Spectral Data<<<<<
223.165	-21.81
223.4	-21.81
223.635	-21.81
223.869	-11.81
224.104	-30.81
224.338	-7.81
224.573	-9.81
224.808	-15.81
225.042	-12.81
225.277	-0.81
225.511	6.19
225.746	-7.81
225.98	3.19
226.215	6.19
226.449	4.19
226.683	37.19
226.918	24.19
227.152	38.19
227.387	36.19
227.621	45.19
227.856	31.19
228.09	64.19
228.324	65.19
228.559	55.19
228.793	68.19
229.027	60.19
229.262	64.19
229.496	76.19
229.73	69.19
229.964	68.19
230.199	63.19
230.433	67.19
230.667	65.19
230.901	83.19
231.136	83.19
231.37	83.19
231.604	84.19
231.838	78.19
232.072	80.19
232.306	73.19
232.541	80.19
232.775	74.19
233.009	82.19
233.243	86.19
233.477	90.19
233.711	92.19
233.945	77.19
234.179	84.19
234.413	79.19
234.647	86.19
234.881	75.19
235.115	68.19
235.349	63.19
235.583	74.19
235.817	79.19
236.051	70.19
236.285	71.19
236.519	89.19
236.753	77.19
236.987	88.19
237.221	74.19
237.455	76.19
237.689	75.19
237.922	78.19
238.156	74.19
238.39	76.19
238.624	68.19
238.858	86.19
239.091	77.19
239.325	88.19
239.559	74.19
239.793	78.19
240.027	77.19
240.26	70.19
240.494	67.19
240.728	72.19
240.961	65.19
241.195	77.19
241.429	75.19
241.662	80.19
241.896	72.19
242.13	66.19
242.363	62.19
242.597	84.19
242.83	83.19
243.064	70.19
243.298	62.19
243.531	72.19
243.765	87.19
243.998	72.19
244.232	84.19
244.465	82.19
244.699	71.19
244.932	67.19
245.166	71.19
245.399	75.19
245.633	73.19
245.866	74.19
246.099	75.19
246.333	69.19
246.566	68.19
246.8	68.19
247.033	71.19
247.266	87.19
247.5	67.19
247.733	69.19
247.966	76.19
248.2	81.19
248.433	62.19
248.666	75.19
248.899	63.19
249.133	72.19
249.366	73.19
249.599	73.19
249.832	89.19
250.066	71.19
250.299	66.19
250.532	72.19
250.765	82.19
250.998	73.19
251.231	74.19
251.465	77.19
251.698	83.19
251.931	79.19
252.164	88.19
252.397	98.19
252.63	89.19
252.863	64.19
253.096	84.19
253.329	86.19
253.562	77.19
253.795	74.19
254.028	75.19
254.261	86.19
254.494	69.19
254.727	82.19
254.96	76.19
255.193	85.19
255.426	70.19
255.659	73.19
255.892	78.19
256.124	78.19
256.357	90.19
256.59	90.19
256.823	76.19
257.056	77.19
257.289	82.19
257.521	63.19
257.754	100.19
257.987	92.19
258.22	66.19
258.452	77.19
258.685	80.19
258.918	93.19
259.151	79.19
259.383	86.19
259.616	87.19
259.849	73.19
260.081	92.19
260.314	87.19
260.547	91.19
260.779	78.19
261.012	69.19
261.244	80.19
261.477	101.19
261.71	75.19
261.942	80.19
262.175	95.19
262.407	75.19
262.64	77.19
262.872	89.19
263.105	80.19
263.337	70.19
263.57	79.19
263.802	75.19
264.035	76.19
264.267	81.19
264.499	83.19
264.732	83.19
264.964	68.19
265.197	68.19
265.429	78.19
265.661	86.19
265.894	76.19
266.126	75.19
266.358	87.19
266.591	73.19
266.823	83.19
267.055	84.19
267.287	77.19
267.52	80.19
267.752	91.19
267.984	93.19
268.216	71.19
268.448	70.19
268.681	88.19
268.913	86.19
269.145	79.19
269.377	86.19
269.609	89.19
269.841	74.19
270.073	82.19
270.306	84.19
270.538	91.19
270.77	85.19
271.002	84.19
271.234	79.19
271.466	79.19
271.698	77.19
271.93	85.19
272.162	87.19
272.394	68.19
272.626	79.19
272.858	82.19
273.09	93.19
273.322	71.19
273.553	83.19
273.785	60.19
274.017	76.19
274.249	91.19
274.481	91.19
274.713	93.19
274.945	75.19
275.176	85.19
275.408	83.19
275.64	95.19
275.872	88.19
276.104	95.19
276.335	85.19
276.567	90.19
276.799	74.19
277.031	77.19
277.262	89.19
277.494	88.19
277.726	84.19
277.957	69.19
278.189	78.19
278.421	71.19
278.652	79.19
278.884	76.19
279.115	94.19
279.347	88.19
279.579	67.19
279.81	88.19
280.042	94.19
280.273	77.19
280.505	98.19
280.736	77.19
280.968	85.19
281.199	77.19
281.431	80.19
281.662	85.19
281.894	81.19
282.125	74.19
282.356	80.19
282.588	80.19
282.819	89.19
283.051	82.19
283.282	72.19
283.513	83.19
283.745	75.19
283.976	77.19
284.207	92.19
284.439	91.19
284.67	87.19
284.901	86.19
285.132	84.19
285.364	88.19
285.595	87.19
285.826	90.19
286.057	92.19
286.288	88.19
286.52	75.19
286.751	78.19
286.982	65.19
287.213	86.19
287.444	88.19
287.675	83.19
287.906	78.19
288.138	86.19
288.369	82.19
288.6	91.19
288.831	95.19
289.062	80.19
289.293	88.19
289.524	77.19
289.755	81.19
289.986	71.19
290.217	74.19
290.448	85.19
290.679	90.19
290.91	89.19
291.141	90.19
291.371	89.19
291.602	82.19
291.833	80.19
292.064	82.19
292.295	94.19
292.526	93.19
292.757	92.19
292.987	79.19
293.218	79.19
293.449	84.19
293.68	99.19
293.91	88.19
294.141	83.19
294.372	95.19
294.603	96.19
294.833	77.19
295.064	86.19
295.295	80.19
295.525	75.19
295.756	90.19
295.987	72.19
296.217	82.19
296.448	82.19
296.679	85.19
296.909	93.19
297.14	85.19
297.37	82.19
297.601	83.19
297.831	90.19
298.062	74.19
298.292	84.19
298.523	88.19
298.753	72.19
298.984	86.19
299.214	92.19
299.445	91.19
299.675	74.19
299.905	88.19
300.136	91.19
300.366	75.19
300.597	82.19
300.827	74.19
301.057	96.19
301.288	75.19
301.518	90.19
301.748	70.19
301.979	109.19
302.209	84.19
302.439	82.19
302.669	83.19
302.9	93.19
303.13	79.19
303.36	93.19
303.59	108.19
303.82	90.19
304.051	78.19
304.281	92.19
304.511	68.19
304.741	78.19
304.971	91.19
305.201	88.19
305.431	76.19
305.661	82.19
305.891	75.19
306.121	96.19
306.352	86.19
306.582	89.19
306.812	83.19
307.042	102.19
307.272	96.19
307.502	82.19
307.731	83.19
307.961	84.19
308.191	91.19
308.421	86.19
308.651	73.19
308.881	83.19
309.111	82.19
309.341	77.19
309.571	85.19
309.8	92.19
310.03	81.19
310.26	87.19
310.49	72.19
310.72	89.19
310.949	86.19
311.179	75.19
311.409	71.19
311.639	79.19
311.868	85.19
312.098	86.19
312.328	95.19
312.557	90.19
312.787	68.19
313.017	93.19
313.246	88.19
313.476	87.19
313.706	80.19
313.935	81.19
314.165	84.19
314.394	83.19
314.624	92.19
314.853	69.19
315.083	90.19
315.312	86.19
315.542	86.19
315.771	75.19
316.001	91.19
316.23	83.19
316.46	76.19
316.689	94.19
316.919	72.19
317.148	83.19
317.377	95.19
317.607	79.19
317.836	83.19
318.065	92.19
318.295	82.19
318.524	95.19
318.753	84.19
318.983	77.19
319.212	82.19
319.441	79.19
319.67	94.19
319.9	83.19
320.129	100.19
320.358	95.19
320.587	79.19
320.816	74.19
321.046	53.19
321.275	94.19
321.504	75.19
321.733	78.19
321.962	84.19
322.191	88.19
322.42	93.19
322.649	87.19
322.878	83.19
323.108	89.19
323.337	94.19
323.566	78.19
323.795	83.19
324.024	81.19
324.253	83.19
324.482	96.19
324.71	72.19
324.939	92.19
325.168	93.19
325.397	94.19
325.626	94.19
325.855	91.19
326.084	88.19
326.313	87.19
326.542	90.19
326.77	84.19
326.999	83.19
327.228	93.19
327.457	90.19
327.686	101.19
327.914	100.19
328.143	82.19
328.372	90.19
328.6	92.19
328.829	94.19
329.058	88.19
329.287	74.19
329.515	82.19
329.744	83.19
329.972	80.19
330.201	87.19
330.43	84.19
330.658	102.19
330.887	80.19
331.115	93.19
331.344	94.19
331.572	89.19
331.801	79.19
332.03	86.19
332.258	89.19
332.486	91.19
332.715	91.19
332.943	95.19
333.172	77.19
333.4	87.19
333.629	86.19
333.857	93.19
334.085	81.19
334.314	95.19
334.542	75.19
334.771	86.19
334.999	86.19
335.227	83.19
335.455	79.19
335.684	93.19
335.912	87.19
336.14	70.19
336.369	88.19
336.597	82.19
336.825	83.19
337.053	82.19
337.281	89.19
337.51	87.19
337.738	86.19
337.966	91.19
338.194	86.19
338.422	79.19
338.65	105.19
338.878	88.19
339.106	88.19
339.334	93.19
339.562	71.19
339.79	79.19
340.018	85.19
340.246	79.19
340.474	89.19
340.702	77.19
340.93	69.19
341.158	77.19
341.386	78.19
341.614	78.19
341.842	74.19
342.07	85.19
342.298	86.19
342.526	84.19
342.754	90.19
342.981	97.19
343.209	94.19
343.437	92.19
343.665	92.19
343.893	85.19
344.12	95.19
344.348	92.19
344.576	98.19
344.804	97.19
345.031	94.19
345.259	77.19
345.487	90.19
345.714	91.19
345.942	92.19
346.17	90.19
346.397	78.19
346.625	88.19
346.853	85.19
347.08	77.19
347.308	75.19
347.535	83.19
347.763	89.19
347.99	93.19
348.218	86.19
348.445	88.19
348.673	85.19
348.9	87.19
349.128	70.19
349.355	82.19
349.583	76.19
349.81	80.19
350.037	96.19
350.265	89.19
350.492	98.19
350.72	81.19
350.947	78.19
351.174	87.19
351.402	88.19
351.629	93.19
351.856	98.19
352.083	76.19
352.311	78.19
352.538	75.19
352.765	74.19
352.992	103.19
353.22	71.19
353.447	78.19
353.674	94.19
353.901	91.19
354.128	114.19
354.355	94.19
354.583	83.19
354.81	86.19
355.037	81.19
355.264	80.19
355.491	76.19
355.718	79.19
355.945	77.19
356.172	84.19
356.399	78.19
356.626	77.19
356.853	72.19
357.08	79.19
357.307	85.19
357.534	82.19
357.761	87.19
357.988	86.19
358.215	83.19
358.441	83.19
358.668	82.19
358.895	94.19
359.122	92.19
359.349	106.19
359.576	79.19
359.802	68.19
360.029	77.19
360.256	83.19
360.483	78.19
360.709	77.19
360.936	93.19
361.163	92.19
361.39	88.19
361.616	85.19
361.843	80.19
362.07	82.19
362.296	84.19
362.523	79.19
362.749	76.19
362.976	73.19
363.203	71.19
363.429	78.19
363.656	79.19
363.882	82.19
364.109	90.19
364.335	76.19
364.562	87.19
364.788	82.19
365.015	80.19
365.241	93.19
365.468	79.19
365.694	94.19
365.92	84.19
366.147	91.19
366.373	83.19
366.599	87.19
366.826	85.19
367.052	82.19
367.278	96.19
367.505	87.19
367.731	82.19
367.957	83.19
368.184	99.19
368.41	84.19
368.636	85.19
368.862	89.19
369.089	68.19
369.315	84.19
369.541	80.19
369.767	79.19
369.993	91.19
370.219	100.19
370.445	77.19
370.672	83.19
370.898	85.19
371.124	88.19
371.35	73.19
371.576	70.19
371.802	66.19
372.028	76.19
372.254	72.19
372.48	74.19
372.706	94.19
372.932	99.19
373.158	94.19
373.384	84.19
373.61	79.19
373.835	80.19
374.061	90.19
374.287	85.19
374.513	99.19
374.739	76.19
374.965	82.19
375.191	86.19
375.416	80.19
375.642	84.19
375.868	101.19
376.094	84.19
376.319	81.19
376.545	95.19
376.771	94.19
376.997	95.19
377.222	85.19
377.448	84.19
377.674	88.19
377.899	86.19
378.125	86.19
378.35	89.19
378.576	74.19
378.802	80.19
379.027	78.19
379.253	97.19
379.478	87.19
379.704	75.19
379.929	77.19
380.155	84.19
380.38	83.19
380.606	85.19
380.831	86.19
381.057	85.19
381.282	94.19
381.507	84.19
381.733	91.19
381.958	91.19
382.184	72.19
382.409	88.19
382.634	92.19
382.86	78.19
383.085	93.19
383.31	82.19
383.535	83.19
383.761	75.19
383.986	82.19
384.211	85.19
384.436	85.19
384.662	91.19
384.887	87.19
385.112	80.19
385.337	77.19
385.562	73.19
385.787	77.19
386.013	72.19
386.238	87.19
386.463	91.19
386.688	87.19
386.913	83.19
387.138	94.19
387.363	68.19
387.588	83.19
387.813	94.19
388.038	88.19
388.263	95.19
388.488	91.19
388.713	87.19
388.938	85.19
389.163	91.19
389.387	101.19
389.612	75.19
389.837	83.19
390.062	69.19
390.287	85.19
390.512	98.19
390.736	87.19
390.961	83.19
391.186	72.19
391.411	92.19
391.636	89.19
391.86	76.19
392.085	75.19
392.31	88.19
392.534	82.19
392.759	83.19
392.984	79.19
393.208	76.19
393.433	77.19
393.658	74.19
393.882	80.19
394.107	71.19
394.331	86.19
394.556	89.19
394.78	88.19
395.005	69.19
395.229	91.19
395.454	91.19
395.678	91.19
395.903	67.19
396.127	100.19
396.352	88.19
396.576	93.19
396.801	76.19
397.025	78.19
397.249	89.19
397.474	90.19
397.698	76.19
397.922	86.19
398.147	82.19
398.371	85.19
398.595	92.19
398.82	85.19
399.044	75.19
399.268	101.19
399.492	92.19
399.717	80.19
399.941	89.19
400.165	90.19
400.389	82.19
400.613	87.19
400.837	91.19
401.062	91.19
401.286	100.19
401.51	96.19
401.734	82.19
401.958	83.19
402.182	82.19
402.406	75.19
402.63	92.19
402.854	76.19
403.078	79.19
403.302	88.19
403.526	102.19
403.75	80.19
403.974	91.19
404.198	91.19
404.422	83.19
404.645	82.19
404.869	87.19
405.093	87.19
405.317	74.19
405.541	80.19
405.765	72.19
405.988	78.19
406.212	91.19
406.436	79.19
406.66	88.19
406.883	87.19
407.107	94.19
407.331	82.19
407.555	81.19
407.778	75.19
408.002	89.19
408.226	78.19
408.449	74.19
408.673	74.19
408.896	83.19
409.12	75.19
409.344	89.19
409.567	82.19
409.791	79.19
410.014	74.19
410.238	84.19
410.461	80.19
410.685	84.19
410.908	89.19
411.132	85.19
411.355	92.19
411.578	78.19
411.802	82.19
412.025	79.19
412.249	88.19
412.472	77.19
412.695	81.19
412.919	92.19
413.142	76.19
413.365	71.19
413.589	83.19
413.812	76.19
414.035	87.19
414.258	77.19
414.482	83.19
414.705	87.19
414.928	101.19
415.151	86.19
415.374	94.19
415.597	83.19
415.821	73.19
416.044	86.19
416.267	101.19
416.49	89.19
416.713	81.19
416.936	96.19
417.159	90.19
417.382	87.19
417.605	94.19
417.828	85.19
418.051	79.19
418.274	90.19
418.497	79.19
418.72	81.19
418.943	85.19
419.166	86.19
419.389	88.19
419.611	90.19
419.834	82.19
420.057	99.19
420.28	87.19
420.503	82.19
420.726	74.19
420.948	91.19
421.171	79.19
421.394	93.19
421.617	82.19
421.839	83.19
422.062	94.19
422.285	75.19
422.507	89.19
422.73	83.19
422.953	94.19
423.175	92.19
423.398	76.19
423.621	95.19
423.843	92.19
424.066	91.19
424.288	88.19
424.511	72.19
424.733	82.19
424.956	89.19
425.178	94.19
425.401	79.19
425.623	86.19
425.846	80.19
426.068	82.19
426.291	73.19
426.513	84.19
426.735	84.19
426.958	79.19
427.18	92.19
427.402	78.19
427.625	88.19
427.847	70.19
428.069	98.19
428.292	88.19
428.514	83.19
428.736	84.19
428.958	87.19
429.181	79.19
429.403	82.19
429.625	88.19
429.847	77.19
430.069	90.19
430.292	72.19
430.514	80.19
430.736	88.19
430.958	84.19
431.18	94.19
431.402	82.19
431.624	92.19
431.846	81.19
432.068	80.19
432.29	76.19
432.512	90.19
432.734	74.19
432.956	82.19
433.178	85.19
433.4	88.19
433.622	90.19
433.844	88.19
434.066	80.19
434.287	83.19
434.509	85.19
434.731	86.19
434.953	90.19
435.175	70.19
435.397	54.19
435.618	79.19
435.84	72.19
436.062	87.19
436.284	66.19
436.505	91.19
436.727	77.19
436.949	74.19
437.17	77.19
437.392	85.19
437.614	75.19
437.835	80.19
438.057	92.19
438.278	79.19
438.5	72.19
438.721	87.19
438.943	90.19
439.165	90.19
439.386	81.19
439.608	95.19
439.829	88.19
440.05	91.19
440.272	76.19
440.493	91.19
440.715	87.19
440.936	88.19
441.158	84.19
441.379	92.19
441.6	84.19
441.822	85.19
442.043	105.19
442.264	87.19
442.486	75.19
442.707	92.19
442.928	96.19
443.149	82.19
443.371	75.19
443.592	85.19
443.813	93.19
444.034	88.19
444.255	81.19
444.476	85.19
444.698	86.19
444.919	90.19
445.14	151.19
445.361	108.19
445.582	82.19
445.803	81.19
446.024	67.19
446.245	100.19
446.466	85.19
446.687	90.19
446.908	84.19
447.129	94.19
447.35	72.19
447.571	88.19
447.792	82.19
448.013	84.19
448.234	100.19
448.455	91.19
448.675	80.19
448.896	68.19
449.117	89.19
449.338	90.19
449.559	85.19
449.779	79.19
450	76.19
450.221	77.19
450.442	79.19
450.662	70.19
450.883	78.19
451.104	96.19
451.324	90.19
451.545	77.19
451.766	74.19
451.986	76.19
452.207	74.19
452.428	72.19
452.648	83.19
452.869	81.19
453.089	77.19
453.31	91.19
453.53	80.19
453.751	84.19
453.971	87.19
454.192	83.19
454.412	77.19
454.633	82.19
454.853	93.19
455.073	88.19
455.294	83.19
455.514	84.19
455.734	91.19
455.955	91.19
456.175	75.19
456.395	76.19
456.616	93.19
456.836	74.19
457.056	68.19
457.276	77.19
457.497	68.19
457.717	77.19
457.937	90.19
458.157	89.19
458.377	73.19
458.598	102.19
458.818	87.19
459.038	78.19
459.258	86.19
459.478	69.19
459.698	81.19
459.918	98.19
460.138	85.19
460.358	98.19
460.578	75.19
460.798	86.19
461.018	84.19
461.238	81.19
461.458	87.19
461.678	89.19
461.898	80.19
462.118	85.19
462.338	82.19
462.558	103.19
462.777	83.19
462.997	93.19
463.217	98.19
463.437	90.19
463.657	90.19
463.876	77.19
464.096	80.19
464.316	83.19
464.536	88.19
464.755	90.19
464.975	92.19
465.195	87.19
465.414	95.19
465.634	72.19
465.854	96.19
466.073	70.19
466.293	77.19
466.512	77.19
466.732	90.19
466.951	74.19
467.171	78.19
467.391	79.19
467.61	96.19
467.829	89.19
468.049	95.19
468.268	91.19
468.488	78.19
468.707	86.19
468.927	79.19
469.146	83.19
469.365	94.19
469.585	88.19
469.804	84.19
470.023	76.19
470.243	85.19
470.462	75.19
470.681	85.19
470.901	89.19
471.12	90.19
471.339	73.19
471.558	74.19
471.777	92.19
471.997	101.19
472.216	89.19
472.435	80.19
472.654	63.19
472.873	95.19
473.092	89.19
473.311	102.19
473.53	74.19
473.749	83.19
473.968	90.19
474.187	77.19
474.406	88.19
474.625	87.19
474.844	83.19
475.063	87.19
475.282	80.19
475.501	70.19
475.72	84.19
475.939	86.19
476.158	94.19
476.377	94.19
476.596	84.19
476.814	71.19
477.033	74.19
477.252	101.19
477.471	91.19
477.69	93.19
477.908	75.19
478.127	90.19
478.346	74.19
478.564	76.19
478.783	86.19
479.002	76.19
479.22	89.19
479.439	86.19
479.658	91.19
479.876	94.19
480.095	82.19
480.313	90.19
480.532	80.19
480.751	90.19
480.969	87.19
481.188	82.19
481.406	83.19
481.624	92.19
481.843	85.19
482.061	77.19
482.28	92.19
482.498	70.19
482.717	83.19
482.935	89.19
483.153	80.19
483.372	87.19
483.59	90.19
483.808	88.19
484.027	82.19
484.245	76.19
484.463	66.19
484.681	91.19
484.9	82.19
485.118	84.19
485.336	89.19
485.554	98.19
485.772	79.19
485.99	82.19
486.209	88.19
486.427	78.19
486.645	84.19
486.863	84.19
487.081	70.19
487.299	79.19
487.517	84.19
487.735	79.19
487.953	79.19
488.171	66.19
488.389	65.19
488.607	82.19
488.825	70.19
489.043	83.19
489.261	91.19
489.479	86.19
489.696	81.19
489.914	85.19
490.132	91.19
490.35	87.19
490.568	85.19
490.786	87.19
491.003	95.19
491.221	80.19
491.439	76.19
491.657	85.19
491.874	81.19
492.092	86.19
492.31	70.19
492.527	87.19
492.745	73.19
492.963	78.19
493.18	87.19
493.398	86.19
493.615	98.19
493.833	78.19
494.05	74.19
494.268	77.19
494.485	77.19
494.703	88.19
494.92	80.19
495.138	79.19
495.355	83.19
495.573	100.19
495.79	63.19
496.008	79.19
496.225	75.19
496.442	89.19
496.66	88.19
496.877	85.19
497.094	92.19
497.312	92.19
497.529	74.19
497.746	68.19
497.963	92.19
498.181	67.19
498.398	68.19
498.615	95.19
498.832	74.19
499.049	88.19
499.267	117.19
499.484	82.19
499.701	87.19
499.918	88.19
500.135	88.19
500.352	106.19
500.569	88.19
500.786	94.19
501.003	111.19
501.22	98.19
501.437	91.19
501.654	108.19
501.871	90.19
502.088	94.19
502.305	101.19
502.522	109.19
502.739	105.19
502.956	92.19
503.172	100.19
503.389	78.19
503.606	96.19
503.823	84.19
504.04	72.19
504.256	92.19
504.473	90.19
504.69	87.19
504.907	91.19
505.123	78.19
505.34	83.19
505.557	84.19
505.773	83.19
505.99	77.19
506.207	93.19
506.423	96.19
506.64	90.19
506.856	75.19
507.073	86.19
507.289	83.19
507.506	86.19
507.722	83.19
507.939	84.19
508.155	87.19
508.372	80.19
508.588	87.19
508.805	90.19
509.021	75.19
509.238	83.19
509.454	79.19
509.67	87.19
509.887	88.19
510.103	86.19
510.319	84.19
510.536	96.19
510.752	86.19
510.968	80.19
511.184	81.19
511.401	88.19
511.617	89.19
511.833	83.19
512.049	70.19
512.265	75.19
512.481	83.19
512.698	77.19
512.914	97.19
513.13	84.19
513.346	79.19
513.562	86.19
513.778	89.19
513.994	80.19
514.21	78.19
514.426	72.19
514.642	82.19
514.858	78.19
515.074	86.19
515.29	90.19
515.506	82.19
515.721	80.19
515.937	82.19
516.153	84.19
516.369	90.19
516.585	99.19
516.801	83.19
517.016	95.19
517.232	88.19
517.448	83.19
517.664	86.19
517.879	78.19
518.095	70.19
518.311	89.19
518.527	95.19
518.742	83.19
518.958	88.19
519.173	80.19
519.389	86.19
519.605	86.19
519.82	85.19
