Data from BG_HRD10591_082.txt Node
Date: Fri May 16 15:21:34 EDT 2025
User: Yrep
Spectrometer: HR+D1059
Trigger mode: 1
Integration Time (sec): 1.000000E-1
Scans to average: 1
Electric dark correction enabled: true
Nonlinearity correction enabled: false
Boxcar width: 0
XAxis mode: Wavelengths
Number of Pixels in Spectrum: 2048
>>>>>Begin Spectral Data<<<<<
223.165	-20.31
223.4	-20.31
223.635	-20.31
223.869	-28.31
224.104	-26.31
224.338	-11.31
224.573	-21.31
224.808	-11.31
225.042	-12.31
225.277	-3.31
225.511	2.69
225.746	7.69
225.98	8.69
226.215	6.69
226.449	21.69
226.683	36.69
226.918	19.69
227.152	30.69
227.387	23.69
227.621	34.69
227.856	41.69
228.09	63.69
228.324	35.69
228.559	50.69
228.793	64.69
229.027	55.69
229.262	60.69
229.496	68.69
229.73	69.69
229.964	84.69
230.199	64.69
230.433	63.69
230.667	83.69
230.901	74.69
231.136	79.69
231.37	70.69
231.604	82.69
231.838	61.69
232.072	72.69
232.306	71.69
232.541	64.69
232.775	67.69
233.009	80.69
233.243	82.69
233.477	77.69
233.711	75.69
233.945	73.69
234.179	82.69
234.413	79.69
234.647	86.69
234.881	76.69
235.115	84.69
235.349	78.69
235.583	82.69
235.817	73.69
236.051	75.69
236.285	66.69
236.519	84.69
236.753	80.69
236.987	66.69
237.221	76.69
237.455	69.69
237.689	63.69
237.922	80.69
238.156	95.69
238.39	59.69
238.624	78.69
238.858	60.69
239.091	63.69
239.325	59.69
239.559	68.69
239.793	85.69
240.027	87.69
240.26	67.69
240.494	81.69
240.728	64.69
240.961	74.69
241.195	69.69
241.429	80.69
241.662	69.69
241.896	64.69
242.13	79.69
242.363	75.69
242.597	66.69
242.83	73.69
243.064	68.69
243.298	73.69
243.531	74.69
243.765	80.69
243.998	75.69
244.232	80.69
244.465	83.69
244.699	68.69
244.932	80.69
245.166	59.69
245.399	79.69
245.633	80.69
245.866	74.69
246.099	76.69
246.333	79.69
246.566	72.69
246.8	72.69
247.033	90.69
247.266	64.69
247.5	75.69
247.733	88.69
247.966	85.69
248.2	94.69
248.433	83.69
248.666	77.69
248.899	77.69
249.133	73.69
249.366	88.69
249.599	88.69
249.832	71.69
250.066	81.69
250.299	84.69
250.532	69.69
250.765	76.69
250.998	91.69
251.231	87.69
251.465	74.69
251.698	79.69
251.931	76.69
252.164	80.69
252.397	78.69
252.63	81.69
252.863	74.69
253.096	86.69
253.329	78.69
253.562	83.69
253.795	80.69
254.028	76.69
254.261	80.69
254.494	71.69
254.727	69.69
254.96	81.69
255.193	71.69
255.426	79.69
255.659	75.69
255.892	90.69
256.124	80.69
256.357	83.69
256.59	81.69
256.823	68.69
257.056	86.69
257.289	68.69
257.521	71.69
257.754	65.69
257.987	80.69
258.22	76.69
258.452	85.69
258.685	75.69
258.918	79.69
259.151	79.69
259.383	82.69
259.616	93.69
259.849	77.69
260.081	78.69
260.314	83.69
260.547	92.69
260.779	95.69
261.012	99.69
261.244	85.69
261.477	72.69
261.71	81.69
261.942	89.69
262.175	97.69
262.407	83.69
262.64	78.69
262.872	77.69
263.105	83.69
263.337	76.69
263.57	75.69
263.802	87.69
264.035	77.69
264.267	83.69
264.499	80.69
264.732	88.69
264.964	87.69
265.197	75.69
265.429	79.69
265.661	76.69
265.894	80.69
266.126	73.69
266.358	83.69
266.591	76.69
266.823	81.69
267.055	88.69
267.287	82.69
267.52	87.69
267.752	92.69
267.984	80.69
268.216	82.69
268.448	87.69
268.681	88.69
268.913	74.69
269.145	89.69
269.377	88.69
269.609	78.69
269.841	80.69
270.073	84.69
270.306	73.69
270.538	80.69
270.77	88.69
271.002	81.69
271.234	84.69
271.466	81.69
271.698	73.69
271.93	89.69
272.162	86.69
272.394	76.69
272.626	73.69
272.858	75.69
273.09	86.69
273.322	75.69
273.553	83.69
273.785	80.69
274.017	83.69
274.249	75.69
274.481	73.69
274.713	81.69
274.945	79.69
275.176	80.69
275.408	80.69
275.64	85.69
275.872	83.69
276.104	87.69
276.335	92.69
276.567	91.69
276.799	73.69
277.031	83.69
277.262	71.69
277.494	105.69
277.726	82.69
277.957	80.69
278.189	83.69
278.421	92.69
278.652	70.69
278.884	89.69
279.115	89.69
279.347	82.69
279.579	72.69
279.81	79.69
280.042	77.69
280.273	67.69
280.505	87.69
280.736	94.69
280.968	87.69
281.199	96.69
281.431	77.69
281.662	83.69
281.894	87.69
282.125	92.69
282.356	79.69
282.588	69.69
282.819	89.69
283.051	71.69
283.282	74.69
283.513	81.69
283.745	84.69
283.976	81.69
284.207	79.69
284.439	89.69
284.67	95.69
284.901	81.69
285.132	88.69
285.364	97.69
285.595	91.69
285.826	72.69
286.057	85.69
286.288	88.69
286.52	79.69
286.751	91.69
286.982	79.69
287.213	86.69
287.444	68.69
287.675	93.69
287.906	86.69
288.138	79.69
288.369	78.69
288.6	79.69
288.831	84.69
289.062	88.69
289.293	87.69
289.524	91.69
289.755	90.69
289.986	92.69
290.217	94.69
290.448	92.69
290.679	60.69
290.91	91.69
291.141	78.69
291.371	77.69
291.602	88.69
291.833	98.69
292.064	81.69
292.295	88.69
292.526	96.69
292.757	79.69
292.987	83.69
293.218	80.69
293.449	83.69
293.68	77.69
293.91	93.69
294.141	82.69
294.372	79.69
294.603	76.69
294.833	74.69
295.064	94.69
295.295	91.69
295.525	88.69
295.756	89.69
295.987	84.69
296.217	96.69
296.448	87.69
296.679	93.69
296.909	85.69
297.14	93.69
297.37	88.69
297.601	74.69
297.831	94.69
298.062	94.69
298.292	96.69
298.523	83.69
298.753	87.69
298.984	83.69
299.214	78.69
299.445	87.69
299.675	101.69
299.905	95.69
300.136	73.69
300.366	95.69
300.597	83.69
300.827	89.69
301.057	83.69
301.288	95.69
301.518	92.69
301.748	88.69
301.979	89.69
302.209	94.69
302.439	84.69
302.669	94.69
302.9	94.69
303.13	87.69
303.36	95.69
303.59	100.69
303.82	83.69
304.051	87.69
304.281	94.69
304.511	83.69
304.741	69.69
304.971	81.69
305.201	91.69
305.431	81.69
305.661	87.69
305.891	71.69
306.121	95.69
306.352	74.69
306.582	88.69
306.812	83.69
307.042	85.69
307.272	86.69
307.502	88.69
307.731	85.69
307.961	91.69
308.191	85.69
308.421	83.69
308.651	84.69
308.881	79.69
309.111	89.69
309.341	84.69
309.571	83.69
309.8	85.69
310.03	82.69
310.26	72.69
310.49	88.69
310.72	80.69
310.949	85.69
311.179	79.69
311.409	80.69
311.639	87.69
311.868	80.69
312.098	85.69
312.328	92.69
312.557	85.69
312.787	70.69
313.017	87.69
313.246	88.69
313.476	90.69
313.706	75.69
313.935	87.69
314.165	91.69
314.394	99.69
314.624	85.69
314.853	84.69
315.083	73.69
315.312	92.69
315.542	96.69
315.771	91.69
316.001	77.69
316.23	86.69
316.46	95.69
316.689	89.69
316.919	96.69
317.148	79.69
317.377	77.69
317.607	86.69
317.836	86.69
318.065	84.69
318.295	87.69
318.524	84.69
318.753	90.69
318.983	95.69
319.212	73.69
319.441	78.69
319.67	91.69
319.9	75.69
320.129	74.69
320.358	85.69
320.587	90.69
320.816	86.69
321.046	76.69
321.275	86.69
321.504	85.69
321.733	78.69
321.962	83.69
322.191	86.69
322.42	85.69
322.649	89.69
322.878	92.69
323.108	78.69
323.337	80.69
323.566	89.69
323.795	91.69
324.024	86.69
324.253	82.69
324.482	83.69
324.71	96.69
324.939	98.69
325.168	86.69
325.397	88.69
325.626	103.69
325.855	98.69
326.084	91.69
326.313	79.69
326.542	90.69
326.77	106.69
326.999	87.69
327.228	94.69
327.457	83.69
327.686	88.69
327.914	85.69
328.143	91.69
328.372	94.69
328.6	87.69
328.829	93.69
329.058	89.69
329.287	92.69
329.515	82.69
329.744	80.69
329.972	83.69
330.201	79.69
330.43	89.69
330.658	73.69
330.887	79.69
331.115	68.69
331.344	67.69
331.572	95.69
331.801	87.69
332.03	87.69
332.258	83.69
332.486	79.69
332.715	92.69
332.943	75.69
333.172	88.69
333.4	93.69
333.629	80.69
333.857	87.69
334.085	84.69
334.314	79.69
334.542	81.69
334.771	81.69
334.999	83.69
335.227	88.69
335.455	83.69
335.684	84.69
335.912	80.69
336.14	79.69
336.369	94.69
336.597	98.69
336.825	103.69
337.053	77.69
337.281	79.69
337.51	72.69
337.738	84.69
337.966	92.69
338.194	79.69
338.422	84.69
338.65	79.69
338.878	87.69
339.106	88.69
339.334	86.69
339.562	91.69
339.79	87.69
340.018	93.69
340.246	94.69
340.474	96.69
340.702	100.69
340.93	85.69
341.158	95.69
341.386	89.69
341.614	102.69
341.842	83.69
342.07	74.69
342.298	97.69
342.526	74.69
342.754	81.69
342.981	71.69
343.209	90.69
343.437	99.69
343.665	84.69
343.893	92.69
344.12	79.69
344.348	82.69
344.576	95.69
344.804	91.69
345.031	75.69
345.259	87.69
345.487	84.69
345.714	83.69
345.942	77.69
346.17	87.69
346.397	82.69
346.625	82.69
346.853	85.69
347.08	92.69
347.308	64.69
347.535	77.69
347.763	78.69
347.99	79.69
348.218	90.69
348.445	79.69
348.673	81.69
348.9	90.69
349.128	91.69
349.355	83.69
349.583	91.69
349.81	80.69
350.037	83.69
350.265	85.69
350.492	71.69
350.72	86.69
350.947	85.69
351.174	67.69
351.402	83.69
351.629	74.69
351.856	78.69
352.083	72.69
352.311	92.69
352.538	81.69
352.765	91.69
352.992	86.69
353.22	87.69
353.447	90.69
353.674	89.69
353.901	91.69
354.128	97.69
354.355	79.69
354.583	81.69
354.81	75.69
355.037	88.69
355.264	80.69
355.491	89.69
355.718	83.69
355.945	78.69
356.172	87.69
356.399	81.69
356.626	85.69
356.853	76.69
357.08	88.69
357.307	84.69
357.534	79.69
357.761	92.69
357.988	90.69
358.215	93.69
358.441	81.69
358.668	84.69
358.895	88.69
359.122	81.69
359.349	92.69
359.576	82.69
359.802	86.69
360.029	92.69
360.256	91.69
360.483	84.69
360.709	86.69
360.936	86.69
361.163	91.69
361.39	90.69
361.616	69.69
361.843	75.69
362.07	80.69
362.296	87.69
362.523	93.69
362.749	82.69
362.976	99.69
363.203	88.69
363.429	84.69
363.656	83.69
363.882	90.69
364.109	75.69
364.335	87.69
364.562	79.69
364.788	93.69
365.015	77.69
365.241	77.69
365.468	88.69
365.694	64.69
365.92	85.69
366.147	88.69
366.373	84.69
366.599	87.69
366.826	68.69
367.052	89.69
367.278	89.69
367.505	99.69
367.731	90.69
367.957	69.69
368.184	85.69
368.41	82.69
368.636	84.69
368.862	89.69
369.089	92.69
369.315	85.69
369.541	89.69
369.767	87.69
369.993	66.69
370.219	75.69
370.445	88.69
370.672	96.69
370.898	81.69
371.124	93.69
371.35	78.69
371.576	82.69
371.802	74.69
372.028	79.69
372.254	75.69
372.48	87.69
372.706	83.69
372.932	81.69
373.158	94.69
373.384	89.69
373.61	105.69
373.835	83.69
374.061	76.69
374.287	91.69
374.513	89.69
374.739	75.69
374.965	92.69
375.191	82.69
375.416	100.69
375.642	107.69
375.868	93.69
376.094	95.69
376.319	82.69
376.545	64.69
376.771	86.69
376.997	71.69
377.222	95.69
377.448	78.69
377.674	83.69
377.899	88.69
378.125	77.69
378.35	97.69
378.576	92.69
378.802	71.69
379.027	101.69
379.253	96.69
379.478	80.69
379.704	78.69
379.929	70.69
380.155	73.69
380.38	91.69
380.606	84.69
380.831	83.69
381.057	92.69
381.282	82.69
381.507	86.69
381.733	84.69
381.958	85.69
382.184	85.69
382.409	76.69
382.634	84.69
382.86	90.69
383.085	84.69
383.31	84.69
383.535	80.69
383.761	81.69
383.986	82.69
384.211	72.69
384.436	89.69
384.662	91.69
384.887	74.69
385.112	88.69
385.337	83.69
385.562	86.69
385.787	87.69
386.013	85.69
386.238	84.69
386.463	87.69
386.688	86.69
386.913	70.69
387.138	89.69
387.363	72.69
387.588	87.69
387.813	90.69
388.038	83.69
388.263	91.69
388.488	80.69
388.713	84.69
388.938	85.69
389.163	83.69
389.387	93.69
389.612	101.69
389.837	91.69
390.062	83.69
390.287	86.69
390.512	88.69
390.736	83.69
390.961	83.69
391.186	73.69
391.411	77.69
391.636	85.69
391.86	74.69
392.085	77.69
392.31	77.69
392.534	73.69
392.759	94.69
392.984	96.69
393.208	99.69
393.433	71.69
393.658	86.69
393.882	68.69
394.107	85.69
394.331	94.69
394.556	87.69
394.78	83.69
395.005	89.69
395.229	88.69
395.454	88.69
395.678	89.69
395.903	88.69
396.127	80.69
396.352	88.69
396.576	76.69
396.801	88.69
397.025	71.69
397.249	90.69
397.474	93.69
397.698	90.69
397.922	71.69
398.147	94.69
398.371	86.69
398.595	89.69
398.82	91.69
399.044	91.69
399.268	71.69
399.492	91.69
399.717	85.69
399.941	96.69
400.165	94.69
400.389	90.69
400.613	85.69
400.837	81.69
401.062	82.69
401.286	77.69
401.51	82.69
401.734	77.69
401.958	81.69
402.182	89.69
402.406	79.69
402.63	81.69
402.854	94.69
403.078	92.69
403.302	93.69
403.526	94.69
403.75	87.69
403.974	82.69
404.198	94.69
404.422	91.69
404.645	87.69
404.869	89.69
405.093	80.69
405.317	92.69
405.541	76.69
405.765	89.69
405.988	87.69
406.212	92.69
406.436	87.69
406.66	94.69
406.883	89.69
407.107	87.69
407.331	75.69
407.555	99.69
407.778	103.69
408.002	100.69
408.226	77.69
408.449	101.69
408.673	71.69
408.896	75.69
409.12	85.69
409.344	80.69
409.567	93.69
409.791	75.69
410.014	91.69
410.238	95.69
410.461	80.69
410.685	90.69
410.908	91.69
411.132	89.69
411.355	71.69
411.578	88.69
411.802	85.69
412.025	81.69
412.249	79.69
412.472	85.69
412.695	91.69
412.919	86.69
413.142	91.69
413.365	87.69
413.589	81.69
413.812	90.69
414.035	68.69
414.258	93.69
414.482	85.69
414.705	80.69
414.928	87.69
415.151	85.69
415.374	90.69
415.597	95.69
415.821	80.69
416.044	75.69
416.267	75.69
416.49	79.69
416.713	86.69
416.936	86.69
417.159	89.69
417.382	85.69
417.605	96.69
417.828	86.69
418.051	78.69
418.274	75.69
418.497	80.69
418.72	81.69
418.943	77.69
419.166	81.69
419.389	90.69
419.611	72.69
419.834	84.69
420.057	81.69
420.28	85.69
420.503	97.69
420.726	90.69
420.948	81.69
421.171	76.69
421.394	73.69
421.617	73.69
421.839	79.69
422.062	92.69
422.285	82.69
422.507	95.69
422.73	88.69
422.953	92.69
423.175	87.69
423.398	101.69
423.621	92.69
423.843	84.69
424.066	86.69
424.288	83.69
424.511	83.69
424.733	89.69
424.956	97.69
425.178	88.69
425.401	90.69
425.623	84.69
425.846	87.69
426.068	84.69
426.291	71.69
426.513	92.69
426.735	92.69
426.958	77.69
427.18	89.69
427.402	78.69
427.625	77.69
427.847	88.69
428.069	77.69
428.292	97.69
428.514	97.69
428.736	83.69
428.958	71.69
429.181	106.69
429.403	79.69
429.625	96.69
429.847	95.69
430.069	87.69
430.292	100.69
430.514	93.69
430.736	89.69
430.958	91.69
431.18	80.69
431.402	78.69
431.624	93.69
431.846	90.69
432.068	94.69
432.29	89.69
432.512	76.69
432.734	76.69
432.956	85.69
433.178	85.69
433.4	92.69
433.622	88.69
433.844	100.69
434.066	84.69
434.287	81.69
434.509	80.69
434.731	90.69
434.953	97.69
435.175	80.69
435.397	83.69
435.618	85.69
435.84	84.69
436.062	87.69
436.284	104.69
436.505	94.69
436.727	81.69
436.949	80.69
437.17	77.69
437.392	75.69
437.614	73.69
437.835	88.69
438.057	75.69
438.278	87.69
438.5	80.69
438.721	87.69
438.943	81.69
439.165	86.69
439.386	87.69
439.608	78.69
439.829	92.69
440.05	95.69
440.272	82.69
440.493	73.69
440.715	93.69
440.936	79.69
441.158	67.69
441.379	77.69
441.6	77.69
441.822	79.69
442.043	97.69
442.264	99.69
442.486	83.69
442.707	86.69
442.928	79.69
443.149	82.69
443.371	83.69
443.592	84.69
443.813	85.69
444.034	72.69
444.255	82.69
444.476	86.69
444.698	85.69
444.919	80.69
445.14	161.69
445.361	121.69
445.582	83.69
445.803	83.69
446.024	80.69
446.245	74.69
446.466	83.69
446.687	79.69
446.908	84.69
447.129	84.69
447.35	83.69
447.571	82.69
447.792	77.69
448.013	84.69
448.234	83.69
448.455	98.69
448.675	86.69
448.896	80.69
449.117	80.69
449.338	80.69
449.559	85.69
449.779	80.69
450	88.69
450.221	83.69
450.442	85.69
450.662	71.69
450.883	82.69
451.104	92.69
451.324	79.69
451.545	83.69
451.766	85.69
451.986	63.69
452.207	75.69
452.428	77.69
452.648	90.69
452.869	85.69
453.089	81.69
453.31	85.69
453.53	77.69
453.751	70.69
453.971	76.69
454.192	87.69
454.412	78.69
454.633	77.69
454.853	95.69
455.073	91.69
455.294	69.69
455.514	94.69
455.734	79.69
455.955	85.69
456.175	92.69
456.395	74.69
456.616	92.69
456.836	88.69
457.056	83.69
457.276	72.69
457.497	80.69
457.717	76.69
457.937	88.69
458.157	83.69
458.377	79.69
458.598	83.69
458.818	83.69
459.038	79.69
459.258	79.69
459.478	84.69
459.698	77.69
459.918	77.69
460.138	86.69
460.358	88.69
460.578	83.69
460.798	101.69
461.018	82.69
461.238	95.69
461.458	93.69
461.678	79.69
461.898	90.69
462.118	94.69
462.338	85.69
462.558	86.69
462.777	89.69
462.997	92.69
463.217	101.69
463.437	82.69
463.657	88.69
463.876	89.69
464.096	85.69
464.316	85.69
464.536	91.69
464.755	80.69
464.975	84.69
465.195	79.69
465.414	83.69
465.634	84.69
465.854	90.69
466.073	80.69
466.293	71.69
466.512	90.69
466.732	94.69
466.951	70.69
467.171	87.69
467.391	90.69
467.61	67.69
467.829	91.69
468.049	81.69
468.268	87.69
468.488	105.69
468.707	76.69
468.927	77.69
469.146	84.69
469.365	86.69
469.585	90.69
469.804	85.69
470.023	79.69
470.243	87.69
470.462	87.69
470.681	86.69
470.901	75.69
471.12	83.69
471.339	89.69
471.558	78.69
471.777	111.69
471.997	85.69
472.216	99.69
472.435	97.69
472.654	88.69
472.873	73.69
473.092	87.69
473.311	83.69
473.53	95.69
473.749	99.69
473.968	95.69
474.187	85.69
474.406	79.69
474.625	82.69
474.844	82.69
475.063	96.69
475.282	88.69
475.501	69.69
475.72	93.69
475.939	87.69
476.158	90.69
476.377	93.69
476.596	76.69
476.814	70.69
477.033	77.69
477.252	95.69
477.471	77.69
477.69	81.69
477.908	89.69
478.127	92.69
478.346	87.69
478.564	97.69
478.783	76.69
479.002	83.69
479.22	87.69
479.439	93.69
479.658	87.69
479.876	91.69
480.095	73.69
480.313	87.69
480.532	85.69
480.751	84.69
480.969	90.69
481.188	85.69
481.406	83.69
481.624	96.69
481.843	78.69
482.061	82.69
482.28	111.69
482.498	77.69
482.717	85.69
482.935	88.69
483.153	80.69
483.372	93.69
483.59	103.69
483.808	89.69
484.027	90.69
484.245	80.69
484.463	73.69
484.681	87.69
484.9	84.69
485.118	91.69
485.336	87.69
485.554	86.69
485.772	85.69
485.99	87.69
486.209	83.69
486.427	76.69
486.645	87.69
486.863	93.69
487.081	96.69
487.299	87.69
487.517	103.69
487.735	95.69
487.953	90.69
488.171	82.69
488.389	85.69
488.607	77.69
488.825	76.69
489.043	93.69
489.261	75.69
489.479	89.69
489.696	105.69
489.914	82.69
490.132	95.69
490.35	86.69
490.568	88.69
490.786	86.69
491.003	92.69
491.221	96.69
491.439	77.69
491.657	91.69
491.874	95.69
492.092	85.69
492.31	85.69
492.527	88.69
492.745	85.69
492.963	89.69
493.18	86.69
493.398	84.69
493.615	94.69
493.833	76.69
494.05	78.69
494.268	88.69
494.485	83.69
494.703	76.69
494.92	80.69
495.138	85.69
495.355	85.69
495.573	91.69
495.79	93.69
496.008	101.69
496.225	89.69
496.442	73.69
496.66	101.69
496.877	92.69
497.094	99.69
497.312	77.69
497.529	84.69
497.746	94.69
497.963	89.69
498.181	80.69
498.398	79.69
498.615	80.69
498.832	102.69
499.049	95.69
499.267	76.69
499.484	89.69
499.701	102.69
499.918	91.69
500.135	103.69
500.352	91.69
500.569	94.69
500.786	99.69
501.003	109.69
501.22	97.69
501.437	92.69
501.654	96.69
501.871	93.69
502.088	93.69
502.305	103.69
502.522	90.69
502.739	95.69
502.956	99.69
503.172	99.69
503.389	80.69
503.606	86.69
503.823	103.69
504.04	92.69
504.256	86.69
504.473	101.69
504.69	95.69
504.907	102.69
505.123	87.69
505.34	99.69
505.557	70.69
505.773	84.69
505.99	79.69
506.207	75.69
506.423	86.69
506.64	81.69
506.856	90.69
507.073	88.69
507.289	83.69
507.506	89.69
507.722	93.69
507.939	92.69
508.155	83.69
508.372	86.69
508.588	81.69
508.805	74.69
509.021	83.69
509.238	93.69
509.454	87.69
509.67	85.69
509.887	73.69
510.103	85.69
510.319	74.69
510.536	87.69
510.752	92.69
510.968	79.69
511.184	88.69
511.401	88.69
511.617	87.69
511.833	79.69
512.049	92.69
512.265	79.69
512.481	96.69
512.698	75.69
512.914	88.69
513.13	101.69
513.346	70.69
513.562	89.69
513.778	85.69
513.994	86.69
514.21	83.69
514.426	82.69
514.642	98.69
514.858	77.69
515.074	99.69
515.29	92.69
515.506	67.69
515.721	74.69
515.937	77.69
516.153	102.69
516.369	91.69
516.585	92.69
516.801	90.69
517.016	100.69
517.232	80.69
517.448	93.69
517.664	104.69
517.879	79.69
518.095	90.69
518.311	82.69
518.527	104.69
518.742	108.69
518.958	95.69
519.173	85.69
519.389	90.69
519.605	96.69
519.82	83.69
