Data from BG_HRD10591_048.txt Node
Date: Fri May 16 15:21:18 EDT 2025
User: Yrep
Spectrometer: HR+D1059
Trigger mode: 1
Integration Time (sec): 1.000000E-1
Scans to average: 1
Electric dark correction enabled: true
Nonlinearity correction enabled: false
Boxcar width: 0
XAxis mode: Wavelengths
Number of Pixels in Spectrum: 2048
>>>>>Begin Spectral Data<<<<<
223.165	-15.62
223.4	-15.62
223.635	-15.62
223.869	-24.62
224.104	-0.62
224.338	-11.62
224.573	-22.62
224.808	-8.62
225.042	7.38
225.277	-7.62
225.511	2.38
225.746	-4.62
225.98	-0.62
226.215	1.38
226.449	16.38
226.683	19.38
226.918	11.38
227.152	38.38
227.387	24.38
227.621	39.38
227.856	32.38
228.09	45.38
228.324	51.38
228.559	57.38
228.793	75.38
229.027	67.38
229.262	72.38
229.496	76.38
229.73	72.38
229.964	80.38
230.199	83.38
230.433	77.38
230.667	73.38
230.901	72.38
231.136	79.38
231.37	76.38
231.604	65.38
231.838	69.38
232.072	85.38
232.306	85.38
232.541	80.38
232.775	85.38
233.009	75.38
233.243	75.38
233.477	94.38
233.711	79.38
233.945	88.38
234.179	77.38
234.413	67.38
234.647	75.38
234.881	83.38
235.115	88.38
235.349	60.38
235.583	81.38
235.817	69.38
236.051	63.38
236.285	77.38
236.519	91.38
236.753	69.38
236.987	71.38
237.221	82.38
237.455	77.38
237.689	71.38
237.922	76.38
238.156	70.38
238.39	76.38
238.624	72.38
238.858	55.38
239.091	78.38
239.325	83.38
239.559	71.38
239.793	74.38
240.027	85.38
240.26	78.38
240.494	71.38
240.728	79.38
240.961	71.38
241.195	70.38
241.429	81.38
241.662	79.38
241.896	74.38
242.13	72.38
242.363	84.38
242.597	85.38
242.83	63.38
243.064	61.38
243.298	86.38
243.531	64.38
243.765	74.38
243.998	89.38
244.232	77.38
244.465	84.38
244.699	85.38
244.932	88.38
245.166	100.38
245.399	75.38
245.633	87.38
245.866	79.38
246.099	66.38
246.333	77.38
246.566	76.38
246.8	60.38
247.033	83.38
247.266	60.38
247.5	72.38
247.733	80.38
247.966	74.38
248.2	84.38
248.433	74.38
248.666	89.38
248.899	69.38
249.133	73.38
249.366	71.38
249.599	78.38
249.832	70.38
250.066	89.38
250.299	77.38
250.532	75.38
250.765	85.38
250.998	77.38
251.231	77.38
251.465	86.38
251.698	75.38
251.931	72.38
252.164	79.38
252.397	64.38
252.63	86.38
252.863	80.38
253.096	89.38
253.329	71.38
253.562	77.38
253.795	78.38
254.028	84.38
254.261	78.38
254.494	84.38
254.727	84.38
254.96	76.38
255.193	68.38
255.426	80.38
255.659	85.38
255.892	88.38
256.124	77.38
256.357	77.38
256.59	71.38
256.823	94.38
257.056	71.38
257.289	76.38
257.521	79.38
257.754	73.38
257.987	73.38
258.22	95.38
258.452	85.38
258.685	81.38
258.918	69.38
259.151	84.38
259.383	84.38
259.616	79.38
259.849	75.38
260.081	78.38
260.314	77.38
260.547	79.38
260.779	76.38
261.012	73.38
261.244	84.38
261.477	77.38
261.71	80.38
261.942	68.38
262.175	103.38
262.407	83.38
262.64	80.38
262.872	81.38
263.105	87.38
263.337	89.38
263.57	81.38
263.802	86.38
264.035	79.38
264.267	81.38
264.499	71.38
264.732	81.38
264.964	83.38
265.197	99.38
265.429	74.38
265.661	87.38
265.894	96.38
266.126	73.38
266.358	95.38
266.591	71.38
266.823	82.38
267.055	77.38
267.287	89.38
267.52	81.38
267.752	88.38
267.984	79.38
268.216	84.38
268.448	89.38
268.681	92.38
268.913	84.38
269.145	81.38
269.377	90.38
269.609	74.38
269.841	90.38
270.073	80.38
270.306	78.38
270.538	77.38
270.77	75.38
271.002	83.38
271.234	82.38
271.466	85.38
271.698	88.38
271.93	75.38
272.162	91.38
272.394	81.38
272.626	89.38
272.858	87.38
273.09	92.38
273.322	93.38
273.553	95.38
273.785	81.38
274.017	69.38
274.249	77.38
274.481	80.38
274.713	86.38
274.945	83.38
275.176	85.38
275.408	85.38
275.64	74.38
275.872	93.38
276.104	75.38
276.335	80.38
276.567	83.38
276.799	77.38
277.031	83.38
277.262	81.38
277.494	78.38
277.726	80.38
277.957	80.38
278.189	75.38
278.421	75.38
278.652	88.38
278.884	79.38
279.115	92.38
279.347	87.38
279.579	86.38
279.81	90.38
280.042	85.38
280.273	81.38
280.505	77.38
280.736	79.38
280.968	74.38
281.199	87.38
281.431	86.38
281.662	88.38
281.894	74.38
282.125	95.38
282.356	57.38
282.588	83.38
282.819	79.38
283.051	86.38
283.282	76.38
283.513	86.38
283.745	83.38
283.976	75.38
284.207	81.38
284.439	69.38
284.67	76.38
284.901	75.38
285.132	80.38
285.364	83.38
285.595	79.38
285.826	83.38
286.057	88.38
286.288	88.38
286.52	54.38
286.751	80.38
286.982	89.38
287.213	93.38
287.444	83.38
287.675	86.38
287.906	75.38
288.138	79.38
288.369	81.38
288.6	83.38
288.831	83.38
289.062	97.38
289.293	81.38
289.524	92.38
289.755	91.38
289.986	79.38
290.217	92.38
290.448	86.38
290.679	93.38
290.91	97.38
291.141	85.38
291.371	82.38
291.602	95.38
291.833	63.38
292.064	81.38
292.295	96.38
292.526	79.38
292.757	77.38
292.987	85.38
293.218	74.38
293.449	76.38
293.68	84.38
293.91	77.38
294.141	79.38
294.372	85.38
294.603	79.38
294.833	87.38
295.064	69.38
295.295	75.38
295.525	74.38
295.756	79.38
295.987	88.38
296.217	71.38
296.448	80.38
296.679	70.38
296.909	82.38
297.14	91.38
297.37	80.38
297.601	91.38
297.831	73.38
298.062	87.38
298.292	88.38
298.523	86.38
298.753	81.38
298.984	82.38
299.214	68.38
299.445	84.38
299.675	86.38
299.905	81.38
300.136	77.38
300.366	80.38
300.597	81.38
300.827	92.38
301.057	85.38
301.288	86.38
301.518	83.38
301.748	75.38
301.979	90.38
302.209	89.38
302.439	85.38
302.669	83.38
302.9	101.38
303.13	87.38
303.36	76.38
303.59	85.38
303.82	82.38
304.051	65.38
304.281	89.38
304.511	81.38
304.741	81.38
304.971	90.38
305.201	85.38
305.431	88.38
305.661	77.38
305.891	90.38
306.121	95.38
306.352	89.38
306.582	80.38
306.812	79.38
307.042	79.38
307.272	80.38
307.502	95.38
307.731	90.38
307.961	92.38
308.191	88.38
308.421	90.38
308.651	73.38
308.881	77.38
309.111	70.38
309.341	78.38
309.571	80.38
309.8	83.38
310.03	81.38
310.26	79.38
310.49	74.38
310.72	88.38
310.949	74.38
311.179	92.38
311.409	87.38
311.639	93.38
311.868	87.38
312.098	87.38
312.328	92.38
312.557	80.38
312.787	92.38
313.017	100.38
313.246	84.38
313.476	77.38
313.706	87.38
313.935	80.38
314.165	79.38
314.394	92.38
314.624	93.38
314.853	93.38
315.083	88.38
315.312	88.38
315.542	87.38
315.771	78.38
316.001	78.38
316.23	87.38
316.46	80.38
316.689	75.38
316.919	74.38
317.148	88.38
317.377	81.38
317.607	87.38
317.836	76.38
318.065	85.38
318.295	88.38
318.524	94.38
318.753	85.38
318.983	81.38
319.212	80.38
319.441	88.38
319.67	79.38
319.9	74.38
320.129	80.38
320.358	90.38
320.587	100.38
320.816	83.38
321.046	96.38
321.275	64.38
321.504	96.38
321.733	83.38
321.962	91.38
322.191	89.38
322.42	76.38
322.649	79.38
322.878	92.38
323.108	85.38
323.337	78.38
323.566	82.38
323.795	74.38
324.024	88.38
324.253	72.38
324.482	90.38
324.71	99.38
324.939	93.38
325.168	86.38
325.397	79.38
325.626	76.38
325.855	71.38
326.084	90.38
326.313	100.38
326.542	88.38
326.77	80.38
326.999	84.38
327.228	93.38
327.457	80.38
327.686	82.38
327.914	85.38
328.143	95.38
328.372	67.38
328.6	80.38
328.829	91.38
329.058	96.38
329.287	99.38
329.515	82.38
329.744	75.38
329.972	79.38
330.201	71.38
330.43	100.38
330.658	84.38
330.887	80.38
331.115	78.38
331.344	80.38
331.572	93.38
331.801	100.38
332.03	87.38
332.258	79.38
332.486	77.38
332.715	102.38
332.943	93.38
333.172	74.38
333.4	79.38
333.629	81.38
333.857	81.38
334.085	83.38
334.314	83.38
334.542	76.38
334.771	81.38
334.999	69.38
335.227	75.38
335.455	89.38
335.684	76.38
335.912	87.38
336.14	77.38
336.369	77.38
336.597	83.38
336.825	79.38
337.053	86.38
337.281	79.38
337.51	84.38
337.738	81.38
337.966	73.38
338.194	85.38
338.422	89.38
338.65	79.38
338.878	81.38
339.106	85.38
339.334	91.38
339.562	88.38
339.79	95.38
340.018	92.38
340.246	77.38
340.474	92.38
340.702	83.38
340.93	88.38
341.158	81.38
341.386	77.38
341.614	85.38
341.842	93.38
342.07	83.38
342.298	79.38
342.526	88.38
342.754	83.38
342.981	88.38
343.209	84.38
343.437	94.38
343.665	84.38
343.893	80.38
344.12	79.38
344.348	85.38
344.576	79.38
344.804	89.38
345.031	85.38
345.259	81.38
345.487	79.38
345.714	74.38
345.942	79.38
346.17	76.38
346.397	75.38
346.625	64.38
346.853	79.38
347.08	81.38
347.308	76.38
347.535	83.38
347.763	85.38
347.99	83.38
348.218	79.38
348.445	79.38
348.673	80.38
348.9	91.38
349.128	73.38
349.355	83.38
349.583	84.38
349.81	72.38
350.037	90.38
350.265	63.38
350.492	71.38
350.72	83.38
350.947	74.38
351.174	76.38
351.402	93.38
351.629	85.38
351.856	84.38
352.083	83.38
352.311	91.38
352.538	101.38
352.765	89.38
352.992	93.38
353.22	79.38
353.447	78.38
353.674	90.38
353.901	94.38
354.128	78.38
354.355	83.38
354.583	95.38
354.81	94.38
355.037	73.38
355.264	80.38
355.491	82.38
355.718	94.38
355.945	80.38
356.172	80.38
356.399	76.38
356.626	81.38
356.853	87.38
357.08	73.38
357.307	84.38
357.534	92.38
357.761	88.38
357.988	85.38
358.215	93.38
358.441	88.38
358.668	99.38
358.895	99.38
359.122	85.38
359.349	88.38
359.576	104.38
359.802	85.38
360.029	81.38
360.256	90.38
360.483	72.38
360.709	90.38
360.936	84.38
361.163	94.38
361.39	79.38
361.616	87.38
361.843	73.38
362.07	79.38
362.296	84.38
362.523	81.38
362.749	77.38
362.976	88.38
363.203	100.38
363.429	75.38
363.656	71.38
363.882	71.38
364.109	63.38
364.335	94.38
364.562	80.38
364.788	81.38
365.015	92.38
365.241	83.38
365.468	88.38
365.694	92.38
365.92	85.38
366.147	86.38
366.373	87.38
366.599	86.38
366.826	69.38
367.052	77.38
367.278	85.38
367.505	71.38
367.731	94.38
367.957	69.38
368.184	82.38
368.41	87.38
368.636	86.38
368.862	80.38
369.089	73.38
369.315	79.38
369.541	83.38
369.767	87.38
369.993	78.38
370.219	81.38
370.445	87.38
370.672	84.38
370.898	85.38
371.124	92.38
371.35	79.38
371.576	76.38
371.802	77.38
372.028	74.38
372.254	85.38
372.48	81.38
372.706	92.38
372.932	91.38
373.158	93.38
373.384	82.38
373.61	87.38
373.835	92.38
374.061	77.38
374.287	83.38
374.513	74.38
374.739	83.38
374.965	82.38
375.191	92.38
375.416	71.38
375.642	86.38
375.868	82.38
376.094	74.38
376.319	91.38
376.545	91.38
376.771	77.38
376.997	80.38
377.222	81.38
377.448	87.38
377.674	76.38
377.899	69.38
378.125	100.38
378.35	93.38
378.576	84.38
378.802	73.38
379.027	82.38
379.253	83.38
379.478	74.38
379.704	97.38
379.929	88.38
380.155	83.38
380.38	90.38
380.606	83.38
380.831	91.38
381.057	92.38
381.282	91.38
381.507	89.38
381.733	83.38
381.958	81.38
382.184	79.38
382.409	93.38
382.634	87.38
382.86	87.38
383.085	81.38
383.31	81.38
383.535	91.38
383.761	89.38
383.986	79.38
384.211	66.38
384.436	87.38
384.662	79.38
384.887	90.38
385.112	92.38
385.337	96.38
385.562	84.38
385.787	71.38
386.013	75.38
386.238	72.38
386.463	80.38
386.688	80.38
386.913	84.38
387.138	83.38
387.363	78.38
387.588	76.38
387.813	92.38
388.038	88.38
388.263	84.38
388.488	83.38
388.713	82.38
388.938	77.38
389.163	76.38
389.387	79.38
389.612	88.38
389.837	81.38
390.062	80.38
390.287	63.38
390.512	80.38
390.736	88.38
390.961	79.38
391.186	92.38
391.411	64.38
391.636	77.38
391.86	71.38
392.085	87.38
392.31	100.38
392.534	78.38
392.759	81.38
392.984	95.38
393.208	97.38
393.433	75.38
393.658	78.38
393.882	84.38
394.107	85.38
394.331	87.38
394.556	84.38
394.78	77.38
395.005	82.38
395.229	85.38
395.454	83.38
395.678	80.38
395.903	83.38
396.127	73.38
396.352	66.38
396.576	71.38
396.801	83.38
397.025	74.38
397.249	77.38
397.474	85.38
397.698	73.38
397.922	87.38
398.147	72.38
398.371	95.38
398.595	97.38
398.82	94.38
399.044	72.38
399.268	89.38
399.492	86.38
399.717	79.38
399.941	81.38
400.165	77.38
400.389	76.38
400.613	76.38
400.837	89.38
401.062	85.38
401.286	90.38
401.51	89.38
401.734	64.38
401.958	71.38
402.182	94.38
402.406	91.38
402.63	71.38
402.854	95.38
403.078	87.38
403.302	75.38
403.526	79.38
403.75	86.38
403.974	91.38
404.198	91.38
404.422	89.38
404.645	78.38
404.869	67.38
405.093	78.38
405.317	83.38
405.541	100.38
405.765	83.38
405.988	85.38
406.212	91.38
406.436	69.38
406.66	87.38
406.883	80.38
407.107	74.38
407.331	62.38
407.555	85.38
407.778	81.38
408.002	84.38
408.226	97.38
408.449	80.38
408.673	74.38
408.896	86.38
409.12	81.38
409.344	85.38
409.567	83.38
409.791	84.38
410.014	69.38
410.238	77.38
410.461	84.38
410.685	72.38
410.908	76.38
411.132	77.38
411.355	89.38
411.578	77.38
411.802	75.38
412.025	79.38
412.249	81.38
412.472	89.38
412.695	89.38
412.919	85.38
413.142	71.38
413.365	73.38
413.589	78.38
413.812	83.38
414.035	73.38
414.258	99.38
414.482	80.38
414.705	83.38
414.928	84.38
415.151	84.38
415.374	81.38
415.597	78.38
415.821	81.38
416.044	83.38
416.267	76.38
416.49	87.38
416.713	72.38
416.936	92.38
417.159	77.38
417.382	80.38
417.605	76.38
417.828	80.38
418.051	78.38
418.274	82.38
418.497	81.38
418.72	79.38
418.943	87.38
419.166	81.38
419.389	79.38
419.611	96.38
419.834	76.38
420.057	73.38
420.28	86.38
420.503	89.38
420.726	82.38
420.948	77.38
421.171	79.38
421.394	73.38
421.617	80.38
421.839	77.38
422.062	80.38
422.285	80.38
422.507	86.38
422.73	67.38
422.953	74.38
423.175	86.38
423.398	77.38
423.621	70.38
423.843	73.38
424.066	68.38
424.288	87.38
424.511	85.38
424.733	88.38
424.956	92.38
425.178	86.38
425.401	85.38
425.623	84.38
425.846	83.38
426.068	86.38
426.291	83.38
426.513	76.38
426.735	74.38
426.958	76.38
427.18	96.38
427.402	77.38
427.625	89.38
427.847	89.38
428.069	80.38
428.292	84.38
428.514	85.38
428.736	92.38
428.958	75.38
429.181	73.38
429.403	89.38
429.625	82.38
429.847	77.38
430.069	84.38
430.292	81.38
430.514	81.38
430.736	91.38
430.958	81.38
431.18	71.38
431.402	76.38
431.624	83.38
431.846	75.38
432.068	88.38
432.29	103.38
432.512	75.38
432.734	93.38
432.956	84.38
433.178	84.38
433.4	69.38
433.622	81.38
433.844	85.38
434.066	85.38
434.287	83.38
434.509	77.38
434.731	69.38
434.953	80.38
435.175	82.38
435.397	85.38
435.618	76.38
435.84	82.38
436.062	78.38
436.284	80.38
436.505	72.38
436.727	92.38
436.949	71.38
437.17	67.38
437.392	78.38
437.614	75.38
437.835	80.38
438.057	67.38
438.278	75.38
438.5	84.38
438.721	72.38
438.943	75.38
439.165	88.38
439.386	73.38
439.608	92.38
439.829	89.38
440.05	75.38
440.272	76.38
440.493	84.38
440.715	73.38
440.936	68.38
441.158	81.38
441.379	75.38
441.6	69.38
441.822	76.38
442.043	84.38
442.264	83.38
442.486	93.38
442.707	75.38
442.928	86.38
443.149	81.38
443.371	75.38
443.592	82.38
443.813	80.38
444.034	75.38
444.255	87.38
444.476	97.38
444.698	79.38
444.919	85.38
445.14	144.38
445.361	117.38
445.582	82.38
445.803	79.38
446.024	93.38
446.245	82.38
446.466	72.38
446.687	79.38
446.908	74.38
447.129	72.38
447.35	64.38
447.571	68.38
447.792	86.38
448.013	90.38
448.234	71.38
448.455	81.38
448.675	85.38
448.896	87.38
449.117	66.38
449.338	77.38
449.559	83.38
449.779	75.38
450	75.38
450.221	79.38
450.442	83.38
450.662	83.38
450.883	88.38
451.104	87.38
451.324	77.38
451.545	65.38
451.766	77.38
451.986	78.38
452.207	81.38
452.428	73.38
452.648	80.38
452.869	85.38
453.089	71.38
453.31	72.38
453.53	73.38
453.751	75.38
453.971	78.38
454.192	75.38
454.412	86.38
454.633	83.38
454.853	91.38
455.073	85.38
455.294	78.38
455.514	63.38
455.734	79.38
455.955	68.38
456.175	89.38
456.395	82.38
456.616	79.38
456.836	71.38
457.056	72.38
457.276	86.38
457.497	78.38
457.717	73.38
457.937	83.38
458.157	83.38
458.377	77.38
458.598	81.38
458.818	74.38
459.038	70.38
459.258	70.38
459.478	90.38
459.698	74.38
459.918	85.38
460.138	95.38
460.358	75.38
460.578	81.38
460.798	84.38
461.018	75.38
461.238	85.38
461.458	81.38
461.678	79.38
461.898	72.38
462.118	79.38
462.338	78.38
462.558	85.38
462.777	96.38
462.997	79.38
463.217	66.38
463.437	73.38
463.657	74.38
463.876	77.38
464.096	87.38
464.316	79.38
464.536	79.38
464.755	69.38
464.975	73.38
465.195	87.38
465.414	70.38
465.634	71.38
465.854	79.38
466.073	84.38
466.293	67.38
466.512	73.38
466.732	80.38
466.951	79.38
467.171	73.38
467.391	70.38
467.61	93.38
467.829	75.38
468.049	76.38
468.268	74.38
468.488	83.38
468.707	94.38
468.927	81.38
469.146	85.38
469.365	69.38
469.585	95.38
469.804	82.38
470.023	94.38
470.243	88.38
470.462	90.38
470.681	87.38
470.901	91.38
471.12	78.38
471.339	80.38
471.558	77.38
471.777	74.38
471.997	76.38
472.216	89.38
472.435	79.38
472.654	79.38
472.873	87.38
473.092	85.38
473.311	82.38
473.53	83.38
473.749	61.38
473.968	80.38
474.187	72.38
474.406	75.38
474.625	91.38
474.844	79.38
475.063	75.38
475.282	94.38
475.501	73.38
475.72	85.38
475.939	84.38
476.158	88.38
476.377	87.38
476.596	72.38
476.814	75.38
477.033	72.38
477.252	52.38
477.471	77.38
477.69	75.38
477.908	83.38
478.127	85.38
478.346	73.38
478.564	85.38
478.783	87.38
479.002	77.38
479.22	75.38
479.439	83.38
479.658	82.38
479.876	72.38
480.095	78.38
480.313	76.38
480.532	89.38
480.751	87.38
480.969	70.38
481.188	82.38
481.406	73.38
481.624	91.38
481.843	91.38
482.061	85.38
482.28	72.38
482.498	88.38
482.717	82.38
482.935	87.38
483.153	85.38
483.372	72.38
483.59	93.38
483.808	79.38
484.027	91.38
484.245	93.38
484.463	83.38
484.681	81.38
484.9	77.38
485.118	72.38
485.336	79.38
485.554	85.38
485.772	81.38
485.99	83.38
486.209	87.38
486.427	79.38
486.645	81.38
486.863	94.38
487.081	79.38
487.299	85.38
487.517	76.38
487.735	71.38
487.953	91.38
488.171	79.38
488.389	81.38
488.607	75.38
488.825	82.38
489.043	79.38
489.261	94.38
489.479	64.38
489.696	61.38
489.914	70.38
490.132	77.38
490.35	83.38
490.568	78.38
490.786	76.38
491.003	87.38
491.221	72.38
491.439	89.38
491.657	89.38
491.874	79.38
492.092	83.38
492.31	91.38
492.527	69.38
492.745	79.38
492.963	75.38
493.18	94.38
493.398	84.38
493.615	73.38
493.833	80.38
494.05	83.38
494.268	87.38
494.485	76.38
494.703	81.38
494.92	78.38
495.138	71.38
495.355	81.38
495.573	69.38
495.79	75.38
496.008	89.38
496.225	82.38
496.442	70.38
496.66	77.38
496.877	76.38
497.094	71.38
497.312	78.38
497.529	72.38
497.746	92.38
497.963	91.38
498.181	93.38
498.398	85.38
498.615	80.38
498.832	98.38
499.049	70.38
499.267	86.38
499.484	85.38
499.701	90.38
499.918	95.38
500.135	62.38
500.352	72.38
500.569	87.38
500.786	97.38
501.003	88.38
501.22	80.38
501.437	90.38
501.654	80.38
501.871	75.38
502.088	86.38
502.305	65.38
502.522	84.38
502.739	87.38
502.956	78.38
503.172	95.38
503.389	99.38
503.606	85.38
503.823	66.38
504.04	70.38
504.256	78.38
504.473	85.38
504.69	86.38
504.907	79.38
505.123	88.38
505.34	70.38
505.557	79.38
505.773	65.38
505.99	79.38
506.207	66.38
506.423	75.38
506.64	87.38
506.856	81.38
507.073	75.38
507.289	85.38
507.506	81.38
507.722	73.38
507.939	82.38
508.155	84.38
508.372	73.38
508.588	83.38
508.805	80.38
509.021	87.38
509.238	79.38
509.454	87.38
509.67	88.38
509.887	87.38
510.103	69.38
510.319	73.38
510.536	76.38
510.752	83.38
510.968	83.38
511.184	95.38
511.401	80.38
511.617	78.38
511.833	79.38
512.049	83.38
512.265	89.38
512.481	82.38
512.698	77.38
512.914	79.38
513.13	91.38
513.346	89.38
513.562	71.38
513.778	75.38
513.994	77.38
514.21	84.38
514.426	79.38
514.642	94.38
514.858	81.38
515.074	84.38
515.29	89.38
515.506	87.38
515.721	72.38
515.937	86.38
516.153	76.38
516.369	97.38
516.585	85.38
516.801	71.38
517.016	88.38
517.232	85.38
517.448	77.38
517.664	83.38
517.879	80.38
518.095	85.38
518.311	81.38
518.527	62.38
518.742	79.38
518.958	99.38
519.173	99.38
519.389	71.38
519.605	77.38
519.82	89.38
520.036	83.38
520.251	83.38
