Data from BG_HRD10591_009.txt Node
Date: Fri May 16 15:20:58 EDT 2025
User: Yrep
Spectrometer: HR+D1059
Trigger mode: 1
Integration Time (sec): 1.000000E-1
Scans to average: 1
Electric dark correction enabled: true
Nonlinearity correction enabled: false
Boxcar width: 0
XAxis mode: Wavelengths
Number of Pixels in Spectrum: 2048
>>>>>Begin Spectral Data<<<<<
223.165	-20.44
223.4	-20.44
223.635	-20.44
223.869	-19.44
224.104	-20.44
224.338	-17.44
224.573	1.56
224.808	-4.44
225.042	-17.44
225.277	-11.44
225.511	-2.44
225.746	-3.44
225.98	9.56
226.215	8.56
226.449	21.56
226.683	11.56
226.918	21.56
227.152	42.56
227.387	38.56
227.621	34.56
227.856	39.56
228.09	49.56
228.324	60.56
228.559	53.56
228.793	43.56
229.027	58.56
229.262	70.56
229.496	69.56
229.73	58.56
229.964	69.56
230.199	63.56
230.433	68.56
230.667	81.56
230.901	69.56
231.136	84.56
231.37	77.56
231.604	75.56
231.838	70.56
232.072	85.56
232.306	80.56
232.541	80.56
232.775	64.56
233.009	66.56
233.243	68.56
233.477	66.56
233.711	83.56
233.945	82.56
234.179	75.56
234.413	81.56
234.647	81.56
234.881	79.56
235.115	78.56
235.349	67.56
235.583	69.56
235.817	74.56
236.051	76.56
236.285	71.56
236.519	68.56
236.753	62.56
236.987	70.56
237.221	74.56
237.455	84.56
237.689	66.56
237.922	59.56
238.156	72.56
238.39	64.56
238.624	60.56
238.858	74.56
239.091	58.56
239.325	65.56
239.559	72.56
239.793	68.56
240.027	63.56
240.26	62.56
240.494	77.56
240.728	66.56
240.961	67.56
241.195	70.56
241.429	88.56
241.662	79.56
241.896	60.56
242.13	78.56
242.363	69.56
242.597	66.56
242.83	67.56
243.064	73.56
243.298	68.56
243.531	76.56
243.765	76.56
243.998	73.56
244.232	70.56
244.465	59.56
244.699	72.56
244.932	80.56
245.166	66.56
245.399	78.56
245.633	67.56
245.866	86.56
246.099	62.56
246.333	73.56
246.566	79.56
246.8	72.56
247.033	75.56
247.266	84.56
247.5	69.56
247.733	70.56
247.966	64.56
248.2	81.56
248.433	73.56
248.666	77.56
248.899	78.56
249.133	85.56
249.366	69.56
249.599	78.56
249.832	63.56
250.066	80.56
250.299	85.56
250.532	67.56
250.765	78.56
250.998	74.56
251.231	80.56
251.465	71.56
251.698	86.56
251.931	88.56
252.164	59.56
252.397	70.56
252.63	64.56
252.863	82.56
253.096	86.56
253.329	77.56
253.562	63.56
253.795	70.56
254.028	69.56
254.261	74.56
254.494	63.56
254.727	89.56
254.96	77.56
255.193	75.56
255.426	67.56
255.659	89.56
255.892	74.56
256.124	77.56
256.357	88.56
256.59	68.56
256.823	75.56
257.056	64.56
257.289	74.56
257.521	89.56
257.754	82.56
257.987	64.56
258.22	81.56
258.452	85.56
258.685	84.56
258.918	66.56
259.151	68.56
259.383	76.56
259.616	64.56
259.849	80.56
260.081	75.56
260.314	63.56
260.547	78.56
260.779	78.56
261.012	80.56
261.244	92.56
261.477	95.56
261.71	69.56
261.942	90.56
262.175	78.56
262.407	70.56
262.64	80.56
262.872	86.56
263.105	78.56
263.337	66.56
263.57	75.56
263.802	74.56
264.035	90.56
264.267	86.56
264.499	68.56
264.732	78.56
264.964	86.56
265.197	83.56
265.429	81.56
265.661	74.56
265.894	82.56
266.126	80.56
266.358	68.56
266.591	68.56
266.823	72.56
267.055	74.56
267.287	78.56
267.52	67.56
267.752	81.56
267.984	82.56
268.216	79.56
268.448	84.56
268.681	71.56
268.913	89.56
269.145	65.56
269.377	77.56
269.609	68.56
269.841	84.56
270.073	86.56
270.306	85.56
270.538	79.56
270.77	74.56
271.002	67.56
271.234	74.56
271.466	73.56
271.698	88.56
271.93	68.56
272.162	94.56
272.394	64.56
272.626	90.56
272.858	64.56
273.09	84.56
273.322	71.56
273.553	70.56
273.785	79.56
274.017	86.56
274.249	77.56
274.481	95.56
274.713	70.56
274.945	74.56
275.176	90.56
275.408	75.56
275.64	72.56
275.872	79.56
276.104	88.56
276.335	84.56
276.567	78.56
276.799	73.56
277.031	72.56
277.262	80.56
277.494	73.56
277.726	93.56
277.957	78.56
278.189	88.56
278.421	81.56
278.652	77.56
278.884	82.56
279.115	77.56
279.347	92.56
279.579	74.56
279.81	72.56
280.042	77.56
280.273	68.56
280.505	93.56
280.736	80.56
280.968	75.56
281.199	70.56
281.431	80.56
281.662	70.56
281.894	83.56
282.125	82.56
282.356	81.56
282.588	85.56
282.819	73.56
283.051	81.56
283.282	61.56
283.513	66.56
283.745	86.56
283.976	68.56
284.207	86.56
284.439	97.56
284.67	74.56
284.901	80.56
285.132	90.56
285.364	74.56
285.595	69.56
285.826	89.56
286.057	106.56
286.288	85.56
286.52	80.56
286.751	90.56
286.982	69.56
287.213	76.56
287.444	86.56
287.675	78.56
287.906	96.56
288.138	94.56
288.369	81.56
288.6	86.56
288.831	72.56
289.062	74.56
289.293	68.56
289.524	86.56
289.755	76.56
289.986	68.56
290.217	74.56
290.448	82.56
290.679	94.56
290.91	78.56
291.141	70.56
291.371	81.56
291.602	91.56
291.833	81.56
292.064	81.56
292.295	83.56
292.526	76.56
292.757	92.56
292.987	63.56
293.218	78.56
293.449	86.56
293.68	89.56
293.91	82.56
294.141	73.56
294.372	84.56
294.603	84.56
294.833	84.56
295.064	91.56
295.295	85.56
295.525	89.56
295.756	74.56
295.987	79.56
296.217	91.56
296.448	96.56
296.679	87.56
296.909	83.56
297.14	61.56
297.37	76.56
297.601	92.56
297.831	86.56
298.062	85.56
298.292	76.56
298.523	80.56
298.753	83.56
298.984	75.56
299.214	80.56
299.445	78.56
299.675	78.56
299.905	84.56
300.136	89.56
300.366	69.56
300.597	70.56
300.827	79.56
301.057	90.56
301.288	81.56
301.518	83.56
301.748	85.56
301.979	86.56
302.209	79.56
302.439	83.56
302.669	89.56
302.9	78.56
303.13	83.56
303.36	77.56
303.59	105.56
303.82	89.56
304.051	83.56
304.281	88.56
304.511	98.56
304.741	74.56
304.971	79.56
305.201	95.56
305.431	76.56
305.661	86.56
305.891	88.56
306.121	67.56
306.352	87.56
306.582	91.56
306.812	68.56
307.042	85.56
307.272	76.56
307.502	80.56
307.731	78.56
307.961	80.56
308.191	84.56
308.421	88.56
308.651	90.56
308.881	80.56
309.111	80.56
309.341	98.56
309.571	95.56
309.8	78.56
310.03	101.56
310.26	73.56
310.49	75.56
310.72	79.56
310.949	68.56
311.179	82.56
311.409	86.56
311.639	77.56
311.868	72.56
312.098	99.56
312.328	76.56
312.557	80.56
312.787	82.56
313.017	82.56
313.246	73.56
313.476	73.56
313.706	84.56
313.935	92.56
314.165	83.56
314.394	75.56
314.624	67.56
314.853	100.56
315.083	85.56
315.312	78.56
315.542	95.56
315.771	81.56
316.001	88.56
316.23	81.56
316.46	87.56
316.689	82.56
316.919	78.56
317.148	82.56
317.377	89.56
317.607	86.56
317.836	89.56
318.065	74.56
318.295	73.56
318.524	71.56
318.753	83.56
318.983	80.56
319.212	99.56
319.441	83.56
319.67	91.56
319.9	86.56
320.129	75.56
320.358	91.56
320.587	71.56
320.816	99.56
321.046	73.56
321.275	87.56
321.504	77.56
321.733	84.56
321.962	81.56
322.191	64.56
322.42	84.56
322.649	76.56
322.878	78.56
323.108	74.56
323.337	88.56
323.566	107.56
323.795	76.56
324.024	81.56
324.253	67.56
324.482	75.56
324.71	82.56
324.939	74.56
325.168	78.56
325.397	77.56
325.626	86.56
325.855	98.56
326.084	66.56
326.313	81.56
326.542	73.56
326.77	95.56
326.999	81.56
327.228	91.56
327.457	80.56
327.686	76.56
327.914	81.56
328.143	85.56
328.372	84.56
328.6	82.56
328.829	88.56
329.058	86.56
329.287	74.56
329.515	77.56
329.744	89.56
329.972	68.56
330.201	70.56
330.43	74.56
330.658	71.56
330.887	62.56
331.115	89.56
331.344	103.56
331.572	96.56
331.801	87.56
332.03	74.56
332.258	82.56
332.486	84.56
332.715	80.56
332.943	83.56
333.172	80.56
333.4	66.56
333.629	81.56
333.857	79.56
334.085	87.56
334.314	89.56
334.542	75.56
334.771	94.56
334.999	86.56
335.227	82.56
335.455	81.56
335.684	84.56
335.912	80.56
336.14	82.56
336.369	88.56
336.597	77.56
336.825	75.56
337.053	83.56
337.281	89.56
337.51	81.56
337.738	80.56
337.966	78.56
338.194	82.56
338.422	82.56
338.65	73.56
338.878	86.56
339.106	87.56
339.334	98.56
339.562	90.56
339.79	92.56
340.018	81.56
340.246	79.56
340.474	75.56
340.702	90.56
340.93	68.56
341.158	82.56
341.386	64.56
341.614	90.56
341.842	94.56
342.07	99.56
342.298	90.56
342.526	78.56
342.754	86.56
342.981	67.56
343.209	90.56
343.437	84.56
343.665	80.56
343.893	88.56
344.12	80.56
344.348	84.56
344.576	83.56
344.804	82.56
345.031	76.56
345.259	87.56
345.487	82.56
345.714	81.56
345.942	80.56
346.17	78.56
346.397	79.56
346.625	74.56
346.853	77.56
347.08	81.56
347.308	98.56
347.535	80.56
347.763	81.56
347.99	74.56
348.218	84.56
348.445	78.56
348.673	88.56
348.9	81.56
349.128	96.56
349.355	97.56
349.583	83.56
349.81	77.56
350.037	78.56
350.265	80.56
350.492	79.56
350.72	77.56
350.947	86.56
351.174	76.56
351.402	86.56
351.629	89.56
351.856	81.56
352.083	79.56
352.311	82.56
352.538	84.56
352.765	65.56
352.992	94.56
353.22	70.56
353.447	72.56
353.674	77.56
353.901	76.56
354.128	91.56
354.355	76.56
354.583	76.56
354.81	76.56
355.037	90.56
355.264	88.56
355.491	84.56
355.718	89.56
355.945	89.56
356.172	84.56
356.399	80.56
356.626	57.56
356.853	80.56
357.08	79.56
357.307	83.56
357.534	82.56
357.761	81.56
357.988	82.56
358.215	72.56
358.441	70.56
358.668	81.56
358.895	91.56
359.122	102.56
359.349	94.56
359.576	80.56
359.802	70.56
360.029	75.56
360.256	82.56
360.483	80.56
360.709	67.56
360.936	85.56
361.163	75.56
361.39	85.56
361.616	82.56
361.843	94.56
362.07	82.56
362.296	86.56
362.523	79.56
362.749	76.56
362.976	74.56
363.203	94.56
363.429	80.56
363.656	82.56
363.882	87.56
364.109	83.56
364.335	78.56
364.562	74.56
364.788	74.56
365.015	88.56
365.241	79.56
365.468	91.56
365.694	71.56
365.92	72.56
366.147	95.56
366.373	82.56
366.599	79.56
366.826	87.56
367.052	86.56
367.278	98.56
367.505	98.56
367.731	87.56
367.957	90.56
368.184	76.56
368.41	74.56
368.636	92.56
368.862	87.56
369.089	88.56
369.315	75.56
369.541	91.56
369.767	84.56
369.993	82.56
370.219	78.56
370.445	78.56
370.672	87.56
370.898	78.56
371.124	76.56
371.35	97.56
371.576	83.56
371.802	87.56
372.028	91.56
372.254	94.56
372.48	71.56
372.706	83.56
372.932	83.56
373.158	94.56
373.384	91.56
373.61	80.56
373.835	90.56
374.061	86.56
374.287	68.56
374.513	76.56
374.739	75.56
374.965	80.56
375.191	78.56
375.416	79.56
375.642	80.56
375.868	82.56
376.094	88.56
376.319	79.56
376.545	83.56
376.771	82.56
376.997	81.56
377.222	74.56
377.448	88.56
377.674	104.56
377.899	88.56
378.125	87.56
378.35	85.56
378.576	90.56
378.802	81.56
379.027	88.56
379.253	74.56
379.478	88.56
379.704	88.56
379.929	85.56
380.155	86.56
380.38	78.56
380.606	85.56
380.831	94.56
381.057	74.56
381.282	86.56
381.507	82.56
381.733	63.56
381.958	78.56
382.184	91.56
382.409	64.56
382.634	74.56
382.86	85.56
383.085	80.56
383.31	72.56
383.535	88.56
383.761	79.56
383.986	72.56
384.211	90.56
384.436	78.56
384.662	72.56
384.887	74.56
385.112	74.56
385.337	75.56
385.562	78.56
385.787	76.56
386.013	81.56
386.238	87.56
386.463	87.56
386.688	82.56
386.913	83.56
387.138	88.56
387.363	73.56
387.588	83.56
387.813	75.56
388.038	76.56
388.263	87.56
388.488	95.56
388.713	82.56
388.938	87.56
389.163	66.56
389.387	81.56
389.612	106.56
389.837	98.56
390.062	86.56
390.287	77.56
390.512	87.56
390.736	93.56
390.961	80.56
391.186	75.56
391.411	81.56
391.636	71.56
391.86	68.56
392.085	79.56
392.31	78.56
392.534	92.56
392.759	82.56
392.984	74.56
393.208	76.56
393.433	80.56
393.658	91.56
393.882	94.56
394.107	88.56
394.331	80.56
394.556	73.56
394.78	81.56
395.005	77.56
395.229	83.56
395.454	87.56
395.678	98.56
395.903	76.56
396.127	68.56
396.352	80.56
396.576	78.56
396.801	82.56
397.025	87.56
397.249	88.56
397.474	85.56
397.698	86.56
397.922	81.56
398.147	81.56
398.371	77.56
398.595	87.56
398.82	87.56
399.044	81.56
399.268	84.56
399.492	97.56
399.717	99.56
399.941	82.56
400.165	86.56
400.389	89.56
400.613	89.56
400.837	76.56
401.062	100.56
401.286	82.56
401.51	84.56
401.734	81.56
401.958	82.56
402.182	81.56
402.406	92.56
402.63	98.56
402.854	80.56
403.078	87.56
403.302	79.56
403.526	94.56
403.75	81.56
403.974	82.56
404.198	86.56
404.422	90.56
404.645	90.56
404.869	84.56
405.093	98.56
405.317	90.56
405.541	87.56
405.765	87.56
405.988	90.56
406.212	108.56
406.436	79.56
406.66	88.56
406.883	79.56
407.107	90.56
407.331	90.56
407.555	80.56
407.778	76.56
408.002	82.56
408.226	82.56
408.449	87.56
408.673	80.56
408.896	71.56
409.12	83.56
409.344	100.56
409.567	69.56
409.791	70.56
410.014	82.56
410.238	86.56
410.461	88.56
410.685	95.56
410.908	80.56
411.132	90.56
411.355	75.56
411.578	81.56
411.802	84.56
412.025	92.56
412.249	89.56
412.472	73.56
412.695	89.56
412.919	81.56
413.142	86.56
413.365	86.56
413.589	85.56
413.812	84.56
414.035	82.56
414.258	75.56
414.482	67.56
414.705	84.56
414.928	92.56
415.151	66.56
415.374	89.56
415.597	89.56
415.821	91.56
416.044	85.56
416.267	89.56
416.49	82.56
416.713	91.56
416.936	87.56
417.159	93.56
417.382	83.56
417.605	68.56
417.828	79.56
418.051	86.56
418.274	85.56
418.497	90.56
418.72	83.56
418.943	74.56
419.166	90.56
419.389	85.56
419.611	83.56
419.834	80.56
420.057	88.56
420.28	91.56
420.503	82.56
420.726	77.56
420.948	73.56
421.171	70.56
421.394	81.56
421.617	75.56
421.839	86.56
422.062	83.56
422.285	96.56
422.507	72.56
422.73	80.56
422.953	75.56
423.175	81.56
423.398	82.56
423.621	82.56
423.843	67.56
424.066	82.56
424.288	71.56
424.511	75.56
424.733	93.56
424.956	64.56
425.178	83.56
425.401	88.56
425.623	78.56
425.846	79.56
426.068	77.56
426.291	68.56
426.513	83.56
426.735	81.56
426.958	78.56
427.18	84.56
427.402	86.56
427.625	82.56
427.847	82.56
428.069	71.56
428.292	87.56
428.514	82.56
428.736	86.56
428.958	80.56
429.181	83.56
429.403	68.56
429.625	78.56
429.847	75.56
430.069	83.56
430.292	81.56
430.514	78.56
430.736	85.56
430.958	76.56
431.18	76.56
431.402	75.56
431.624	84.56
431.846	88.56
432.068	101.56
432.29	74.56
432.512	83.56
432.734	69.56
432.956	74.56
433.178	80.56
433.4	88.56
433.622	83.56
433.844	82.56
434.066	81.56
434.287	79.56
434.509	84.56
434.731	71.56
434.953	64.56
435.175	82.56
435.397	73.56
435.618	95.56
435.84	84.56
436.062	94.56
436.284	80.56
436.505	71.56
436.727	77.56
436.949	82.56
437.17	84.56
437.392	74.56
437.614	82.56
437.835	77.56
438.057	87.56
438.278	87.56
438.5	81.56
438.721	86.56
438.943	93.56
439.165	76.56
439.386	80.56
439.608	74.56
439.829	84.56
440.05	73.56
440.272	84.56
440.493	78.56
440.715	82.56
440.936	81.56
441.158	87.56
441.379	74.56
441.6	82.56
441.822	88.56
442.043	98.56
442.264	86.56
442.486	74.56
442.707	82.56
442.928	91.56
443.149	86.56
443.371	96.56
443.592	84.56
443.813	74.56
444.034	81.56
444.255	74.56
444.476	79.56
444.698	82.56
444.919	88.56
445.14	144.56
445.361	114.56
445.582	71.56
445.803	84.56
446.024	79.56
446.245	88.56
446.466	85.56
446.687	90.56
446.908	82.56
447.129	80.56
447.35	88.56
447.571	83.56
447.792	86.56
448.013	76.56
448.234	69.56
448.455	48.56
448.675	85.56
448.896	68.56
449.117	85.56
449.338	82.56
449.559	89.56
449.779	75.56
450	78.56
450.221	78.56
450.442	62.56
450.662	85.56
450.883	76.56
451.104	86.56
451.324	91.56
451.545	83.56
451.766	91.56
451.986	82.56
452.207	84.56
452.428	73.56
452.648	88.56
452.869	87.56
453.089	79.56
453.31	83.56
453.53	84.56
453.751	73.56
453.971	82.56
454.192	74.56
454.412	78.56
454.633	70.56
454.853	92.56
455.073	83.56
455.294	82.56
455.514	84.56
455.734	71.56
455.955	74.56
456.175	92.56
456.395	68.56
456.616	77.56
456.836	85.56
457.056	86.56
457.276	74.56
457.497	83.56
457.717	85.56
457.937	87.56
458.157	72.56
458.377	81.56
458.598	98.56
458.818	86.56
459.038	81.56
459.258	76.56
459.478	75.56
459.698	87.56
459.918	67.56
460.138	80.56
460.358	105.56
460.578	84.56
460.798	97.56
461.018	81.56
461.238	82.56
461.458	107.56
461.678	80.56
461.898	93.56
462.118	93.56
462.338	96.56
462.558	84.56
462.777	78.56
462.997	89.56
463.217	79.56
463.437	82.56
463.657	86.56
463.876	83.56
464.096	80.56
464.316	74.56
464.536	83.56
464.755	83.56
464.975	78.56
465.195	91.56
465.414	82.56
465.634	88.56
465.854	87.56
466.073	68.56
466.293	85.56
466.512	80.56
466.732	91.56
466.951	89.56
467.171	88.56
467.391	77.56
467.61	84.56
467.829	77.56
468.049	86.56
468.268	91.56
468.488	76.56
468.707	65.56
468.927	83.56
469.146	84.56
469.365	97.56
469.585	81.56
469.804	84.56
470.023	82.56
470.243	86.56
470.462	75.56
470.681	76.56
470.901	76.56
471.12	75.56
471.339	69.56
471.558	81.56
471.777	82.56
471.997	73.56
472.216	92.56
472.435	78.56
472.654	75.56
472.873	85.56
473.092	88.56
473.311	91.56
473.53	84.56
473.749	86.56
473.968	104.56
474.187	78.56
474.406	100.56
474.625	86.56
474.844	76.56
475.063	85.56
475.282	101.56
475.501	82.56
475.72	83.56
475.939	89.56
476.158	79.56
476.377	86.56
476.596	88.56
476.814	78.56
477.033	86.56
477.252	86.56
477.471	78.56
477.69	98.56
477.908	92.56
478.127	75.56
478.346	98.56
478.564	91.56
478.783	80.56
479.002	87.56
479.22	95.56
479.439	83.56
479.658	86.56
479.876	96.56
480.095	95.56
480.313	83.56
480.532	101.56
480.751	94.56
480.969	96.56
481.188	82.56
481.406	95.56
481.624	78.56
481.843	89.56
482.061	84.56
482.28	77.56
482.498	77.56
482.717	90.56
482.935	92.56
483.153	84.56
483.372	78.56
483.59	89.56
483.808	77.56
484.027	92.56
484.245	83.56
484.463	72.56
484.681	93.56
484.9	88.56
485.118	83.56
485.336	75.56
485.554	99.56
485.772	78.56
485.99	89.56
486.209	79.56
486.427	83.56
486.645	91.56
486.863	88.56
487.081	80.56
487.299	78.56
487.517	82.56
487.735	88.56
487.953	93.56
488.171	81.56
488.389	85.56
488.607	85.56
488.825	86.56
489.043	100.56
489.261	94.56
489.479	68.56
489.696	83.56
489.914	86.56
490.132	78.56
490.35	84.56
490.568	83.56
490.786	83.56
491.003	76.56
491.221	83.56
491.439	82.56
491.657	74.56
491.874	81.56
492.092	75.56
492.31	83.56
492.527	96.56
492.745	84.56
492.963	87.56
493.18	86.56
493.398	90.56
493.615	89.56
493.833	90.56
494.05	77.56
494.268	91.56
494.485	95.56
494.703	82.56
494.92	83.56
495.138	105.56
495.355	84.56
495.573	82.56
495.79	85.56
496.008	74.56
496.225	69.56
496.442	83.56
496.66	89.56
496.877	88.56
497.094	78.56
497.312	105.56
497.529	86.56
497.746	74.56
497.963	79.56
498.181	84.56
498.398	105.56
498.615	96.56
498.832	86.56
499.049	108.56
499.267	86.56
499.484	81.56
499.701	103.56
499.918	99.56
500.135	100.56
500.352	97.56
500.569	114.56
500.786	97.56
501.003	98.56
501.22	86.56
501.437	84.56
501.654	94.56
501.871	78.56
502.088	87.56
502.305	103.56
502.522	86.56
502.739	96.56
502.956	86.56
503.172	90.56
503.389	70.56
503.606	80.56
503.823	86.56
504.04	89.56
504.256	70.56
504.473	78.56
504.69	83.56
504.907	76.56
505.123	88.56
505.34	101.56
505.557	87.56
505.773	79.56
505.99	85.56
506.207	98.56
506.423	76.56
506.64	76.56
506.856	70.56
507.073	91.56
507.289	96.56
507.506	72.56
507.722	71.56
507.939	74.56
508.155	78.56
508.372	87.56
508.588	86.56
508.805	78.56
509.021	75.56
509.238	72.56
509.454	77.56
509.67	90.56
509.887	72.56
510.103	83.56
510.319	87.56
510.536	71.56
510.752	71.56
510.968	86.56
511.184	97.56
511.401	98.56
511.617	80.56
511.833	84.56
512.049	98.56
512.265	77.56
512.481	68.56
512.698	75.56
512.914	87.56
513.13	84.56
513.346	84.56
513.562	82.56
513.778	76.56
513.994	87.56
514.21	80.56
514.426	75.56
514.642	85.56
514.858	89.56
515.074	83.56
515.29	83.56
515.506	81.56
515.721	88.56
515.937	82.56
516.153	70.56
516.369	91.56
516.585	92.56
516.801	91.56
517.016	92.56
517.232	95.56
517.448	84.56
517.664	89.56
517.879	98.56
518.095	86.56
518.311	88.56
518.527	95.56
518.742	74.56
518.958	75.56
519.173	83.56
519.389	87.56
519.605	92.56
519.82	84.56
520.036	81.56
