Data from BG_HRD10591_073.txt Node
Date: Fri May 16 15:21:30 EDT 2025
User: Yrep
Spectrometer: HR+D1059
Trigger mode: 1
Integration Time (sec): 1.000000E-1
Scans to average: 1
Electric dark correction enabled: true
Nonlinearity correction enabled: false
Boxcar width: 0
XAxis mode: Wavelengths
Number of Pixels in Spectrum: 2048
>>>>>Begin Spectral Data<<<<<
223.165	-36.44
223.4	-36.44
223.635	-36.44
223.869	-13.44
224.104	-15.44
224.338	-31.44
224.573	-18.44
224.808	-15.44
225.042	-13.44
225.277	1.56
225.511	1.56
225.746	9.56
225.98	0.56
226.215	16.56
226.449	21.56
226.683	26.56
226.918	34.56
227.152	31.56
227.387	35.56
227.621	28.56
227.856	37.56
228.09	38.56
228.324	40.56
228.559	61.56
228.793	59.56
229.027	60.56
229.262	69.56
229.496	71.56
229.73	66.56
229.964	72.56
230.199	65.56
230.433	75.56
230.667	75.56
230.901	63.56
231.136	71.56
231.37	56.56
231.604	58.56
231.838	78.56
232.072	79.56
232.306	72.56
232.541	78.56
232.775	86.56
233.009	72.56
233.243	80.56
233.477	74.56
233.711	82.56
233.945	92.56
234.179	84.56
234.413	81.56
234.647	74.56
234.881	77.56
235.115	87.56
235.349	80.56
235.583	89.56
235.817	87.56
236.051	86.56
236.285	66.56
236.519	74.56
236.753	60.56
236.987	80.56
237.221	73.56
237.455	62.56
237.689	70.56
237.922	71.56
238.156	65.56
238.39	68.56
238.624	75.56
238.858	71.56
239.091	59.56
239.325	72.56
239.559	73.56
239.793	80.56
240.027	71.56
240.26	75.56
240.494	84.56
240.728	72.56
240.961	72.56
241.195	90.56
241.429	69.56
241.662	68.56
241.896	74.56
242.13	71.56
242.363	78.56
242.597	82.56
242.83	66.56
243.064	59.56
243.298	69.56
243.531	68.56
243.765	66.56
243.998	76.56
244.232	85.56
244.465	84.56
244.699	67.56
244.932	70.56
245.166	68.56
245.399	78.56
245.633	73.56
245.866	66.56
246.099	67.56
246.333	77.56
246.566	61.56
246.8	73.56
247.033	60.56
247.266	71.56
247.5	78.56
247.733	74.56
247.966	80.56
248.2	68.56
248.433	80.56
248.666	75.56
248.899	79.56
249.133	70.56
249.366	82.56
249.599	86.56
249.832	60.56
250.066	69.56
250.299	68.56
250.532	70.56
250.765	80.56
250.998	73.56
251.231	82.56
251.465	80.56
251.698	61.56
251.931	61.56
252.164	74.56
252.397	76.56
252.63	89.56
252.863	75.56
253.096	64.56
253.329	91.56
253.562	69.56
253.795	77.56
254.028	60.56
254.261	76.56
254.494	79.56
254.727	69.56
254.96	75.56
255.193	66.56
255.426	71.56
255.659	61.56
255.892	72.56
256.124	72.56
256.357	80.56
256.59	81.56
256.823	85.56
257.056	86.56
257.289	74.56
257.521	73.56
257.754	85.56
257.987	65.56
258.22	84.56
258.452	77.56
258.685	67.56
258.918	82.56
259.151	79.56
259.383	80.56
259.616	74.56
259.849	82.56
260.081	73.56
260.314	90.56
260.547	82.56
260.779	77.56
261.012	80.56
261.244	83.56
261.477	81.56
261.71	75.56
261.942	75.56
262.175	75.56
262.407	73.56
262.64	70.56
262.872	83.56
263.105	78.56
263.337	78.56
263.57	70.56
263.802	85.56
264.035	68.56
264.267	75.56
264.499	63.56
264.732	69.56
264.964	73.56
265.197	79.56
265.429	75.56
265.661	74.56
265.894	65.56
266.126	70.56
266.358	84.56
266.591	87.56
266.823	94.56
267.055	77.56
267.287	75.56
267.52	74.56
267.752	73.56
267.984	72.56
268.216	76.56
268.448	81.56
268.681	76.56
268.913	72.56
269.145	74.56
269.377	81.56
269.609	70.56
269.841	77.56
270.073	79.56
270.306	98.56
270.538	89.56
270.77	64.56
271.002	82.56
271.234	80.56
271.466	77.56
271.698	82.56
271.93	69.56
272.162	64.56
272.394	78.56
272.626	62.56
272.858	65.56
273.09	80.56
273.322	79.56
273.553	75.56
273.785	75.56
274.017	74.56
274.249	75.56
274.481	83.56
274.713	86.56
274.945	76.56
275.176	71.56
275.408	74.56
275.64	81.56
275.872	89.56
276.104	72.56
276.335	73.56
276.567	70.56
276.799	62.56
277.031	67.56
277.262	80.56
277.494	77.56
277.726	82.56
277.957	67.56
278.189	59.56
278.421	72.56
278.652	87.56
278.884	72.56
279.115	84.56
279.347	77.56
279.579	60.56
279.81	73.56
280.042	82.56
280.273	73.56
280.505	65.56
280.736	69.56
280.968	87.56
281.199	83.56
281.431	69.56
281.662	86.56
281.894	99.56
282.125	70.56
282.356	81.56
282.588	80.56
282.819	82.56
283.051	83.56
283.282	79.56
283.513	68.56
283.745	77.56
283.976	75.56
284.207	80.56
284.439	75.56
284.67	83.56
284.901	77.56
285.132	91.56
285.364	80.56
285.595	86.56
285.826	69.56
286.057	91.56
286.288	79.56
286.52	88.56
286.751	83.56
286.982	70.56
287.213	75.56
287.444	98.56
287.675	82.56
287.906	75.56
288.138	77.56
288.369	80.56
288.6	64.56
288.831	80.56
289.062	84.56
289.293	77.56
289.524	80.56
289.755	79.56
289.986	72.56
290.217	85.56
290.448	93.56
290.679	92.56
290.91	83.56
291.141	82.56
291.371	82.56
291.602	81.56
291.833	77.56
292.064	69.56
292.295	81.56
292.526	76.56
292.757	90.56
292.987	78.56
293.218	70.56
293.449	69.56
293.68	77.56
293.91	78.56
294.141	73.56
294.372	84.56
294.603	80.56
294.833	73.56
295.064	75.56
295.295	80.56
295.525	66.56
295.756	89.56
295.987	93.56
296.217	72.56
296.448	72.56
296.679	71.56
296.909	76.56
297.14	75.56
297.37	80.56
297.601	80.56
297.831	76.56
298.062	69.56
298.292	83.56
298.523	87.56
298.753	77.56
298.984	58.56
299.214	76.56
299.445	89.56
299.675	67.56
299.905	80.56
300.136	89.56
300.366	70.56
300.597	90.56
300.827	76.56
301.057	72.56
301.288	76.56
301.518	74.56
301.748	98.56
301.979	89.56
302.209	77.56
302.439	88.56
302.669	79.56
302.9	93.56
303.13	78.56
303.36	88.56
303.59	73.56
303.82	88.56
304.051	79.56
304.281	74.56
304.511	88.56
304.741	76.56
304.971	80.56
305.201	85.56
305.431	77.56
305.661	76.56
305.891	82.56
306.121	94.56
306.352	89.56
306.582	84.56
306.812	84.56
307.042	88.56
307.272	73.56
307.502	71.56
307.731	70.56
307.961	83.56
308.191	78.56
308.421	77.56
308.651	74.56
308.881	74.56
309.111	73.56
309.341	84.56
309.571	84.56
309.8	77.56
310.03	81.56
310.26	72.56
310.49	86.56
310.72	68.56
310.949	89.56
311.179	82.56
311.409	76.56
311.639	69.56
311.868	69.56
312.098	77.56
312.328	73.56
312.557	88.56
312.787	68.56
313.017	85.56
313.246	82.56
313.476	87.56
313.706	81.56
313.935	69.56
314.165	76.56
314.394	80.56
314.624	74.56
314.853	85.56
315.083	85.56
315.312	85.56
315.542	93.56
315.771	77.56
316.001	91.56
316.23	85.56
316.46	80.56
316.689	73.56
316.919	88.56
317.148	82.56
317.377	74.56
317.607	83.56
317.836	79.56
318.065	82.56
318.295	83.56
318.524	71.56
318.753	68.56
318.983	79.56
319.212	80.56
319.441	70.56
319.67	72.56
319.9	68.56
320.129	77.56
320.358	76.56
320.587	101.56
320.816	79.56
321.046	80.56
321.275	80.56
321.504	86.56
321.733	79.56
321.962	82.56
322.191	90.56
322.42	73.56
322.649	62.56
322.878	76.56
323.108	79.56
323.337	88.56
323.566	71.56
323.795	62.56
324.024	86.56
324.253	88.56
324.482	81.56
324.71	84.56
324.939	76.56
325.168	67.56
325.397	89.56
325.626	101.56
325.855	88.56
326.084	76.56
326.313	91.56
326.542	65.56
326.77	74.56
326.999	91.56
327.228	76.56
327.457	81.56
327.686	79.56
327.914	91.56
328.143	79.56
328.372	86.56
328.6	65.56
328.829	80.56
329.058	88.56
329.287	89.56
329.515	83.56
329.744	72.56
329.972	84.56
330.201	73.56
330.43	78.56
330.658	90.56
330.887	75.56
331.115	78.56
331.344	90.56
331.572	93.56
331.801	78.56
332.03	88.56
332.258	62.56
332.486	82.56
332.715	85.56
332.943	88.56
333.172	81.56
333.4	76.56
333.629	76.56
333.857	77.56
334.085	76.56
334.314	82.56
334.542	72.56
334.771	85.56
334.999	80.56
335.227	76.56
335.455	80.56
335.684	79.56
335.912	74.56
336.14	77.56
336.369	81.56
336.597	91.56
336.825	96.56
337.053	96.56
337.281	59.56
337.51	74.56
337.738	57.56
337.966	78.56
338.194	74.56
338.422	76.56
338.65	82.56
338.878	78.56
339.106	75.56
339.334	77.56
339.562	81.56
339.79	75.56
340.018	81.56
340.246	85.56
340.474	91.56
340.702	78.56
340.93	86.56
341.158	73.56
341.386	83.56
341.614	83.56
341.842	65.56
342.07	77.56
342.298	78.56
342.526	85.56
342.754	78.56
342.981	84.56
343.209	68.56
343.437	89.56
343.665	63.56
343.893	97.56
344.12	78.56
344.348	84.56
344.576	83.56
344.804	83.56
345.031	69.56
345.259	84.56
345.487	78.56
345.714	69.56
345.942	73.56
346.17	82.56
346.397	74.56
346.625	85.56
346.853	92.56
347.08	83.56
347.308	77.56
347.535	76.56
347.763	72.56
347.99	84.56
348.218	84.56
348.445	72.56
348.673	78.56
348.9	88.56
349.128	78.56
349.355	74.56
349.583	75.56
349.81	74.56
350.037	83.56
350.265	73.56
350.492	77.56
350.72	70.56
350.947	73.56
351.174	79.56
351.402	85.56
351.629	70.56
351.856	80.56
352.083	76.56
352.311	77.56
352.538	80.56
352.765	74.56
352.992	83.56
353.22	77.56
353.447	90.56
353.674	68.56
353.901	72.56
354.128	77.56
354.355	94.56
354.583	92.56
354.81	75.56
355.037	75.56
355.264	86.56
355.491	85.56
355.718	72.56
355.945	81.56
356.172	90.56
356.399	76.56
356.626	61.56
356.853	68.56
357.08	85.56
357.307	81.56
357.534	77.56
357.761	73.56
357.988	74.56
358.215	80.56
358.441	83.56
358.668	79.56
358.895	63.56
359.122	89.56
359.349	77.56
359.576	81.56
359.802	80.56
360.029	69.56
360.256	76.56
360.483	89.56
360.709	85.56
360.936	77.56
361.163	90.56
361.39	83.56
361.616	95.56
361.843	68.56
362.07	86.56
362.296	73.56
362.523	96.56
362.749	89.56
362.976	85.56
363.203	97.56
363.429	81.56
363.656	77.56
363.882	76.56
364.109	84.56
364.335	85.56
364.562	82.56
364.788	77.56
365.015	66.56
365.241	66.56
365.468	76.56
365.694	69.56
365.92	68.56
366.147	69.56
366.373	71.56
366.599	81.56
366.826	88.56
367.052	76.56
367.278	90.56
367.505	85.56
367.731	94.56
367.957	68.56
368.184	55.56
368.41	71.56
368.636	73.56
368.862	85.56
369.089	81.56
369.315	62.56
369.541	78.56
369.767	71.56
369.993	76.56
370.219	69.56
370.445	72.56
370.672	76.56
370.898	68.56
371.124	74.56
371.35	65.56
371.576	64.56
371.802	72.56
372.028	81.56
372.254	73.56
372.48	70.56
372.706	78.56
372.932	79.56
373.158	61.56
373.384	65.56
373.61	76.56
373.835	76.56
374.061	78.56
374.287	66.56
374.513	72.56
374.739	73.56
374.965	98.56
375.191	81.56
375.416	82.56
375.642	80.56
375.868	94.56
376.094	84.56
376.319	71.56
376.545	80.56
376.771	82.56
376.997	72.56
377.222	77.56
377.448	74.56
377.674	78.56
377.899	68.56
378.125	75.56
378.35	84.56
378.576	77.56
378.802	80.56
379.027	81.56
379.253	95.56
379.478	72.56
379.704	76.56
379.929	78.56
380.155	71.56
380.38	71.56
380.606	68.56
380.831	84.56
381.057	90.56
381.282	72.56
381.507	89.56
381.733	81.56
381.958	87.56
382.184	84.56
382.409	79.56
382.634	64.56
382.86	81.56
383.085	74.56
383.31	72.56
383.535	87.56
383.761	84.56
383.986	89.56
384.211	71.56
384.436	81.56
384.662	76.56
384.887	57.56
385.112	79.56
385.337	64.56
385.562	78.56
385.787	78.56
386.013	79.56
386.238	77.56
386.463	82.56
386.688	84.56
386.913	62.56
387.138	73.56
387.363	88.56
387.588	86.56
387.813	97.56
388.038	73.56
388.263	78.56
388.488	66.56
388.713	69.56
388.938	70.56
389.163	79.56
389.387	98.56
389.612	72.56
389.837	78.56
390.062	71.56
390.287	84.56
390.512	84.56
390.736	82.56
390.961	77.56
391.186	73.56
391.411	69.56
391.636	90.56
391.86	86.56
392.085	82.56
392.31	86.56
392.534	77.56
392.759	85.56
392.984	70.56
393.208	79.56
393.433	87.56
393.658	80.56
393.882	75.56
394.107	76.56
394.331	73.56
394.556	79.56
394.78	82.56
395.005	61.56
395.229	62.56
395.454	78.56
395.678	75.56
395.903	75.56
396.127	81.56
396.352	69.56
396.576	73.56
396.801	98.56
397.025	81.56
397.249	78.56
397.474	85.56
397.698	75.56
397.922	68.56
398.147	67.56
398.371	77.56
398.595	75.56
398.82	70.56
399.044	71.56
399.268	72.56
399.492	70.56
399.717	90.56
399.941	63.56
400.165	70.56
400.389	85.56
400.613	75.56
400.837	70.56
401.062	80.56
401.286	81.56
401.51	88.56
401.734	85.56
401.958	74.56
402.182	77.56
402.406	70.56
402.63	61.56
402.854	68.56
403.078	72.56
403.302	81.56
403.526	86.56
403.75	78.56
403.974	84.56
404.198	74.56
404.422	81.56
404.645	77.56
404.869	73.56
405.093	74.56
405.317	81.56
405.541	87.56
405.765	75.56
405.988	83.56
406.212	81.56
406.436	83.56
406.66	84.56
406.883	82.56
407.107	68.56
407.331	70.56
407.555	73.56
407.778	77.56
408.002	73.56
408.226	70.56
408.449	68.56
408.673	80.56
408.896	76.56
409.12	67.56
409.344	90.56
409.567	80.56
409.791	81.56
410.014	68.56
410.238	87.56
410.461	75.56
410.685	80.56
410.908	76.56
411.132	91.56
411.355	60.56
411.578	80.56
411.802	73.56
412.025	81.56
412.249	76.56
412.472	85.56
412.695	64.56
412.919	78.56
413.142	83.56
413.365	62.56
413.589	80.56
413.812	67.56
414.035	71.56
414.258	75.56
414.482	80.56
414.705	78.56
414.928	76.56
415.151	65.56
415.374	69.56
415.597	74.56
415.821	88.56
416.044	83.56
416.267	74.56
416.49	68.56
416.713	88.56
416.936	73.56
417.159	78.56
417.382	72.56
417.605	68.56
417.828	70.56
418.051	76.56
418.274	81.56
418.497	73.56
418.72	82.56
418.943	75.56
419.166	62.56
419.389	66.56
419.611	77.56
419.834	79.56
420.057	73.56
420.28	72.56
420.503	81.56
420.726	62.56
420.948	77.56
421.171	78.56
421.394	74.56
421.617	73.56
421.839	76.56
422.062	74.56
422.285	74.56
422.507	86.56
422.73	83.56
422.953	79.56
423.175	64.56
423.398	70.56
423.621	70.56
423.843	76.56
424.066	78.56
424.288	67.56
424.511	83.56
424.733	81.56
424.956	74.56
425.178	71.56
425.401	77.56
425.623	92.56
425.846	66.56
426.068	74.56
426.291	75.56
426.513	67.56
426.735	70.56
426.958	81.56
427.18	89.56
427.402	80.56
427.625	67.56
427.847	81.56
428.069	81.56
428.292	77.56
428.514	70.56
428.736	62.56
428.958	73.56
429.181	76.56
429.403	73.56
429.625	92.56
429.847	68.56
430.069	71.56
430.292	74.56
430.514	88.56
430.736	73.56
430.958	79.56
431.18	64.56
431.402	71.56
431.624	89.56
431.846	77.56
432.068	74.56
432.29	65.56
432.512	91.56
432.734	83.56
432.956	63.56
433.178	85.56
433.4	67.56
433.622	82.56
433.844	71.56
434.066	66.56
434.287	60.56
434.509	78.56
434.731	81.56
434.953	70.56
435.175	77.56
435.397	94.56
435.618	81.56
435.84	72.56
436.062	72.56
436.284	79.56
436.505	74.56
436.727	71.56
436.949	80.56
437.17	92.56
437.392	68.56
437.614	69.56
437.835	91.56
438.057	68.56
438.278	68.56
438.5	86.56
438.721	70.56
438.943	68.56
439.165	79.56
439.386	71.56
439.608	84.56
439.829	70.56
440.05	81.56
440.272	72.56
440.493	65.56
440.715	80.56
440.936	76.56
441.158	74.56
441.379	76.56
441.6	75.56
441.822	61.56
442.043	75.56
442.264	81.56
442.486	76.56
442.707	77.56
442.928	83.56
443.149	86.56
443.371	76.56
443.592	64.56
443.813	76.56
444.034	74.56
444.255	74.56
444.476	72.56
444.698	77.56
444.919	62.56
445.14	157.56
445.361	104.56
445.582	84.56
445.803	77.56
446.024	74.56
446.245	65.56
446.466	66.56
446.687	70.56
446.908	78.56
447.129	82.56
447.35	75.56
447.571	79.56
447.792	90.56
448.013	74.56
448.234	78.56
448.455	66.56
448.675	74.56
448.896	78.56
449.117	89.56
449.338	77.56
449.559	73.56
449.779	74.56
450	76.56
450.221	66.56
450.442	79.56
450.662	62.56
450.883	88.56
451.104	79.56
451.324	75.56
451.545	68.56
451.766	72.56
451.986	77.56
452.207	62.56
452.428	71.56
452.648	84.56
452.869	89.56
453.089	83.56
453.31	82.56
453.53	70.56
453.751	82.56
453.971	69.56
454.192	77.56
454.412	75.56
454.633	70.56
454.853	85.56
455.073	77.56
455.294	80.56
455.514	82.56
455.734	79.56
455.955	82.56
456.175	81.56
456.395	89.56
456.616	83.56
456.836	75.56
457.056	76.56
457.276	76.56
457.497	80.56
457.717	73.56
457.937	78.56
458.157	77.56
458.377	74.56
458.598	76.56
458.818	78.56
459.038	85.56
459.258	80.56
459.478	64.56
459.698	85.56
459.918	78.56
460.138	98.56
460.358	70.56
460.578	81.56
460.798	82.56
461.018	76.56
461.238	64.56
461.458	72.56
461.678	67.56
461.898	76.56
462.118	79.56
462.338	83.56
462.558	83.56
462.777	75.56
462.997	67.56
463.217	67.56
463.437	71.56
463.657	68.56
463.876	74.56
464.096	80.56
464.316	77.56
464.536	75.56
464.755	83.56
464.975	78.56
465.195	88.56
465.414	80.56
465.634	80.56
465.854	76.56
466.073	79.56
466.293	68.56
466.512	77.56
466.732	73.56
466.951	78.56
467.171	72.56
467.391	79.56
467.61	77.56
467.829	78.56
468.049	91.56
468.268	79.56
468.488	76.56
468.707	80.56
468.927	84.56
469.146	73.56
469.365	83.56
469.585	76.56
469.804	85.56
470.023	96.56
470.243	76.56
470.462	85.56
470.681	77.56
470.901	88.56
471.12	74.56
471.339	60.56
471.558	78.56
471.777	74.56
471.997	75.56
472.216	68.56
472.435	81.56
472.654	81.56
472.873	88.56
473.092	71.56
473.311	76.56
473.53	79.56
473.749	66.56
473.968	63.56
474.187	76.56
474.406	73.56
474.625	90.56
474.844	76.56
475.063	70.56
475.282	67.56
475.501	74.56
475.72	72.56
475.939	84.56
476.158	83.56
476.377	71.56
476.596	72.56
476.814	70.56
477.033	65.56
477.252	76.56
477.471	80.56
477.69	80.56
477.908	81.56
478.127	81.56
478.346	81.56
478.564	75.56
478.783	81.56
479.002	77.56
479.22	62.56
479.439	70.56
479.658	75.56
479.876	82.56
480.095	84.56
480.313	69.56
480.532	78.56
480.751	76.56
480.969	83.56
481.188	70.56
481.406	86.56
481.624	84.56
481.843	70.56
482.061	81.56
482.28	78.56
482.498	76.56
482.717	76.56
482.935	76.56
483.153	77.56
483.372	74.56
483.59	79.56
483.808	88.56
484.027	94.56
484.245	80.56
484.463	93.56
484.681	89.56
484.9	75.56
485.118	70.56
485.336	76.56
485.554	89.56
485.772	77.56
485.99	80.56
486.209	68.56
486.427	78.56
486.645	75.56
486.863	85.56
487.081	83.56
487.299	73.56
487.517	77.56
487.735	77.56
487.953	77.56
488.171	89.56
488.389	68.56
488.607	78.56
488.825	81.56
489.043	80.56
489.261	71.56
489.479	75.56
489.696	76.56
489.914	78.56
490.132	70.56
490.35	73.56
490.568	81.56
490.786	87.56
491.003	92.56
491.221	70.56
491.439	80.56
491.657	81.56
491.874	74.56
492.092	85.56
492.31	85.56
492.527	78.56
492.745	77.56
492.963	85.56
493.18	79.56
493.398	61.56
493.615	86.56
493.833	76.56
494.05	81.56
494.268	77.56
494.485	82.56
494.703	76.56
494.92	69.56
495.138	61.56
495.355	79.56
495.573	76.56
495.79	67.56
496.008	82.56
496.225	66.56
496.442	67.56
496.66	86.56
496.877	64.56
497.094	81.56
497.312	88.56
497.529	90.56
497.746	82.56
497.963	80.56
498.181	72.56
498.398	73.56
498.615	86.56
498.832	78.56
499.049	76.56
499.267	90.56
499.484	76.56
499.701	74.56
499.918	83.56
500.135	73.56
500.352	72.56
500.569	77.56
500.786	82.56
501.003	80.56
501.22	66.56
501.437	68.56
501.654	67.56
501.871	83.56
502.088	77.56
502.305	73.56
502.522	89.56
502.739	84.56
502.956	79.56
503.172	68.56
503.389	76.56
503.606	81.56
503.823	77.56
504.04	63.56
504.256	85.56
504.473	93.56
504.69	91.56
504.907	76.56
505.123	75.56
505.34	80.56
505.557	85.56
505.773	76.56
505.99	80.56
506.207	89.56
506.423	85.56
506.64	81.56
506.856	73.56
507.073	73.56
507.289	77.56
507.506	72.56
507.722	68.56
507.939	79.56
508.155	70.56
508.372	61.56
508.588	68.56
508.805	66.56
509.021	85.56
509.238	75.56
509.454	75.56
509.67	82.56
509.887	73.56
510.103	76.56
510.319	85.56
510.536	66.56
510.752	74.56
510.968	93.56
511.184	76.56
511.401	76.56
511.617	73.56
511.833	85.56
512.049	74.56
512.265	86.56
512.481	66.56
512.698	82.56
512.914	75.56
513.13	88.56
513.346	85.56
513.562	79.56
513.778	81.56
513.994	74.56
514.21	85.56
514.426	84.56
514.642	63.56
514.858	77.56
515.074	81.56
515.29	75.56
515.506	78.56
515.721	69.56
515.937	84.56
516.153	91.56
516.369	84.56
516.585	79.56
516.801	74.56
517.016	80.56
517.232	74.56
517.448	85.56
517.664	82.56
517.879	85.56
518.095	84.56
518.311	74.56
518.527	74.56
518.742	85.56
518.958	76.56
519.173	86.56
519.389	74.56
519.605	78.56
519.82	58.56
520.036	72.56
520.251	58.56
520.467	77.56
