Data from BG_HRD10591_049.txt Node
Date: Fri May 16 15:21:18 EDT 2025
User: Yrep
Spectrometer: HR+D1059
Trigger mode: 1
Integration Time (sec): 1.000000E-1
Scans to average: 1
Electric dark correction enabled: true
Nonlinearity correction enabled: false
Boxcar width: 0
XAxis mode: Wavelengths
Number of Pixels in Spectrum: 2048
>>>>>Begin Spectral Data<<<<<
223.165	-12.5
223.4	-12.5
223.635	-12.5
223.869	-19.5
224.104	-20.5
224.338	-3.5
224.573	0.5
224.808	-24.5
225.042	-5.5
225.277	-5.5
225.511	-12.5
225.746	13.5
225.98	7.5
226.215	-7.5
226.449	15.5
226.683	20.5
226.918	20.5
227.152	33.5
227.387	33.5
227.621	39.5
227.856	42.5
228.09	53.5
228.324	62.5
228.559	64.5
228.793	78.5
229.027	62.5
229.262	60.5
229.496	58.5
229.73	62.5
229.964	74.5
230.199	74.5
230.433	67.5
230.667	77.5
230.901	72.5
231.136	71.5
231.37	94.5
231.604	94.5
231.838	81.5
232.072	80.5
232.306	78.5
232.541	87.5
232.775	83.5
233.009	83.5
233.243	75.5
233.477	85.5
233.711	74.5
233.945	75.5
234.179	86.5
234.413	86.5
234.647	89.5
234.881	95.5
235.115	83.5
235.349	80.5
235.583	88.5
235.817	81.5
236.051	91.5
236.285	82.5
236.519	79.5
236.753	72.5
236.987	69.5
237.221	74.5
237.455	75.5
237.689	84.5
237.922	73.5
238.156	72.5
238.39	84.5
238.624	72.5
238.858	76.5
239.091	80.5
239.325	60.5
239.559	71.5
239.793	68.5
240.027	86.5
240.26	89.5
240.494	82.5
240.728	83.5
240.961	78.5
241.195	77.5
241.429	78.5
241.662	77.5
241.896	69.5
242.13	82.5
242.363	79.5
242.597	83.5
242.83	86.5
243.064	80.5
243.298	91.5
243.531	74.5
243.765	91.5
243.998	85.5
244.232	86.5
244.465	84.5
244.699	85.5
244.932	74.5
245.166	73.5
245.399	86.5
245.633	80.5
245.866	89.5
246.099	76.5
246.333	92.5
246.566	79.5
246.8	67.5
247.033	78.5
247.266	78.5
247.5	83.5
247.733	75.5
247.966	89.5
248.2	74.5
248.433	88.5
248.666	81.5
248.899	84.5
249.133	83.5
249.366	80.5
249.599	74.5
249.832	74.5
250.066	86.5
250.299	75.5
250.532	76.5
250.765	88.5
250.998	71.5
251.231	88.5
251.465	79.5
251.698	67.5
251.931	81.5
252.164	76.5
252.397	74.5
252.63	75.5
252.863	76.5
253.096	84.5
253.329	79.5
253.562	94.5
253.795	88.5
254.028	82.5
254.261	82.5
254.494	76.5
254.727	72.5
254.96	73.5
255.193	87.5
255.426	89.5
255.659	93.5
255.892	90.5
256.124	76.5
256.357	84.5
256.59	94.5
256.823	95.5
257.056	76.5
257.289	75.5
257.521	64.5
257.754	87.5
257.987	89.5
258.22	84.5
258.452	82.5
258.685	86.5
258.918	90.5
259.151	79.5
259.383	97.5
259.616	87.5
259.849	92.5
260.081	108.5
260.314	72.5
260.547	70.5
260.779	83.5
261.012	77.5
261.244	88.5
261.477	95.5
261.71	88.5
261.942	78.5
262.175	83.5
262.407	96.5
262.64	87.5
262.872	81.5
263.105	96.5
263.337	81.5
263.57	81.5
263.802	79.5
264.035	71.5
264.267	89.5
264.499	71.5
264.732	90.5
264.964	96.5
265.197	75.5
265.429	78.5
265.661	92.5
265.894	78.5
266.126	67.5
266.358	96.5
266.591	74.5
266.823	87.5
267.055	68.5
267.287	86.5
267.52	93.5
267.752	90.5
267.984	97.5
268.216	72.5
268.448	94.5
268.681	96.5
268.913	92.5
269.145	83.5
269.377	91.5
269.609	64.5
269.841	93.5
270.073	86.5
270.306	76.5
270.538	74.5
270.77	103.5
271.002	94.5
271.234	83.5
271.466	68.5
271.698	74.5
271.93	74.5
272.162	94.5
272.394	92.5
272.626	62.5
272.858	84.5
273.09	109.5
273.322	79.5
273.553	89.5
273.785	97.5
274.017	81.5
274.249	83.5
274.481	84.5
274.713	84.5
274.945	86.5
275.176	80.5
275.408	82.5
275.64	75.5
275.872	84.5
276.104	86.5
276.335	86.5
276.567	82.5
276.799	80.5
277.031	83.5
277.262	90.5
277.494	85.5
277.726	98.5
277.957	63.5
278.189	76.5
278.421	82.5
278.652	78.5
278.884	91.5
279.115	78.5
279.347	83.5
279.579	88.5
279.81	92.5
280.042	73.5
280.273	80.5
280.505	80.5
280.736	97.5
280.968	88.5
281.199	84.5
281.431	93.5
281.662	85.5
281.894	107.5
282.125	78.5
282.356	86.5
282.588	74.5
282.819	90.5
283.051	93.5
283.282	93.5
283.513	98.5
283.745	99.5
283.976	86.5
284.207	100.5
284.439	85.5
284.67	96.5
284.901	87.5
285.132	94.5
285.364	88.5
285.595	74.5
285.826	80.5
286.057	87.5
286.288	89.5
286.52	85.5
286.751	87.5
286.982	102.5
287.213	81.5
287.444	86.5
287.675	78.5
287.906	98.5
288.138	86.5
288.369	93.5
288.6	85.5
288.831	92.5
289.062	77.5
289.293	80.5
289.524	90.5
289.755	74.5
289.986	79.5
290.217	83.5
290.448	87.5
290.679	87.5
290.91	94.5
291.141	84.5
291.371	102.5
291.602	88.5
291.833	96.5
292.064	75.5
292.295	92.5
292.526	88.5
292.757	103.5
292.987	83.5
293.218	95.5
293.449	83.5
293.68	94.5
293.91	78.5
294.141	82.5
294.372	74.5
294.603	97.5
294.833	96.5
295.064	91.5
295.295	95.5
295.525	96.5
295.756	90.5
295.987	88.5
296.217	82.5
296.448	86.5
296.679	74.5
296.909	99.5
297.14	72.5
297.37	78.5
297.601	82.5
297.831	94.5
298.062	90.5
298.292	90.5
298.523	91.5
298.753	86.5
298.984	79.5
299.214	84.5
299.445	78.5
299.675	87.5
299.905	90.5
300.136	81.5
300.366	78.5
300.597	77.5
300.827	88.5
301.057	91.5
301.288	90.5
301.518	94.5
301.748	80.5
301.979	122.5
302.209	95.5
302.439	78.5
302.669	97.5
302.9	86.5
303.13	92.5
303.36	75.5
303.59	91.5
303.82	81.5
304.051	79.5
304.281	82.5
304.511	67.5
304.741	86.5
304.971	72.5
305.201	79.5
305.431	94.5
305.661	95.5
305.891	97.5
306.121	97.5
306.352	91.5
306.582	87.5
306.812	78.5
307.042	85.5
307.272	94.5
307.502	88.5
307.731	86.5
307.961	66.5
308.191	81.5
308.421	90.5
308.651	79.5
308.881	90.5
309.111	78.5
309.341	83.5
309.571	77.5
309.8	100.5
310.03	85.5
310.26	81.5
310.49	91.5
310.72	92.5
310.949	93.5
311.179	89.5
311.409	76.5
311.639	73.5
311.868	96.5
312.098	90.5
312.328	84.5
312.557	94.5
312.787	76.5
313.017	84.5
313.246	80.5
313.476	73.5
313.706	74.5
313.935	73.5
314.165	77.5
314.394	91.5
314.624	83.5
314.853	87.5
315.083	87.5
315.312	93.5
315.542	82.5
315.771	72.5
316.001	69.5
316.23	68.5
316.46	66.5
316.689	86.5
316.919	79.5
317.148	97.5
317.377	86.5
317.607	97.5
317.836	70.5
318.065	87.5
318.295	83.5
318.524	93.5
318.753	94.5
318.983	90.5
319.212	95.5
319.441	90.5
319.67	93.5
319.9	87.5
320.129	75.5
320.358	83.5
320.587	90.5
320.816	90.5
321.046	90.5
321.275	79.5
321.504	89.5
321.733	83.5
321.962	99.5
322.191	96.5
322.42	84.5
322.649	86.5
322.878	103.5
323.108	92.5
323.337	95.5
323.566	86.5
323.795	76.5
324.024	92.5
324.253	90.5
324.482	87.5
324.71	89.5
324.939	85.5
325.168	91.5
325.397	79.5
325.626	86.5
325.855	90.5
326.084	77.5
326.313	86.5
326.542	83.5
326.77	90.5
326.999	90.5
327.228	86.5
327.457	87.5
327.686	83.5
327.914	78.5
328.143	91.5
328.372	92.5
328.6	103.5
328.829	90.5
329.058	88.5
329.287	91.5
329.515	93.5
329.744	76.5
329.972	96.5
330.201	90.5
330.43	82.5
330.658	86.5
330.887	79.5
331.115	92.5
331.344	87.5
331.572	89.5
331.801	85.5
332.03	89.5
332.258	87.5
332.486	74.5
332.715	77.5
332.943	91.5
333.172	88.5
333.4	75.5
333.629	85.5
333.857	94.5
334.085	79.5
334.314	92.5
334.542	75.5
334.771	83.5
334.999	77.5
335.227	85.5
335.455	88.5
335.684	85.5
335.912	74.5
336.14	72.5
336.369	88.5
336.597	88.5
336.825	88.5
337.053	86.5
337.281	79.5
337.51	98.5
337.738	88.5
337.966	94.5
338.194	65.5
338.422	81.5
338.65	78.5
338.878	81.5
339.106	91.5
339.334	94.5
339.562	87.5
339.79	92.5
340.018	78.5
340.246	87.5
340.474	76.5
340.702	86.5
340.93	85.5
341.158	92.5
341.386	74.5
341.614	76.5
341.842	81.5
342.07	83.5
342.298	78.5
342.526	78.5
342.754	81.5
342.981	79.5
343.209	89.5
343.437	116.5
343.665	78.5
343.893	89.5
344.12	88.5
344.348	68.5
344.576	90.5
344.804	83.5
345.031	79.5
345.259	87.5
345.487	93.5
345.714	91.5
345.942	85.5
346.17	75.5
346.397	77.5
346.625	77.5
346.853	75.5
347.08	93.5
347.308	86.5
347.535	83.5
347.763	82.5
347.99	91.5
348.218	85.5
348.445	86.5
348.673	86.5
348.9	91.5
349.128	74.5
349.355	72.5
349.583	64.5
349.81	71.5
350.037	91.5
350.265	94.5
350.492	94.5
350.72	77.5
350.947	82.5
351.174	78.5
351.402	95.5
351.629	92.5
351.856	98.5
352.083	88.5
352.311	90.5
352.538	86.5
352.765	76.5
352.992	96.5
353.22	92.5
353.447	85.5
353.674	92.5
353.901	90.5
354.128	68.5
354.355	91.5
354.583	79.5
354.81	89.5
355.037	90.5
355.264	89.5
355.491	82.5
355.718	66.5
355.945	78.5
356.172	83.5
356.399	81.5
356.626	85.5
356.853	91.5
357.08	76.5
357.307	81.5
357.534	76.5
357.761	97.5
357.988	95.5
358.215	89.5
358.441	89.5
358.668	92.5
358.895	83.5
359.122	81.5
359.349	91.5
359.576	87.5
359.802	88.5
360.029	92.5
360.256	99.5
360.483	88.5
360.709	91.5
360.936	92.5
361.163	88.5
361.39	84.5
361.616	80.5
361.843	66.5
362.07	84.5
362.296	89.5
362.523	79.5
362.749	77.5
362.976	82.5
363.203	90.5
363.429	93.5
363.656	89.5
363.882	85.5
364.109	79.5
364.335	81.5
364.562	78.5
364.788	87.5
365.015	93.5
365.241	98.5
365.468	86.5
365.694	102.5
365.92	91.5
366.147	85.5
366.373	94.5
366.599	82.5
366.826	92.5
367.052	86.5
367.278	94.5
367.505	99.5
367.731	95.5
367.957	86.5
368.184	76.5
368.41	97.5
368.636	94.5
368.862	88.5
369.089	88.5
369.315	90.5
369.541	79.5
369.767	83.5
369.993	87.5
370.219	75.5
370.445	80.5
370.672	91.5
370.898	91.5
371.124	97.5
371.35	73.5
371.576	84.5
371.802	86.5
372.028	76.5
372.254	87.5
372.48	95.5
372.706	81.5
372.932	82.5
373.158	82.5
373.384	82.5
373.61	80.5
373.835	77.5
374.061	66.5
374.287	93.5
374.513	91.5
374.739	93.5
374.965	75.5
375.191	71.5
375.416	92.5
375.642	98.5
375.868	100.5
376.094	88.5
376.319	73.5
376.545	83.5
376.771	76.5
376.997	91.5
377.222	83.5
377.448	91.5
377.674	81.5
377.899	73.5
378.125	87.5
378.35	84.5
378.576	73.5
378.802	81.5
379.027	85.5
379.253	90.5
379.478	80.5
379.704	82.5
379.929	78.5
380.155	99.5
380.38	80.5
380.606	86.5
380.831	95.5
381.057	90.5
381.282	81.5
381.507	78.5
381.733	93.5
381.958	87.5
382.184	92.5
382.409	88.5
382.634	93.5
382.86	84.5
383.085	76.5
383.31	68.5
383.535	79.5
383.761	81.5
383.986	91.5
384.211	86.5
384.436	79.5
384.662	80.5
384.887	83.5
385.112	92.5
385.337	80.5
385.562	86.5
385.787	84.5
386.013	93.5
386.238	104.5
386.463	93.5
386.688	92.5
386.913	80.5
387.138	79.5
387.363	66.5
387.588	95.5
387.813	101.5
388.038	80.5
388.263	77.5
388.488	77.5
388.713	78.5
388.938	73.5
389.163	80.5
389.387	79.5
389.612	87.5
389.837	86.5
390.062	87.5
390.287	87.5
390.512	81.5
390.736	90.5
390.961	80.5
391.186	94.5
391.411	92.5
391.636	83.5
391.86	78.5
392.085	93.5
392.31	89.5
392.534	79.5
392.759	91.5
392.984	81.5
393.208	70.5
393.433	82.5
393.658	89.5
393.882	95.5
394.107	69.5
394.331	84.5
394.556	104.5
394.78	78.5
395.005	80.5
395.229	76.5
395.454	92.5
395.678	94.5
395.903	83.5
396.127	79.5
396.352	74.5
396.576	65.5
396.801	81.5
397.025	83.5
397.249	85.5
397.474	77.5
397.698	89.5
397.922	82.5
398.147	86.5
398.371	81.5
398.595	69.5
398.82	75.5
399.044	98.5
399.268	87.5
399.492	81.5
399.717	79.5
399.941	93.5
400.165	82.5
400.389	82.5
400.613	68.5
400.837	68.5
401.062	75.5
401.286	75.5
401.51	82.5
401.734	86.5
401.958	83.5
402.182	87.5
402.406	79.5
402.63	86.5
402.854	73.5
403.078	84.5
403.302	67.5
403.526	74.5
403.75	77.5
403.974	80.5
404.198	79.5
404.422	91.5
404.645	64.5
404.869	68.5
405.093	79.5
405.317	87.5
405.541	91.5
405.765	81.5
405.988	76.5
406.212	88.5
406.436	82.5
406.66	85.5
406.883	71.5
407.107	84.5
407.331	94.5
407.555	85.5
407.778	87.5
408.002	91.5
408.226	82.5
408.449	74.5
408.673	80.5
408.896	79.5
409.12	78.5
409.344	77.5
409.567	91.5
409.791	88.5
410.014	75.5
410.238	84.5
410.461	82.5
410.685	73.5
410.908	68.5
411.132	76.5
411.355	83.5
411.578	93.5
411.802	86.5
412.025	82.5
412.249	90.5
412.472	83.5
412.695	76.5
412.919	72.5
413.142	92.5
413.365	83.5
413.589	73.5
413.812	78.5
414.035	83.5
414.258	86.5
414.482	74.5
414.705	91.5
414.928	76.5
415.151	80.5
415.374	72.5
415.597	73.5
415.821	84.5
416.044	94.5
416.267	82.5
416.49	64.5
416.713	93.5
416.936	88.5
417.159	79.5
417.382	80.5
417.605	86.5
417.828	89.5
418.051	90.5
418.274	78.5
418.497	75.5
418.72	68.5
418.943	81.5
419.166	87.5
419.389	89.5
419.611	82.5
419.834	68.5
420.057	90.5
420.28	86.5
420.503	82.5
420.726	83.5
420.948	83.5
421.171	72.5
421.394	80.5
421.617	77.5
421.839	86.5
422.062	84.5
422.285	88.5
422.507	77.5
422.73	91.5
422.953	89.5
423.175	74.5
423.398	78.5
423.621	84.5
423.843	86.5
424.066	74.5
424.288	80.5
424.511	86.5
424.733	93.5
424.956	95.5
425.178	95.5
425.401	87.5
425.623	90.5
425.846	88.5
426.068	91.5
426.291	86.5
426.513	88.5
426.735	94.5
426.958	74.5
427.18	90.5
427.402	85.5
427.625	90.5
427.847	88.5
428.069	78.5
428.292	84.5
428.514	71.5
428.736	74.5
428.958	79.5
429.181	86.5
429.403	87.5
429.625	89.5
429.847	88.5
430.069	92.5
430.292	74.5
430.514	74.5
430.736	65.5
430.958	94.5
431.18	80.5
431.402	87.5
431.624	86.5
431.846	82.5
432.068	79.5
432.29	92.5
432.512	80.5
432.734	81.5
432.956	80.5
433.178	66.5
433.4	77.5
433.622	82.5
433.844	79.5
434.066	78.5
434.287	78.5
434.509	76.5
434.731	82.5
434.953	84.5
435.175	81.5
435.397	79.5
435.618	80.5
435.84	71.5
436.062	93.5
436.284	99.5
436.505	71.5
436.727	89.5
436.949	78.5
437.17	81.5
437.392	92.5
437.614	92.5
437.835	71.5
438.057	76.5
438.278	76.5
438.5	84.5
438.721	84.5
438.943	75.5
439.165	76.5
439.386	85.5
439.608	84.5
439.829	80.5
440.05	96.5
440.272	91.5
440.493	76.5
440.715	83.5
440.936	95.5
441.158	79.5
441.379	76.5
441.6	81.5
441.822	84.5
442.043	80.5
442.264	71.5
442.486	75.5
442.707	71.5
442.928	69.5
443.149	86.5
443.371	79.5
443.592	78.5
443.813	75.5
444.034	76.5
444.255	73.5
444.476	77.5
444.698	83.5
444.919	86.5
445.14	161.5
445.361	124.5
445.582	106.5
445.803	90.5
446.024	86.5
446.245	76.5
446.466	79.5
446.687	82.5
446.908	91.5
447.129	80.5
447.35	78.5
447.571	77.5
447.792	79.5
448.013	80.5
448.234	70.5
448.455	88.5
448.675	74.5
448.896	86.5
449.117	77.5
449.338	69.5
449.559	85.5
449.779	83.5
450	79.5
450.221	76.5
450.442	80.5
450.662	80.5
450.883	82.5
451.104	87.5
451.324	86.5
451.545	66.5
451.766	66.5
451.986	89.5
452.207	90.5
452.428	91.5
452.648	82.5
452.869	77.5
453.089	66.5
453.31	76.5
453.53	69.5
453.751	89.5
453.971	74.5
454.192	103.5
454.412	95.5
454.633	93.5
454.853	84.5
455.073	86.5
455.294	89.5
455.514	81.5
455.734	75.5
455.955	74.5
456.175	86.5
456.395	74.5
456.616	73.5
456.836	81.5
457.056	68.5
457.276	82.5
457.497	92.5
457.717	77.5
457.937	90.5
458.157	78.5
458.377	70.5
458.598	63.5
458.818	84.5
459.038	70.5
459.258	84.5
459.478	81.5
459.698	89.5
459.918	79.5
460.138	79.5
460.358	87.5
460.578	82.5
460.798	80.5
461.018	70.5
461.238	87.5
461.458	86.5
461.678	88.5
461.898	81.5
462.118	69.5
462.338	90.5
462.558	99.5
462.777	80.5
462.997	81.5
463.217	88.5
463.437	71.5
463.657	80.5
463.876	79.5
464.096	62.5
464.316	72.5
464.536	78.5
464.755	90.5
464.975	83.5
465.195	70.5
465.414	82.5
465.634	73.5
465.854	78.5
466.073	69.5
466.293	87.5
466.512	88.5
466.732	72.5
466.951	78.5
467.171	82.5
467.391	83.5
467.61	91.5
467.829	80.5
468.049	82.5
468.268	91.5
468.488	92.5
468.707	76.5
468.927	76.5
469.146	76.5
469.365	84.5
469.585	88.5
469.804	74.5
470.023	92.5
470.243	91.5
470.462	83.5
470.681	87.5
470.901	95.5
471.12	90.5
471.339	87.5
471.558	84.5
471.777	73.5
471.997	76.5
472.216	94.5
472.435	86.5
472.654	72.5
472.873	79.5
473.092	83.5
473.311	76.5
473.53	81.5
473.749	66.5
473.968	78.5
474.187	77.5
474.406	92.5
474.625	89.5
474.844	77.5
475.063	80.5
475.282	95.5
475.501	69.5
475.72	91.5
475.939	88.5
476.158	92.5
476.377	86.5
476.596	78.5
476.814	73.5
477.033	72.5
477.252	78.5
477.471	68.5
477.69	78.5
477.908	102.5
478.127	78.5
478.346	86.5
478.564	71.5
478.783	86.5
479.002	88.5
479.22	85.5
479.439	75.5
479.658	79.5
479.876	86.5
480.095	76.5
480.313	85.5
480.532	78.5
480.751	72.5
480.969	80.5
481.188	73.5
481.406	80.5
481.624	92.5
481.843	93.5
482.061	79.5
482.28	75.5
482.498	87.5
482.717	81.5
482.935	70.5
483.153	77.5
483.372	69.5
483.59	86.5
483.808	83.5
484.027	90.5
484.245	84.5
484.463	80.5
484.681	97.5
484.9	87.5
485.118	91.5
485.336	79.5
485.554	89.5
485.772	91.5
485.99	73.5
486.209	81.5
486.427	79.5
486.645	83.5
486.863	93.5
487.081	86.5
487.299	75.5
487.517	89.5
487.735	85.5
487.953	89.5
488.171	83.5
488.389	80.5
488.607	75.5
488.825	80.5
489.043	77.5
489.261	74.5
489.479	84.5
489.696	72.5
489.914	81.5
490.132	90.5
490.35	91.5
490.568	90.5
490.786	78.5
491.003	88.5
491.221	66.5
491.439	85.5
491.657	91.5
491.874	80.5
492.092	72.5
492.31	73.5
492.527	80.5
492.745	81.5
492.963	89.5
493.18	75.5
493.398	103.5
493.615	102.5
493.833	78.5
494.05	63.5
494.268	91.5
494.485	81.5
494.703	74.5
494.92	76.5
495.138	84.5
495.355	78.5
495.573	96.5
495.79	73.5
496.008	79.5
496.225	107.5
496.442	96.5
496.66	91.5
496.877	86.5
497.094	85.5
497.312	87.5
497.529	79.5
497.746	80.5
497.963	67.5
498.181	92.5
498.398	79.5
498.615	90.5
498.832	80.5
499.049	83.5
499.267	82.5
499.484	96.5
499.701	79.5
499.918	88.5
500.135	80.5
500.352	89.5
500.569	91.5
500.786	89.5
501.003	86.5
501.22	79.5
501.437	81.5
501.654	84.5
501.871	73.5
502.088	95.5
502.305	92.5
502.522	72.5
502.739	87.5
502.956	76.5
503.172	97.5
503.389	97.5
503.606	81.5
503.823	81.5
504.04	76.5
504.256	91.5
504.473	79.5
504.69	82.5
504.907	86.5
505.123	87.5
505.34	83.5
505.557	74.5
505.773	79.5
505.99	86.5
506.207	83.5
506.423	64.5
506.64	86.5
506.856	86.5
507.073	80.5
507.289	91.5
507.506	82.5
507.722	87.5
507.939	83.5
508.155	88.5
508.372	88.5
508.588	83.5
508.805	89.5
509.021	91.5
509.238	80.5
509.454	84.5
509.67	83.5
509.887	72.5
510.103	86.5
510.319	90.5
510.536	89.5
510.752	81.5
510.968	83.5
511.184	83.5
511.401	88.5
511.617	87.5
511.833	75.5
512.049	88.5
512.265	79.5
512.481	88.5
512.698	93.5
512.914	88.5
513.13	87.5
513.346	81.5
513.562	79.5
513.778	68.5
513.994	75.5
514.21	74.5
514.426	90.5
514.642	77.5
514.858	93.5
515.074	93.5
515.29	96.5
515.506	84.5
515.721	67.5
515.937	78.5
516.153	97.5
516.369	92.5
516.585	83.5
516.801	80.5
517.016	71.5
517.232	89.5
517.448	73.5
517.664	96.5
517.879	79.5
518.095	80.5
518.311	77.5
518.527	87.5
518.742	82.5
518.958	84.5
519.173	83.5
519.389	78.5
519.605	76.5
519.82	89.5
520.036	80.5
520.251	83.5
520.467	81.5
520.682	91.5
520.898	82.5
521.113	88.5
521.329	89.5
521.544	77.5
521.76	79.5
521.975	79.5
522.19	75.5
522.406	77.5
522.621	86.5
522.836	82.5
523.052	96.5
523.267	75.5
523.482	89.5
523.698	88.5
523.913	84.5
524.128	65.5
524.343	74.5
524.559	87.5
524.774	83.5
524.989	93.5
525.204	90.5
525.419	84.5
525.634	89.5
525.849	76.5
526.064	91.5
526.28	72.5
526.495	86.5
526.71	86.5
526.925	83.5
527.14	82.5
527.355	88.5
527.57	88.5
527.785	70.5
527.999	75.5
528.214	86.5
528.429	81.5
528.644	90.5
528.859	95.5
529.074	63.5
529.289	70.5
529.503	77.5
529.718	93.5
529.933	84.5
530.148	75.5
530.363	84.5
530.577	83.5
530.792	80.5
531.007	90.5
531.221	70.5
531.436	90.5
531.651	84.5
531.865	86.5
532.08	83.5
532.295	86.5
532.509	86.5
532.724	95.5
532.938	76.5
533.153	78.5
533.367	88.5
533.582	79.5
533.796	78.5
534.011	79.5
534.225	70.5
534.44	90.5
534.654	87.5
534.868	88.5
535.083	81.5
535.297	95.5
535.511	94.5
535.726	78.5
535.94	70.5
536.154	83.5
536.369	92.5
536.583	87.5
536.797	82.5
537.011	80.5
537.225	87.5
537.44	83.5
537.654	95.5
537.868	93.5
538.082	83.5
538.296	84.5
538.51	77.5
538.724	98.5
538.938	93.5
539.153	82.5
539.367	98.5
539.581	71.5
539.795	84.5
540.009	87.5
540.222	88.5
540.436	93.5
