Data from BG_HRD10591_071.txt Node
Date: Fri May 16 15:21:29 EDT 2025
User: Yrep
Spectrometer: HR+D1059
Trigger mode: 1
Integration Time (sec): 1.000000E-1
Scans to average: 1
Electric dark correction enabled: true
Nonlinearity correction enabled: false
Boxcar width: 0
XAxis mode: Wavelengths
Number of Pixels in Spectrum: 2048
>>>>>Begin Spectral Data<<<<<
223.165	-26.06
223.4	-26.06
223.635	-26.06
223.869	-2.06
224.104	-23.06
224.338	-14.06
224.573	-10.06
224.808	5.94
225.042	-21.06
225.277	-13.06
225.511	-11.06
225.746	5.94
225.98	-1.06
226.215	10.94
226.449	18.94
226.683	24.94
226.918	13.94
227.152	40.94
227.387	30.94
227.621	39.94
227.856	45.94
228.09	42.94
228.324	63.94
228.559	49.94
228.793	59.94
229.027	58.94
229.262	63.94
229.496	72.94
229.73	67.94
229.964	68.94
230.199	85.94
230.433	62.94
230.667	75.94
230.901	62.94
231.136	79.94
231.37	82.94
231.604	79.94
231.838	86.94
232.072	74.94
232.306	94.94
232.541	84.94
232.775	88.94
233.009	81.94
233.243	99.94
233.477	78.94
233.711	75.94
233.945	84.94
234.179	88.94
234.413	94.94
234.647	73.94
234.881	79.94
235.115	89.94
235.349	97.94
235.583	68.94
235.817	83.94
236.051	73.94
236.285	75.94
236.519	81.94
236.753	68.94
236.987	75.94
237.221	69.94
237.455	77.94
237.689	61.94
237.922	80.94
238.156	73.94
238.39	91.94
238.624	62.94
238.858	85.94
239.091	73.94
239.325	86.94
239.559	70.94
239.793	64.94
240.027	74.94
240.26	67.94
240.494	75.94
240.728	73.94
240.961	74.94
241.195	73.94
241.429	84.94
241.662	74.94
241.896	73.94
242.13	78.94
242.363	50.94
242.597	67.94
242.83	77.94
243.064	80.94
243.298	73.94
243.531	72.94
243.765	74.94
243.998	63.94
244.232	69.94
244.465	73.94
244.699	74.94
244.932	81.94
245.166	77.94
245.399	71.94
245.633	66.94
245.866	77.94
246.099	74.94
246.333	76.94
246.566	79.94
246.8	71.94
247.033	71.94
247.266	76.94
247.5	79.94
247.733	85.94
247.966	80.94
248.2	69.94
248.433	73.94
248.666	81.94
248.899	86.94
249.133	63.94
249.366	80.94
249.599	60.94
249.832	75.94
250.066	93.94
250.299	79.94
250.532	80.94
250.765	85.94
250.998	82.94
251.231	74.94
251.465	74.94
251.698	84.94
251.931	87.94
252.164	85.94
252.397	74.94
252.63	62.94
252.863	76.94
253.096	90.94
253.329	69.94
253.562	78.94
253.795	77.94
254.028	74.94
254.261	92.94
254.494	69.94
254.727	79.94
254.96	68.94
255.193	81.94
255.426	82.94
255.659	76.94
255.892	83.94
256.124	75.94
256.357	75.94
256.59	74.94
256.823	80.94
257.056	81.94
257.289	76.94
257.521	85.94
257.754	82.94
257.987	72.94
258.22	87.94
258.452	77.94
258.685	80.94
258.918	74.94
259.151	77.94
259.383	79.94
259.616	91.94
259.849	88.94
260.081	74.94
260.314	89.94
260.547	77.94
260.779	69.94
261.012	83.94
261.244	66.94
261.477	76.94
261.71	77.94
261.942	85.94
262.175	69.94
262.407	74.94
262.64	73.94
262.872	83.94
263.105	88.94
263.337	81.94
263.57	81.94
263.802	86.94
264.035	88.94
264.267	77.94
264.499	84.94
264.732	84.94
264.964	89.94
265.197	89.94
265.429	84.94
265.661	85.94
265.894	85.94
266.126	89.94
266.358	81.94
266.591	76.94
266.823	83.94
267.055	93.94
267.287	92.94
267.52	82.94
267.752	83.94
267.984	78.94
268.216	71.94
268.448	72.94
268.681	78.94
268.913	86.94
269.145	91.94
269.377	77.94
269.609	75.94
269.841	86.94
270.073	74.94
270.306	93.94
270.538	82.94
270.77	83.94
271.002	80.94
271.234	85.94
271.466	90.94
271.698	94.94
271.93	101.94
272.162	67.94
272.394	84.94
272.626	81.94
272.858	73.94
273.09	101.94
273.322	69.94
273.553	70.94
273.785	81.94
274.017	72.94
274.249	96.94
274.481	88.94
274.713	88.94
274.945	82.94
275.176	84.94
275.408	79.94
275.64	78.94
275.872	89.94
276.104	80.94
276.335	82.94
276.567	88.94
276.799	71.94
277.031	75.94
277.262	71.94
277.494	66.94
277.726	94.94
277.957	87.94
278.189	76.94
278.421	93.94
278.652	75.94
278.884	78.94
279.115	72.94
279.347	87.94
279.579	94.94
279.81	77.94
280.042	84.94
280.273	84.94
280.505	86.94
280.736	86.94
280.968	84.94
281.199	87.94
281.431	81.94
281.662	73.94
281.894	68.94
282.125	95.94
282.356	85.94
282.588	90.94
282.819	87.94
283.051	86.94
283.282	75.94
283.513	79.94
283.745	87.94
283.976	77.94
284.207	86.94
284.439	90.94
284.67	89.94
284.901	99.94
285.132	85.94
285.364	86.94
285.595	81.94
285.826	86.94
286.057	101.94
286.288	101.94
286.52	79.94
286.751	78.94
286.982	68.94
287.213	73.94
287.444	71.94
287.675	81.94
287.906	89.94
288.138	75.94
288.369	85.94
288.6	103.94
288.831	82.94
289.062	79.94
289.293	72.94
289.524	93.94
289.755	70.94
289.986	79.94
290.217	76.94
290.448	83.94
290.679	88.94
290.91	83.94
291.141	99.94
291.371	85.94
291.602	70.94
291.833	84.94
292.064	78.94
292.295	80.94
292.526	91.94
292.757	73.94
292.987	72.94
293.218	82.94
293.449	83.94
293.68	74.94
293.91	84.94
294.141	85.94
294.372	70.94
294.603	86.94
294.833	91.94
295.064	79.94
295.295	99.94
295.525	68.94
295.756	82.94
295.987	79.94
296.217	77.94
296.448	94.94
296.679	93.94
296.909	102.94
297.14	88.94
297.37	75.94
297.601	84.94
297.831	82.94
298.062	82.94
298.292	77.94
298.523	69.94
298.753	87.94
298.984	85.94
299.214	101.94
299.445	85.94
299.675	86.94
299.905	76.94
300.136	91.94
300.366	85.94
300.597	85.94
300.827	89.94
301.057	76.94
301.288	81.94
301.518	93.94
301.748	83.94
301.979	95.94
302.209	91.94
302.439	86.94
302.669	91.94
302.9	79.94
303.13	90.94
303.36	81.94
303.59	85.94
303.82	91.94
304.051	73.94
304.281	82.94
304.511	95.94
304.741	79.94
304.971	92.94
305.201	85.94
305.431	94.94
305.661	90.94
305.891	90.94
306.121	87.94
306.352	87.94
306.582	78.94
306.812	82.94
307.042	88.94
307.272	83.94
307.502	89.94
307.731	77.94
307.961	86.94
308.191	77.94
308.421	69.94
308.651	74.94
308.881	71.94
309.111	74.94
309.341	90.94
309.571	83.94
309.8	86.94
310.03	89.94
310.26	96.94
310.49	79.94
310.72	68.94
310.949	76.94
311.179	95.94
311.409	92.94
311.639	98.94
311.868	92.94
312.098	87.94
312.328	89.94
312.557	80.94
312.787	86.94
313.017	89.94
313.246	83.94
313.476	77.94
313.706	73.94
313.935	71.94
314.165	83.94
314.394	68.94
314.624	85.94
314.853	83.94
315.083	87.94
315.312	86.94
315.542	77.94
315.771	94.94
316.001	76.94
316.23	82.94
316.46	70.94
316.689	91.94
316.919	85.94
317.148	89.94
317.377	91.94
317.607	90.94
317.836	89.94
318.065	83.94
318.295	82.94
318.524	71.94
318.753	85.94
318.983	86.94
319.212	82.94
319.441	87.94
319.67	94.94
319.9	88.94
320.129	76.94
320.358	74.94
320.587	79.94
320.816	89.94
321.046	91.94
321.275	100.94
321.504	103.94
321.733	88.94
321.962	81.94
322.191	78.94
322.42	91.94
322.649	75.94
322.878	90.94
323.108	87.94
323.337	82.94
323.566	83.94
323.795	77.94
324.024	94.94
324.253	75.94
324.482	90.94
324.71	97.94
324.939	89.94
325.168	103.94
325.397	91.94
325.626	84.94
325.855	85.94
326.084	81.94
326.313	89.94
326.542	89.94
326.77	94.94
326.999	92.94
327.228	93.94
327.457	76.94
327.686	81.94
327.914	81.94
328.143	93.94
328.372	84.94
328.6	88.94
328.829	81.94
329.058	84.94
329.287	85.94
329.515	93.94
329.744	76.94
329.972	105.94
330.201	101.94
330.43	78.94
330.658	89.94
330.887	90.94
331.115	93.94
331.344	85.94
331.572	95.94
331.801	86.94
332.03	82.94
332.258	94.94
332.486	74.94
332.715	93.94
332.943	93.94
333.172	97.94
333.4	89.94
333.629	81.94
333.857	87.94
334.085	91.94
334.314	93.94
334.542	92.94
334.771	86.94
334.999	89.94
335.227	101.94
335.455	87.94
335.684	93.94
335.912	73.94
336.14	67.94
336.369	83.94
336.597	85.94
336.825	100.94
337.053	90.94
337.281	88.94
337.51	83.94
337.738	91.94
337.966	85.94
338.194	70.94
338.422	91.94
338.65	84.94
338.878	83.94
339.106	86.94
339.334	103.94
339.562	85.94
339.79	97.94
340.018	87.94
340.246	81.94
340.474	90.94
340.702	91.94
340.93	91.94
341.158	84.94
341.386	75.94
341.614	83.94
341.842	75.94
342.07	91.94
342.298	84.94
342.526	87.94
342.754	82.94
342.981	99.94
343.209	88.94
343.437	93.94
343.665	95.94
343.893	88.94
344.12	89.94
344.348	69.94
344.576	83.94
344.804	80.94
345.031	77.94
345.259	79.94
345.487	89.94
345.714	86.94
345.942	99.94
346.17	83.94
346.397	79.94
346.625	88.94
346.853	75.94
347.08	76.94
347.308	96.94
347.535	77.94
347.763	91.94
347.99	91.94
348.218	84.94
348.445	93.94
348.673	86.94
348.9	99.94
349.128	83.94
349.355	81.94
349.583	78.94
349.81	79.94
350.037	78.94
350.265	93.94
350.492	79.94
350.72	89.94
350.947	77.94
351.174	83.94
351.402	75.94
351.629	79.94
351.856	74.94
352.083	87.94
352.311	91.94
352.538	77.94
352.765	95.94
352.992	89.94
353.22	94.94
353.447	99.94
353.674	89.94
353.901	91.94
354.128	77.94
354.355	91.94
354.583	92.94
354.81	88.94
355.037	84.94
355.264	88.94
355.491	77.94
355.718	90.94
355.945	83.94
356.172	83.94
356.399	77.94
356.626	91.94
356.853	81.94
357.08	81.94
357.307	92.94
357.534	91.94
357.761	87.94
357.988	75.94
358.215	114.94
358.441	76.94
358.668	85.94
358.895	93.94
359.122	84.94
359.349	76.94
359.576	99.94
359.802	76.94
360.029	81.94
360.256	96.94
360.483	67.94
360.709	70.94
360.936	99.94
361.163	84.94
361.39	69.94
361.616	77.94
361.843	90.94
362.07	93.94
362.296	84.94
362.523	106.94
362.749	83.94
362.976	87.94
363.203	67.94
363.429	76.94
363.656	100.94
363.882	81.94
364.109	79.94
364.335	87.94
364.562	77.94
364.788	77.94
365.015	69.94
365.241	74.94
365.468	94.94
365.694	84.94
365.92	92.94
366.147	85.94
366.373	83.94
366.599	90.94
366.826	80.94
367.052	86.94
367.278	85.94
367.505	77.94
367.731	113.94
367.957	80.94
368.184	73.94
368.41	70.94
368.636	84.94
368.862	90.94
369.089	87.94
369.315	82.94
369.541	93.94
369.767	81.94
369.993	84.94
370.219	89.94
370.445	74.94
370.672	99.94
370.898	84.94
371.124	95.94
371.35	81.94
371.576	71.94
371.802	84.94
372.028	74.94
372.254	88.94
372.48	81.94
372.706	90.94
372.932	84.94
373.158	86.94
373.384	87.94
373.61	94.94
373.835	84.94
374.061	77.94
374.287	92.94
374.513	82.94
374.739	89.94
374.965	108.94
375.191	97.94
375.416	85.94
375.642	83.94
375.868	105.94
376.094	91.94
376.319	73.94
376.545	88.94
376.771	90.94
376.997	68.94
377.222	83.94
377.448	79.94
377.674	81.94
377.899	84.94
378.125	82.94
378.35	91.94
378.576	78.94
378.802	90.94
379.027	78.94
379.253	86.94
379.478	84.94
379.704	77.94
379.929	81.94
380.155	74.94
380.38	91.94
380.606	87.94
380.831	85.94
381.057	64.94
381.282	87.94
381.507	85.94
381.733	84.94
381.958	88.94
382.184	91.94
382.409	79.94
382.634	85.94
382.86	78.94
383.085	63.94
383.31	96.94
383.535	81.94
383.761	69.94
383.986	72.94
384.211	77.94
384.436	92.94
384.662	87.94
384.887	83.94
385.112	64.94
385.337	99.94
385.562	76.94
385.787	78.94
386.013	77.94
386.238	86.94
386.463	89.94
386.688	89.94
386.913	78.94
387.138	84.94
387.363	79.94
387.588	85.94
387.813	92.94
388.038	94.94
388.263	84.94
388.488	82.94
388.713	91.94
388.938	83.94
389.163	95.94
389.387	65.94
389.612	70.94
389.837	78.94
390.062	92.94
390.287	101.94
390.512	75.94
390.736	76.94
390.961	94.94
391.186	72.94
391.411	74.94
391.636	87.94
391.86	82.94
392.085	91.94
392.31	89.94
392.534	95.94
392.759	75.94
392.984	87.94
393.208	95.94
393.433	76.94
393.658	84.94
393.882	94.94
394.107	93.94
394.331	83.94
394.556	69.94
394.78	70.94
395.005	88.94
395.229	79.94
395.454	89.94
395.678	70.94
395.903	91.94
396.127	98.94
396.352	89.94
396.576	81.94
396.801	88.94
397.025	101.94
397.249	87.94
397.474	102.94
397.698	85.94
397.922	86.94
398.147	82.94
398.371	88.94
398.595	74.94
398.82	83.94
399.044	91.94
399.268	82.94
399.492	97.94
399.717	82.94
399.941	82.94
400.165	82.94
400.389	85.94
400.613	81.94
400.837	86.94
401.062	81.94
401.286	83.94
401.51	94.94
401.734	74.94
401.958	85.94
402.182	95.94
402.406	85.94
402.63	93.94
402.854	76.94
403.078	88.94
403.302	90.94
403.526	93.94
403.75	85.94
403.974	97.94
404.198	89.94
404.422	102.94
404.645	85.94
404.869	89.94
405.093	81.94
405.317	86.94
405.541	90.94
405.765	85.94
405.988	81.94
406.212	102.94
406.436	86.94
406.66	86.94
406.883	85.94
407.107	83.94
407.331	101.94
407.555	96.94
407.778	77.94
408.002	90.94
408.226	83.94
408.449	98.94
408.673	95.94
408.896	94.94
409.12	91.94
409.344	93.94
409.567	90.94
409.791	94.94
410.014	93.94
410.238	85.94
410.461	79.94
410.685	84.94
410.908	73.94
411.132	94.94
411.355	78.94
411.578	88.94
411.802	99.94
412.025	80.94
412.249	81.94
412.472	84.94
412.695	71.94
412.919	73.94
413.142	94.94
413.365	86.94
413.589	82.94
413.812	87.94
414.035	99.94
414.258	79.94
414.482	91.94
414.705	97.94
414.928	76.94
415.151	81.94
415.374	86.94
415.597	71.94
415.821	86.94
416.044	85.94
416.267	78.94
416.49	87.94
416.713	92.94
416.936	93.94
417.159	96.94
417.382	80.94
417.605	81.94
417.828	87.94
418.051	77.94
418.274	86.94
418.497	87.94
418.72	84.94
418.943	80.94
419.166	81.94
419.389	87.94
419.611	87.94
419.834	75.94
420.057	84.94
420.28	88.94
420.503	74.94
420.726	98.94
420.948	84.94
421.171	81.94
421.394	76.94
421.617	77.94
421.839	78.94
422.062	89.94
422.285	79.94
422.507	72.94
422.73	99.94
422.953	79.94
423.175	85.94
423.398	86.94
423.621	77.94
423.843	74.94
424.066	71.94
424.288	84.94
424.511	76.94
424.733	81.94
424.956	85.94
425.178	87.94
425.401	87.94
425.623	98.94
425.846	74.94
426.068	72.94
426.291	94.94
426.513	95.94
426.735	73.94
426.958	77.94
427.18	83.94
427.402	80.94
427.625	87.94
427.847	95.94
428.069	84.94
428.292	85.94
428.514	98.94
428.736	85.94
428.958	82.94
429.181	85.94
429.403	76.94
429.625	70.94
429.847	66.94
430.069	90.94
430.292	78.94
430.514	87.94
430.736	91.94
430.958	93.94
431.18	87.94
431.402	74.94
431.624	86.94
431.846	97.94
432.068	98.94
432.29	74.94
432.512	75.94
432.734	78.94
432.956	78.94
433.178	102.94
433.4	76.94
433.622	82.94
433.844	84.94
434.066	94.94
434.287	99.94
434.509	78.94
434.731	91.94
434.953	84.94
435.175	86.94
435.397	93.94
435.618	93.94
435.84	84.94
436.062	82.94
436.284	94.94
436.505	78.94
436.727	99.94
436.949	69.94
437.17	74.94
437.392	85.94
437.614	85.94
437.835	86.94
438.057	93.94
438.278	81.94
438.5	90.94
438.721	93.94
438.943	78.94
439.165	87.94
439.386	81.94
439.608	94.94
439.829	84.94
440.05	88.94
440.272	86.94
440.493	85.94
440.715	81.94
440.936	98.94
441.158	65.94
441.379	86.94
441.6	68.94
441.822	94.94
442.043	92.94
442.264	70.94
442.486	73.94
442.707	70.94
442.928	79.94
443.149	79.94
443.371	85.94
443.592	84.94
443.813	101.94
444.034	98.94
444.255	84.94
444.476	90.94
444.698	99.94
444.919	83.94
445.14	179.94
445.361	122.94
445.582	70.94
445.803	86.94
446.024	83.94
446.245	79.94
446.466	76.94
446.687	88.94
446.908	90.94
447.129	84.94
447.35	88.94
447.571	82.94
447.792	73.94
448.013	66.94
448.234	84.94
448.455	78.94
448.675	87.94
448.896	77.94
449.117	89.94
449.338	84.94
449.559	86.94
449.779	76.94
450	85.94
450.221	83.94
450.442	93.94
450.662	81.94
450.883	74.94
451.104	75.94
451.324	82.94
451.545	87.94
451.766	95.94
451.986	81.94
452.207	84.94
452.428	89.94
452.648	89.94
452.869	84.94
453.089	89.94
453.31	77.94
453.53	78.94
453.751	89.94
453.971	83.94
454.192	86.94
454.412	71.94
454.633	86.94
454.853	87.94
455.073	85.94
455.294	96.94
455.514	77.94
455.734	89.94
455.955	94.94
456.175	71.94
456.395	79.94
456.616	77.94
456.836	81.94
457.056	82.94
457.276	77.94
457.497	77.94
457.717	81.94
457.937	87.94
458.157	73.94
458.377	94.94
458.598	84.94
458.818	89.94
459.038	75.94
459.258	92.94
459.478	78.94
459.698	79.94
459.918	86.94
460.138	87.94
460.358	78.94
460.578	86.94
460.798	74.94
461.018	85.94
461.238	90.94
461.458	84.94
461.678	80.94
461.898	83.94
462.118	91.94
462.338	87.94
462.558	89.94
462.777	98.94
462.997	86.94
463.217	90.94
463.437	102.94
463.657	97.94
463.876	94.94
464.096	93.94
464.316	77.94
464.536	78.94
464.755	82.94
464.975	83.94
465.195	92.94
465.414	87.94
465.634	81.94
465.854	90.94
466.073	77.94
466.293	75.94
466.512	80.94
466.732	65.94
466.951	85.94
467.171	73.94
467.391	75.94
467.61	82.94
467.829	83.94
468.049	78.94
468.268	70.94
468.488	71.94
468.707	66.94
468.927	82.94
469.146	94.94
469.365	93.94
469.585	101.94
469.804	81.94
470.023	109.94
470.243	85.94
470.462	75.94
470.681	90.94
470.901	73.94
471.12	88.94
471.339	85.94
471.558	80.94
471.777	66.94
471.997	80.94
472.216	70.94
472.435	92.94
472.654	81.94
472.873	92.94
473.092	87.94
473.311	82.94
473.53	82.94
473.749	74.94
473.968	77.94
474.187	79.94
474.406	94.94
474.625	94.94
474.844	78.94
475.063	92.94
475.282	84.94
475.501	74.94
475.72	85.94
475.939	79.94
476.158	77.94
476.377	87.94
476.596	82.94
476.814	82.94
477.033	92.94
477.252	93.94
477.471	78.94
477.69	68.94
477.908	88.94
478.127	90.94
478.346	91.94
478.564	86.94
478.783	85.94
479.002	84.94
479.22	84.94
479.439	95.94
479.658	75.94
479.876	86.94
480.095	86.94
480.313	91.94
480.532	87.94
480.751	100.94
480.969	87.94
481.188	85.94
481.406	84.94
481.624	71.94
481.843	85.94
482.061	82.94
482.28	81.94
482.498	88.94
482.717	79.94
482.935	99.94
483.153	85.94
483.372	87.94
483.59	84.94
483.808	97.94
484.027	89.94
484.245	75.94
484.463	75.94
484.681	83.94
484.9	76.94
485.118	75.94
485.336	83.94
485.554	88.94
485.772	84.94
485.99	85.94
486.209	83.94
486.427	98.94
486.645	85.94
486.863	81.94
487.081	80.94
487.299	101.94
487.517	89.94
487.735	101.94
487.953	91.94
488.171	85.94
488.389	86.94
488.607	73.94
488.825	80.94
489.043	91.94
489.261	98.94
489.479	85.94
489.696	89.94
489.914	84.94
490.132	90.94
490.35	91.94
490.568	93.94
490.786	91.94
491.003	77.94
491.221	83.94
491.439	74.94
491.657	94.94
491.874	79.94
492.092	91.94
492.31	94.94
492.527	95.94
492.745	90.94
492.963	86.94
493.18	77.94
493.398	85.94
493.615	93.94
493.833	82.94
494.05	92.94
494.268	86.94
494.485	92.94
494.703	110.94
494.92	94.94
495.138	93.94
495.355	85.94
495.573	81.94
495.79	84.94
496.008	87.94
496.225	84.94
496.442	102.94
496.66	97.94
496.877	91.94
497.094	87.94
497.312	83.94
497.529	99.94
497.746	83.94
497.963	91.94
498.181	83.94
498.398	78.94
498.615	84.94
498.832	95.94
499.049	90.94
499.267	94.94
499.484	91.94
499.701	85.94
499.918	94.94
500.135	108.94
500.352	107.94
500.569	100.94
500.786	89.94
501.003	99.94
501.22	96.94
501.437	93.94
501.654	79.94
501.871	113.94
502.088	98.94
502.305	103.94
502.522	86.94
502.739	89.94
502.956	90.94
503.172	92.94
503.389	93.94
503.606	79.94
503.823	80.94
504.04	100.94
504.256	94.94
504.473	89.94
504.69	87.94
504.907	93.94
505.123	99.94
505.34	97.94
505.557	77.94
505.773	102.94
505.99	87.94
506.207	88.94
506.423	101.94
506.64	92.94
506.856	86.94
507.073	93.94
507.289	83.94
507.506	79.94
507.722	92.94
507.939	88.94
508.155	93.94
508.372	87.94
508.588	72.94
508.805	82.94
509.021	74.94
509.238	61.94
509.454	79.94
509.67	88.94
509.887	94.94
510.103	77.94
510.319	79.94
510.536	79.94
510.752	89.94
510.968	99.94
511.184	78.94
511.401	95.94
511.617	91.94
511.833	93.94
512.049	85.94
512.265	83.94
512.481	76.94
512.698	97.94
512.914	83.94
513.13	94.94
513.346	94.94
513.562	86.94
513.778	82.94
513.994	78.94
514.21	97.94
514.426	83.94
514.642	87.94
514.858	83.94
515.074	83.94
515.29	105.94
515.506	92.94
515.721	92.94
515.937	90.94
516.153	85.94
516.369	79.94
516.585	97.94
516.801	87.94
517.016	93.94
517.232	84.94
517.448	99.94
517.664	102.94
517.879	102.94
518.095	82.94
518.311	90.94
518.527	90.94
518.742	83.94
518.958	108.94
519.173	93.94
519.389	93.94
519.605	77.94
