Data from BG_HRD10591_085.txt Node
Date: Fri May 16 15:21:36 EDT 2025
User: Yrep
Spectrometer: HR+D1059
Trigger mode: 1
Integration Time (sec): 1.000000E-1
Scans to average: 1
Electric dark correction enabled: true
Nonlinearity correction enabled: false
Boxcar width: 0
XAxis mode: Wavelengths
Number of Pixels in Spectrum: 2048
>>>>>Begin Spectral Data<<<<<
223.165	-14.94
223.4	-14.94
223.635	-14.94
223.869	-15.94
224.104	-8.94
224.338	-9.94
224.573	-8.94
224.808	-13.94
225.042	-13.94
225.277	-2.94
225.511	-10.94
225.746	5.06
225.98	6.06
226.215	12.06
226.449	17.06
226.683	9.06
226.918	25.06
227.152	26.06
227.387	36.06
227.621	45.06
227.856	51.06
228.09	38.06
228.324	59.06
228.559	63.06
228.793	60.06
229.027	66.06
229.262	60.06
229.496	71.06
229.73	73.06
229.964	63.06
230.199	74.06
230.433	73.06
230.667	80.06
230.901	86.06
231.136	85.06
231.37	59.06
231.604	87.06
231.838	91.06
232.072	78.06
232.306	96.06
232.541	85.06
232.775	73.06
233.009	75.06
233.243	84.06
233.477	88.06
233.711	91.06
233.945	94.06
234.179	82.06
234.413	86.06
234.647	76.06
234.881	75.06
235.115	71.06
235.349	65.06
235.583	85.06
235.817	92.06
236.051	71.06
236.285	70.06
236.519	70.06
236.753	80.06
236.987	81.06
237.221	70.06
237.455	68.06
237.689	82.06
237.922	68.06
238.156	77.06
238.39	88.06
238.624	75.06
238.858	78.06
239.091	89.06
239.325	70.06
239.559	73.06
239.793	65.06
240.027	76.06
240.26	69.06
240.494	67.06
240.728	75.06
240.961	73.06
241.195	83.06
241.429	71.06
241.662	81.06
241.896	79.06
242.13	64.06
242.363	87.06
242.597	87.06
242.83	71.06
243.064	61.06
243.298	86.06
243.531	71.06
243.765	89.06
243.998	73.06
244.232	77.06
244.465	73.06
244.699	84.06
244.932	79.06
245.166	89.06
245.399	68.06
245.633	78.06
245.866	73.06
246.099	76.06
246.333	93.06
246.566	88.06
246.8	85.06
247.033	87.06
247.266	65.06
247.5	73.06
247.733	79.06
247.966	83.06
248.2	91.06
248.433	85.06
248.666	89.06
248.899	77.06
249.133	83.06
249.366	76.06
249.599	71.06
249.832	73.06
250.066	70.06
250.299	71.06
250.532	75.06
250.765	79.06
250.998	87.06
251.231	88.06
251.465	79.06
251.698	87.06
251.931	65.06
252.164	68.06
252.397	73.06
252.63	94.06
252.863	83.06
253.096	81.06
253.329	87.06
253.562	85.06
253.795	83.06
254.028	67.06
254.261	89.06
254.494	83.06
254.727	74.06
254.96	71.06
255.193	83.06
255.426	83.06
255.659	89.06
255.892	83.06
256.124	81.06
256.357	70.06
256.59	78.06
256.823	76.06
257.056	61.06
257.289	75.06
257.521	80.06
257.754	81.06
257.987	75.06
258.22	89.06
258.452	82.06
258.685	67.06
258.918	86.06
259.151	98.06
259.383	96.06
259.616	86.06
259.849	85.06
260.081	96.06
260.314	82.06
260.547	80.06
260.779	90.06
261.012	80.06
261.244	78.06
261.477	89.06
261.71	81.06
261.942	93.06
262.175	103.06
262.407	81.06
262.64	82.06
262.872	77.06
263.105	93.06
263.337	91.06
263.57	81.06
263.802	76.06
264.035	88.06
264.267	85.06
264.499	84.06
264.732	86.06
264.964	80.06
265.197	79.06
265.429	89.06
265.661	82.06
265.894	75.06
266.126	69.06
266.358	80.06
266.591	65.06
266.823	83.06
267.055	95.06
267.287	88.06
267.52	83.06
267.752	86.06
267.984	85.06
268.216	78.06
268.448	105.06
268.681	78.06
268.913	81.06
269.145	79.06
269.377	75.06
269.609	89.06
269.841	87.06
270.073	98.06
270.306	91.06
270.538	87.06
270.77	81.06
271.002	75.06
271.234	80.06
271.466	85.06
271.698	80.06
271.93	91.06
272.162	85.06
272.394	85.06
272.626	80.06
272.858	85.06
273.09	89.06
273.322	102.06
273.553	85.06
273.785	98.06
274.017	90.06
274.249	74.06
274.481	85.06
274.713	91.06
274.945	83.06
275.176	86.06
275.408	89.06
275.64	71.06
275.872	73.06
276.104	72.06
276.335	84.06
276.567	88.06
276.799	98.06
277.031	77.06
277.262	104.06
277.494	90.06
277.726	79.06
277.957	80.06
278.189	92.06
278.421	83.06
278.652	82.06
278.884	84.06
279.115	85.06
279.347	92.06
279.579	88.06
279.81	96.06
280.042	80.06
280.273	77.06
280.505	83.06
280.736	83.06
280.968	89.06
281.199	87.06
281.431	83.06
281.662	81.06
281.894	96.06
282.125	85.06
282.356	97.06
282.588	89.06
282.819	96.06
283.051	74.06
283.282	81.06
283.513	80.06
283.745	77.06
283.976	93.06
284.207	86.06
284.439	83.06
284.67	91.06
284.901	92.06
285.132	85.06
285.364	93.06
285.595	90.06
285.826	85.06
286.057	83.06
286.288	87.06
286.52	91.06
286.751	91.06
286.982	91.06
287.213	79.06
287.444	85.06
287.675	82.06
287.906	93.06
288.138	101.06
288.369	84.06
288.6	88.06
288.831	79.06
289.062	101.06
289.293	80.06
289.524	77.06
289.755	91.06
289.986	83.06
290.217	78.06
290.448	78.06
290.679	89.06
290.91	90.06
291.141	78.06
291.371	91.06
291.602	85.06
291.833	82.06
292.064	105.06
292.295	89.06
292.526	103.06
292.757	94.06
292.987	93.06
293.218	83.06
293.449	84.06
293.68	84.06
293.91	85.06
294.141	78.06
294.372	101.06
294.603	81.06
294.833	89.06
295.064	89.06
295.295	80.06
295.525	87.06
295.756	105.06
295.987	91.06
296.217	86.06
296.448	86.06
296.679	89.06
296.909	102.06
297.14	94.06
297.37	91.06
297.601	69.06
297.831	82.06
298.062	82.06
298.292	76.06
298.523	86.06
298.753	99.06
298.984	87.06
299.214	96.06
299.445	89.06
299.675	99.06
299.905	91.06
300.136	94.06
300.366	81.06
300.597	97.06
300.827	82.06
301.057	97.06
301.288	81.06
301.518	85.06
301.748	93.06
301.979	100.06
302.209	91.06
302.439	92.06
302.669	87.06
302.9	87.06
303.13	94.06
303.36	93.06
303.59	89.06
303.82	94.06
304.051	98.06
304.281	97.06
304.511	92.06
304.741	108.06
304.971	89.06
305.201	87.06
305.431	79.06
305.661	89.06
305.891	74.06
306.121	81.06
306.352	75.06
306.582	98.06
306.812	95.06
307.042	103.06
307.272	82.06
307.502	87.06
307.731	85.06
307.961	81.06
308.191	92.06
308.421	78.06
308.651	97.06
308.881	92.06
309.111	85.06
309.341	78.06
309.571	91.06
309.8	85.06
310.03	89.06
310.26	96.06
310.49	89.06
310.72	86.06
310.949	93.06
311.179	90.06
311.409	91.06
311.639	85.06
311.868	82.06
312.098	95.06
312.328	94.06
312.557	93.06
312.787	93.06
313.017	83.06
313.246	88.06
313.476	87.06
313.706	91.06
313.935	95.06
314.165	82.06
314.394	87.06
314.624	83.06
314.853	82.06
315.083	98.06
315.312	96.06
315.542	89.06
315.771	89.06
316.001	81.06
316.23	83.06
316.46	80.06
316.689	83.06
316.919	81.06
317.148	97.06
317.377	84.06
317.607	88.06
317.836	86.06
318.065	76.06
318.295	88.06
318.524	95.06
318.753	87.06
318.983	82.06
319.212	90.06
319.441	85.06
319.67	77.06
319.9	98.06
320.129	97.06
320.358	104.06
320.587	98.06
320.816	87.06
321.046	92.06
321.275	89.06
321.504	82.06
321.733	81.06
321.962	81.06
322.191	91.06
322.42	92.06
322.649	87.06
322.878	85.06
323.108	92.06
323.337	104.06
323.566	77.06
323.795	83.06
324.024	93.06
324.253	85.06
324.482	86.06
324.71	101.06
324.939	98.06
325.168	75.06
325.397	106.06
325.626	91.06
325.855	78.06
326.084	75.06
326.313	79.06
326.542	90.06
326.77	95.06
326.999	96.06
327.228	93.06
327.457	90.06
327.686	88.06
327.914	101.06
328.143	104.06
328.372	91.06
328.6	94.06
328.829	68.06
329.058	92.06
329.287	82.06
329.515	93.06
329.744	90.06
329.972	80.06
330.201	88.06
330.43	96.06
330.658	86.06
330.887	90.06
331.115	81.06
331.344	85.06
331.572	85.06
331.801	73.06
332.03	82.06
332.258	85.06
332.486	82.06
332.715	80.06
332.943	98.06
333.172	87.06
333.4	107.06
333.629	73.06
333.857	93.06
334.085	72.06
334.314	92.06
334.542	94.06
334.771	98.06
334.999	87.06
335.227	90.06
335.455	101.06
335.684	96.06
335.912	92.06
336.14	77.06
336.369	78.06
336.597	94.06
336.825	81.06
337.053	83.06
337.281	91.06
337.51	93.06
337.738	88.06
337.966	75.06
338.194	78.06
338.422	77.06
338.65	99.06
338.878	94.06
339.106	79.06
339.334	92.06
339.562	79.06
339.79	96.06
340.018	84.06
340.246	90.06
340.474	87.06
340.702	69.06
340.93	94.06
341.158	85.06
341.386	88.06
341.614	86.06
341.842	92.06
342.07	90.06
342.298	84.06
342.526	86.06
342.754	85.06
342.981	92.06
343.209	82.06
343.437	94.06
343.665	82.06
343.893	83.06
344.12	92.06
344.348	84.06
344.576	89.06
344.804	90.06
345.031	101.06
345.259	83.06
345.487	85.06
345.714	90.06
345.942	85.06
346.17	100.06
346.397	82.06
346.625	104.06
346.853	85.06
347.08	77.06
347.308	81.06
347.535	89.06
347.763	81.06
347.99	87.06
348.218	99.06
348.445	92.06
348.673	90.06
348.9	82.06
349.128	93.06
349.355	89.06
349.583	88.06
349.81	77.06
350.037	93.06
350.265	83.06
350.492	95.06
350.72	96.06
350.947	83.06
351.174	77.06
351.402	73.06
351.629	104.06
351.856	77.06
352.083	91.06
352.311	95.06
352.538	99.06
352.765	81.06
352.992	82.06
353.22	80.06
353.447	90.06
353.674	92.06
353.901	97.06
354.128	93.06
354.355	79.06
354.583	94.06
354.81	103.06
355.037	84.06
355.264	95.06
355.491	79.06
355.718	76.06
355.945	86.06
356.172	67.06
356.399	92.06
356.626	98.06
356.853	83.06
357.08	83.06
357.307	106.06
357.534	91.06
357.761	84.06
357.988	108.06
358.215	88.06
358.441	106.06
358.668	77.06
358.895	91.06
359.122	98.06
359.349	96.06
359.576	74.06
359.802	83.06
360.029	97.06
360.256	81.06
360.483	90.06
360.709	94.06
360.936	86.06
361.163	91.06
361.39	84.06
361.616	68.06
361.843	92.06
362.07	90.06
362.296	81.06
362.523	77.06
362.749	79.06
362.976	69.06
363.203	103.06
363.429	97.06
363.656	79.06
363.882	89.06
364.109	89.06
364.335	85.06
364.562	88.06
364.788	83.06
365.015	85.06
365.241	97.06
365.468	90.06
365.694	81.06
365.92	83.06
366.147	92.06
366.373	81.06
366.599	94.06
366.826	76.06
367.052	81.06
367.278	79.06
367.505	90.06
367.731	89.06
367.957	95.06
368.184	87.06
368.41	81.06
368.636	77.06
368.862	88.06
369.089	82.06
369.315	81.06
369.541	97.06
369.767	90.06
369.993	100.06
370.219	93.06
370.445	81.06
370.672	84.06
370.898	75.06
371.124	96.06
371.35	83.06
371.576	93.06
371.802	103.06
372.028	103.06
372.254	93.06
372.48	81.06
372.706	85.06
372.932	97.06
373.158	99.06
373.384	80.06
373.61	90.06
373.835	91.06
374.061	81.06
374.287	90.06
374.513	82.06
374.739	78.06
374.965	84.06
375.191	80.06
375.416	88.06
375.642	94.06
375.868	71.06
376.094	92.06
376.319	93.06
376.545	88.06
376.771	75.06
376.997	88.06
377.222	95.06
377.448	85.06
377.674	93.06
377.899	93.06
378.125	90.06
378.35	88.06
378.576	79.06
378.802	84.06
379.027	78.06
379.253	74.06
379.478	85.06
379.704	92.06
379.929	86.06
380.155	88.06
380.38	87.06
380.606	86.06
380.831	83.06
381.057	95.06
381.282	83.06
381.507	85.06
381.733	96.06
381.958	92.06
382.184	76.06
382.409	98.06
382.634	86.06
382.86	86.06
383.085	89.06
383.31	83.06
383.535	82.06
383.761	97.06
383.986	91.06
384.211	90.06
384.436	84.06
384.662	89.06
384.887	82.06
385.112	101.06
385.337	88.06
385.562	87.06
385.787	81.06
386.013	86.06
386.238	93.06
386.463	92.06
386.688	105.06
386.913	83.06
387.138	81.06
387.363	101.06
387.588	89.06
387.813	88.06
388.038	91.06
388.263	90.06
388.488	93.06
388.713	86.06
388.938	79.06
389.163	81.06
389.387	89.06
389.612	87.06
389.837	90.06
390.062	88.06
390.287	94.06
390.512	83.06
390.736	84.06
390.961	85.06
391.186	90.06
391.411	86.06
391.636	82.06
391.86	103.06
392.085	87.06
392.31	85.06
392.534	87.06
392.759	96.06
392.984	93.06
393.208	77.06
393.433	86.06
393.658	89.06
393.882	81.06
394.107	90.06
394.331	74.06
394.556	101.06
394.78	95.06
395.005	97.06
395.229	98.06
395.454	95.06
395.678	91.06
395.903	87.06
396.127	103.06
396.352	96.06
396.576	110.06
396.801	81.06
397.025	81.06
397.249	98.06
397.474	88.06
397.698	102.06
397.922	100.06
398.147	77.06
398.371	89.06
398.595	104.06
398.82	96.06
399.044	90.06
399.268	105.06
399.492	87.06
399.717	90.06
399.941	104.06
400.165	85.06
400.389	87.06
400.613	109.06
400.837	95.06
401.062	81.06
401.286	91.06
401.51	85.06
401.734	95.06
401.958	85.06
402.182	90.06
402.406	80.06
402.63	111.06
402.854	101.06
403.078	98.06
403.302	87.06
403.526	91.06
403.75	94.06
403.974	95.06
404.198	78.06
404.422	91.06
404.645	98.06
404.869	85.06
405.093	86.06
405.317	106.06
405.541	103.06
405.765	96.06
405.988	91.06
406.212	77.06
406.436	84.06
406.66	102.06
406.883	89.06
407.107	89.06
407.331	80.06
407.555	94.06
407.778	86.06
408.002	80.06
408.226	85.06
408.449	83.06
408.673	85.06
408.896	93.06
409.12	81.06
409.344	81.06
409.567	92.06
409.791	81.06
410.014	102.06
410.238	90.06
410.461	85.06
410.685	91.06
410.908	94.06
411.132	96.06
411.355	95.06
411.578	102.06
411.802	89.06
412.025	90.06
412.249	82.06
412.472	77.06
412.695	93.06
412.919	80.06
413.142	90.06
413.365	83.06
413.589	95.06
413.812	102.06
414.035	98.06
414.258	87.06
414.482	80.06
414.705	85.06
414.928	82.06
415.151	89.06
415.374	90.06
415.597	82.06
415.821	83.06
416.044	83.06
416.267	95.06
416.49	91.06
416.713	108.06
416.936	93.06
417.159	91.06
417.382	91.06
417.605	94.06
417.828	90.06
418.051	105.06
418.274	89.06
418.497	89.06
418.72	96.06
418.943	78.06
419.166	101.06
419.389	103.06
419.611	83.06
419.834	108.06
420.057	85.06
420.28	89.06
420.503	77.06
420.726	80.06
420.948	79.06
421.171	73.06
421.394	93.06
421.617	85.06
421.839	92.06
422.062	86.06
422.285	100.06
422.507	73.06
422.73	98.06
422.953	90.06
423.175	92.06
423.398	94.06
423.621	103.06
423.843	91.06
424.066	87.06
424.288	92.06
424.511	88.06
424.733	83.06
424.956	84.06
425.178	81.06
425.401	94.06
425.623	86.06
425.846	77.06
426.068	72.06
426.291	78.06
426.513	94.06
426.735	91.06
426.958	89.06
427.18	80.06
427.402	85.06
427.625	88.06
427.847	87.06
428.069	81.06
428.292	82.06
428.514	85.06
428.736	92.06
428.958	92.06
429.181	88.06
429.403	95.06
429.625	82.06
429.847	99.06
430.069	92.06
430.292	103.06
430.514	90.06
430.736	79.06
430.958	96.06
431.18	92.06
431.402	94.06
431.624	74.06
431.846	90.06
432.068	88.06
432.29	87.06
432.512	91.06
432.734	71.06
432.956	90.06
433.178	101.06
433.4	87.06
433.622	85.06
433.844	82.06
434.066	85.06
434.287	94.06
434.509	90.06
434.731	102.06
434.953	78.06
435.175	98.06
435.397	90.06
435.618	99.06
435.84	97.06
436.062	82.06
436.284	89.06
436.505	90.06
436.727	89.06
436.949	74.06
437.17	74.06
437.392	86.06
437.614	83.06
437.835	88.06
438.057	90.06
438.278	90.06
438.5	79.06
438.721	75.06
438.943	107.06
439.165	99.06
439.386	83.06
439.608	106.06
439.829	81.06
440.05	86.06
440.272	90.06
440.493	91.06
440.715	103.06
440.936	97.06
441.158	92.06
441.379	96.06
441.6	91.06
441.822	94.06
442.043	81.06
442.264	91.06
442.486	89.06
442.707	83.06
442.928	91.06
443.149	89.06
443.371	95.06
443.592	90.06
443.813	98.06
444.034	81.06
444.255	86.06
444.476	90.06
444.698	88.06
444.919	102.06
445.14	185.06
445.361	116.06
445.582	85.06
445.803	100.06
446.024	77.06
446.245	83.06
446.466	95.06
446.687	79.06
446.908	82.06
447.129	79.06
447.35	92.06
447.571	93.06
447.792	91.06
448.013	73.06
448.234	90.06
448.455	80.06
448.675	97.06
448.896	88.06
449.117	98.06
449.338	87.06
449.559	99.06
449.779	90.06
450	101.06
450.221	99.06
450.442	93.06
450.662	84.06
450.883	95.06
451.104	94.06
451.324	90.06
451.545	88.06
451.766	89.06
451.986	83.06
452.207	79.06
452.428	79.06
452.648	89.06
452.869	94.06
453.089	81.06
453.31	101.06
453.53	90.06
453.751	83.06
453.971	94.06
454.192	80.06
454.412	98.06
454.633	98.06
454.853	85.06
455.073	79.06
455.294	89.06
455.514	86.06
455.734	90.06
455.955	87.06
456.175	87.06
456.395	92.06
456.616	98.06
456.836	82.06
457.056	85.06
457.276	104.06
457.497	71.06
457.717	95.06
457.937	68.06
458.157	85.06
458.377	91.06
458.598	82.06
458.818	96.06
459.038	93.06
459.258	76.06
459.478	79.06
459.698	81.06
459.918	83.06
460.138	94.06
460.358	98.06
460.578	97.06
460.798	91.06
461.018	88.06
461.238	83.06
461.458	95.06
461.678	92.06
461.898	102.06
462.118	88.06
462.338	97.06
462.558	94.06
462.777	86.06
462.997	90.06
463.217	92.06
463.437	94.06
463.657	95.06
463.876	88.06
464.096	91.06
464.316	94.06
464.536	95.06
464.755	89.06
464.975	94.06
465.195	90.06
465.414	81.06
465.634	88.06
465.854	95.06
466.073	92.06
466.293	92.06
466.512	88.06
466.732	84.06
466.951	95.06
467.171	89.06
467.391	97.06
467.61	95.06
467.829	84.06
468.049	89.06
468.268	101.06
468.488	87.06
468.707	90.06
468.927	89.06
469.146	95.06
469.365	91.06
469.585	102.06
469.804	89.06
470.023	75.06
470.243	73.06
470.462	98.06
470.681	99.06
470.901	98.06
471.12	86.06
471.339	98.06
471.558	81.06
471.777	80.06
471.997	76.06
472.216	96.06
472.435	91.06
472.654	98.06
472.873	100.06
473.092	89.06
473.311	89.06
473.53	93.06
473.749	90.06
473.968	97.06
474.187	89.06
474.406	88.06
474.625	89.06
474.844	87.06
475.063	91.06
475.282	87.06
475.501	71.06
475.72	93.06
475.939	79.06
476.158	85.06
476.377	88.06
476.596	95.06
476.814	86.06
477.033	105.06
477.252	95.06
477.471	87.06
477.69	94.06
477.908	87.06
478.127	93.06
478.346	86.06
478.564	85.06
478.783	86.06
479.002	89.06
479.22	93.06
479.439	86.06
479.658	104.06
479.876	92.06
480.095	97.06
480.313	94.06
480.532	94.06
480.751	93.06
480.969	96.06
481.188	96.06
481.406	91.06
481.624	77.06
481.843	97.06
482.061	85.06
482.28	98.06
482.498	91.06
482.717	87.06
482.935	93.06
483.153	95.06
483.372	88.06
483.59	87.06
483.808	106.06
484.027	99.06
484.245	76.06
484.463	80.06
484.681	100.06
484.9	89.06
485.118	80.06
485.336	77.06
485.554	91.06
485.772	93.06
485.99	97.06
486.209	98.06
486.427	89.06
486.645	85.06
486.863	99.06
487.081	81.06
487.299	81.06
487.517	85.06
487.735	89.06
487.953	88.06
488.171	101.06
488.389	99.06
488.607	91.06
488.825	78.06
489.043	82.06
489.261	91.06
489.479	74.06
489.696	94.06
489.914	86.06
490.132	95.06
490.35	95.06
490.568	95.06
490.786	104.06
491.003	87.06
491.221	96.06
491.439	106.06
491.657	98.06
491.874	101.06
492.092	98.06
492.31	94.06
492.527	99.06
492.745	81.06
492.963	76.06
493.18	96.06
493.398	98.06
493.615	93.06
493.833	85.06
494.05	109.06
494.268	83.06
494.485	102.06
494.703	91.06
494.92	92.06
495.138	88.06
495.355	94.06
495.573	97.06
495.79	79.06
496.008	92.06
496.225	92.06
496.442	89.06
496.66	92.06
496.877	93.06
497.094	87.06
497.312	94.06
497.529	86.06
497.746	89.06
497.963	91.06
498.181	87.06
498.398	97.06
498.615	83.06
498.832	99.06
499.049	91.06
499.267	103.06
499.484	90.06
499.701	107.06
499.918	108.06
500.135	94.06
500.352	106.06
500.569	113.06
500.786	115.06
501.003	102.06
501.22	109.06
501.437	94.06
501.654	95.06
501.871	88.06
502.088	86.06
502.305	80.06
502.522	85.06
502.739	95.06
502.956	92.06
503.172	113.06
503.389	99.06
503.606	80.06
503.823	95.06
504.04	88.06
504.256	104.06
504.473	82.06
504.69	94.06
504.907	93.06
505.123	87.06
505.34	86.06
505.557	82.06
505.773	114.06
505.99	95.06
506.207	99.06
506.423	97.06
506.64	103.06
506.856	80.06
507.073	81.06
507.289	102.06
507.506	75.06
507.722	105.06
507.939	98.06
508.155	102.06
508.372	88.06
508.588	83.06
508.805	83.06
509.021	93.06
509.238	97.06
509.454	83.06
509.67	108.06
509.887	82.06
510.103	98.06
510.319	96.06
510.536	93.06
510.752	92.06
510.968	98.06
511.184	95.06
511.401	92.06
511.617	90.06
511.833	78.06
512.049	87.06
512.265	89.06
512.481	91.06
512.698	82.06
512.914	87.06
513.13	96.06
513.346	75.06
513.562	85.06
513.778	86.06
513.994	85.06
514.21	103.06
514.426	73.06
514.642	88.06
514.858	91.06
515.074	89.06
515.29	88.06
515.506	97.06
515.721	84.06
515.937	81.06
516.153	88.06
516.369	76.06
516.585	92.06
516.801	83.06
517.016	85.06
517.232	105.06
517.448	110.06
517.664	97.06
517.879	103.06
518.095	98.06
518.311	91.06
518.527	96.06
518.742	103.06
