Data from BG_HRD10591_063.txt Node
Date: Fri May 16 15:21:25 EDT 2025
User: Yrep
Spectrometer: HR+D1059
Trigger mode: 1
Integration Time (sec): 1.000000E-1
Scans to average: 1
Electric dark correction enabled: true
Nonlinearity correction enabled: false
Boxcar width: 0
XAxis mode: Wavelengths
Number of Pixels in Spectrum: 2048
>>>>>Begin Spectral Data<<<<<
223.165	-8.75
223.4	-8.75
223.635	-8.75
223.869	-10.75
224.104	-32.75
224.338	-9.75
224.573	-4.75
224.808	-19.75
225.042	-15.75
225.277	-4.75
225.511	0.25
225.746	-0.75
225.98	-8.75
226.215	8.25
226.449	17.25
226.683	25.25
226.918	33.25
227.152	32.25
227.387	40.25
227.621	46.25
227.856	44.25
228.09	60.25
228.324	47.25
228.559	57.25
228.793	55.25
229.027	55.25
229.262	57.25
229.496	62.25
229.73	63.25
229.964	68.25
230.199	58.25
230.433	64.25
230.667	76.25
230.901	72.25
231.136	67.25
231.37	75.25
231.604	77.25
231.838	83.25
232.072	82.25
232.306	67.25
232.541	77.25
232.775	71.25
233.009	83.25
233.243	81.25
233.477	73.25
233.711	57.25
233.945	76.25
234.179	97.25
234.413	74.25
234.647	81.25
234.881	83.25
235.115	85.25
235.349	61.25
235.583	67.25
235.817	77.25
236.051	75.25
236.285	68.25
236.519	71.25
236.753	79.25
236.987	88.25
237.221	67.25
237.455	75.25
237.689	75.25
237.922	63.25
238.156	77.25
238.39	51.25
238.624	69.25
238.858	77.25
239.091	79.25
239.325	79.25
239.559	75.25
239.793	85.25
240.027	76.25
240.26	85.25
240.494	74.25
240.728	71.25
240.961	51.25
241.195	75.25
241.429	79.25
241.662	53.25
241.896	73.25
242.13	87.25
242.363	70.25
242.597	74.25
242.83	63.25
243.064	73.25
243.298	63.25
243.531	92.25
243.765	79.25
243.998	80.25
244.232	74.25
244.465	74.25
244.699	88.25
244.932	85.25
245.166	78.25
245.399	72.25
245.633	73.25
245.866	73.25
246.099	73.25
246.333	70.25
246.566	72.25
246.8	84.25
247.033	56.25
247.266	83.25
247.5	63.25
247.733	85.25
247.966	75.25
248.2	75.25
248.433	81.25
248.666	79.25
248.899	81.25
249.133	80.25
249.366	68.25
249.599	72.25
249.832	95.25
250.066	60.25
250.299	85.25
250.532	75.25
250.765	84.25
250.998	68.25
251.231	73.25
251.465	81.25
251.698	61.25
251.931	76.25
252.164	62.25
252.397	70.25
252.63	76.25
252.863	83.25
253.096	76.25
253.329	71.25
253.562	81.25
253.795	75.25
254.028	66.25
254.261	68.25
254.494	70.25
254.727	65.25
254.96	71.25
255.193	78.25
255.426	71.25
255.659	74.25
255.892	73.25
256.124	65.25
256.357	81.25
256.59	85.25
256.823	77.25
257.056	82.25
257.289	79.25
257.521	72.25
257.754	72.25
257.987	78.25
258.22	83.25
258.452	73.25
258.685	79.25
258.918	91.25
259.151	79.25
259.383	92.25
259.616	87.25
259.849	64.25
260.081	86.25
260.314	79.25
260.547	69.25
260.779	69.25
261.012	82.25
261.244	75.25
261.477	75.25
261.71	77.25
261.942	80.25
262.175	71.25
262.407	75.25
262.64	74.25
262.872	71.25
263.105	80.25
263.337	80.25
263.57	84.25
263.802	77.25
264.035	69.25
264.267	80.25
264.499	79.25
264.732	80.25
264.964	88.25
265.197	72.25
265.429	89.25
265.661	84.25
265.894	76.25
266.126	69.25
266.358	80.25
266.591	74.25
266.823	67.25
267.055	79.25
267.287	73.25
267.52	85.25
267.752	71.25
267.984	82.25
268.216	83.25
268.448	84.25
268.681	80.25
268.913	81.25
269.145	70.25
269.377	73.25
269.609	89.25
269.841	99.25
270.073	75.25
270.306	78.25
270.538	78.25
270.77	79.25
271.002	83.25
271.234	74.25
271.466	75.25
271.698	99.25
271.93	74.25
272.162	74.25
272.394	80.25
272.626	78.25
272.858	76.25
273.09	77.25
273.322	91.25
273.553	75.25
273.785	74.25
274.017	79.25
274.249	82.25
274.481	91.25
274.713	89.25
274.945	74.25
275.176	81.25
275.408	84.25
275.64	76.25
275.872	88.25
276.104	84.25
276.335	85.25
276.567	63.25
276.799	79.25
277.031	77.25
277.262	82.25
277.494	83.25
277.726	87.25
277.957	81.25
278.189	81.25
278.421	80.25
278.652	77.25
278.884	78.25
279.115	75.25
279.347	95.25
279.579	95.25
279.81	87.25
280.042	77.25
280.273	76.25
280.505	73.25
280.736	83.25
280.968	76.25
281.199	79.25
281.431	72.25
281.662	73.25
281.894	81.25
282.125	89.25
282.356	75.25
282.588	90.25
282.819	84.25
283.051	95.25
283.282	77.25
283.513	80.25
283.745	95.25
283.976	83.25
284.207	93.25
284.439	87.25
284.67	100.25
284.901	88.25
285.132	81.25
285.364	80.25
285.595	76.25
285.826	84.25
286.057	63.25
286.288	92.25
286.52	74.25
286.751	77.25
286.982	91.25
287.213	83.25
287.444	80.25
287.675	83.25
287.906	85.25
288.138	84.25
288.369	71.25
288.6	67.25
288.831	83.25
289.062	78.25
289.293	82.25
289.524	71.25
289.755	81.25
289.986	87.25
290.217	81.25
290.448	83.25
290.679	84.25
290.91	99.25
291.141	90.25
291.371	89.25
291.602	87.25
291.833	74.25
292.064	69.25
292.295	74.25
292.526	91.25
292.757	86.25
292.987	82.25
293.218	84.25
293.449	79.25
293.68	80.25
293.91	71.25
294.141	81.25
294.372	83.25
294.603	77.25
294.833	69.25
295.064	87.25
295.295	84.25
295.525	85.25
295.756	77.25
295.987	74.25
296.217	95.25
296.448	85.25
296.679	82.25
296.909	98.25
297.14	89.25
297.37	82.25
297.601	80.25
297.831	74.25
298.062	73.25
298.292	83.25
298.523	87.25
298.753	89.25
298.984	87.25
299.214	84.25
299.445	85.25
299.675	71.25
299.905	74.25
300.136	71.25
300.366	79.25
300.597	68.25
300.827	81.25
301.057	81.25
301.288	82.25
301.518	80.25
301.748	83.25
301.979	91.25
302.209	85.25
302.439	73.25
302.669	83.25
302.9	82.25
303.13	74.25
303.36	70.25
303.59	74.25
303.82	81.25
304.051	89.25
304.281	82.25
304.511	76.25
304.741	101.25
304.971	103.25
305.201	82.25
305.431	75.25
305.661	72.25
305.891	86.25
306.121	71.25
306.352	84.25
306.582	84.25
306.812	82.25
307.042	83.25
307.272	89.25
307.502	79.25
307.731	88.25
307.961	95.25
308.191	79.25
308.421	67.25
308.651	82.25
308.881	98.25
309.111	80.25
309.341	87.25
309.571	73.25
309.8	97.25
310.03	79.25
310.26	84.25
310.49	73.25
310.72	76.25
310.949	75.25
311.179	84.25
311.409	76.25
311.639	95.25
311.868	70.25
312.098	86.25
312.328	86.25
312.557	75.25
312.787	71.25
313.017	75.25
313.246	87.25
313.476	85.25
313.706	84.25
313.935	83.25
314.165	65.25
314.394	88.25
314.624	88.25
314.853	88.25
315.083	69.25
315.312	82.25
315.542	82.25
315.771	99.25
316.001	69.25
316.23	83.25
316.46	85.25
316.689	90.25
316.919	81.25
317.148	92.25
317.377	92.25
317.607	89.25
317.836	83.25
318.065	69.25
318.295	77.25
318.524	73.25
318.753	91.25
318.983	81.25
319.212	73.25
319.441	83.25
319.67	84.25
319.9	92.25
320.129	94.25
320.358	85.25
320.587	95.25
320.816	76.25
321.046	94.25
321.275	81.25
321.504	77.25
321.733	92.25
321.962	66.25
322.191	80.25
322.42	67.25
322.649	81.25
322.878	82.25
323.108	84.25
323.337	74.25
323.566	91.25
323.795	95.25
324.024	97.25
324.253	89.25
324.482	65.25
324.71	101.25
324.939	77.25
325.168	69.25
325.397	71.25
325.626	83.25
325.855	77.25
326.084	83.25
326.313	89.25
326.542	80.25
326.77	87.25
326.999	88.25
327.228	84.25
327.457	75.25
327.686	87.25
327.914	75.25
328.143	68.25
328.372	83.25
328.6	81.25
328.829	84.25
329.058	86.25
329.287	91.25
329.515	83.25
329.744	85.25
329.972	76.25
330.201	79.25
330.43	83.25
330.658	85.25
330.887	81.25
331.115	83.25
331.344	88.25
331.572	86.25
331.801	77.25
332.03	82.25
332.258	87.25
332.486	72.25
332.715	58.25
332.943	64.25
333.172	87.25
333.4	88.25
333.629	66.25
333.857	85.25
334.085	79.25
334.314	96.25
334.542	82.25
334.771	92.25
334.999	80.25
335.227	85.25
335.455	79.25
335.684	92.25
335.912	79.25
336.14	77.25
336.369	88.25
336.597	88.25
336.825	71.25
337.053	75.25
337.281	81.25
337.51	97.25
337.738	97.25
337.966	73.25
338.194	79.25
338.422	95.25
338.65	101.25
338.878	91.25
339.106	76.25
339.334	91.25
339.562	78.25
339.79	91.25
340.018	83.25
340.246	73.25
340.474	87.25
340.702	81.25
340.93	74.25
341.158	88.25
341.386	84.25
341.614	86.25
341.842	69.25
342.07	77.25
342.298	72.25
342.526	89.25
342.754	80.25
342.981	72.25
343.209	88.25
343.437	94.25
343.665	90.25
343.893	73.25
344.12	97.25
344.348	74.25
344.576	75.25
344.804	96.25
345.031	73.25
345.259	85.25
345.487	81.25
345.714	76.25
345.942	71.25
346.17	90.25
346.397	77.25
346.625	70.25
346.853	75.25
347.08	81.25
347.308	97.25
347.535	82.25
347.763	77.25
347.99	83.25
348.218	79.25
348.445	84.25
348.673	74.25
348.9	83.25
349.128	74.25
349.355	79.25
349.583	88.25
349.81	90.25
350.037	83.25
350.265	84.25
350.492	88.25
350.72	78.25
350.947	95.25
351.174	97.25
351.402	75.25
351.629	84.25
351.856	93.25
352.083	90.25
352.311	97.25
352.538	75.25
352.765	65.25
352.992	90.25
353.22	77.25
353.447	87.25
353.674	89.25
353.901	87.25
354.128	89.25
354.355	92.25
354.583	88.25
354.81	78.25
355.037	87.25
355.264	87.25
355.491	93.25
355.718	72.25
355.945	78.25
356.172	87.25
356.399	86.25
356.626	74.25
356.853	64.25
357.08	76.25
357.307	75.25
357.534	68.25
357.761	79.25
357.988	78.25
358.215	92.25
358.441	83.25
358.668	82.25
358.895	66.25
359.122	81.25
359.349	84.25
359.576	76.25
359.802	73.25
360.029	75.25
360.256	65.25
360.483	80.25
360.709	95.25
360.936	82.25
361.163	92.25
361.39	86.25
361.616	71.25
361.843	97.25
362.07	92.25
362.296	82.25
362.523	93.25
362.749	78.25
362.976	73.25
363.203	84.25
363.429	83.25
363.656	88.25
363.882	63.25
364.109	79.25
364.335	86.25
364.562	78.25
364.788	79.25
365.015	92.25
365.241	92.25
365.468	87.25
365.694	89.25
365.92	84.25
366.147	98.25
366.373	80.25
366.599	80.25
366.826	71.25
367.052	79.25
367.278	88.25
367.505	90.25
367.731	79.25
367.957	66.25
368.184	71.25
368.41	96.25
368.636	67.25
368.862	95.25
369.089	73.25
369.315	99.25
369.541	79.25
369.767	83.25
369.993	88.25
370.219	75.25
370.445	77.25
370.672	75.25
370.898	78.25
371.124	87.25
371.35	70.25
371.576	73.25
371.802	90.25
372.028	75.25
372.254	99.25
372.48	85.25
372.706	77.25
372.932	69.25
373.158	88.25
373.384	91.25
373.61	81.25
373.835	84.25
374.061	79.25
374.287	90.25
374.513	82.25
374.739	80.25
374.965	83.25
375.191	79.25
375.416	74.25
375.642	82.25
375.868	92.25
376.094	89.25
376.319	83.25
376.545	71.25
376.771	69.25
376.997	80.25
377.222	80.25
377.448	86.25
377.674	67.25
377.899	83.25
378.125	96.25
378.35	81.25
378.576	75.25
378.802	73.25
379.027	71.25
379.253	77.25
379.478	82.25
379.704	92.25
379.929	75.25
380.155	82.25
380.38	83.25
380.606	78.25
380.831	69.25
381.057	89.25
381.282	71.25
381.507	80.25
381.733	93.25
381.958	81.25
382.184	73.25
382.409	89.25
382.634	65.25
382.86	84.25
383.085	82.25
383.31	79.25
383.535	76.25
383.761	88.25
383.986	76.25
384.211	75.25
384.436	73.25
384.662	79.25
384.887	73.25
385.112	82.25
385.337	81.25
385.562	90.25
385.787	84.25
386.013	82.25
386.238	82.25
386.463	82.25
386.688	88.25
386.913	80.25
387.138	71.25
387.363	83.25
387.588	95.25
387.813	83.25
388.038	79.25
388.263	76.25
388.488	88.25
388.713	79.25
388.938	81.25
389.163	81.25
389.387	81.25
389.612	69.25
389.837	92.25
390.062	74.25
390.287	71.25
390.512	97.25
390.736	91.25
390.961	72.25
391.186	89.25
391.411	77.25
391.636	81.25
391.86	91.25
392.085	87.25
392.31	72.25
392.534	85.25
392.759	81.25
392.984	86.25
393.208	87.25
393.433	77.25
393.658	65.25
393.882	81.25
394.107	84.25
394.331	91.25
394.556	91.25
394.78	76.25
395.005	65.25
395.229	81.25
395.454	79.25
395.678	86.25
395.903	85.25
396.127	83.25
396.352	92.25
396.576	68.25
396.801	81.25
397.025	101.25
397.249	98.25
397.474	82.25
397.698	67.25
397.922	77.25
398.147	85.25
398.371	79.25
398.595	68.25
398.82	84.25
399.044	81.25
399.268	83.25
399.492	88.25
399.717	97.25
399.941	88.25
400.165	88.25
400.389	77.25
400.613	73.25
400.837	90.25
401.062	73.25
401.286	80.25
401.51	73.25
401.734	81.25
401.958	90.25
402.182	85.25
402.406	88.25
402.63	92.25
402.854	83.25
403.078	72.25
403.302	77.25
403.526	86.25
403.75	87.25
403.974	72.25
404.198	73.25
404.422	79.25
404.645	83.25
404.869	81.25
405.093	99.25
405.317	90.25
405.541	87.25
405.765	91.25
405.988	89.25
406.212	74.25
406.436	79.25
406.66	79.25
406.883	81.25
407.107	78.25
407.331	88.25
407.555	83.25
407.778	93.25
408.002	86.25
408.226	81.25
408.449	63.25
408.673	92.25
408.896	85.25
409.12	84.25
409.344	87.25
409.567	93.25
409.791	84.25
410.014	103.25
410.238	85.25
410.461	71.25
410.685	89.25
410.908	79.25
411.132	93.25
411.355	78.25
411.578	79.25
411.802	98.25
412.025	79.25
412.249	69.25
412.472	76.25
412.695	87.25
412.919	90.25
413.142	70.25
413.365	85.25
413.589	64.25
413.812	86.25
414.035	97.25
414.258	85.25
414.482	87.25
414.705	80.25
414.928	82.25
415.151	81.25
415.374	72.25
415.597	79.25
415.821	92.25
416.044	90.25
416.267	88.25
416.49	82.25
416.713	66.25
416.936	85.25
417.159	74.25
417.382	90.25
417.605	85.25
417.828	76.25
418.051	72.25
418.274	77.25
418.497	84.25
418.72	73.25
418.943	90.25
419.166	79.25
419.389	75.25
419.611	100.25
419.834	90.25
420.057	81.25
420.28	84.25
420.503	71.25
420.726	89.25
420.948	81.25
421.171	72.25
421.394	92.25
421.617	84.25
421.839	87.25
422.062	99.25
422.285	88.25
422.507	77.25
422.73	77.25
422.953	84.25
423.175	80.25
423.398	87.25
423.621	83.25
423.843	101.25
424.066	88.25
424.288	91.25
424.511	82.25
424.733	90.25
424.956	90.25
425.178	89.25
425.401	99.25
425.623	84.25
425.846	68.25
426.068	88.25
426.291	95.25
426.513	86.25
426.735	61.25
426.958	87.25
427.18	100.25
427.402	79.25
427.625	88.25
427.847	79.25
428.069	87.25
428.292	92.25
428.514	87.25
428.736	71.25
428.958	71.25
429.181	82.25
429.403	82.25
429.625	72.25
429.847	69.25
430.069	89.25
430.292	74.25
430.514	89.25
430.736	85.25
430.958	77.25
431.18	75.25
431.402	81.25
431.624	95.25
431.846	79.25
432.068	86.25
432.29	89.25
432.512	100.25
432.734	89.25
432.956	85.25
433.178	79.25
433.4	89.25
433.622	74.25
433.844	82.25
434.066	80.25
434.287	91.25
434.509	80.25
434.731	88.25
434.953	74.25
435.175	70.25
435.397	85.25
435.618	82.25
435.84	73.25
436.062	86.25
436.284	72.25
436.505	75.25
436.727	74.25
436.949	72.25
437.17	88.25
437.392	83.25
437.614	75.25
437.835	92.25
438.057	86.25
438.278	84.25
438.5	76.25
438.721	77.25
438.943	74.25
439.165	78.25
439.386	80.25
439.608	81.25
439.829	90.25
440.05	79.25
440.272	74.25
440.493	78.25
440.715	68.25
440.936	84.25
441.158	81.25
441.379	86.25
441.6	84.25
441.822	88.25
442.043	71.25
442.264	86.25
442.486	92.25
442.707	85.25
442.928	92.25
443.149	79.25
443.371	89.25
443.592	82.25
443.813	80.25
444.034	74.25
444.255	84.25
444.476	88.25
444.698	75.25
444.919	79.25
445.14	159.25
445.361	108.25
445.582	96.25
445.803	76.25
446.024	79.25
446.245	84.25
446.466	91.25
446.687	79.25
446.908	90.25
447.129	86.25
447.35	91.25
447.571	77.25
447.792	82.25
448.013	80.25
448.234	81.25
448.455	81.25
448.675	80.25
448.896	85.25
449.117	80.25
449.338	81.25
449.559	90.25
449.779	94.25
450	77.25
450.221	91.25
450.442	76.25
450.662	87.25
450.883	88.25
451.104	83.25
451.324	76.25
451.545	77.25
451.766	88.25
451.986	72.25
452.207	80.25
452.428	91.25
452.648	82.25
452.869	80.25
453.089	72.25
453.31	78.25
453.53	83.25
453.751	82.25
453.971	90.25
454.192	78.25
454.412	76.25
454.633	81.25
454.853	86.25
455.073	81.25
455.294	79.25
455.514	86.25
455.734	75.25
455.955	91.25
456.175	91.25
456.395	79.25
456.616	84.25
456.836	82.25
457.056	92.25
457.276	88.25
457.497	70.25
457.717	83.25
457.937	74.25
458.157	77.25
458.377	80.25
458.598	73.25
458.818	73.25
459.038	85.25
459.258	80.25
459.478	91.25
459.698	70.25
459.918	81.25
460.138	76.25
460.358	88.25
460.578	88.25
460.798	88.25
461.018	95.25
461.238	92.25
461.458	83.25
461.678	91.25
461.898	80.25
462.118	75.25
462.338	86.25
462.558	78.25
462.777	95.25
462.997	88.25
463.217	81.25
463.437	90.25
463.657	89.25
463.876	85.25
464.096	89.25
464.316	99.25
464.536	86.25
464.755	66.25
464.975	75.25
465.195	92.25
465.414	79.25
465.634	97.25
465.854	90.25
466.073	88.25
466.293	75.25
466.512	86.25
466.732	70.25
466.951	79.25
467.171	97.25
467.391	88.25
467.61	71.25
467.829	72.25
468.049	81.25
468.268	76.25
468.488	75.25
468.707	82.25
468.927	98.25
469.146	81.25
469.365	75.25
469.585	75.25
469.804	91.25
470.023	75.25
470.243	79.25
470.462	81.25
470.681	97.25
470.901	84.25
471.12	83.25
471.339	92.25
471.558	69.25
471.777	76.25
471.997	101.25
472.216	91.25
472.435	86.25
472.654	85.25
472.873	86.25
473.092	85.25
473.311	83.25
473.53	80.25
473.749	93.25
473.968	93.25
474.187	82.25
474.406	88.25
474.625	84.25
474.844	84.25
475.063	94.25
475.282	102.25
475.501	71.25
475.72	89.25
475.939	76.25
476.158	71.25
476.377	89.25
476.596	75.25
476.814	82.25
477.033	81.25
477.252	91.25
477.471	91.25
477.69	86.25
477.908	76.25
478.127	90.25
478.346	83.25
478.564	79.25
478.783	83.25
479.002	73.25
479.22	78.25
479.439	90.25
479.658	97.25
479.876	97.25
480.095	85.25
480.313	87.25
480.532	86.25
480.751	74.25
480.969	89.25
481.188	86.25
481.406	73.25
481.624	87.25
481.843	75.25
482.061	84.25
482.28	76.25
482.498	75.25
482.717	88.25
482.935	97.25
483.153	88.25
483.372	82.25
483.59	75.25
483.808	80.25
484.027	85.25
484.245	78.25
484.463	87.25
484.681	76.25
484.9	87.25
485.118	79.25
485.336	86.25
485.554	77.25
485.772	75.25
485.99	74.25
486.209	76.25
486.427	84.25
486.645	85.25
486.863	96.25
487.081	78.25
487.299	83.25
487.517	90.25
487.735	81.25
487.953	82.25
488.171	87.25
488.389	79.25
488.607	80.25
488.825	93.25
489.043	87.25
489.261	80.25
489.479	82.25
489.696	79.25
489.914	66.25
490.132	73.25
490.35	86.25
490.568	91.25
490.786	82.25
491.003	75.25
491.221	81.25
491.439	95.25
491.657	91.25
491.874	93.25
492.092	79.25
492.31	85.25
492.527	89.25
492.745	85.25
492.963	82.25
493.18	99.25
493.398	98.25
493.615	86.25
493.833	75.25
494.05	95.25
494.268	74.25
494.485	102.25
494.703	102.25
494.92	83.25
495.138	93.25
495.355	60.25
495.573	94.25
495.79	81.25
496.008	97.25
496.225	80.25
496.442	79.25
496.66	96.25
496.877	88.25
497.094	91.25
497.312	85.25
497.529	90.25
497.746	91.25
497.963	86.25
498.181	88.25
498.398	83.25
498.615	83.25
498.832	101.25
499.049	89.25
499.267	93.25
499.484	80.25
499.701	100.25
499.918	89.25
500.135	101.25
500.352	97.25
500.569	110.25
500.786	119.25
501.003	107.25
501.22	83.25
501.437	100.25
501.654	92.25
501.871	93.25
502.088	101.25
502.305	97.25
502.522	94.25
502.739	93.25
502.956	88.25
503.172	93.25
503.389	86.25
503.606	95.25
503.823	90.25
504.04	85.25
504.256	86.25
504.473	79.25
504.69	82.25
504.907	88.25
505.123	100.25
505.34	87.25
505.557	89.25
505.773	76.25
505.99	76.25
506.207	86.25
506.423	77.25
506.64	72.25
506.856	78.25
507.073	89.25
507.289	77.25
507.506	83.25
507.722	69.25
507.939	72.25
508.155	86.25
508.372	103.25
508.588	88.25
508.805	99.25
509.021	75.25
509.238	96.25
509.454	91.25
509.67	88.25
509.887	78.25
510.103	94.25
510.319	86.25
510.536	91.25
510.752	84.25
510.968	91.25
511.184	72.25
511.401	91.25
511.617	85.25
511.833	84.25
512.049	88.25
512.265	86.25
512.481	80.25
512.698	87.25
512.914	95.25
513.13	89.25
513.346	78.25
513.562	82.25
513.778	93.25
513.994	79.25
514.21	91.25
514.426	87.25
514.642	92.25
514.858	82.25
515.074	86.25
515.29	90.25
515.506	82.25
515.721	79.25
515.937	81.25
516.153	70.25
516.369	88.25
516.585	86.25
516.801	96.25
517.016	91.25
517.232	83.25
517.448	99.25
517.664	88.25
517.879	92.25
518.095	90.25
518.311	84.25
518.527	86.25
518.742	100.25
518.958	83.25
519.173	84.25
519.389	93.25
519.605	87.25
519.82	81.25
520.036	83.25
