Data from BG_HRD10591_069.txt Node
Date: Fri May 16 15:21:28 EDT 2025
User: Yrep
Spectrometer: HR+D1059
Trigger mode: 1
Integration Time (sec): 1.000000E-1
Scans to average: 1
Electric dark correction enabled: true
Nonlinearity correction enabled: false
Boxcar width: 0
XAxis mode: Wavelengths
Number of Pixels in Spectrum: 2048
>>>>>Begin Spectral Data<<<<<
223.165	-24.06
223.4	-24.06
223.635	-24.06
223.869	-30.06
224.104	-24.06
224.338	-18.06
224.573	-9.06
224.808	-2.06
225.042	-3.06
225.277	-8.06
225.511	-2.06
225.746	-0.06
225.98	15.94
226.215	15.94
226.449	15.94
226.683	17.94
226.918	22.94
227.152	31.94
227.387	33.94
227.621	41.94
227.856	35.94
228.09	39.94
228.324	49.94
228.559	66.94
228.793	57.94
229.027	65.94
229.262	63.94
229.496	68.94
229.73	71.94
229.964	76.94
230.199	71.94
230.433	76.94
230.667	61.94
230.901	74.94
231.136	74.94
231.37	84.94
231.604	74.94
231.838	75.94
232.072	93.94
232.306	70.94
232.541	85.94
232.775	78.94
233.009	76.94
233.243	84.94
233.477	76.94
233.711	73.94
233.945	83.94
234.179	90.94
234.413	82.94
234.647	90.94
234.881	84.94
235.115	81.94
235.349	68.94
235.583	79.94
235.817	86.94
236.051	86.94
236.285	74.94
236.519	82.94
236.753	73.94
236.987	77.94
237.221	79.94
237.455	65.94
237.689	87.94
237.922	79.94
238.156	78.94
238.39	71.94
238.624	73.94
238.858	67.94
239.091	86.94
239.325	76.94
239.559	87.94
239.793	75.94
240.027	73.94
240.26	72.94
240.494	71.94
240.728	76.94
240.961	76.94
241.195	75.94
241.429	95.94
241.662	68.94
241.896	75.94
242.13	81.94
242.363	94.94
242.597	76.94
242.83	81.94
243.064	81.94
243.298	73.94
243.531	79.94
243.765	79.94
243.998	81.94
244.232	77.94
244.465	85.94
244.699	97.94
244.932	72.94
245.166	68.94
245.399	65.94
245.633	73.94
245.866	88.94
246.099	80.94
246.333	83.94
246.566	83.94
246.8	70.94
247.033	81.94
247.266	78.94
247.5	80.94
247.733	78.94
247.966	84.94
248.2	84.94
248.433	76.94
248.666	76.94
248.899	80.94
249.133	75.94
249.366	79.94
249.599	66.94
249.832	94.94
250.066	71.94
250.299	79.94
250.532	80.94
250.765	77.94
250.998	81.94
251.231	58.94
251.465	83.94
251.698	77.94
251.931	86.94
252.164	89.94
252.397	96.94
252.63	70.94
252.863	82.94
253.096	102.94
253.329	88.94
253.562	67.94
253.795	66.94
254.028	93.94
254.261	78.94
254.494	78.94
254.727	88.94
254.96	86.94
255.193	84.94
255.426	62.94
255.659	86.94
255.892	80.94
256.124	74.94
256.357	80.94
256.59	74.94
256.823	86.94
257.056	94.94
257.289	86.94
257.521	88.94
257.754	92.94
257.987	92.94
258.22	91.94
258.452	74.94
258.685	88.94
258.918	67.94
259.151	91.94
259.383	83.94
259.616	66.94
259.849	81.94
260.081	61.94
260.314	75.94
260.547	75.94
260.779	86.94
261.012	81.94
261.244	71.94
261.477	81.94
261.71	87.94
261.942	75.94
262.175	81.94
262.407	81.94
262.64	84.94
262.872	85.94
263.105	87.94
263.337	87.94
263.57	80.94
263.802	82.94
264.035	84.94
264.267	76.94
264.499	88.94
264.732	92.94
264.964	89.94
265.197	85.94
265.429	83.94
265.661	92.94
265.894	77.94
266.126	80.94
266.358	72.94
266.591	78.94
266.823	81.94
267.055	77.94
267.287	73.94
267.52	83.94
267.752	77.94
267.984	73.94
268.216	89.94
268.448	93.94
268.681	71.94
268.913	88.94
269.145	79.94
269.377	85.94
269.609	96.94
269.841	73.94
270.073	78.94
270.306	77.94
270.538	88.94
270.77	79.94
271.002	71.94
271.234	66.94
271.466	72.94
271.698	87.94
271.93	79.94
272.162	88.94
272.394	79.94
272.626	77.94
272.858	93.94
273.09	99.94
273.322	83.94
273.553	79.94
273.785	79.94
274.017	91.94
274.249	83.94
274.481	86.94
274.713	80.94
274.945	65.94
275.176	90.94
275.408	85.94
275.64	95.94
275.872	98.94
276.104	75.94
276.335	81.94
276.567	70.94
276.799	81.94
277.031	66.94
277.262	92.94
277.494	86.94
277.726	73.94
277.957	86.94
278.189	83.94
278.421	90.94
278.652	83.94
278.884	79.94
279.115	94.94
279.347	90.94
279.579	84.94
279.81	74.94
280.042	86.94
280.273	89.94
280.505	76.94
280.736	75.94
280.968	92.94
281.199	91.94
281.431	71.94
281.662	87.94
281.894	81.94
282.125	75.94
282.356	86.94
282.588	71.94
282.819	76.94
283.051	86.94
283.282	91.94
283.513	90.94
283.745	82.94
283.976	81.94
284.207	76.94
284.439	94.94
284.67	82.94
284.901	70.94
285.132	78.94
285.364	89.94
285.595	85.94
285.826	95.94
286.057	80.94
286.288	74.94
286.52	82.94
286.751	82.94
286.982	83.94
287.213	93.94
287.444	85.94
287.675	89.94
287.906	94.94
288.138	83.94
288.369	86.94
288.6	77.94
288.831	93.94
289.062	105.94
289.293	99.94
289.524	87.94
289.755	86.94
289.986	90.94
290.217	73.94
290.448	78.94
290.679	79.94
290.91	86.94
291.141	93.94
291.371	94.94
291.602	83.94
291.833	86.94
292.064	85.94
292.295	94.94
292.526	85.94
292.757	81.94
292.987	88.94
293.218	77.94
293.449	103.94
293.68	82.94
293.91	79.94
294.141	81.94
294.372	92.94
294.603	94.94
294.833	75.94
295.064	87.94
295.295	79.94
295.525	80.94
295.756	93.94
295.987	65.94
296.217	75.94
296.448	101.94
296.679	86.94
296.909	82.94
297.14	92.94
297.37	87.94
297.601	83.94
297.831	78.94
298.062	82.94
298.292	87.94
298.523	79.94
298.753	75.94
298.984	92.94
299.214	85.94
299.445	85.94
299.675	90.94
299.905	94.94
300.136	73.94
300.366	81.94
300.597	96.94
300.827	77.94
301.057	85.94
301.288	78.94
301.518	73.94
301.748	89.94
301.979	97.94
302.209	104.94
302.439	77.94
302.669	79.94
302.9	78.94
303.13	79.94
303.36	98.94
303.59	72.94
303.82	85.94
304.051	81.94
304.281	81.94
304.511	80.94
304.741	79.94
304.971	86.94
305.201	93.94
305.431	80.94
305.661	95.94
305.891	73.94
306.121	98.94
306.352	80.94
306.582	92.94
306.812	87.94
307.042	66.94
307.272	78.94
307.502	84.94
307.731	99.94
307.961	91.94
308.191	94.94
308.421	83.94
308.651	81.94
308.881	85.94
309.111	78.94
309.341	86.94
309.571	91.94
309.8	83.94
310.03	88.94
310.26	87.94
310.49	93.94
310.72	101.94
310.949	83.94
311.179	81.94
311.409	71.94
311.639	84.94
311.868	83.94
312.098	79.94
312.328	77.94
312.557	91.94
312.787	86.94
313.017	77.94
313.246	90.94
313.476	93.94
313.706	88.94
313.935	81.94
314.165	101.94
314.394	77.94
314.624	80.94
314.853	87.94
315.083	84.94
315.312	81.94
315.542	77.94
315.771	79.94
316.001	102.94
316.23	90.94
316.46	83.94
316.689	79.94
316.919	99.94
317.148	84.94
317.377	87.94
317.607	85.94
317.836	89.94
318.065	84.94
318.295	87.94
318.524	83.94
318.753	79.94
318.983	69.94
319.212	83.94
319.441	97.94
319.67	95.94
319.9	80.94
320.129	81.94
320.358	78.94
320.587	78.94
320.816	84.94
321.046	83.94
321.275	78.94
321.504	88.94
321.733	76.94
321.962	95.94
322.191	87.94
322.42	77.94
322.649	85.94
322.878	84.94
323.108	92.94
323.337	74.94
323.566	91.94
323.795	83.94
324.024	81.94
324.253	83.94
324.482	82.94
324.71	84.94
324.939	78.94
325.168	89.94
325.397	73.94
325.626	85.94
325.855	86.94
326.084	74.94
326.313	77.94
326.542	84.94
326.77	92.94
326.999	90.94
327.228	84.94
327.457	74.94
327.686	74.94
327.914	77.94
328.143	98.94
328.372	86.94
328.6	89.94
328.829	74.94
329.058	84.94
329.287	82.94
329.515	78.94
329.744	81.94
329.972	89.94
330.201	86.94
330.43	87.94
330.658	85.94
330.887	89.94
331.115	78.94
331.344	75.94
331.572	75.94
331.801	80.94
332.03	82.94
332.258	101.94
332.486	84.94
332.715	89.94
332.943	83.94
333.172	85.94
333.4	70.94
333.629	66.94
333.857	84.94
334.085	76.94
334.314	64.94
334.542	83.94
334.771	91.94
334.999	80.94
335.227	87.94
335.455	64.94
335.684	74.94
335.912	74.94
336.14	86.94
336.369	81.94
336.597	74.94
336.825	85.94
337.053	82.94
337.281	89.94
337.51	65.94
337.738	82.94
337.966	81.94
338.194	78.94
338.422	96.94
338.65	90.94
338.878	75.94
339.106	77.94
339.334	75.94
339.562	83.94
339.79	89.94
340.018	85.94
340.246	73.94
340.474	83.94
340.702	81.94
340.93	72.94
341.158	79.94
341.386	77.94
341.614	85.94
341.842	86.94
342.07	88.94
342.298	92.94
342.526	86.94
342.754	83.94
342.981	89.94
343.209	77.94
343.437	101.94
343.665	81.94
343.893	90.94
344.12	92.94
344.348	77.94
344.576	87.94
344.804	95.94
345.031	93.94
345.259	96.94
345.487	89.94
345.714	69.94
345.942	94.94
346.17	83.94
346.397	95.94
346.625	90.94
346.853	75.94
347.08	84.94
347.308	79.94
347.535	73.94
347.763	75.94
347.99	89.94
348.218	94.94
348.445	79.94
348.673	73.94
348.9	76.94
349.128	103.94
349.355	66.94
349.583	91.94
349.81	76.94
350.037	71.94
350.265	77.94
350.492	61.94
350.72	76.94
350.947	89.94
351.174	80.94
351.402	82.94
351.629	72.94
351.856	81.94
352.083	88.94
352.311	107.94
352.538	69.94
352.765	83.94
352.992	72.94
353.22	81.94
353.447	71.94
353.674	87.94
353.901	87.94
354.128	75.94
354.355	79.94
354.583	85.94
354.81	93.94
355.037	94.94
355.264	85.94
355.491	90.94
355.718	87.94
355.945	81.94
356.172	79.94
356.399	69.94
356.626	95.94
356.853	83.94
357.08	98.94
357.307	87.94
357.534	80.94
357.761	85.94
357.988	94.94
358.215	81.94
358.441	76.94
358.668	82.94
358.895	82.94
359.122	91.94
359.349	87.94
359.576	102.94
359.802	89.94
360.029	75.94
360.256	71.94
360.483	70.94
360.709	86.94
360.936	90.94
361.163	89.94
361.39	81.94
361.616	90.94
361.843	94.94
362.07	79.94
362.296	86.94
362.523	90.94
362.749	74.94
362.976	85.94
363.203	85.94
363.429	86.94
363.656	65.94
363.882	85.94
364.109	87.94
364.335	74.94
364.562	78.94
364.788	80.94
365.015	91.94
365.241	89.94
365.468	68.94
365.694	90.94
365.92	93.94
366.147	75.94
366.373	85.94
366.599	80.94
366.826	89.94
367.052	87.94
367.278	97.94
367.505	80.94
367.731	87.94
367.957	78.94
368.184	84.94
368.41	88.94
368.636	79.94
368.862	81.94
369.089	81.94
369.315	81.94
369.541	86.94
369.767	83.94
369.993	67.94
370.219	88.94
370.445	72.94
370.672	73.94
370.898	84.94
371.124	80.94
371.35	82.94
371.576	94.94
371.802	53.94
372.028	67.94
372.254	78.94
372.48	82.94
372.706	80.94
372.932	85.94
373.158	81.94
373.384	89.94
373.61	79.94
373.835	75.94
374.061	82.94
374.287	68.94
374.513	75.94
374.739	84.94
374.965	76.94
375.191	74.94
375.416	85.94
375.642	95.94
375.868	94.94
376.094	91.94
376.319	77.94
376.545	79.94
376.771	87.94
376.997	86.94
377.222	82.94
377.448	85.94
377.674	88.94
377.899	86.94
378.125	89.94
378.35	78.94
378.576	88.94
378.802	92.94
379.027	77.94
379.253	73.94
379.478	93.94
379.704	91.94
379.929	98.94
380.155	93.94
380.38	83.94
380.606	100.94
380.831	95.94
381.057	93.94
381.282	85.94
381.507	77.94
381.733	88.94
381.958	66.94
382.184	82.94
382.409	86.94
382.634	89.94
382.86	99.94
383.085	78.94
383.31	90.94
383.535	78.94
383.761	73.94
383.986	65.94
384.211	78.94
384.436	82.94
384.662	93.94
384.887	80.94
385.112	79.94
385.337	73.94
385.562	72.94
385.787	75.94
386.013	90.94
386.238	86.94
386.463	83.94
386.688	92.94
386.913	73.94
387.138	90.94
387.363	79.94
387.588	86.94
387.813	75.94
388.038	66.94
388.263	88.94
388.488	89.94
388.713	80.94
388.938	85.94
389.163	73.94
389.387	83.94
389.612	79.94
389.837	89.94
390.062	75.94
390.287	78.94
390.512	73.94
390.736	77.94
390.961	94.94
391.186	98.94
391.411	75.94
391.636	79.94
391.86	81.94
392.085	74.94
392.31	68.94
392.534	75.94
392.759	74.94
392.984	90.94
393.208	86.94
393.433	73.94
393.658	80.94
393.882	77.94
394.107	81.94
394.331	83.94
394.556	94.94
394.78	85.94
395.005	82.94
395.229	71.94
395.454	100.94
395.678	85.94
395.903	89.94
396.127	87.94
396.352	79.94
396.576	84.94
396.801	85.94
397.025	77.94
397.249	85.94
397.474	81.94
397.698	85.94
397.922	85.94
398.147	94.94
398.371	81.94
398.595	79.94
398.82	78.94
399.044	76.94
399.268	82.94
399.492	78.94
399.717	84.94
399.941	84.94
400.165	93.94
400.389	80.94
400.613	94.94
400.837	94.94
401.062	82.94
401.286	93.94
401.51	79.94
401.734	78.94
401.958	76.94
402.182	77.94
402.406	85.94
402.63	76.94
402.854	97.94
403.078	91.94
403.302	77.94
403.526	75.94
403.75	64.94
403.974	85.94
404.198	75.94
404.422	84.94
404.645	73.94
404.869	93.94
405.093	86.94
405.317	79.94
405.541	82.94
405.765	75.94
405.988	76.94
406.212	80.94
406.436	78.94
406.66	89.94
406.883	85.94
407.107	82.94
407.331	86.94
407.555	91.94
407.778	87.94
408.002	79.94
408.226	89.94
408.449	96.94
408.673	95.94
408.896	80.94
409.12	82.94
409.344	85.94
409.567	82.94
409.791	82.94
410.014	67.94
410.238	76.94
410.461	67.94
410.685	80.94
410.908	106.94
411.132	76.94
411.355	75.94
411.578	88.94
411.802	75.94
412.025	80.94
412.249	75.94
412.472	79.94
412.695	70.94
412.919	80.94
413.142	81.94
413.365	79.94
413.589	82.94
413.812	74.94
414.035	81.94
414.258	78.94
414.482	75.94
414.705	73.94
414.928	86.94
415.151	81.94
415.374	89.94
415.597	80.94
415.821	87.94
416.044	94.94
416.267	86.94
416.49	79.94
416.713	95.94
416.936	93.94
417.159	92.94
417.382	98.94
417.605	75.94
417.828	80.94
418.051	69.94
418.274	81.94
418.497	77.94
418.72	68.94
418.943	66.94
419.166	73.94
419.389	96.94
419.611	61.94
419.834	99.94
420.057	63.94
420.28	81.94
420.503	85.94
420.726	83.94
420.948	87.94
421.171	64.94
421.394	84.94
421.617	78.94
421.839	88.94
422.062	88.94
422.285	75.94
422.507	73.94
422.73	67.94
422.953	73.94
423.175	84.94
423.398	88.94
423.621	85.94
423.843	86.94
424.066	69.94
424.288	73.94
424.511	84.94
424.733	97.94
424.956	83.94
425.178	82.94
425.401	68.94
425.623	58.94
425.846	80.94
426.068	86.94
426.291	98.94
426.513	79.94
426.735	78.94
426.958	85.94
427.18	78.94
427.402	86.94
427.625	77.94
427.847	85.94
428.069	81.94
428.292	80.94
428.514	87.94
428.736	79.94
428.958	86.94
429.181	85.94
429.403	79.94
429.625	87.94
429.847	65.94
430.069	89.94
430.292	84.94
430.514	85.94
430.736	76.94
430.958	83.94
431.18	67.94
431.402	82.94
431.624	93.94
431.846	78.94
432.068	89.94
432.29	85.94
432.512	71.94
432.734	78.94
432.956	92.94
433.178	82.94
433.4	78.94
433.622	68.94
433.844	80.94
434.066	86.94
434.287	79.94
434.509	91.94
434.731	77.94
434.953	65.94
435.175	85.94
435.397	71.94
435.618	79.94
435.84	88.94
436.062	78.94
436.284	79.94
436.505	86.94
436.727	80.94
436.949	67.94
437.17	61.94
437.392	69.94
437.614	91.94
437.835	71.94
438.057	70.94
438.278	88.94
438.5	81.94
438.721	78.94
438.943	99.94
439.165	82.94
439.386	81.94
439.608	87.94
439.829	89.94
440.05	83.94
440.272	82.94
440.493	86.94
440.715	81.94
440.936	81.94
441.158	77.94
441.379	83.94
441.6	59.94
441.822	71.94
442.043	86.94
442.264	79.94
442.486	90.94
442.707	88.94
442.928	81.94
443.149	76.94
443.371	103.94
443.592	81.94
443.813	75.94
444.034	87.94
444.255	90.94
444.476	85.94
444.698	70.94
444.919	86.94
445.14	154.94
445.361	113.94
445.582	84.94
445.803	82.94
446.024	79.94
446.245	77.94
446.466	79.94
446.687	74.94
446.908	80.94
447.129	67.94
447.35	87.94
447.571	77.94
447.792	79.94
448.013	75.94
448.234	69.94
448.455	78.94
448.675	87.94
448.896	79.94
449.117	96.94
449.338	71.94
449.559	78.94
449.779	78.94
450	78.94
450.221	70.94
450.442	84.94
450.662	106.94
450.883	93.94
451.104	84.94
451.324	80.94
451.545	85.94
451.766	73.94
451.986	81.94
452.207	71.94
452.428	93.94
452.648	81.94
452.869	82.94
453.089	81.94
453.31	83.94
453.53	77.94
453.751	77.94
453.971	72.94
454.192	94.94
454.412	71.94
454.633	82.94
454.853	86.94
455.073	89.94
455.294	77.94
455.514	78.94
455.734	77.94
455.955	77.94
456.175	75.94
456.395	66.94
456.616	84.94
456.836	86.94
457.056	69.94
457.276	91.94
457.497	103.94
457.717	86.94
457.937	75.94
458.157	81.94
458.377	86.94
458.598	77.94
458.818	70.94
459.038	88.94
459.258	82.94
459.478	89.94
459.698	84.94
459.918	89.94
460.138	78.94
460.358	70.94
460.578	71.94
460.798	90.94
461.018	72.94
461.238	86.94
461.458	78.94
461.678	69.94
461.898	89.94
462.118	91.94
462.338	87.94
462.558	93.94
462.777	74.94
462.997	85.94
463.217	78.94
463.437	83.94
463.657	75.94
463.876	75.94
464.096	88.94
464.316	83.94
464.536	94.94
464.755	90.94
464.975	91.94
465.195	92.94
465.414	77.94
465.634	83.94
465.854	82.94
466.073	74.94
466.293	80.94
466.512	82.94
466.732	89.94
466.951	77.94
467.171	70.94
467.391	85.94
467.61	73.94
467.829	74.94
468.049	78.94
468.268	78.94
468.488	75.94
468.707	83.94
468.927	84.94
469.146	73.94
469.365	88.94
469.585	85.94
469.804	76.94
470.023	90.94
470.243	80.94
470.462	88.94
470.681	85.94
470.901	76.94
471.12	86.94
471.339	84.94
471.558	78.94
471.777	75.94
471.997	85.94
472.216	93.94
472.435	64.94
472.654	85.94
472.873	87.94
473.092	83.94
473.311	87.94
473.53	86.94
473.749	76.94
473.968	86.94
474.187	79.94
474.406	70.94
474.625	88.94
474.844	90.94
475.063	58.94
475.282	81.94
475.501	92.94
475.72	79.94
475.939	80.94
476.158	73.94
476.377	90.94
476.596	89.94
476.814	91.94
477.033	78.94
477.252	85.94
477.471	83.94
477.69	73.94
477.908	87.94
478.127	70.94
478.346	74.94
478.564	84.94
478.783	86.94
479.002	86.94
479.22	74.94
479.439	75.94
479.658	81.94
479.876	89.94
480.095	72.94
480.313	84.94
480.532	91.94
480.751	78.94
480.969	84.94
481.188	73.94
481.406	78.94
481.624	81.94
481.843	81.94
482.061	67.94
482.28	93.94
482.498	85.94
482.717	79.94
482.935	80.94
483.153	77.94
483.372	96.94
483.59	89.94
483.808	77.94
484.027	87.94
484.245	66.94
484.463	76.94
484.681	94.94
484.9	64.94
485.118	82.94
485.336	84.94
485.554	85.94
485.772	96.94
485.99	84.94
486.209	89.94
486.427	93.94
486.645	91.94
486.863	71.94
487.081	73.94
487.299	82.94
487.517	101.94
487.735	85.94
487.953	86.94
488.171	87.94
488.389	77.94
488.607	91.94
488.825	72.94
489.043	77.94
489.261	75.94
489.479	73.94
489.696	77.94
489.914	75.94
490.132	100.94
490.35	87.94
490.568	79.94
490.786	78.94
491.003	78.94
491.221	76.94
491.439	77.94
491.657	68.94
491.874	86.94
492.092	90.94
492.31	92.94
492.527	74.94
492.745	76.94
492.963	64.94
493.18	86.94
493.398	73.94
493.615	88.94
493.833	91.94
494.05	91.94
494.268	78.94
494.485	96.94
494.703	90.94
494.92	84.94
495.138	73.94
495.355	92.94
495.573	79.94
495.79	83.94
496.008	86.94
496.225	78.94
496.442	91.94
496.66	85.94
496.877	91.94
497.094	84.94
497.312	90.94
497.529	89.94
497.746	95.94
497.963	88.94
498.181	79.94
498.398	87.94
498.615	70.94
498.832	82.94
499.049	92.94
499.267	91.94
499.484	81.94
499.701	87.94
499.918	96.94
500.135	85.94
500.352	79.94
500.569	76.94
500.786	79.94
501.003	89.94
501.22	81.94
501.437	87.94
501.654	74.94
501.871	91.94
502.088	82.94
502.305	80.94
502.522	67.94
502.739	80.94
502.956	69.94
503.172	93.94
503.389	81.94
503.606	86.94
503.823	78.94
504.04	81.94
504.256	91.94
504.473	73.94
504.69	73.94
504.907	89.94
505.123	71.94
505.34	97.94
505.557	86.94
505.773	91.94
505.99	75.94
506.207	78.94
506.423	76.94
506.64	83.94
506.856	80.94
507.073	85.94
507.289	89.94
507.506	87.94
507.722	75.94
507.939	94.94
508.155	64.94
508.372	82.94
508.588	85.94
508.805	86.94
509.021	80.94
509.238	97.94
509.454	89.94
509.67	94.94
509.887	78.94
510.103	76.94
510.319	79.94
510.536	78.94
510.752	81.94
510.968	89.94
511.184	97.94
511.401	83.94
511.617	96.94
511.833	83.94
512.049	87.94
512.265	82.94
512.481	83.94
512.698	89.94
512.914	94.94
513.13	91.94
513.346	82.94
513.562	80.94
513.778	90.94
513.994	88.94
514.21	93.94
514.426	94.94
514.642	104.94
514.858	87.94
515.074	90.94
515.29	86.94
515.506	79.94
515.721	83.94
515.937	80.94
516.153	94.94
516.369	97.94
516.585	71.94
516.801	70.94
517.016	72.94
517.232	91.94
517.448	82.94
517.664	66.94
517.879	89.94
518.095	103.94
518.311	67.94
518.527	87.94
518.742	86.94
518.958	94.94
519.173	95.94
519.389	91.94
519.605	88.94
519.82	74.94
520.036	87.94
