Data from BG_HRD10591_064.txt Node
Date: Fri May 16 15:21:25 EDT 2025
User: Yrep
Spectrometer: HR+D1059
Trigger mode: 1
Integration Time (sec): 1.000000E-1
Scans to average: 1
Electric dark correction enabled: true
Nonlinearity correction enabled: false
Boxcar width: 0
XAxis mode: Wavelengths
Number of Pixels in Spectrum: 2048
>>>>>Begin Spectral Data<<<<<
223.165	-16.38
223.4	-16.38
223.635	-16.38
223.869	-12.38
224.104	-19.38
224.338	-27.38
224.573	-24.38
224.808	-8.38
225.042	5.62
225.277	-18.38
225.511	3.62
225.746	18.62
225.98	12.62
226.215	12.62
226.449	16.62
226.683	10.62
226.918	22.62
227.152	23.62
227.387	27.62
227.621	38.62
227.856	54.62
228.09	36.62
228.324	40.62
228.559	78.62
228.793	62.62
229.027	45.62
229.262	64.62
229.496	64.62
229.73	71.62
229.964	69.62
230.199	70.62
230.433	77.62
230.667	82.62
230.901	65.62
231.136	73.62
231.37	84.62
231.604	84.62
231.838	83.62
232.072	80.62
232.306	80.62
232.541	78.62
232.775	87.62
233.009	82.62
233.243	70.62
233.477	87.62
233.711	67.62
233.945	75.62
234.179	72.62
234.413	78.62
234.647	76.62
234.881	91.62
235.115	73.62
235.349	84.62
235.583	72.62
235.817	76.62
236.051	85.62
236.285	68.62
236.519	76.62
236.753	80.62
236.987	70.62
237.221	87.62
237.455	76.62
237.689	86.62
237.922	66.62
238.156	82.62
238.39	83.62
238.624	91.62
238.858	76.62
239.091	85.62
239.325	78.62
239.559	82.62
239.793	81.62
240.027	73.62
240.26	75.62
240.494	75.62
240.728	82.62
240.961	64.62
241.195	85.62
241.429	78.62
241.662	71.62
241.896	95.62
242.13	78.62
242.363	79.62
242.597	80.62
242.83	77.62
243.064	71.62
243.298	95.62
243.531	63.62
243.765	75.62
243.998	88.62
244.232	66.62
244.465	79.62
244.699	72.62
244.932	85.62
245.166	74.62
245.399	62.62
245.633	88.62
245.866	76.62
246.099	80.62
246.333	86.62
246.566	82.62
246.8	84.62
247.033	80.62
247.266	77.62
247.5	74.62
247.733	79.62
247.966	77.62
248.2	72.62
248.433	81.62
248.666	68.62
248.899	84.62
249.133	85.62
249.366	82.62
249.599	73.62
249.832	68.62
250.066	78.62
250.299	63.62
250.532	75.62
250.765	85.62
250.998	92.62
251.231	73.62
251.465	79.62
251.698	77.62
251.931	67.62
252.164	80.62
252.397	78.62
252.63	82.62
252.863	70.62
253.096	83.62
253.329	82.62
253.562	89.62
253.795	82.62
254.028	67.62
254.261	67.62
254.494	86.62
254.727	71.62
254.96	75.62
255.193	74.62
255.426	73.62
255.659	79.62
255.892	74.62
256.124	82.62
256.357	78.62
256.59	76.62
256.823	85.62
257.056	88.62
257.289	76.62
257.521	95.62
257.754	76.62
257.987	91.62
258.22	84.62
258.452	86.62
258.685	84.62
258.918	85.62
259.151	87.62
259.383	86.62
259.616	87.62
259.849	67.62
260.081	87.62
260.314	93.62
260.547	74.62
260.779	83.62
261.012	83.62
261.244	84.62
261.477	88.62
261.71	83.62
261.942	86.62
262.175	95.62
262.407	79.62
262.64	77.62
262.872	82.62
263.105	77.62
263.337	87.62
263.57	76.62
263.802	90.62
264.035	86.62
264.267	86.62
264.499	77.62
264.732	80.62
264.964	77.62
265.197	78.62
265.429	86.62
265.661	86.62
265.894	76.62
266.126	88.62
266.358	78.62
266.591	80.62
266.823	71.62
267.055	76.62
267.287	89.62
267.52	74.62
267.752	90.62
267.984	87.62
268.216	82.62
268.448	64.62
268.681	71.62
268.913	78.62
269.145	85.62
269.377	76.62
269.609	74.62
269.841	85.62
270.073	95.62
270.306	90.62
270.538	92.62
270.77	86.62
271.002	71.62
271.234	76.62
271.466	89.62
271.698	108.62
271.93	77.62
272.162	80.62
272.394	85.62
272.626	69.62
272.858	63.62
273.09	84.62
273.322	83.62
273.553	76.62
273.785	94.62
274.017	82.62
274.249	91.62
274.481	85.62
274.713	87.62
274.945	90.62
275.176	72.62
275.408	74.62
275.64	88.62
275.872	94.62
276.104	90.62
276.335	73.62
276.567	88.62
276.799	74.62
277.031	68.62
277.262	79.62
277.494	89.62
277.726	71.62
277.957	88.62
278.189	85.62
278.421	86.62
278.652	84.62
278.884	79.62
279.115	65.62
279.347	79.62
279.579	86.62
279.81	75.62
280.042	78.62
280.273	80.62
280.505	79.62
280.736	91.62
280.968	80.62
281.199	76.62
281.431	77.62
281.662	95.62
281.894	97.62
282.125	86.62
282.356	89.62
282.588	75.62
282.819	75.62
283.051	93.62
283.282	91.62
283.513	93.62
283.745	95.62
283.976	86.62
284.207	88.62
284.439	84.62
284.67	70.62
284.901	84.62
285.132	76.62
285.364	90.62
285.595	86.62
285.826	86.62
286.057	99.62
286.288	76.62
286.52	71.62
286.751	80.62
286.982	76.62
287.213	88.62
287.444	85.62
287.675	79.62
287.906	82.62
288.138	88.62
288.369	78.62
288.6	88.62
288.831	90.62
289.062	94.62
289.293	89.62
289.524	79.62
289.755	74.62
289.986	78.62
290.217	80.62
290.448	89.62
290.679	91.62
290.91	84.62
291.141	74.62
291.371	82.62
291.602	73.62
291.833	72.62
292.064	85.62
292.295	72.62
292.526	87.62
292.757	81.62
292.987	84.62
293.218	81.62
293.449	75.62
293.68	79.62
293.91	79.62
294.141	92.62
294.372	91.62
294.603	92.62
294.833	79.62
295.064	82.62
295.295	82.62
295.525	86.62
295.756	73.62
295.987	84.62
296.217	74.62
296.448	63.62
296.679	88.62
296.909	79.62
297.14	78.62
297.37	75.62
297.601	85.62
297.831	76.62
298.062	100.62
298.292	88.62
298.523	76.62
298.753	90.62
298.984	83.62
299.214	82.62
299.445	91.62
299.675	76.62
299.905	88.62
300.136	82.62
300.366	83.62
300.597	85.62
300.827	77.62
301.057	74.62
301.288	81.62
301.518	78.62
301.748	98.62
301.979	86.62
302.209	78.62
302.439	92.62
302.669	85.62
302.9	77.62
303.13	77.62
303.36	83.62
303.59	106.62
303.82	78.62
304.051	72.62
304.281	86.62
304.511	74.62
304.741	94.62
304.971	68.62
305.201	74.62
305.431	89.62
305.661	69.62
305.891	75.62
306.121	83.62
306.352	78.62
306.582	80.62
306.812	80.62
307.042	89.62
307.272	82.62
307.502	91.62
307.731	75.62
307.961	79.62
308.191	82.62
308.421	85.62
308.651	87.62
308.881	86.62
309.111	75.62
309.341	92.62
309.571	83.62
309.8	75.62
310.03	91.62
310.26	86.62
310.49	93.62
310.72	88.62
310.949	92.62
311.179	82.62
311.409	90.62
311.639	83.62
311.868	76.62
312.098	86.62
312.328	86.62
312.557	96.62
312.787	73.62
313.017	77.62
313.246	81.62
313.476	72.62
313.706	77.62
313.935	78.62
314.165	89.62
314.394	83.62
314.624	83.62
314.853	86.62
315.083	87.62
315.312	79.62
315.542	83.62
315.771	77.62
316.001	85.62
316.23	83.62
316.46	73.62
316.689	82.62
316.919	86.62
317.148	83.62
317.377	100.62
317.607	84.62
317.836	84.62
318.065	86.62
318.295	85.62
318.524	81.62
318.753	70.62
318.983	89.62
319.212	78.62
319.441	85.62
319.67	84.62
319.9	86.62
320.129	81.62
320.358	100.62
320.587	78.62
320.816	91.62
321.046	82.62
321.275	94.62
321.504	78.62
321.733	79.62
321.962	83.62
322.191	79.62
322.42	70.62
322.649	81.62
322.878	78.62
323.108	82.62
323.337	71.62
323.566	78.62
323.795	95.62
324.024	74.62
324.253	93.62
324.482	71.62
324.71	83.62
324.939	83.62
325.168	76.62
325.397	74.62
325.626	77.62
325.855	72.62
326.084	87.62
326.313	85.62
326.542	90.62
326.77	88.62
326.999	72.62
327.228	83.62
327.457	89.62
327.686	79.62
327.914	81.62
328.143	92.62
328.372	83.62
328.6	80.62
328.829	72.62
329.058	85.62
329.287	94.62
329.515	94.62
329.744	83.62
329.972	87.62
330.201	76.62
330.43	93.62
330.658	76.62
330.887	78.62
331.115	84.62
331.344	80.62
331.572	87.62
331.801	79.62
332.03	69.62
332.258	80.62
332.486	99.62
332.715	83.62
332.943	72.62
333.172	91.62
333.4	75.62
333.629	90.62
333.857	82.62
334.085	79.62
334.314	84.62
334.542	86.62
334.771	78.62
334.999	82.62
335.227	74.62
335.455	75.62
335.684	81.62
335.912	82.62
336.14	98.62
336.369	88.62
336.597	87.62
336.825	64.62
337.053	83.62
337.281	77.62
337.51	70.62
337.738	88.62
337.966	87.62
338.194	76.62
338.422	98.62
338.65	82.62
338.878	93.62
339.106	88.62
339.334	90.62
339.562	81.62
339.79	83.62
340.018	77.62
340.246	54.62
340.474	88.62
340.702	82.62
340.93	82.62
341.158	79.62
341.386	85.62
341.614	95.62
341.842	87.62
342.07	81.62
342.298	86.62
342.526	81.62
342.754	77.62
342.981	86.62
343.209	94.62
343.437	102.62
343.665	70.62
343.893	90.62
344.12	84.62
344.348	88.62
344.576	81.62
344.804	80.62
345.031	83.62
345.259	86.62
345.487	87.62
345.714	80.62
345.942	82.62
346.17	72.62
346.397	75.62
346.625	78.62
346.853	82.62
347.08	72.62
347.308	77.62
347.535	87.62
347.763	79.62
347.99	77.62
348.218	76.62
348.445	84.62
348.673	84.62
348.9	86.62
349.128	85.62
349.355	83.62
349.583	78.62
349.81	81.62
350.037	94.62
350.265	64.62
350.492	87.62
350.72	73.62
350.947	76.62
351.174	91.62
351.402	84.62
351.629	89.62
351.856	80.62
352.083	90.62
352.311	84.62
352.538	87.62
352.765	79.62
352.992	87.62
353.22	84.62
353.447	74.62
353.674	90.62
353.901	80.62
354.128	89.62
354.355	72.62
354.583	77.62
354.81	82.62
355.037	84.62
355.264	87.62
355.491	80.62
355.718	71.62
355.945	80.62
356.172	86.62
356.399	85.62
356.626	72.62
356.853	87.62
357.08	90.62
357.307	76.62
357.534	90.62
357.761	76.62
357.988	84.62
358.215	83.62
358.441	72.62
358.668	100.62
358.895	98.62
359.122	75.62
359.349	87.62
359.576	65.62
359.802	74.62
360.029	78.62
360.256	84.62
360.483	84.62
360.709	76.62
360.936	74.62
361.163	85.62
361.39	73.62
361.616	81.62
361.843	78.62
362.07	77.62
362.296	80.62
362.523	74.62
362.749	81.62
362.976	82.62
363.203	82.62
363.429	84.62
363.656	67.62
363.882	86.62
364.109	74.62
364.335	75.62
364.562	86.62
364.788	93.62
365.015	88.62
365.241	86.62
365.468	100.62
365.694	84.62
365.92	93.62
366.147	92.62
366.373	73.62
366.599	65.62
366.826	77.62
367.052	74.62
367.278	90.62
367.505	82.62
367.731	88.62
367.957	86.62
368.184	83.62
368.41	87.62
368.636	81.62
368.862	98.62
369.089	91.62
369.315	82.62
369.541	75.62
369.767	83.62
369.993	84.62
370.219	94.62
370.445	97.62
370.672	65.62
370.898	84.62
371.124	73.62
371.35	71.62
371.576	78.62
371.802	91.62
372.028	93.62
372.254	84.62
372.48	70.62
372.706	81.62
372.932	80.62
373.158	77.62
373.384	80.62
373.61	92.62
373.835	82.62
374.061	77.62
374.287	77.62
374.513	91.62
374.739	90.62
374.965	75.62
375.191	82.62
375.416	66.62
375.642	85.62
375.868	91.62
376.094	76.62
376.319	74.62
376.545	77.62
376.771	69.62
376.997	92.62
377.222	88.62
377.448	85.62
377.674	88.62
377.899	89.62
378.125	79.62
378.35	75.62
378.576	77.62
378.802	70.62
379.027	84.62
379.253	82.62
379.478	90.62
379.704	90.62
379.929	87.62
380.155	87.62
380.38	75.62
380.606	68.62
380.831	82.62
381.057	88.62
381.282	90.62
381.507	80.62
381.733	88.62
381.958	79.62
382.184	77.62
382.409	74.62
382.634	71.62
382.86	74.62
383.085	79.62
383.31	81.62
383.535	86.62
383.761	84.62
383.986	87.62
384.211	67.62
384.436	56.62
384.662	77.62
384.887	82.62
385.112	74.62
385.337	78.62
385.562	75.62
385.787	83.62
386.013	84.62
386.238	97.62
386.463	87.62
386.688	94.62
386.913	92.62
387.138	76.62
387.363	89.62
387.588	87.62
387.813	85.62
388.038	80.62
388.263	90.62
388.488	82.62
388.713	82.62
388.938	82.62
389.163	84.62
389.387	84.62
389.612	74.62
389.837	78.62
390.062	82.62
390.287	89.62
390.512	76.62
390.736	87.62
390.961	76.62
391.186	74.62
391.411	92.62
391.636	79.62
391.86	80.62
392.085	65.62
392.31	83.62
392.534	82.62
392.759	80.62
392.984	81.62
393.208	86.62
393.433	71.62
393.658	89.62
393.882	82.62
394.107	78.62
394.331	89.62
394.556	91.62
394.78	85.62
395.005	84.62
395.229	84.62
395.454	97.62
395.678	83.62
395.903	61.62
396.127	87.62
396.352	76.62
396.576	65.62
396.801	82.62
397.025	87.62
397.249	82.62
397.474	76.62
397.698	76.62
397.922	93.62
398.147	78.62
398.371	70.62
398.595	75.62
398.82	78.62
399.044	83.62
399.268	87.62
399.492	78.62
399.717	85.62
399.941	59.62
400.165	72.62
400.389	78.62
400.613	52.62
400.837	95.62
401.062	80.62
401.286	81.62
401.51	71.62
401.734	84.62
401.958	84.62
402.182	85.62
402.406	74.62
402.63	90.62
402.854	84.62
403.078	84.62
403.302	89.62
403.526	75.62
403.75	73.62
403.974	84.62
404.198	78.62
404.422	62.62
404.645	70.62
404.869	72.62
405.093	86.62
405.317	85.62
405.541	76.62
405.765	78.62
405.988	69.62
406.212	84.62
406.436	85.62
406.66	91.62
406.883	90.62
407.107	88.62
407.331	83.62
407.555	84.62
407.778	84.62
408.002	83.62
408.226	68.62
408.449	67.62
408.673	75.62
408.896	71.62
409.12	66.62
409.344	82.62
409.567	71.62
409.791	82.62
410.014	77.62
410.238	76.62
410.461	87.62
410.685	72.62
410.908	84.62
411.132	71.62
411.355	93.62
411.578	77.62
411.802	80.62
412.025	85.62
412.249	84.62
412.472	79.62
412.695	68.62
412.919	74.62
413.142	79.62
413.365	96.62
413.589	80.62
413.812	89.62
414.035	87.62
414.258	53.62
414.482	79.62
414.705	72.62
414.928	71.62
415.151	91.62
415.374	87.62
415.597	71.62
415.821	82.62
416.044	74.62
416.267	80.62
416.49	77.62
416.713	82.62
416.936	78.62
417.159	80.62
417.382	91.62
417.605	82.62
417.828	85.62
418.051	63.62
418.274	76.62
418.497	75.62
418.72	71.62
418.943	68.62
419.166	80.62
419.389	70.62
419.611	69.62
419.834	88.62
420.057	91.62
420.28	82.62
420.503	76.62
420.726	70.62
420.948	85.62
421.171	78.62
421.394	76.62
421.617	79.62
421.839	77.62
422.062	73.62
422.285	90.62
422.507	80.62
422.73	57.62
422.953	62.62
423.175	82.62
423.398	82.62
423.621	69.62
423.843	76.62
424.066	87.62
424.288	73.62
424.511	74.62
424.733	73.62
424.956	76.62
425.178	85.62
425.401	82.62
425.623	77.62
425.846	78.62
426.068	89.62
426.291	66.62
426.513	78.62
426.735	75.62
426.958	82.62
427.18	81.62
427.402	72.62
427.625	79.62
427.847	75.62
428.069	87.62
428.292	75.62
428.514	71.62
428.736	79.62
428.958	98.62
429.181	88.62
429.403	78.62
429.625	78.62
429.847	68.62
430.069	64.62
430.292	83.62
430.514	66.62
430.736	84.62
430.958	80.62
431.18	72.62
431.402	73.62
431.624	88.62
431.846	71.62
432.068	69.62
432.29	74.62
432.512	82.62
432.734	78.62
432.956	100.62
433.178	87.62
433.4	85.62
433.622	79.62
433.844	82.62
434.066	80.62
434.287	72.62
434.509	72.62
434.731	74.62
434.953	75.62
435.175	78.62
435.397	85.62
435.618	85.62
435.84	70.62
436.062	80.62
436.284	73.62
436.505	72.62
436.727	81.62
436.949	72.62
437.17	77.62
437.392	79.62
437.614	82.62
437.835	79.62
438.057	74.62
438.278	80.62
438.5	80.62
438.721	74.62
438.943	78.62
439.165	76.62
439.386	79.62
439.608	81.62
439.829	91.62
440.05	86.62
440.272	70.62
440.493	61.62
440.715	83.62
440.936	82.62
441.158	85.62
441.379	80.62
441.6	75.62
441.822	87.62
442.043	80.62
442.264	57.62
442.486	79.62
442.707	72.62
442.928	71.62
443.149	90.62
443.371	72.62
443.592	78.62
443.813	70.62
444.034	85.62
444.255	87.62
444.476	98.62
444.698	74.62
444.919	70.62
445.14	154.62
445.361	131.62
445.582	75.62
445.803	69.62
446.024	80.62
446.245	83.62
446.466	74.62
446.687	64.62
446.908	88.62
447.129	83.62
447.35	72.62
447.571	78.62
447.792	83.62
448.013	74.62
448.234	78.62
448.455	87.62
448.675	73.62
448.896	79.62
449.117	73.62
449.338	63.62
449.559	92.62
449.779	72.62
450	63.62
450.221	68.62
450.442	60.62
450.662	73.62
450.883	80.62
451.104	79.62
451.324	87.62
451.545	77.62
451.766	72.62
451.986	78.62
452.207	79.62
452.428	72.62
452.648	84.62
452.869	88.62
453.089	69.62
453.31	61.62
453.53	85.62
453.751	73.62
453.971	80.62
454.192	65.62
454.412	85.62
454.633	78.62
454.853	86.62
455.073	91.62
455.294	89.62
455.514	76.62
455.734	86.62
455.955	82.62
456.175	79.62
456.395	91.62
456.616	85.62
456.836	66.62
457.056	72.62
457.276	67.62
457.497	80.62
457.717	69.62
457.937	73.62
458.157	85.62
458.377	76.62
458.598	82.62
458.818	88.62
459.038	90.62
459.258	80.62
459.478	76.62
459.698	81.62
459.918	60.62
460.138	64.62
460.358	78.62
460.578	69.62
460.798	86.62
461.018	76.62
461.238	80.62
461.458	71.62
461.678	76.62
461.898	80.62
462.118	71.62
462.338	85.62
462.558	71.62
462.777	89.62
462.997	70.62
463.217	83.62
463.437	85.62
463.657	77.62
463.876	79.62
464.096	63.62
464.316	73.62
464.536	73.62
464.755	77.62
464.975	77.62
465.195	79.62
465.414	65.62
465.634	70.62
465.854	77.62
466.073	83.62
466.293	74.62
466.512	70.62
466.732	70.62
466.951	96.62
467.171	90.62
467.391	84.62
467.61	87.62
467.829	71.62
468.049	91.62
468.268	75.62
468.488	86.62
468.707	70.62
468.927	70.62
469.146	61.62
469.365	88.62
469.585	71.62
469.804	82.62
470.023	76.62
470.243	94.62
470.462	87.62
470.681	68.62
470.901	87.62
471.12	73.62
471.339	89.62
471.558	75.62
471.777	90.62
471.997	85.62
472.216	77.62
472.435	83.62
472.654	59.62
472.873	62.62
473.092	82.62
473.311	85.62
473.53	73.62
473.749	76.62
473.968	77.62
474.187	85.62
474.406	77.62
474.625	89.62
474.844	82.62
475.063	84.62
475.282	86.62
475.501	72.62
475.72	83.62
475.939	82.62
476.158	86.62
476.377	87.62
476.596	80.62
476.814	72.62
477.033	72.62
477.252	86.62
477.471	86.62
477.69	83.62
477.908	87.62
478.127	83.62
478.346	89.62
478.564	95.62
478.783	84.62
479.002	84.62
479.22	79.62
479.439	81.62
479.658	70.62
479.876	75.62
480.095	86.62
480.313	95.62
480.532	86.62
480.751	101.62
480.969	87.62
481.188	84.62
481.406	87.62
481.624	79.62
481.843	78.62
482.061	79.62
482.28	68.62
482.498	70.62
482.717	84.62
482.935	73.62
483.153	73.62
483.372	94.62
483.59	75.62
483.808	79.62
484.027	75.62
484.245	93.62
484.463	83.62
484.681	87.62
484.9	82.62
485.118	77.62
485.336	83.62
485.554	82.62
485.772	106.62
485.99	76.62
486.209	92.62
486.427	85.62
486.645	70.62
486.863	92.62
487.081	75.62
487.299	59.62
487.517	89.62
487.735	78.62
487.953	79.62
488.171	81.62
488.389	95.62
488.607	76.62
488.825	76.62
489.043	88.62
489.261	99.62
489.479	84.62
489.696	80.62
489.914	75.62
490.132	83.62
490.35	88.62
490.568	84.62
490.786	68.62
491.003	63.62
491.221	78.62
491.439	88.62
491.657	73.62
491.874	88.62
492.092	81.62
492.31	84.62
492.527	90.62
492.745	86.62
492.963	82.62
493.18	82.62
493.398	75.62
493.615	87.62
493.833	66.62
494.05	78.62
494.268	85.62
494.485	88.62
494.703	83.62
494.92	96.62
495.138	73.62
495.355	74.62
495.573	88.62
495.79	84.62
496.008	74.62
496.225	88.62
496.442	71.62
496.66	88.62
496.877	76.62
497.094	98.62
497.312	81.62
497.529	79.62
497.746	91.62
497.963	78.62
498.181	66.62
498.398	89.62
498.615	95.62
498.832	92.62
499.049	77.62
499.267	89.62
499.484	73.62
499.701	79.62
499.918	79.62
500.135	72.62
500.352	81.62
500.569	74.62
500.786	95.62
501.003	85.62
501.22	89.62
501.437	86.62
501.654	78.62
501.871	71.62
502.088	78.62
502.305	87.62
502.522	93.62
502.739	78.62
502.956	78.62
503.172	79.62
503.389	68.62
503.606	73.62
503.823	84.62
504.04	84.62
504.256	87.62
504.473	91.62
504.69	79.62
504.907	86.62
505.123	72.62
505.34	77.62
505.557	83.62
505.773	70.62
505.99	86.62
506.207	93.62
506.423	84.62
506.64	75.62
506.856	82.62
507.073	68.62
507.289	92.62
507.506	94.62
507.722	93.62
507.939	74.62
508.155	80.62
508.372	77.62
508.588	88.62
508.805	90.62
509.021	90.62
509.238	92.62
509.454	80.62
509.67	85.62
509.887	78.62
510.103	72.62
510.319	78.62
510.536	88.62
510.752	90.62
510.968	84.62
511.184	80.62
511.401	67.62
511.617	94.62
511.833	74.62
512.049	82.62
512.265	79.62
512.481	79.62
512.698	79.62
512.914	83.62
513.13	98.62
513.346	74.62
513.562	78.62
513.778	87.62
513.994	74.62
514.21	85.62
514.426	96.62
514.642	91.62
514.858	82.62
515.074	88.62
515.29	91.62
515.506	75.62
515.721	84.62
515.937	98.62
516.153	82.62
516.369	64.62
516.585	70.62
516.801	88.62
517.016	82.62
517.232	86.62
517.448	101.62
517.664	89.62
517.879	73.62
518.095	84.62
518.311	85.62
518.527	92.62
518.742	75.62
518.958	82.62
519.173	82.62
519.389	81.62
519.605	80.62
519.82	80.62
520.036	71.62
520.251	76.62
