Data from BG_HRD10591_014.txt Node
Date: Fri May 16 15:21:01 EDT 2025
User: Yrep
Spectrometer: HR+D1059
Trigger mode: 1
Integration Time (sec): 1.000000E-1
Scans to average: 1
Electric dark correction enabled: true
Nonlinearity correction enabled: false
Boxcar width: 0
XAxis mode: Wavelengths
Number of Pixels in Spectrum: 2048
>>>>>Begin Spectral Data<<<<<
223.165	-23.06
223.4	-23.06
223.635	-23.06
223.869	-24.06
224.104	-20.06
224.338	-20.06
224.573	-21.06
224.808	-9.06
225.042	-7.06
225.277	-0.06
225.511	7.94
225.746	-1.06
225.98	-2.06
226.215	12.94
226.449	22.94
226.683	29.94
226.918	26.94
227.152	26.94
227.387	41.94
227.621	40.94
227.856	43.94
228.09	46.94
228.324	48.94
228.559	56.94
228.793	50.94
229.027	52.94
229.262	58.94
229.496	80.94
229.73	61.94
229.964	75.94
230.199	68.94
230.433	73.94
230.667	74.94
230.901	87.94
231.136	69.94
231.37	78.94
231.604	86.94
231.838	75.94
232.072	75.94
232.306	77.94
232.541	75.94
232.775	70.94
233.009	86.94
233.243	82.94
233.477	86.94
233.711	80.94
233.945	82.94
234.179	69.94
234.413	87.94
234.647	90.94
234.881	78.94
235.115	79.94
235.349	74.94
235.583	72.94
235.817	60.94
236.051	79.94
236.285	84.94
236.519	74.94
236.753	82.94
236.987	85.94
237.221	75.94
237.455	64.94
237.689	74.94
237.922	92.94
238.156	77.94
238.39	80.94
238.624	79.94
238.858	64.94
239.091	73.94
239.325	77.94
239.559	79.94
239.793	78.94
240.027	85.94
240.26	81.94
240.494	78.94
240.728	74.94
240.961	86.94
241.195	78.94
241.429	87.94
241.662	82.94
241.896	68.94
242.13	78.94
242.363	86.94
242.597	68.94
242.83	83.94
243.064	72.94
243.298	72.94
243.531	74.94
243.765	91.94
243.998	69.94
244.232	80.94
244.465	80.94
244.699	73.94
244.932	78.94
245.166	87.94
245.399	72.94
245.633	92.94
245.866	70.94
246.099	72.94
246.333	75.94
246.566	78.94
246.8	75.94
247.033	65.94
247.266	73.94
247.5	79.94
247.733	61.94
247.966	81.94
248.2	72.94
248.433	74.94
248.666	74.94
248.899	69.94
249.133	94.94
249.366	74.94
249.599	87.94
249.832	74.94
250.066	84.94
250.299	74.94
250.532	91.94
250.765	78.94
250.998	79.94
251.231	83.94
251.465	70.94
251.698	78.94
251.931	89.94
252.164	72.94
252.397	82.94
252.63	83.94
252.863	88.94
253.096	79.94
253.329	83.94
253.562	79.94
253.795	80.94
254.028	87.94
254.261	90.94
254.494	95.94
254.727	79.94
254.96	89.94
255.193	80.94
255.426	78.94
255.659	84.94
255.892	78.94
256.124	80.94
256.357	77.94
256.59	92.94
256.823	82.94
257.056	78.94
257.289	86.94
257.521	80.94
257.754	71.94
257.987	55.94
258.22	101.94
258.452	84.94
258.685	74.94
258.918	88.94
259.151	71.94
259.383	74.94
259.616	79.94
259.849	77.94
260.081	77.94
260.314	71.94
260.547	63.94
260.779	84.94
261.012	80.94
261.244	75.94
261.477	76.94
261.71	72.94
261.942	72.94
262.175	81.94
262.407	72.94
262.64	95.94
262.872	77.94
263.105	89.94
263.337	96.94
263.57	76.94
263.802	83.94
264.035	83.94
264.267	80.94
264.499	80.94
264.732	79.94
264.964	78.94
265.197	76.94
265.429	79.94
265.661	82.94
265.894	69.94
266.126	88.94
266.358	75.94
266.591	75.94
266.823	89.94
267.055	78.94
267.287	87.94
267.52	87.94
267.752	90.94
267.984	72.94
268.216	87.94
268.448	93.94
268.681	82.94
268.913	87.94
269.145	82.94
269.377	79.94
269.609	84.94
269.841	89.94
270.073	82.94
270.306	80.94
270.538	78.94
270.77	74.94
271.002	74.94
271.234	86.94
271.466	100.94
271.698	92.94
271.93	88.94
272.162	83.94
272.394	71.94
272.626	81.94
272.858	77.94
273.09	106.94
273.322	90.94
273.553	78.94
273.785	83.94
274.017	72.94
274.249	68.94
274.481	67.94
274.713	84.94
274.945	79.94
275.176	91.94
275.408	81.94
275.64	72.94
275.872	80.94
276.104	78.94
276.335	85.94
276.567	60.94
276.799	83.94
277.031	80.94
277.262	77.94
277.494	92.94
277.726	79.94
277.957	77.94
278.189	92.94
278.421	78.94
278.652	73.94
278.884	91.94
279.115	91.94
279.347	74.94
279.579	78.94
279.81	78.94
280.042	85.94
280.273	82.94
280.505	96.94
280.736	82.94
280.968	84.94
281.199	92.94
281.431	84.94
281.662	89.94
281.894	97.94
282.125	80.94
282.356	79.94
282.588	87.94
282.819	80.94
283.051	87.94
283.282	80.94
283.513	86.94
283.745	82.94
283.976	73.94
284.207	75.94
284.439	74.94
284.67	82.94
284.901	99.94
285.132	80.94
285.364	91.94
285.595	72.94
285.826	68.94
286.057	87.94
286.288	91.94
286.52	88.94
286.751	80.94
286.982	88.94
287.213	95.94
287.444	82.94
287.675	99.94
287.906	93.94
288.138	72.94
288.369	87.94
288.6	82.94
288.831	92.94
289.062	86.94
289.293	86.94
289.524	94.94
289.755	82.94
289.986	90.94
290.217	94.94
290.448	79.94
290.679	97.94
290.91	96.94
291.141	92.94
291.371	94.94
291.602	93.94
291.833	82.94
292.064	103.94
292.295	90.94
292.526	98.94
292.757	84.94
292.987	80.94
293.218	94.94
293.449	99.94
293.68	96.94
293.91	88.94
294.141	90.94
294.372	96.94
294.603	86.94
294.833	84.94
295.064	78.94
295.295	90.94
295.525	85.94
295.756	95.94
295.987	78.94
296.217	87.94
296.448	91.94
296.679	87.94
296.909	92.94
297.14	75.94
297.37	95.94
297.601	90.94
297.831	103.94
298.062	103.94
298.292	101.94
298.523	89.94
298.753	79.94
298.984	101.94
299.214	84.94
299.445	82.94
299.675	92.94
299.905	82.94
300.136	88.94
300.366	87.94
300.597	85.94
300.827	88.94
301.057	95.94
301.288	79.94
301.518	89.94
301.748	91.94
301.979	101.94
302.209	76.94
302.439	84.94
302.669	98.94
302.9	93.94
303.13	98.94
303.36	74.94
303.59	90.94
303.82	96.94
304.051	86.94
304.281	84.94
304.511	74.94
304.741	86.94
304.971	73.94
305.201	76.94
305.431	95.94
305.661	80.94
305.891	88.94
306.121	89.94
306.352	89.94
306.582	84.94
306.812	80.94
307.042	60.94
307.272	89.94
307.502	78.94
307.731	95.94
307.961	83.94
308.191	80.94
308.421	85.94
308.651	90.94
308.881	102.94
309.111	87.94
309.341	95.94
309.571	88.94
309.8	85.94
310.03	85.94
310.26	87.94
310.49	97.94
310.72	102.94
310.949	90.94
311.179	90.94
311.409	86.94
311.639	88.94
311.868	91.94
312.098	80.94
312.328	98.94
312.557	91.94
312.787	71.94
313.017	90.94
313.246	78.94
313.476	100.94
313.706	78.94
313.935	78.94
314.165	80.94
314.394	80.94
314.624	69.94
314.853	89.94
315.083	85.94
315.312	87.94
315.542	73.94
315.771	95.94
316.001	83.94
316.23	93.94
316.46	74.94
316.689	70.94
316.919	76.94
317.148	94.94
317.377	101.94
317.607	77.94
317.836	91.94
318.065	83.94
318.295	84.94
318.524	88.94
318.753	97.94
318.983	86.94
319.212	86.94
319.441	77.94
319.67	96.94
319.9	87.94
320.129	101.94
320.358	81.94
320.587	85.94
320.816	92.94
321.046	80.94
321.275	92.94
321.504	75.94
321.733	92.94
321.962	85.94
322.191	91.94
322.42	88.94
322.649	83.94
322.878	88.94
323.108	79.94
323.337	87.94
323.566	75.94
323.795	100.94
324.024	88.94
324.253	83.94
324.482	73.94
324.71	87.94
324.939	84.94
325.168	92.94
325.397	83.94
325.626	95.94
325.855	91.94
326.084	64.94
326.313	85.94
326.542	86.94
326.77	94.94
326.999	91.94
327.228	89.94
327.457	88.94
327.686	89.94
327.914	74.94
328.143	99.94
328.372	82.94
328.6	88.94
328.829	83.94
329.058	98.94
329.287	78.94
329.515	72.94
329.744	90.94
329.972	84.94
330.201	84.94
330.43	94.94
330.658	78.94
330.887	83.94
331.115	80.94
331.344	85.94
331.572	78.94
331.801	81.94
332.03	83.94
332.258	92.94
332.486	91.94
332.715	94.94
332.943	99.94
333.172	90.94
333.4	80.94
333.629	91.94
333.857	72.94
334.085	79.94
334.314	82.94
334.542	86.94
334.771	84.94
334.999	106.94
335.227	82.94
335.455	88.94
335.684	80.94
335.912	104.94
336.14	88.94
336.369	95.94
336.597	93.94
336.825	94.94
337.053	91.94
337.281	86.94
337.51	89.94
337.738	82.94
337.966	83.94
338.194	80.94
338.422	95.94
338.65	81.94
338.878	86.94
339.106	79.94
339.334	100.94
339.562	95.94
339.79	90.94
340.018	102.94
340.246	92.94
340.474	87.94
340.702	79.94
340.93	84.94
341.158	91.94
341.386	89.94
341.614	98.94
341.842	72.94
342.07	82.94
342.298	77.94
342.526	89.94
342.754	98.94
342.981	81.94
343.209	92.94
343.437	95.94
343.665	91.94
343.893	86.94
344.12	86.94
344.348	80.94
344.576	77.94
344.804	70.94
345.031	71.94
345.259	75.94
345.487	83.94
345.714	71.94
345.942	83.94
346.17	90.94
346.397	90.94
346.625	89.94
346.853	80.94
347.08	98.94
347.308	94.94
347.535	84.94
347.763	89.94
347.99	96.94
348.218	90.94
348.445	80.94
348.673	72.94
348.9	99.94
349.128	104.94
349.355	85.94
349.583	89.94
349.81	87.94
350.037	79.94
350.265	79.94
350.492	87.94
350.72	89.94
350.947	87.94
351.174	78.94
351.402	91.94
351.629	86.94
351.856	92.94
352.083	94.94
352.311	88.94
352.538	87.94
352.765	77.94
352.992	90.94
353.22	86.94
353.447	90.94
353.674	80.94
353.901	100.94
354.128	92.94
354.355	87.94
354.583	91.94
354.81	86.94
355.037	82.94
355.264	91.94
355.491	84.94
355.718	86.94
355.945	92.94
356.172	95.94
356.399	84.94
356.626	81.94
356.853	77.94
357.08	83.94
357.307	81.94
357.534	77.94
357.761	87.94
357.988	83.94
358.215	84.94
358.441	91.94
358.668	90.94
358.895	74.94
359.122	72.94
359.349	76.94
359.576	83.94
359.802	83.94
360.029	80.94
360.256	91.94
360.483	95.94
360.709	91.94
360.936	83.94
361.163	84.94
361.39	79.94
361.616	93.94
361.843	78.94
362.07	83.94
362.296	85.94
362.523	84.94
362.749	93.94
362.976	78.94
363.203	86.94
363.429	79.94
363.656	83.94
363.882	78.94
364.109	87.94
364.335	90.94
364.562	89.94
364.788	85.94
365.015	83.94
365.241	88.94
365.468	87.94
365.694	71.94
365.92	94.94
366.147	79.94
366.373	79.94
366.599	105.94
366.826	91.94
367.052	96.94
367.278	87.94
367.505	81.94
367.731	83.94
367.957	88.94
368.184	64.94
368.41	68.94
368.636	88.94
368.862	82.94
369.089	79.94
369.315	80.94
369.541	86.94
369.767	88.94
369.993	83.94
370.219	71.94
370.445	74.94
370.672	87.94
370.898	87.94
371.124	89.94
371.35	80.94
371.576	84.94
371.802	75.94
372.028	84.94
372.254	91.94
372.48	84.94
372.706	84.94
372.932	88.94
373.158	81.94
373.384	79.94
373.61	79.94
373.835	89.94
374.061	74.94
374.287	84.94
374.513	82.94
374.739	93.94
374.965	94.94
375.191	83.94
375.416	69.94
375.642	89.94
375.868	89.94
376.094	98.94
376.319	92.94
376.545	94.94
376.771	81.94
376.997	89.94
377.222	81.94
377.448	68.94
377.674	83.94
377.899	84.94
378.125	91.94
378.35	89.94
378.576	85.94
378.802	95.94
379.027	88.94
379.253	91.94
379.478	93.94
379.704	82.94
379.929	75.94
380.155	86.94
380.38	86.94
380.606	80.94
380.831	77.94
381.057	91.94
381.282	87.94
381.507	78.94
381.733	85.94
381.958	98.94
382.184	85.94
382.409	82.94
382.634	88.94
382.86	98.94
383.085	100.94
383.31	88.94
383.535	82.94
383.761	95.94
383.986	89.94
384.211	76.94
384.436	87.94
384.662	81.94
384.887	78.94
385.112	76.94
385.337	72.94
385.562	84.94
385.787	88.94
386.013	83.94
386.238	87.94
386.463	78.94
386.688	80.94
386.913	82.94
387.138	94.94
387.363	80.94
387.588	73.94
387.813	81.94
388.038	72.94
388.263	93.94
388.488	82.94
388.713	82.94
388.938	99.94
389.163	90.94
389.387	76.94
389.612	91.94
389.837	79.94
390.062	95.94
390.287	78.94
390.512	88.94
390.736	89.94
390.961	88.94
391.186	81.94
391.411	90.94
391.636	70.94
391.86	79.94
392.085	80.94
392.31	94.94
392.534	79.94
392.759	92.94
392.984	82.94
393.208	86.94
393.433	64.94
393.658	87.94
393.882	90.94
394.107	80.94
394.331	96.94
394.556	79.94
394.78	79.94
395.005	77.94
395.229	92.94
395.454	86.94
395.678	77.94
395.903	78.94
396.127	94.94
396.352	84.94
396.576	82.94
396.801	83.94
397.025	86.94
397.249	76.94
397.474	76.94
397.698	88.94
397.922	94.94
398.147	72.94
398.371	90.94
398.595	84.94
398.82	86.94
399.044	98.94
399.268	85.94
399.492	82.94
399.717	95.94
399.941	77.94
400.165	86.94
400.389	98.94
400.613	103.94
400.837	84.94
401.062	95.94
401.286	91.94
401.51	68.94
401.734	94.94
401.958	78.94
402.182	89.94
402.406	91.94
402.63	87.94
402.854	91.94
403.078	84.94
403.302	89.94
403.526	95.94
403.75	82.94
403.974	84.94
404.198	103.94
404.422	74.94
404.645	79.94
404.869	95.94
405.093	82.94
405.317	88.94
405.541	104.94
405.765	84.94
405.988	100.94
406.212	82.94
406.436	89.94
406.66	81.94
406.883	105.94
407.107	92.94
407.331	95.94
407.555	90.94
407.778	86.94
408.002	102.94
408.226	91.94
408.449	94.94
408.673	83.94
408.896	89.94
409.12	88.94
409.344	82.94
409.567	88.94
409.791	87.94
410.014	96.94
410.238	88.94
410.461	86.94
410.685	91.94
410.908	73.94
411.132	78.94
411.355	94.94
411.578	84.94
411.802	78.94
412.025	80.94
412.249	84.94
412.472	68.94
412.695	78.94
412.919	88.94
413.142	86.94
413.365	80.94
413.589	82.94
413.812	72.94
414.035	103.94
414.258	101.94
414.482	86.94
414.705	87.94
414.928	83.94
415.151	87.94
415.374	85.94
415.597	83.94
415.821	78.94
416.044	79.94
416.267	92.94
416.49	98.94
416.713	84.94
416.936	89.94
417.159	92.94
417.382	88.94
417.605	89.94
417.828	82.94
418.051	78.94
418.274	74.94
418.497	85.94
418.72	85.94
418.943	91.94
419.166	86.94
419.389	91.94
419.611	76.94
419.834	86.94
420.057	93.94
420.28	74.94
420.503	76.94
420.726	86.94
420.948	89.94
421.171	95.94
421.394	86.94
421.617	79.94
421.839	72.94
422.062	71.94
422.285	81.94
422.507	100.94
422.73	92.94
422.953	98.94
423.175	65.94
423.398	93.94
423.621	102.94
423.843	102.94
424.066	89.94
424.288	95.94
424.511	87.94
424.733	87.94
424.956	79.94
425.178	84.94
425.401	77.94
425.623	94.94
425.846	84.94
426.068	93.94
426.291	73.94
426.513	80.94
426.735	82.94
426.958	78.94
427.18	102.94
427.402	99.94
427.625	89.94
427.847	78.94
428.069	84.94
428.292	87.94
428.514	81.94
428.736	89.94
428.958	97.94
429.181	78.94
429.403	85.94
429.625	77.94
429.847	84.94
430.069	100.94
430.292	92.94
430.514	81.94
430.736	94.94
430.958	102.94
431.18	90.94
431.402	75.94
431.624	70.94
431.846	63.94
432.068	78.94
432.29	98.94
432.512	87.94
432.734	86.94
432.956	87.94
433.178	79.94
433.4	83.94
433.622	89.94
433.844	88.94
434.066	75.94
434.287	75.94
434.509	81.94
434.731	94.94
434.953	97.94
435.175	73.94
435.397	78.94
435.618	104.94
435.84	98.94
436.062	98.94
436.284	91.94
436.505	85.94
436.727	80.94
436.949	90.94
437.17	81.94
437.392	89.94
437.614	88.94
437.835	100.94
438.057	93.94
438.278	85.94
438.5	78.94
438.721	99.94
438.943	80.94
439.165	96.94
439.386	80.94
439.608	92.94
439.829	83.94
440.05	90.94
440.272	83.94
440.493	70.94
440.715	74.94
440.936	101.94
441.158	99.94
441.379	83.94
441.6	95.94
441.822	91.94
442.043	80.94
442.264	90.94
442.486	95.94
442.707	82.94
442.928	100.94
443.149	86.94
443.371	89.94
443.592	87.94
443.813	82.94
444.034	84.94
444.255	86.94
444.476	83.94
444.698	90.94
444.919	87.94
445.14	162.94
445.361	125.94
445.582	95.94
445.803	97.94
446.024	79.94
446.245	82.94
446.466	86.94
446.687	73.94
446.908	98.94
447.129	83.94
447.35	74.94
447.571	91.94
447.792	92.94
448.013	89.94
448.234	91.94
448.455	90.94
448.675	85.94
448.896	63.94
449.117	78.94
449.338	82.94
449.559	74.94
449.779	94.94
450	82.94
450.221	79.94
450.442	96.94
450.662	87.94
450.883	80.94
451.104	92.94
451.324	93.94
451.545	74.94
451.766	78.94
451.986	79.94
452.207	95.94
452.428	90.94
452.648	70.94
452.869	86.94
453.089	86.94
453.31	102.94
453.53	89.94
453.751	89.94
453.971	85.94
454.192	86.94
454.412	80.94
454.633	88.94
454.853	73.94
455.073	81.94
455.294	80.94
455.514	82.94
455.734	83.94
455.955	86.94
456.175	86.94
456.395	84.94
456.616	73.94
456.836	82.94
457.056	89.94
457.276	95.94
457.497	87.94
457.717	93.94
457.937	88.94
458.157	83.94
458.377	79.94
458.598	84.94
458.818	87.94
459.038	88.94
459.258	87.94
459.478	90.94
459.698	87.94
459.918	85.94
460.138	88.94
460.358	78.94
460.578	98.94
460.798	90.94
461.018	93.94
461.238	91.94
461.458	87.94
461.678	84.94
461.898	87.94
462.118	90.94
462.338	84.94
462.558	75.94
462.777	79.94
462.997	101.94
463.217	93.94
463.437	87.94
463.657	90.94
463.876	90.94
464.096	86.94
464.316	78.94
464.536	92.94
464.755	86.94
464.975	89.94
465.195	86.94
465.414	89.94
465.634	91.94
465.854	76.94
466.073	84.94
466.293	90.94
466.512	97.94
466.732	93.94
466.951	82.94
467.171	74.94
467.391	82.94
467.61	77.94
467.829	76.94
468.049	96.94
468.268	98.94
468.488	84.94
468.707	60.94
468.927	72.94
469.146	81.94
469.365	78.94
469.585	88.94
469.804	84.94
470.023	84.94
470.243	82.94
470.462	73.94
470.681	84.94
470.901	86.94
471.12	82.94
471.339	84.94
471.558	83.94
471.777	94.94
471.997	94.94
472.216	85.94
472.435	86.94
472.654	78.94
472.873	98.94
473.092	68.94
473.311	83.94
473.53	105.94
473.749	86.94
473.968	82.94
474.187	91.94
474.406	79.94
474.625	80.94
474.844	87.94
475.063	85.94
475.282	69.94
475.501	96.94
475.72	72.94
475.939	86.94
476.158	86.94
476.377	93.94
476.596	83.94
476.814	94.94
477.033	82.94
477.252	87.94
477.471	93.94
477.69	91.94
477.908	87.94
478.127	98.94
478.346	82.94
478.564	76.94
478.783	75.94
479.002	97.94
479.22	83.94
479.439	93.94
479.658	107.94
479.876	92.94
480.095	101.94
480.313	92.94
480.532	78.94
480.751	82.94
480.969	77.94
481.188	93.94
481.406	89.94
481.624	83.94
481.843	92.94
482.061	86.94
482.28	88.94
482.498	80.94
482.717	78.94
482.935	87.94
483.153	83.94
483.372	80.94
483.59	89.94
483.808	80.94
484.027	85.94
484.245	98.94
484.463	83.94
484.681	87.94
484.9	87.94
485.118	98.94
485.336	84.94
485.554	86.94
485.772	82.94
485.99	97.94
486.209	94.94
486.427	90.94
486.645	93.94
486.863	102.94
487.081	82.94
487.299	78.94
487.517	81.94
487.735	80.94
487.953	94.94
488.171	89.94
488.389	90.94
488.607	88.94
488.825	83.94
489.043	86.94
489.261	89.94
489.479	93.94
489.696	83.94
489.914	73.94
490.132	78.94
490.35	77.94
490.568	90.94
490.786	77.94
491.003	105.94
491.221	90.94
491.439	93.94
491.657	87.94
491.874	85.94
492.092	79.94
492.31	82.94
492.527	85.94
492.745	83.94
492.963	106.94
493.18	88.94
493.398	85.94
493.615	91.94
493.833	85.94
494.05	90.94
494.268	72.94
494.485	92.94
494.703	90.94
494.92	71.94
495.138	80.94
495.355	81.94
495.573	91.94
495.79	91.94
496.008	84.94
496.225	89.94
496.442	95.94
496.66	105.94
496.877	87.94
497.094	88.94
497.312	91.94
497.529	91.94
497.746	93.94
497.963	92.94
498.181	88.94
498.398	82.94
498.615	90.94
498.832	96.94
499.049	89.94
499.267	87.94
499.484	90.94
499.701	88.94
499.918	102.94
500.135	95.94
500.352	94.94
500.569	117.94
500.786	118.94
501.003	118.94
501.22	106.94
501.437	86.94
501.654	90.94
501.871	93.94
502.088	96.94
502.305	88.94
502.522	106.94
502.739	100.94
502.956	93.94
503.172	90.94
503.389	92.94
503.606	100.94
503.823	74.94
504.04	83.94
504.256	87.94
504.473	87.94
504.69	83.94
504.907	92.94
505.123	86.94
505.34	82.94
505.557	91.94
505.773	111.94
505.99	100.94
506.207	90.94
506.423	77.94
506.64	87.94
506.856	89.94
507.073	79.94
507.289	86.94
507.506	82.94
507.722	76.94
507.939	79.94
508.155	90.94
508.372	90.94
508.588	100.94
508.805	92.94
509.021	87.94
509.238	87.94
509.454	78.94
509.67	85.94
509.887	88.94
510.103	90.94
510.319	80.94
510.536	88.94
510.752	84.94
510.968	93.94
511.184	94.94
511.401	94.94
511.617	92.94
511.833	71.94
512.049	94.94
512.265	83.94
512.481	83.94
512.698	83.94
512.914	92.94
513.13	95.94
513.346	90.94
513.562	84.94
513.778	87.94
513.994	79.94
514.21	109.94
514.426	87.94
514.642	90.94
514.858	95.94
515.074	82.94
515.29	95.94
515.506	100.94
515.721	80.94
515.937	84.94
516.153	80.94
516.369	79.94
516.585	102.94
516.801	85.94
517.016	83.94
517.232	88.94
517.448	99.94
517.664	82.94
517.879	86.94
518.095	90.94
518.311	86.94
518.527	84.94
518.742	102.94
518.958	92.94
519.173	84.94
519.389	100.94
