Data from BG_HRD10591_040.txt Node
Date: Fri May 16 15:21:14 EDT 2025
User: Yrep
Spectrometer: HR+D1059
Trigger mode: 1
Integration Time (sec): 1.000000E-1
Scans to average: 1
Electric dark correction enabled: true
Nonlinearity correction enabled: false
Boxcar width: 0
XAxis mode: Wavelengths
Number of Pixels in Spectrum: 2048
>>>>>Begin Spectral Data<<<<<
223.165	-9.94
223.4	-9.94
223.635	-9.94
223.869	-5.94
224.104	-21.94
224.338	-18.94
224.573	-13.94
224.808	-17.94
225.042	-4.94
225.277	-7.94
225.511	2.06
225.746	6.06
225.98	-1.94
226.215	12.06
226.449	11.06
226.683	19.06
226.918	23.06
227.152	30.06
227.387	25.06
227.621	27.06
227.856	42.06
228.09	43.06
228.324	42.06
228.559	50.06
228.793	55.06
229.027	56.06
229.262	88.06
229.496	67.06
229.73	80.06
229.964	82.06
230.199	64.06
230.433	69.06
230.667	82.06
230.901	80.06
231.136	81.06
231.37	78.06
231.604	72.06
231.838	72.06
232.072	61.06
232.306	70.06
232.541	91.06
232.775	72.06
233.009	76.06
233.243	88.06
233.477	78.06
233.711	76.06
233.945	62.06
234.179	81.06
234.413	75.06
234.647	69.06
234.881	79.06
235.115	76.06
235.349	76.06
235.583	76.06
235.817	65.06
236.051	78.06
236.285	64.06
236.519	72.06
236.753	72.06
236.987	67.06
237.221	65.06
237.455	71.06
237.689	61.06
237.922	70.06
238.156	77.06
238.39	78.06
238.624	60.06
238.858	62.06
239.091	77.06
239.325	83.06
239.559	68.06
239.793	61.06
240.027	74.06
240.26	70.06
240.494	75.06
240.728	73.06
240.961	85.06
241.195	73.06
241.429	72.06
241.662	72.06
241.896	74.06
242.13	73.06
242.363	73.06
242.597	84.06
242.83	85.06
243.064	89.06
243.298	71.06
243.531	74.06
243.765	68.06
243.998	81.06
244.232	71.06
244.465	69.06
244.699	61.06
244.932	73.06
245.166	74.06
245.399	88.06
245.633	83.06
245.866	75.06
246.099	79.06
246.333	87.06
246.566	82.06
246.8	73.06
247.033	68.06
247.266	71.06
247.5	66.06
247.733	53.06
247.966	71.06
248.2	66.06
248.433	69.06
248.666	75.06
248.899	66.06
249.133	76.06
249.366	78.06
249.599	61.06
249.832	61.06
250.066	71.06
250.299	74.06
250.532	77.06
250.765	70.06
250.998	83.06
251.231	62.06
251.465	89.06
251.698	72.06
251.931	76.06
252.164	79.06
252.397	77.06
252.63	75.06
252.863	84.06
253.096	73.06
253.329	77.06
253.562	75.06
253.795	73.06
254.028	57.06
254.261	79.06
254.494	61.06
254.727	87.06
254.96	66.06
255.193	80.06
255.426	74.06
255.659	75.06
255.892	85.06
256.124	72.06
256.357	92.06
256.59	67.06
256.823	90.06
257.056	82.06
257.289	64.06
257.521	90.06
257.754	74.06
257.987	76.06
258.22	73.06
258.452	77.06
258.685	65.06
258.918	69.06
259.151	77.06
259.383	72.06
259.616	82.06
259.849	84.06
260.081	88.06
260.314	85.06
260.547	73.06
260.779	76.06
261.012	75.06
261.244	81.06
261.477	75.06
261.71	79.06
261.942	78.06
262.175	70.06
262.407	53.06
262.64	69.06
262.872	82.06
263.105	84.06
263.337	83.06
263.57	83.06
263.802	75.06
264.035	84.06
264.267	72.06
264.499	70.06
264.732	80.06
264.964	80.06
265.197	85.06
265.429	91.06
265.661	77.06
265.894	99.06
266.126	84.06
266.358	76.06
266.591	74.06
266.823	75.06
267.055	81.06
267.287	91.06
267.52	74.06
267.752	107.06
267.984	77.06
268.216	92.06
268.448	82.06
268.681	73.06
268.913	88.06
269.145	90.06
269.377	90.06
269.609	79.06
269.841	87.06
270.073	79.06
270.306	79.06
270.538	78.06
270.77	70.06
271.002	79.06
271.234	96.06
271.466	81.06
271.698	100.06
271.93	81.06
272.162	82.06
272.394	93.06
272.626	75.06
272.858	81.06
273.09	76.06
273.322	75.06
273.553	84.06
273.785	76.06
274.017	75.06
274.249	91.06
274.481	92.06
274.713	74.06
274.945	86.06
275.176	77.06
275.408	89.06
275.64	75.06
275.872	72.06
276.104	85.06
276.335	85.06
276.567	78.06
276.799	74.06
277.031	84.06
277.262	84.06
277.494	78.06
277.726	73.06
277.957	75.06
278.189	86.06
278.421	76.06
278.652	72.06
278.884	70.06
279.115	75.06
279.347	88.06
279.579	81.06
279.81	82.06
280.042	90.06
280.273	74.06
280.505	79.06
280.736	76.06
280.968	80.06
281.199	81.06
281.431	90.06
281.662	80.06
281.894	79.06
282.125	80.06
282.356	72.06
282.588	67.06
282.819	80.06
283.051	71.06
283.282	75.06
283.513	70.06
283.745	80.06
283.976	85.06
284.207	85.06
284.439	81.06
284.67	72.06
284.901	80.06
285.132	87.06
285.364	81.06
285.595	77.06
285.826	71.06
286.057	85.06
286.288	81.06
286.52	82.06
286.751	94.06
286.982	82.06
287.213	101.06
287.444	82.06
287.675	71.06
287.906	99.06
288.138	89.06
288.369	80.06
288.6	82.06
288.831	84.06
289.062	56.06
289.293	63.06
289.524	81.06
289.755	91.06
289.986	90.06
290.217	96.06
290.448	77.06
290.679	89.06
290.91	92.06
291.141	75.06
291.371	90.06
291.602	82.06
291.833	74.06
292.064	94.06
292.295	86.06
292.526	89.06
292.757	77.06
292.987	80.06
293.218	71.06
293.449	77.06
293.68	80.06
293.91	81.06
294.141	83.06
294.372	86.06
294.603	107.06
294.833	86.06
295.064	90.06
295.295	101.06
295.525	76.06
295.756	100.06
295.987	80.06
296.217	95.06
296.448	92.06
296.679	76.06
296.909	88.06
297.14	86.06
297.37	85.06
297.601	84.06
297.831	87.06
298.062	100.06
298.292	90.06
298.523	90.06
298.753	81.06
298.984	78.06
299.214	86.06
299.445	83.06
299.675	58.06
299.905	84.06
300.136	92.06
300.366	89.06
300.597	85.06
300.827	79.06
301.057	69.06
301.288	79.06
301.518	90.06
301.748	80.06
301.979	88.06
302.209	83.06
302.439	93.06
302.669	87.06
302.9	80.06
303.13	85.06
303.36	68.06
303.59	80.06
303.82	91.06
304.051	84.06
304.281	86.06
304.511	94.06
304.741	84.06
304.971	75.06
305.201	80.06
305.431	91.06
305.661	100.06
305.891	85.06
306.121	77.06
306.352	87.06
306.582	88.06
306.812	89.06
307.042	87.06
307.272	73.06
307.502	100.06
307.731	81.06
307.961	89.06
308.191	85.06
308.421	90.06
308.651	80.06
308.881	83.06
309.111	91.06
309.341	69.06
309.571	80.06
309.8	94.06
310.03	73.06
310.26	77.06
310.49	86.06
310.72	85.06
310.949	70.06
311.179	97.06
311.409	87.06
311.639	72.06
311.868	77.06
312.098	88.06
312.328	85.06
312.557	88.06
312.787	80.06
313.017	96.06
313.246	96.06
313.476	84.06
313.706	83.06
313.935	87.06
314.165	87.06
314.394	88.06
314.624	67.06
314.853	86.06
315.083	80.06
315.312	72.06
315.542	75.06
315.771	77.06
316.001	74.06
316.23	93.06
316.46	80.06
316.689	73.06
316.919	86.06
317.148	73.06
317.377	96.06
317.607	77.06
317.836	88.06
318.065	82.06
318.295	82.06
318.524	66.06
318.753	72.06
318.983	72.06
319.212	88.06
319.441	79.06
319.67	75.06
319.9	85.06
320.129	80.06
320.358	80.06
320.587	69.06
320.816	88.06
321.046	77.06
321.275	99.06
321.504	92.06
321.733	84.06
321.962	89.06
322.191	96.06
322.42	81.06
322.649	92.06
322.878	96.06
323.108	87.06
323.337	77.06
323.566	78.06
323.795	73.06
324.024	90.06
324.253	81.06
324.482	102.06
324.71	85.06
324.939	84.06
325.168	81.06
325.397	82.06
325.626	83.06
325.855	72.06
326.084	91.06
326.313	83.06
326.542	72.06
326.77	90.06
326.999	73.06
327.228	86.06
327.457	80.06
327.686	77.06
327.914	88.06
328.143	71.06
328.372	91.06
328.6	90.06
328.829	83.06
329.058	99.06
329.287	88.06
329.515	70.06
329.744	81.06
329.972	90.06
330.201	90.06
330.43	83.06
330.658	83.06
330.887	100.06
331.115	94.06
331.344	89.06
331.572	82.06
331.801	88.06
332.03	103.06
332.258	89.06
332.486	76.06
332.715	76.06
332.943	83.06
333.172	81.06
333.4	94.06
333.629	98.06
333.857	83.06
334.085	74.06
334.314	68.06
334.542	81.06
334.771	89.06
334.999	90.06
335.227	83.06
335.455	80.06
335.684	97.06
335.912	88.06
336.14	78.06
336.369	71.06
336.597	83.06
336.825	80.06
337.053	68.06
337.281	77.06
337.51	91.06
337.738	98.06
337.966	75.06
338.194	72.06
338.422	89.06
338.65	81.06
338.878	81.06
339.106	85.06
339.334	96.06
339.562	77.06
339.79	76.06
340.018	81.06
340.246	74.06
340.474	90.06
340.702	81.06
340.93	93.06
341.158	89.06
341.386	98.06
341.614	72.06
341.842	92.06
342.07	80.06
342.298	86.06
342.526	85.06
342.754	90.06
342.981	79.06
343.209	90.06
343.437	90.06
343.665	71.06
343.893	87.06
344.12	90.06
344.348	77.06
344.576	85.06
344.804	88.06
345.031	84.06
345.259	68.06
345.487	78.06
345.714	89.06
345.942	81.06
346.17	85.06
346.397	79.06
346.625	75.06
346.853	90.06
347.08	81.06
347.308	78.06
347.535	87.06
347.763	86.06
347.99	74.06
348.218	98.06
348.445	83.06
348.673	72.06
348.9	96.06
349.128	85.06
349.355	89.06
349.583	80.06
349.81	71.06
350.037	86.06
350.265	85.06
350.492	82.06
350.72	80.06
350.947	102.06
351.174	77.06
351.402	70.06
351.629	74.06
351.856	81.06
352.083	67.06
352.311	80.06
352.538	84.06
352.765	97.06
352.992	83.06
353.22	86.06
353.447	89.06
353.674	83.06
353.901	80.06
354.128	91.06
354.355	81.06
354.583	79.06
354.81	84.06
355.037	91.06
355.264	78.06
355.491	77.06
355.718	90.06
355.945	87.06
356.172	78.06
356.399	83.06
356.626	74.06
356.853	78.06
357.08	76.06
357.307	92.06
357.534	78.06
357.761	81.06
357.988	80.06
358.215	80.06
358.441	83.06
358.668	83.06
358.895	82.06
359.122	92.06
359.349	85.06
359.576	71.06
359.802	83.06
360.029	75.06
360.256	85.06
360.483	76.06
360.709	80.06
360.936	76.06
361.163	110.06
361.39	83.06
361.616	76.06
361.843	92.06
362.07	90.06
362.296	76.06
362.523	73.06
362.749	95.06
362.976	72.06
363.203	71.06
363.429	68.06
363.656	77.06
363.882	79.06
364.109	78.06
364.335	96.06
364.562	81.06
364.788	89.06
365.015	87.06
365.241	93.06
365.468	85.06
365.694	75.06
365.92	85.06
366.147	82.06
366.373	72.06
366.599	82.06
366.826	90.06
367.052	83.06
367.278	76.06
367.505	89.06
367.731	85.06
367.957	93.06
368.184	73.06
368.41	94.06
368.636	99.06
368.862	86.06
369.089	71.06
369.315	90.06
369.541	90.06
369.767	83.06
369.993	101.06
370.219	83.06
370.445	82.06
370.672	68.06
370.898	80.06
371.124	93.06
371.35	101.06
371.576	85.06
371.802	99.06
372.028	92.06
372.254	74.06
372.48	70.06
372.706	75.06
372.932	82.06
373.158	92.06
373.384	92.06
373.61	79.06
373.835	80.06
374.061	73.06
374.287	82.06
374.513	82.06
374.739	89.06
374.965	89.06
375.191	76.06
375.416	89.06
375.642	85.06
375.868	86.06
376.094	81.06
376.319	84.06
376.545	85.06
376.771	82.06
376.997	76.06
377.222	78.06
377.448	84.06
377.674	76.06
377.899	86.06
378.125	85.06
378.35	67.06
378.576	83.06
378.802	84.06
379.027	86.06
379.253	80.06
379.478	68.06
379.704	67.06
379.929	73.06
380.155	88.06
380.38	65.06
380.606	85.06
380.831	82.06
381.057	79.06
381.282	85.06
381.507	79.06
381.733	89.06
381.958	86.06
382.184	82.06
382.409	73.06
382.634	81.06
382.86	83.06
383.085	85.06
383.31	89.06
383.535	85.06
383.761	72.06
383.986	81.06
384.211	93.06
384.436	72.06
384.662	68.06
384.887	97.06
385.112	80.06
385.337	100.06
385.562	87.06
385.787	78.06
386.013	93.06
386.238	92.06
386.463	82.06
386.688	84.06
386.913	79.06
387.138	94.06
387.363	96.06
387.588	76.06
387.813	85.06
388.038	72.06
388.263	90.06
388.488	79.06
388.713	84.06
388.938	85.06
389.163	84.06
389.387	83.06
389.612	78.06
389.837	87.06
390.062	77.06
390.287	86.06
390.512	99.06
390.736	69.06
390.961	76.06
391.186	79.06
391.411	81.06
391.636	84.06
391.86	77.06
392.085	92.06
392.31	88.06
392.534	84.06
392.759	91.06
392.984	83.06
393.208	73.06
393.433	75.06
393.658	92.06
393.882	81.06
394.107	87.06
394.331	84.06
394.556	83.06
394.78	86.06
395.005	88.06
395.229	91.06
395.454	85.06
395.678	92.06
395.903	83.06
396.127	77.06
396.352	80.06
396.576	68.06
396.801	70.06
397.025	81.06
397.249	88.06
397.474	86.06
397.698	85.06
397.922	98.06
398.147	86.06
398.371	87.06
398.595	78.06
398.82	97.06
399.044	74.06
399.268	81.06
399.492	86.06
399.717	81.06
399.941	86.06
400.165	77.06
400.389	82.06
400.613	76.06
400.837	87.06
401.062	83.06
401.286	88.06
401.51	93.06
401.734	84.06
401.958	77.06
402.182	76.06
402.406	91.06
402.63	81.06
402.854	85.06
403.078	77.06
403.302	76.06
403.526	83.06
403.75	90.06
403.974	84.06
404.198	80.06
404.422	71.06
404.645	80.06
404.869	71.06
405.093	82.06
405.317	79.06
405.541	82.06
405.765	78.06
405.988	90.06
406.212	81.06
406.436	87.06
406.66	103.06
406.883	79.06
407.107	73.06
407.331	82.06
407.555	75.06
407.778	96.06
408.002	92.06
408.226	72.06
408.449	79.06
408.673	80.06
408.896	77.06
409.12	91.06
409.344	81.06
409.567	77.06
409.791	79.06
410.014	80.06
410.238	72.06
410.461	70.06
410.685	81.06
410.908	73.06
411.132	72.06
411.355	82.06
411.578	79.06
411.802	80.06
412.025	80.06
412.249	72.06
412.472	85.06
412.695	77.06
412.919	94.06
413.142	72.06
413.365	76.06
413.589	87.06
413.812	94.06
414.035	91.06
414.258	90.06
414.482	81.06
414.705	77.06
414.928	89.06
415.151	80.06
415.374	81.06
415.597	86.06
415.821	85.06
416.044	67.06
416.267	87.06
416.49	84.06
416.713	89.06
416.936	90.06
417.159	99.06
417.382	80.06
417.605	72.06
417.828	63.06
418.051	78.06
418.274	83.06
418.497	79.06
418.72	82.06
418.943	72.06
419.166	82.06
419.389	78.06
419.611	107.06
419.834	89.06
420.057	100.06
420.28	91.06
420.503	91.06
420.726	98.06
420.948	74.06
421.171	88.06
421.394	81.06
421.617	94.06
421.839	75.06
422.062	91.06
422.285	76.06
422.507	80.06
422.73	74.06
422.953	77.06
423.175	92.06
423.398	96.06
423.621	75.06
423.843	90.06
424.066	82.06
424.288	75.06
424.511	84.06
424.733	87.06
424.956	84.06
425.178	73.06
425.401	68.06
425.623	82.06
425.846	78.06
426.068	73.06
426.291	78.06
426.513	88.06
426.735	90.06
426.958	81.06
427.18	70.06
427.402	88.06
427.625	80.06
427.847	79.06
428.069	87.06
428.292	91.06
428.514	77.06
428.736	91.06
428.958	89.06
429.181	71.06
429.403	90.06
429.625	81.06
429.847	84.06
430.069	80.06
430.292	90.06
430.514	97.06
430.736	71.06
430.958	84.06
431.18	77.06
431.402	68.06
431.624	73.06
431.846	65.06
432.068	79.06
432.29	73.06
432.512	75.06
432.734	80.06
432.956	75.06
433.178	75.06
433.4	82.06
433.622	80.06
433.844	77.06
434.066	87.06
434.287	83.06
434.509	75.06
434.731	73.06
434.953	78.06
435.175	80.06
435.397	70.06
435.618	79.06
435.84	88.06
436.062	78.06
436.284	84.06
436.505	77.06
436.727	78.06
436.949	80.06
437.17	80.06
437.392	66.06
437.614	88.06
437.835	86.06
438.057	82.06
438.278	96.06
438.5	78.06
438.721	82.06
438.943	73.06
439.165	81.06
439.386	62.06
439.608	75.06
439.829	68.06
440.05	83.06
440.272	96.06
440.493	74.06
440.715	91.06
440.936	88.06
441.158	82.06
441.379	82.06
441.6	77.06
441.822	88.06
442.043	74.06
442.264	81.06
442.486	76.06
442.707	70.06
442.928	89.06
443.149	69.06
443.371	81.06
443.592	82.06
443.813	77.06
444.034	78.06
444.255	67.06
444.476	85.06
444.698	74.06
444.919	84.06
445.14	148.06
445.361	123.06
445.582	99.06
445.803	86.06
446.024	83.06
446.245	82.06
446.466	83.06
446.687	83.06
446.908	81.06
447.129	95.06
447.35	76.06
447.571	82.06
447.792	85.06
448.013	73.06
448.234	95.06
448.455	80.06
448.675	82.06
448.896	79.06
449.117	73.06
449.338	80.06
449.559	94.06
449.779	80.06
450	80.06
450.221	82.06
450.442	83.06
450.662	68.06
450.883	78.06
451.104	71.06
451.324	72.06
451.545	88.06
451.766	77.06
451.986	70.06
452.207	80.06
452.428	83.06
452.648	83.06
452.869	82.06
453.089	70.06
453.31	78.06
453.53	72.06
453.751	79.06
453.971	79.06
454.192	83.06
454.412	79.06
454.633	84.06
454.853	76.06
455.073	72.06
455.294	81.06
455.514	83.06
455.734	81.06
455.955	72.06
456.175	79.06
456.395	79.06
456.616	80.06
456.836	81.06
457.056	96.06
457.276	91.06
457.497	80.06
457.717	80.06
457.937	78.06
458.157	84.06
458.377	81.06
458.598	88.06
458.818	68.06
459.038	85.06
459.258	94.06
459.478	80.06
459.698	80.06
459.918	66.06
460.138	77.06
460.358	104.06
460.578	71.06
460.798	82.06
461.018	80.06
461.238	86.06
461.458	84.06
461.678	85.06
461.898	82.06
462.118	84.06
462.338	82.06
462.558	90.06
462.777	90.06
462.997	89.06
463.217	73.06
463.437	80.06
463.657	94.06
463.876	81.06
464.096	86.06
464.316	84.06
464.536	79.06
464.755	74.06
464.975	85.06
465.195	91.06
465.414	94.06
465.634	75.06
465.854	92.06
466.073	83.06
466.293	92.06
466.512	74.06
466.732	85.06
466.951	73.06
467.171	90.06
467.391	94.06
467.61	77.06
467.829	85.06
468.049	84.06
468.268	80.06
468.488	73.06
468.707	87.06
468.927	82.06
469.146	81.06
469.365	83.06
469.585	84.06
469.804	61.06
470.023	86.06
470.243	84.06
470.462	78.06
470.681	82.06
470.901	86.06
471.12	84.06
471.339	81.06
471.558	85.06
471.777	71.06
471.997	72.06
472.216	84.06
472.435	77.06
472.654	76.06
472.873	67.06
473.092	74.06
473.311	80.06
473.53	78.06
473.749	74.06
473.968	71.06
474.187	88.06
474.406	78.06
474.625	80.06
474.844	82.06
475.063	66.06
475.282	75.06
475.501	86.06
475.72	85.06
475.939	81.06
476.158	72.06
476.377	84.06
476.596	81.06
476.814	84.06
477.033	83.06
477.252	77.06
477.471	76.06
477.69	78.06
477.908	90.06
478.127	87.06
478.346	86.06
478.564	87.06
478.783	89.06
479.002	73.06
479.22	77.06
479.439	87.06
479.658	73.06
479.876	86.06
480.095	103.06
480.313	90.06
480.532	78.06
480.751	87.06
480.969	80.06
481.188	78.06
481.406	86.06
481.624	91.06
481.843	76.06
482.061	83.06
482.28	80.06
482.498	83.06
482.717	73.06
482.935	92.06
483.153	72.06
483.372	86.06
483.59	77.06
483.808	105.06
484.027	79.06
484.245	84.06
484.463	96.06
484.681	109.06
484.9	80.06
485.118	81.06
485.336	76.06
485.554	86.06
485.772	83.06
485.99	92.06
486.209	78.06
486.427	97.06
486.645	107.06
486.863	92.06
487.081	90.06
487.299	92.06
487.517	93.06
487.735	93.06
487.953	73.06
488.171	68.06
488.389	83.06
488.607	89.06
488.825	82.06
489.043	86.06
489.261	86.06
489.479	84.06
489.696	85.06
489.914	68.06
490.132	88.06
490.35	98.06
490.568	76.06
490.786	75.06
491.003	83.06
491.221	89.06
491.439	78.06
491.657	77.06
491.874	86.06
492.092	79.06
492.31	90.06
492.527	91.06
492.745	101.06
492.963	82.06
493.18	102.06
493.398	82.06
493.615	72.06
493.833	65.06
494.05	72.06
494.268	77.06
494.485	97.06
494.703	93.06
494.92	87.06
495.138	95.06
495.355	83.06
495.573	81.06
495.79	91.06
496.008	95.06
496.225	70.06
496.442	84.06
496.66	86.06
496.877	84.06
497.094	80.06
497.312	81.06
497.529	69.06
497.746	77.06
497.963	83.06
498.181	92.06
498.398	98.06
498.615	84.06
498.832	76.06
499.049	82.06
499.267	86.06
499.484	92.06
499.701	94.06
499.918	92.06
500.135	103.06
500.352	100.06
500.569	91.06
500.786	103.06
501.003	94.06
501.22	93.06
501.437	89.06
501.654	84.06
501.871	96.06
502.088	89.06
502.305	88.06
502.522	77.06
502.739	76.06
502.956	80.06
503.172	88.06
503.389	83.06
503.606	92.06
503.823	83.06
504.04	86.06
504.256	92.06
504.473	90.06
504.69	86.06
504.907	99.06
505.123	94.06
505.34	83.06
505.557	90.06
505.773	81.06
505.99	91.06
506.207	106.06
506.423	88.06
506.64	66.06
506.856	76.06
507.073	77.06
507.289	90.06
507.506	84.06
507.722	92.06
507.939	72.06
508.155	85.06
508.372	91.06
508.588	83.06
508.805	82.06
509.021	72.06
509.238	82.06
509.454	93.06
509.67	78.06
509.887	103.06
510.103	86.06
510.319	94.06
510.536	80.06
510.752	88.06
510.968	74.06
511.184	90.06
511.401	84.06
511.617	91.06
511.833	90.06
512.049	80.06
512.265	87.06
512.481	96.06
512.698	78.06
512.914	85.06
513.13	71.06
513.346	98.06
513.562	74.06
513.778	86.06
513.994	80.06
514.21	91.06
514.426	68.06
514.642	79.06
514.858	98.06
515.074	86.06
515.29	80.06
515.506	84.06
515.721	90.06
515.937	90.06
516.153	75.06
516.369	77.06
516.585	86.06
516.801	89.06
517.016	88.06
517.232	76.06
517.448	100.06
517.664	106.06
517.879	94.06
518.095	75.06
518.311	88.06
518.527	91.06
518.742	83.06
518.958	87.06
519.173	74.06
519.389	89.06
519.605	76.06
519.82	82.06
520.036	90.06
