Data from BG_HRD10591_072.txt Node
Date: Fri May 16 15:21:29 EDT 2025
User: Yrep
Spectrometer: HR+D1059
Trigger mode: 1
Integration Time (sec): 1.000000E-1
Scans to average: 1
Electric dark correction enabled: true
Nonlinearity correction enabled: false
Boxcar width: 0
XAxis mode: Wavelengths
Number of Pixels in Spectrum: 2048
>>>>>Begin Spectral Data<<<<<
223.165	-14.44
223.4	-14.44
223.635	-14.44
223.869	-14.44
224.104	-22.44
224.338	-15.44
224.573	-10.44
224.808	-20.44
225.042	-8.44
225.277	-18.44
225.511	-7.44
225.746	17.56
225.98	12.56
226.215	1.56
226.449	14.56
226.683	23.56
226.918	30.56
227.152	31.56
227.387	42.56
227.621	33.56
227.856	45.56
228.09	49.56
228.324	37.56
228.559	53.56
228.793	55.56
229.027	74.56
229.262	59.56
229.496	71.56
229.73	62.56
229.964	55.56
230.199	72.56
230.433	66.56
230.667	73.56
230.901	72.56
231.136	71.56
231.37	69.56
231.604	69.56
231.838	65.56
232.072	81.56
232.306	80.56
232.541	77.56
232.775	84.56
233.009	93.56
233.243	65.56
233.477	83.56
233.711	81.56
233.945	81.56
234.179	94.56
234.413	77.56
234.647	82.56
234.881	88.56
235.115	71.56
235.349	73.56
235.583	68.56
235.817	81.56
236.051	61.56
236.285	66.56
236.519	84.56
236.753	78.56
236.987	81.56
237.221	82.56
237.455	74.56
237.689	77.56
237.922	72.56
238.156	87.56
238.39	75.56
238.624	69.56
238.858	59.56
239.091	63.56
239.325	73.56
239.559	72.56
239.793	73.56
240.027	89.56
240.26	80.56
240.494	75.56
240.728	77.56
240.961	73.56
241.195	81.56
241.429	72.56
241.662	62.56
241.896	50.56
242.13	69.56
242.363	80.56
242.597	76.56
242.83	75.56
243.064	70.56
243.298	75.56
243.531	76.56
243.765	67.56
243.998	75.56
244.232	86.56
244.465	75.56
244.699	63.56
244.932	74.56
245.166	83.56
245.399	83.56
245.633	66.56
245.866	65.56
246.099	63.56
246.333	61.56
246.566	63.56
246.8	70.56
247.033	70.56
247.266	75.56
247.5	67.56
247.733	76.56
247.966	67.56
248.2	86.56
248.433	70.56
248.666	72.56
248.899	83.56
249.133	61.56
249.366	74.56
249.599	81.56
249.832	79.56
250.066	65.56
250.299	79.56
250.532	84.56
250.765	68.56
250.998	84.56
251.231	90.56
251.465	92.56
251.698	77.56
251.931	76.56
252.164	88.56
252.397	74.56
252.63	79.56
252.863	87.56
253.096	73.56
253.329	84.56
253.562	61.56
253.795	70.56
254.028	70.56
254.261	69.56
254.494	83.56
254.727	67.56
254.96	81.56
255.193	90.56
255.426	81.56
255.659	73.56
255.892	84.56
256.124	75.56
256.357	76.56
256.59	80.56
256.823	78.56
257.056	62.56
257.289	72.56
257.521	83.56
257.754	78.56
257.987	83.56
258.22	74.56
258.452	60.56
258.685	82.56
258.918	77.56
259.151	74.56
259.383	77.56
259.616	93.56
259.849	73.56
260.081	74.56
260.314	70.56
260.547	86.56
260.779	86.56
261.012	74.56
261.244	85.56
261.477	82.56
261.71	76.56
261.942	81.56
262.175	77.56
262.407	73.56
262.64	81.56
262.872	65.56
263.105	77.56
263.337	71.56
263.57	90.56
263.802	86.56
264.035	74.56
264.267	69.56
264.499	80.56
264.732	76.56
264.964	76.56
265.197	91.56
265.429	69.56
265.661	86.56
265.894	74.56
266.126	93.56
266.358	74.56
266.591	75.56
266.823	90.56
267.055	78.56
267.287	81.56
267.52	70.56
267.752	76.56
267.984	77.56
268.216	74.56
268.448	85.56
268.681	76.56
268.913	71.56
269.145	76.56
269.377	82.56
269.609	85.56
269.841	71.56
270.073	76.56
270.306	66.56
270.538	81.56
270.77	75.56
271.002	86.56
271.234	75.56
271.466	82.56
271.698	90.56
271.93	81.56
272.162	92.56
272.394	79.56
272.626	62.56
272.858	72.56
273.09	73.56
273.322	83.56
273.553	83.56
273.785	68.56
274.017	71.56
274.249	86.56
274.481	76.56
274.713	94.56
274.945	78.56
275.176	77.56
275.408	60.56
275.64	88.56
275.872	91.56
276.104	72.56
276.335	57.56
276.567	70.56
276.799	75.56
277.031	81.56
277.262	76.56
277.494	85.56
277.726	66.56
277.957	90.56
278.189	75.56
278.421	88.56
278.652	76.56
278.884	85.56
279.115	82.56
279.347	81.56
279.579	82.56
279.81	69.56
280.042	72.56
280.273	78.56
280.505	80.56
280.736	76.56
280.968	80.56
281.199	82.56
281.431	89.56
281.662	81.56
281.894	82.56
282.125	86.56
282.356	76.56
282.588	83.56
282.819	80.56
283.051	81.56
283.282	81.56
283.513	98.56
283.745	62.56
283.976	77.56
284.207	90.56
284.439	82.56
284.67	90.56
284.901	74.56
285.132	71.56
285.364	81.56
285.595	93.56
285.826	96.56
286.057	76.56
286.288	84.56
286.52	83.56
286.751	72.56
286.982	78.56
287.213	86.56
287.444	78.56
287.675	88.56
287.906	77.56
288.138	82.56
288.369	82.56
288.6	73.56
288.831	80.56
289.062	79.56
289.293	77.56
289.524	98.56
289.755	84.56
289.986	77.56
290.217	90.56
290.448	76.56
290.679	70.56
290.91	85.56
291.141	71.56
291.371	80.56
291.602	81.56
291.833	100.56
292.064	75.56
292.295	77.56
292.526	92.56
292.757	77.56
292.987	75.56
293.218	77.56
293.449	78.56
293.68	71.56
293.91	86.56
294.141	89.56
294.372	75.56
294.603	77.56
294.833	78.56
295.064	75.56
295.295	76.56
295.525	77.56
295.756	71.56
295.987	72.56
296.217	72.56
296.448	69.56
296.679	80.56
296.909	88.56
297.14	83.56
297.37	89.56
297.601	84.56
297.831	80.56
298.062	84.56
298.292	81.56
298.523	82.56
298.753	82.56
298.984	81.56
299.214	83.56
299.445	81.56
299.675	75.56
299.905	77.56
300.136	88.56
300.366	84.56
300.597	82.56
300.827	88.56
301.057	85.56
301.288	99.56
301.518	79.56
301.748	77.56
301.979	77.56
302.209	71.56
302.439	68.56
302.669	81.56
302.9	96.56
303.13	82.56
303.36	86.56
303.59	74.56
303.82	88.56
304.051	76.56
304.281	76.56
304.511	69.56
304.741	68.56
304.971	91.56
305.201	93.56
305.431	93.56
305.661	86.56
305.891	71.56
306.121	80.56
306.352	83.56
306.582	91.56
306.812	82.56
307.042	78.56
307.272	77.56
307.502	72.56
307.731	81.56
307.961	70.56
308.191	78.56
308.421	72.56
308.651	88.56
308.881	74.56
309.111	84.56
309.341	71.56
309.571	70.56
309.8	92.56
310.03	84.56
310.26	67.56
310.49	85.56
310.72	81.56
310.949	66.56
311.179	72.56
311.409	61.56
311.639	74.56
311.868	82.56
312.098	70.56
312.328	76.56
312.557	84.56
312.787	71.56
313.017	86.56
313.246	82.56
313.476	99.56
313.706	69.56
313.935	80.56
314.165	80.56
314.394	77.56
314.624	85.56
314.853	72.56
315.083	87.56
315.312	90.56
315.542	79.56
315.771	82.56
316.001	81.56
316.23	67.56
316.46	75.56
316.689	92.56
316.919	81.56
317.148	77.56
317.377	83.56
317.607	81.56
317.836	76.56
318.065	81.56
318.295	86.56
318.524	90.56
318.753	83.56
318.983	93.56
319.212	77.56
319.441	76.56
319.67	88.56
319.9	80.56
320.129	77.56
320.358	90.56
320.587	80.56
320.816	82.56
321.046	84.56
321.275	78.56
321.504	75.56
321.733	84.56
321.962	86.56
322.191	81.56
322.42	82.56
322.649	83.56
322.878	88.56
323.108	80.56
323.337	76.56
323.566	74.56
323.795	84.56
324.024	80.56
324.253	83.56
324.482	73.56
324.71	75.56
324.939	93.56
325.168	82.56
325.397	86.56
325.626	82.56
325.855	82.56
326.084	82.56
326.313	92.56
326.542	85.56
326.77	77.56
326.999	91.56
327.228	84.56
327.457	94.56
327.686	80.56
327.914	73.56
328.143	69.56
328.372	80.56
328.6	78.56
328.829	69.56
329.058	85.56
329.287	83.56
329.515	75.56
329.744	77.56
329.972	92.56
330.201	76.56
330.43	87.56
330.658	74.56
330.887	67.56
331.115	75.56
331.344	85.56
331.572	86.56
331.801	92.56
332.03	75.56
332.258	81.56
332.486	76.56
332.715	87.56
332.943	84.56
333.172	93.56
333.4	80.56
333.629	76.56
333.857	69.56
334.085	67.56
334.314	89.56
334.542	75.56
334.771	77.56
334.999	74.56
335.227	74.56
335.455	77.56
335.684	79.56
335.912	70.56
336.14	75.56
336.369	88.56
336.597	75.56
336.825	65.56
337.053	66.56
337.281	81.56
337.51	76.56
337.738	73.56
337.966	92.56
338.194	67.56
338.422	74.56
338.65	75.56
338.878	89.56
339.106	84.56
339.334	81.56
339.562	75.56
339.79	81.56
340.018	95.56
340.246	70.56
340.474	83.56
340.702	80.56
340.93	79.56
341.158	89.56
341.386	84.56
341.614	84.56
341.842	78.56
342.07	79.56
342.298	72.56
342.526	80.56
342.754	75.56
342.981	82.56
343.209	78.56
343.437	82.56
343.665	84.56
343.893	85.56
344.12	77.56
344.348	76.56
344.576	82.56
344.804	61.56
345.031	70.56
345.259	73.56
345.487	75.56
345.714	73.56
345.942	85.56
346.17	80.56
346.397	91.56
346.625	74.56
346.853	84.56
347.08	85.56
347.308	82.56
347.535	84.56
347.763	78.56
347.99	82.56
348.218	79.56
348.445	70.56
348.673	74.56
348.9	87.56
349.128	79.56
349.355	80.56
349.583	79.56
349.81	73.56
350.037	66.56
350.265	76.56
350.492	75.56
350.72	85.56
350.947	62.56
351.174	80.56
351.402	76.56
351.629	68.56
351.856	85.56
352.083	84.56
352.311	88.56
352.538	85.56
352.765	84.56
352.992	84.56
353.22	77.56
353.447	66.56
353.674	68.56
353.901	72.56
354.128	82.56
354.355	66.56
354.583	92.56
354.81	76.56
355.037	71.56
355.264	81.56
355.491	74.56
355.718	64.56
355.945	67.56
356.172	82.56
356.399	77.56
356.626	78.56
356.853	67.56
357.08	87.56
357.307	81.56
357.534	86.56
357.761	79.56
357.988	81.56
358.215	92.56
358.441	85.56
358.668	96.56
358.895	76.56
359.122	79.56
359.349	84.56
359.576	73.56
359.802	56.56
360.029	80.56
360.256	85.56
360.483	80.56
360.709	78.56
360.936	76.56
361.163	85.56
361.39	87.56
361.616	66.56
361.843	80.56
362.07	85.56
362.296	77.56
362.523	75.56
362.749	96.56
362.976	72.56
363.203	87.56
363.429	78.56
363.656	78.56
363.882	67.56
364.109	88.56
364.335	86.56
364.562	88.56
364.788	79.56
365.015	74.56
365.241	80.56
365.468	88.56
365.694	82.56
365.92	86.56
366.147	75.56
366.373	69.56
366.599	86.56
366.826	68.56
367.052	70.56
367.278	74.56
367.505	73.56
367.731	73.56
367.957	77.56
368.184	83.56
368.41	81.56
368.636	76.56
368.862	69.56
369.089	74.56
369.315	80.56
369.541	72.56
369.767	73.56
369.993	85.56
370.219	77.56
370.445	80.56
370.672	66.56
370.898	88.56
371.124	72.56
371.35	80.56
371.576	77.56
371.802	80.56
372.028	86.56
372.254	91.56
372.48	84.56
372.706	80.56
372.932	70.56
373.158	72.56
373.384	76.56
373.61	78.56
373.835	76.56
374.061	82.56
374.287	72.56
374.513	76.56
374.739	73.56
374.965	72.56
375.191	81.56
375.416	88.56
375.642	87.56
375.868	89.56
376.094	84.56
376.319	71.56
376.545	75.56
376.771	79.56
376.997	68.56
377.222	71.56
377.448	72.56
377.674	83.56
377.899	75.56
378.125	74.56
378.35	82.56
378.576	81.56
378.802	68.56
379.027	70.56
379.253	88.56
379.478	71.56
379.704	76.56
379.929	84.56
380.155	80.56
380.38	79.56
380.606	77.56
380.831	90.56
381.057	79.56
381.282	75.56
381.507	80.56
381.733	77.56
381.958	76.56
382.184	69.56
382.409	70.56
382.634	78.56
382.86	57.56
383.085	83.56
383.31	61.56
383.535	67.56
383.761	91.56
383.986	78.56
384.211	76.56
384.436	79.56
384.662	79.56
384.887	78.56
385.112	74.56
385.337	74.56
385.562	69.56
385.787	70.56
386.013	86.56
386.238	70.56
386.463	76.56
386.688	81.56
386.913	83.56
387.138	84.56
387.363	73.56
387.588	76.56
387.813	78.56
388.038	73.56
388.263	68.56
388.488	75.56
388.713	77.56
388.938	83.56
389.163	90.56
389.387	68.56
389.612	79.56
389.837	69.56
390.062	93.56
390.287	84.56
390.512	78.56
390.736	82.56
390.961	75.56
391.186	82.56
391.411	58.56
391.636	76.56
391.86	85.56
392.085	88.56
392.31	83.56
392.534	89.56
392.759	75.56
392.984	78.56
393.208	88.56
393.433	81.56
393.658	74.56
393.882	68.56
394.107	75.56
394.331	74.56
394.556	75.56
394.78	76.56
395.005	68.56
395.229	87.56
395.454	76.56
395.678	78.56
395.903	88.56
396.127	85.56
396.352	74.56
396.576	67.56
396.801	81.56
397.025	92.56
397.249	69.56
397.474	84.56
397.698	87.56
397.922	86.56
398.147	83.56
398.371	67.56
398.595	71.56
398.82	84.56
399.044	75.56
399.268	68.56
399.492	77.56
399.717	80.56
399.941	84.56
400.165	70.56
400.389	77.56
400.613	70.56
400.837	81.56
401.062	80.56
401.286	72.56
401.51	74.56
401.734	74.56
401.958	75.56
402.182	72.56
402.406	69.56
402.63	65.56
402.854	74.56
403.078	70.56
403.302	76.56
403.526	77.56
403.75	68.56
403.974	83.56
404.198	82.56
404.422	74.56
404.645	70.56
404.869	73.56
405.093	80.56
405.317	80.56
405.541	76.56
405.765	86.56
405.988	70.56
406.212	93.56
406.436	74.56
406.66	83.56
406.883	76.56
407.107	71.56
407.331	83.56
407.555	84.56
407.778	81.56
408.002	78.56
408.226	84.56
408.449	80.56
408.673	65.56
408.896	74.56
409.12	81.56
409.344	85.56
409.567	60.56
409.791	67.56
410.014	68.56
410.238	78.56
410.461	77.56
410.685	81.56
410.908	101.56
411.132	85.56
411.355	80.56
411.578	87.56
411.802	80.56
412.025	75.56
412.249	77.56
412.472	71.56
412.695	72.56
412.919	75.56
413.142	84.56
413.365	69.56
413.589	84.56
413.812	69.56
414.035	72.56
414.258	68.56
414.482	84.56
414.705	58.56
414.928	74.56
415.151	73.56
415.374	67.56
415.597	65.56
415.821	69.56
416.044	73.56
416.267	85.56
416.49	81.56
416.713	82.56
416.936	80.56
417.159	76.56
417.382	60.56
417.605	80.56
417.828	75.56
418.051	75.56
418.274	78.56
418.497	89.56
418.72	64.56
418.943	96.56
419.166	83.56
419.389	66.56
419.611	72.56
419.834	78.56
420.057	87.56
420.28	80.56
420.503	79.56
420.726	79.56
420.948	76.56
421.171	66.56
421.394	100.56
421.617	83.56
421.839	81.56
422.062	85.56
422.285	71.56
422.507	86.56
422.73	75.56
422.953	59.56
423.175	81.56
423.398	77.56
423.621	85.56
423.843	77.56
424.066	63.56
424.288	76.56
424.511	81.56
424.733	77.56
424.956	79.56
425.178	76.56
425.401	62.56
425.623	80.56
425.846	84.56
426.068	79.56
426.291	80.56
426.513	80.56
426.735	67.56
426.958	76.56
427.18	73.56
427.402	75.56
427.625	72.56
427.847	72.56
428.069	90.56
428.292	76.56
428.514	81.56
428.736	74.56
428.958	84.56
429.181	86.56
429.403	85.56
429.625	78.56
429.847	87.56
430.069	69.56
430.292	70.56
430.514	79.56
430.736	78.56
430.958	68.56
431.18	84.56
431.402	79.56
431.624	81.56
431.846	76.56
432.068	86.56
432.29	86.56
432.512	82.56
432.734	70.56
432.956	71.56
433.178	73.56
433.4	87.56
433.622	85.56
433.844	86.56
434.066	66.56
434.287	69.56
434.509	68.56
434.731	82.56
434.953	74.56
435.175	85.56
435.397	80.56
435.618	68.56
435.84	88.56
436.062	76.56
436.284	80.56
436.505	79.56
436.727	68.56
436.949	69.56
437.17	71.56
437.392	71.56
437.614	86.56
437.835	76.56
438.057	84.56
438.278	76.56
438.5	75.56
438.721	84.56
438.943	87.56
439.165	83.56
439.386	74.56
439.608	88.56
439.829	79.56
440.05	95.56
440.272	80.56
440.493	77.56
440.715	68.56
440.936	94.56
441.158	92.56
441.379	81.56
441.6	77.56
441.822	84.56
442.043	76.56
442.264	88.56
442.486	85.56
442.707	76.56
442.928	84.56
443.149	79.56
443.371	69.56
443.592	70.56
443.813	72.56
444.034	84.56
444.255	68.56
444.476	77.56
444.698	77.56
444.919	66.56
445.14	158.56
445.361	108.56
445.582	71.56
445.803	67.56
446.024	66.56
446.245	78.56
446.466	77.56
446.687	67.56
446.908	72.56
447.129	74.56
447.35	77.56
447.571	69.56
447.792	81.56
448.013	81.56
448.234	82.56
448.455	81.56
448.675	90.56
448.896	69.56
449.117	76.56
449.338	84.56
449.559	66.56
449.779	77.56
450	90.56
450.221	78.56
450.442	56.56
450.662	80.56
450.883	74.56
451.104	86.56
451.324	73.56
451.545	87.56
451.766	88.56
451.986	83.56
452.207	81.56
452.428	81.56
452.648	81.56
452.869	81.56
453.089	77.56
453.31	80.56
453.53	75.56
453.751	94.56
453.971	84.56
454.192	65.56
454.412	83.56
454.633	71.56
454.853	77.56
455.073	82.56
455.294	83.56
455.514	80.56
455.734	69.56
455.955	82.56
456.175	84.56
456.395	71.56
456.616	73.56
456.836	81.56
457.056	99.56
457.276	87.56
457.497	77.56
457.717	84.56
457.937	78.56
458.157	81.56
458.377	89.56
458.598	70.56
458.818	80.56
459.038	80.56
459.258	78.56
459.478	63.56
459.698	85.56
459.918	86.56
460.138	71.56
460.358	77.56
460.578	74.56
460.798	84.56
461.018	76.56
461.238	76.56
461.458	69.56
461.678	73.56
461.898	97.56
462.118	72.56
462.338	76.56
462.558	74.56
462.777	80.56
462.997	76.56
463.217	82.56
463.437	68.56
463.657	62.56
463.876	76.56
464.096	74.56
464.316	70.56
464.536	74.56
464.755	75.56
464.975	79.56
465.195	66.56
465.414	75.56
465.634	76.56
465.854	77.56
466.073	68.56
466.293	54.56
466.512	84.56
466.732	86.56
466.951	81.56
467.171	76.56
467.391	73.56
467.61	72.56
467.829	80.56
468.049	65.56
468.268	67.56
468.488	79.56
468.707	89.56
468.927	83.56
469.146	84.56
469.365	79.56
469.585	99.56
469.804	86.56
470.023	80.56
470.243	84.56
470.462	73.56
470.681	84.56
470.901	72.56
471.12	70.56
471.339	69.56
471.558	70.56
471.777	81.56
471.997	85.56
472.216	89.56
472.435	76.56
472.654	66.56
472.873	72.56
473.092	78.56
473.311	90.56
473.53	63.56
473.749	76.56
473.968	77.56
474.187	71.56
474.406	75.56
474.625	86.56
474.844	93.56
475.063	74.56
475.282	80.56
475.501	83.56
475.72	68.56
475.939	80.56
476.158	67.56
476.377	82.56
476.596	82.56
476.814	91.56
477.033	69.56
477.252	71.56
477.471	74.56
477.69	70.56
477.908	65.56
478.127	75.56
478.346	74.56
478.564	68.56
478.783	83.56
479.002	80.56
479.22	80.56
479.439	83.56
479.658	86.56
479.876	68.56
480.095	78.56
480.313	77.56
480.532	71.56
480.751	76.56
480.969	76.56
481.188	84.56
481.406	72.56
481.624	89.56
481.843	80.56
482.061	78.56
482.28	88.56
482.498	84.56
482.717	67.56
482.935	81.56
483.153	78.56
483.372	78.56
483.59	73.56
483.808	74.56
484.027	70.56
484.245	70.56
484.463	83.56
484.681	86.56
484.9	84.56
485.118	83.56
485.336	76.56
485.554	84.56
485.772	75.56
485.99	84.56
486.209	77.56
486.427	77.56
486.645	83.56
486.863	81.56
487.081	80.56
487.299	79.56
487.517	81.56
487.735	84.56
487.953	76.56
488.171	76.56
488.389	88.56
488.607	69.56
488.825	66.56
489.043	80.56
489.261	73.56
489.479	88.56
489.696	81.56
489.914	69.56
490.132	84.56
490.35	73.56
490.568	86.56
490.786	80.56
491.003	68.56
491.221	84.56
491.439	84.56
491.657	86.56
491.874	77.56
492.092	60.56
492.31	75.56
492.527	81.56
492.745	65.56
492.963	72.56
493.18	69.56
493.398	78.56
493.615	84.56
493.833	69.56
494.05	81.56
494.268	76.56
494.485	71.56
494.703	70.56
494.92	69.56
495.138	92.56
495.355	93.56
495.573	74.56
495.79	76.56
496.008	83.56
496.225	67.56
496.442	55.56
496.66	75.56
496.877	74.56
497.094	88.56
497.312	85.56
497.529	82.56
497.746	85.56
497.963	85.56
498.181	84.56
498.398	79.56
498.615	84.56
498.832	63.56
499.049	67.56
499.267	73.56
499.484	73.56
499.701	75.56
499.918	82.56
500.135	91.56
500.352	70.56
500.569	78.56
500.786	80.56
501.003	86.56
501.22	75.56
501.437	76.56
501.654	68.56
501.871	67.56
502.088	78.56
502.305	88.56
502.522	87.56
502.739	76.56
502.956	77.56
503.172	65.56
503.389	72.56
503.606	76.56
503.823	65.56
504.04	80.56
504.256	84.56
504.473	68.56
504.69	76.56
504.907	83.56
505.123	81.56
505.34	87.56
505.557	77.56
505.773	78.56
505.99	99.56
506.207	78.56
506.423	77.56
506.64	80.56
506.856	67.56
507.073	76.56
507.289	77.56
507.506	75.56
507.722	80.56
507.939	75.56
508.155	73.56
508.372	82.56
508.588	82.56
508.805	74.56
509.021	76.56
509.238	77.56
509.454	73.56
509.67	85.56
509.887	82.56
510.103	83.56
510.319	88.56
510.536	82.56
510.752	81.56
510.968	83.56
511.184	76.56
511.401	77.56
511.617	87.56
511.833	81.56
512.049	80.56
512.265	93.56
512.481	79.56
512.698	85.56
512.914	73.56
513.13	63.56
513.346	60.56
513.562	80.56
513.778	84.56
513.994	70.56
514.21	88.56
514.426	72.56
514.642	77.56
514.858	80.56
515.074	86.56
515.29	81.56
515.506	84.56
515.721	70.56
515.937	81.56
516.153	81.56
516.369	74.56
516.585	64.56
516.801	72.56
517.016	71.56
517.232	82.56
517.448	72.56
517.664	78.56
517.879	77.56
518.095	81.56
518.311	75.56
518.527	92.56
518.742	70.56
518.958	79.56
519.173	74.56
519.389	75.56
519.605	72.56
519.82	88.56
520.036	72.56
520.251	75.56
