Data from BG_HRD10591_016.txt Node
Date: Fri May 16 15:21:02 EDT 2025
User: Yrep
Spectrometer: HR+D1059
Trigger mode: 1
Integration Time (sec): 1.000000E-1
Scans to average: 1
Electric dark correction enabled: true
Nonlinearity correction enabled: false
Boxcar width: 0
XAxis mode: Wavelengths
Number of Pixels in Spectrum: 2048
>>>>>Begin Spectral Data<<<<<
223.165	-15.31
223.4	-15.31
223.635	-15.31
223.869	-10.31
224.104	-23.31
224.338	-21.31
224.573	-25.31
224.808	-20.31
225.042	-3.31
225.277	-8.31
225.511	12.69
225.746	9.69
225.98	-1.31
226.215	16.69
226.449	12.69
226.683	24.69
226.918	26.69
227.152	25.69
227.387	32.69
227.621	29.69
227.856	39.69
228.09	55.69
228.324	48.69
228.559	49.69
228.793	61.69
229.027	62.69
229.262	75.69
229.496	71.69
229.73	67.69
229.964	54.69
230.199	62.69
230.433	74.69
230.667	70.69
230.901	78.69
231.136	69.69
231.37	74.69
231.604	81.69
231.838	73.69
232.072	81.69
232.306	92.69
232.541	92.69
232.775	91.69
233.009	69.69
233.243	86.69
233.477	91.69
233.711	81.69
233.945	83.69
234.179	77.69
234.413	78.69
234.647	65.69
234.881	87.69
235.115	72.69
235.349	70.69
235.583	78.69
235.817	86.69
236.051	65.69
236.285	68.69
236.519	79.69
236.753	72.69
236.987	78.69
237.221	64.69
237.455	68.69
237.689	78.69
237.922	78.69
238.156	75.69
238.39	74.69
238.624	80.69
238.858	68.69
239.091	70.69
239.325	68.69
239.559	78.69
239.793	63.69
240.027	77.69
240.26	60.69
240.494	71.69
240.728	68.69
240.961	71.69
241.195	72.69
241.429	49.69
241.662	66.69
241.896	63.69
242.13	70.69
242.363	78.69
242.597	76.69
242.83	77.69
243.064	74.69
243.298	83.69
243.531	70.69
243.765	76.69
243.998	76.69
244.232	62.69
244.465	78.69
244.699	84.69
244.932	80.69
245.166	83.69
245.399	67.69
245.633	77.69
245.866	76.69
246.099	82.69
246.333	69.69
246.566	62.69
246.8	73.69
247.033	73.69
247.266	65.69
247.5	88.69
247.733	64.69
247.966	88.69
248.2	77.69
248.433	75.69
248.666	71.69
248.899	65.69
249.133	73.69
249.366	76.69
249.599	71.69
249.832	72.69
250.066	84.69
250.299	72.69
250.532	76.69
250.765	65.69
250.998	74.69
251.231	73.69
251.465	84.69
251.698	86.69
251.931	79.69
252.164	77.69
252.397	80.69
252.63	76.69
252.863	69.69
253.096	72.69
253.329	82.69
253.562	72.69
253.795	74.69
254.028	66.69
254.261	82.69
254.494	89.69
254.727	77.69
254.96	64.69
255.193	68.69
255.426	72.69
255.659	87.69
255.892	92.69
256.124	79.69
256.357	60.69
256.59	77.69
256.823	84.69
257.056	76.69
257.289	73.69
257.521	87.69
257.754	80.69
257.987	92.69
258.22	77.69
258.452	80.69
258.685	68.69
258.918	85.69
259.151	72.69
259.383	82.69
259.616	78.69
259.849	82.69
260.081	86.69
260.314	85.69
260.547	78.69
260.779	84.69
261.012	74.69
261.244	83.69
261.477	89.69
261.71	77.69
261.942	68.69
262.175	66.69
262.407	81.69
262.64	70.69
262.872	85.69
263.105	75.69
263.337	66.69
263.57	65.69
263.802	94.69
264.035	85.69
264.267	85.69
264.499	71.69
264.732	74.69
264.964	80.69
265.197	88.69
265.429	86.69
265.661	77.69
265.894	92.69
266.126	81.69
266.358	83.69
266.591	80.69
266.823	84.69
267.055	76.69
267.287	79.69
267.52	78.69
267.752	72.69
267.984	75.69
268.216	81.69
268.448	75.69
268.681	102.69
268.913	78.69
269.145	68.69
269.377	82.69
269.609	66.69
269.841	66.69
270.073	75.69
270.306	82.69
270.538	87.69
270.77	66.69
271.002	68.69
271.234	84.69
271.466	93.69
271.698	70.69
271.93	72.69
272.162	71.69
272.394	87.69
272.626	80.69
272.858	66.69
273.09	70.69
273.322	89.69
273.553	80.69
273.785	77.69
274.017	85.69
274.249	71.69
274.481	74.69
274.713	84.69
274.945	80.69
275.176	80.69
275.408	79.69
275.64	87.69
275.872	80.69
276.104	98.69
276.335	85.69
276.567	88.69
276.799	87.69
277.031	98.69
277.262	83.69
277.494	90.69
277.726	84.69
277.957	61.69
278.189	87.69
278.421	86.69
278.652	88.69
278.884	76.69
279.115	72.69
279.347	87.69
279.579	82.69
279.81	80.69
280.042	80.69
280.273	81.69
280.505	83.69
280.736	100.69
280.968	92.69
281.199	91.69
281.431	79.69
281.662	85.69
281.894	75.69
282.125	80.69
282.356	80.69
282.588	85.69
282.819	90.69
283.051	86.69
283.282	81.69
283.513	76.69
283.745	78.69
283.976	81.69
284.207	69.69
284.439	83.69
284.67	81.69
284.901	83.69
285.132	77.69
285.364	90.69
285.595	87.69
285.826	90.69
286.057	83.69
286.288	86.69
286.52	84.69
286.751	77.69
286.982	81.69
287.213	86.69
287.444	81.69
287.675	78.69
287.906	71.69
288.138	76.69
288.369	81.69
288.6	100.69
288.831	75.69
289.062	78.69
289.293	89.69
289.524	74.69
289.755	80.69
289.986	85.69
290.217	87.69
290.448	86.69
290.679	84.69
290.91	68.69
291.141	84.69
291.371	89.69
291.602	84.69
291.833	81.69
292.064	67.69
292.295	63.69
292.526	75.69
292.757	86.69
292.987	82.69
293.218	83.69
293.449	82.69
293.68	86.69
293.91	79.69
294.141	87.69
294.372	78.69
294.603	80.69
294.833	68.69
295.064	81.69
295.295	73.69
295.525	79.69
295.756	91.69
295.987	74.69
296.217	82.69
296.448	85.69
296.679	83.69
296.909	89.69
297.14	72.69
297.37	86.69
297.601	76.69
297.831	89.69
298.062	83.69
298.292	84.69
298.523	79.69
298.753	79.69
298.984	81.69
299.214	87.69
299.445	77.69
299.675	76.69
299.905	82.69
300.136	83.69
300.366	77.69
300.597	71.69
300.827	87.69
301.057	85.69
301.288	77.69
301.518	88.69
301.748	76.69
301.979	93.69
302.209	80.69
302.439	85.69
302.669	82.69
302.9	75.69
303.13	88.69
303.36	99.69
303.59	81.69
303.82	91.69
304.051	88.69
304.281	73.69
304.511	90.69
304.741	100.69
304.971	81.69
305.201	82.69
305.431	85.69
305.661	95.69
305.891	78.69
306.121	94.69
306.352	89.69
306.582	82.69
306.812	76.69
307.042	69.69
307.272	88.69
307.502	77.69
307.731	68.69
307.961	91.69
308.191	89.69
308.421	94.69
308.651	68.69
308.881	85.69
309.111	83.69
309.341	81.69
309.571	84.69
309.8	93.69
310.03	87.69
310.26	82.69
310.49	90.69
310.72	83.69
310.949	89.69
311.179	74.69
311.409	80.69
311.639	77.69
311.868	84.69
312.098	83.69
312.328	81.69
312.557	83.69
312.787	75.69
313.017	90.69
313.246	93.69
313.476	96.69
313.706	70.69
313.935	96.69
314.165	93.69
314.394	81.69
314.624	75.69
314.853	84.69
315.083	78.69
315.312	66.69
315.542	82.69
315.771	76.69
316.001	91.69
316.23	82.69
316.46	75.69
316.689	84.69
316.919	73.69
317.148	73.69
317.377	97.69
317.607	90.69
317.836	101.69
318.065	84.69
318.295	76.69
318.524	82.69
318.753	90.69
318.983	81.69
319.212	92.69
319.441	85.69
319.67	72.69
319.9	84.69
320.129	91.69
320.358	88.69
320.587	81.69
320.816	68.69
321.046	83.69
321.275	86.69
321.504	66.69
321.733	74.69
321.962	80.69
322.191	87.69
322.42	72.69
322.649	85.69
322.878	80.69
323.108	93.69
323.337	86.69
323.566	82.69
323.795	80.69
324.024	68.69
324.253	88.69
324.482	78.69
324.71	87.69
324.939	93.69
325.168	82.69
325.397	85.69
325.626	93.69
325.855	85.69
326.084	89.69
326.313	80.69
326.542	79.69
326.77	82.69
326.999	85.69
327.228	74.69
327.457	90.69
327.686	87.69
327.914	80.69
328.143	75.69
328.372	94.69
328.6	85.69
328.829	84.69
329.058	76.69
329.287	71.69
329.515	97.69
329.744	92.69
329.972	82.69
330.201	81.69
330.43	94.69
330.658	80.69
330.887	87.69
331.115	87.69
331.344	74.69
331.572	80.69
331.801	82.69
332.03	85.69
332.258	97.69
332.486	80.69
332.715	92.69
332.943	96.69
333.172	100.69
333.4	76.69
333.629	91.69
333.857	90.69
334.085	87.69
334.314	82.69
334.542	87.69
334.771	93.69
334.999	76.69
335.227	93.69
335.455	79.69
335.684	82.69
335.912	76.69
336.14	73.69
336.369	85.69
336.597	85.69
336.825	93.69
337.053	90.69
337.281	89.69
337.51	76.69
337.738	81.69
337.966	88.69
338.194	89.69
338.422	68.69
338.65	92.69
338.878	81.69
339.106	78.69
339.334	92.69
339.562	87.69
339.79	84.69
340.018	90.69
340.246	96.69
340.474	76.69
340.702	89.69
340.93	98.69
341.158	76.69
341.386	84.69
341.614	53.69
341.842	83.69
342.07	87.69
342.298	77.69
342.526	81.69
342.754	82.69
342.981	87.69
343.209	84.69
343.437	94.69
343.665	73.69
343.893	70.69
344.12	77.69
344.348	89.69
344.576	85.69
344.804	76.69
345.031	76.69
345.259	76.69
345.487	90.69
345.714	71.69
345.942	87.69
346.17	96.69
346.397	105.69
346.625	93.69
346.853	98.69
347.08	80.69
347.308	87.69
347.535	85.69
347.763	80.69
347.99	74.69
348.218	92.69
348.445	80.69
348.673	88.69
348.9	85.69
349.128	88.69
349.355	81.69
349.583	96.69
349.81	88.69
350.037	80.69
350.265	88.69
350.492	63.69
350.72	91.69
350.947	81.69
351.174	75.69
351.402	78.69
351.629	89.69
351.856	80.69
352.083	80.69
352.311	75.69
352.538	78.69
352.765	82.69
352.992	92.69
353.22	89.69
353.447	90.69
353.674	85.69
353.901	86.69
354.128	80.69
354.355	80.69
354.583	82.69
354.81	75.69
355.037	73.69
355.264	86.69
355.491	76.69
355.718	83.69
355.945	76.69
356.172	81.69
356.399	64.69
356.626	81.69
356.853	82.69
357.08	97.69
357.307	72.69
357.534	82.69
357.761	92.69
357.988	87.69
358.215	92.69
358.441	80.69
358.668	72.69
358.895	76.69
359.122	71.69
359.349	69.69
359.576	66.69
359.802	90.69
360.029	77.69
360.256	77.69
360.483	74.69
360.709	96.69
360.936	88.69
361.163	76.69
361.39	70.69
361.616	62.69
361.843	77.69
362.07	94.69
362.296	76.69
362.523	82.69
362.749	91.69
362.976	75.69
363.203	80.69
363.429	79.69
363.656	82.69
363.882	96.69
364.109	80.69
364.335	89.69
364.562	86.69
364.788	80.69
365.015	87.69
365.241	80.69
365.468	83.69
365.694	78.69
365.92	89.69
366.147	89.69
366.373	90.69
366.599	89.69
366.826	91.69
367.052	81.69
367.278	92.69
367.505	91.69
367.731	73.69
367.957	83.69
368.184	80.69
368.41	104.69
368.636	96.69
368.862	79.69
369.089	91.69
369.315	80.69
369.541	97.69
369.767	82.69
369.993	87.69
370.219	70.69
370.445	68.69
370.672	84.69
370.898	83.69
371.124	86.69
371.35	82.69
371.576	81.69
371.802	77.69
372.028	77.69
372.254	85.69
372.48	73.69
372.706	76.69
372.932	98.69
373.158	73.69
373.384	87.69
373.61	87.69
373.835	91.69
374.061	84.69
374.287	96.69
374.513	93.69
374.739	80.69
374.965	79.69
375.191	87.69
375.416	75.69
375.642	98.69
375.868	86.69
376.094	80.69
376.319	92.69
376.545	101.69
376.771	93.69
376.997	97.69
377.222	96.69
377.448	84.69
377.674	85.69
377.899	78.69
378.125	80.69
378.35	82.69
378.576	85.69
378.802	67.69
379.027	90.69
379.253	78.69
379.478	70.69
379.704	89.69
379.929	90.69
380.155	85.69
380.38	80.69
380.606	83.69
380.831	91.69
381.057	99.69
381.282	85.69
381.507	80.69
381.733	89.69
381.958	84.69
382.184	102.69
382.409	86.69
382.634	84.69
382.86	80.69
383.085	87.69
383.31	82.69
383.535	81.69
383.761	85.69
383.986	88.69
384.211	84.69
384.436	90.69
384.662	97.69
384.887	80.69
385.112	76.69
385.337	90.69
385.562	82.69
385.787	91.69
386.013	69.69
386.238	88.69
386.463	80.69
386.688	105.69
386.913	84.69
387.138	96.69
387.363	82.69
387.588	83.69
387.813	82.69
388.038	78.69
388.263	84.69
388.488	88.69
388.713	92.69
388.938	81.69
389.163	100.69
389.387	77.69
389.612	84.69
389.837	82.69
390.062	82.69
390.287	102.69
390.512	102.69
390.736	81.69
390.961	89.69
391.186	91.69
391.411	81.69
391.636	76.69
391.86	84.69
392.085	80.69
392.31	73.69
392.534	79.69
392.759	78.69
392.984	90.69
393.208	89.69
393.433	102.69
393.658	84.69
393.882	76.69
394.107	82.69
394.331	97.69
394.556	92.69
394.78	90.69
395.005	86.69
395.229	81.69
395.454	91.69
395.678	88.69
395.903	90.69
396.127	84.69
396.352	88.69
396.576	93.69
396.801	74.69
397.025	85.69
397.249	81.69
397.474	84.69
397.698	70.69
397.922	76.69
398.147	98.69
398.371	78.69
398.595	90.69
398.82	87.69
399.044	76.69
399.268	91.69
399.492	102.69
399.717	92.69
399.941	97.69
400.165	110.69
400.389	87.69
400.613	95.69
400.837	98.69
401.062	95.69
401.286	92.69
401.51	83.69
401.734	62.69
401.958	86.69
402.182	82.69
402.406	77.69
402.63	89.69
402.854	92.69
403.078	78.69
403.302	84.69
403.526	83.69
403.75	92.69
403.974	86.69
404.198	96.69
404.422	100.69
404.645	73.69
404.869	72.69
405.093	91.69
405.317	78.69
405.541	79.69
405.765	74.69
405.988	90.69
406.212	97.69
406.436	76.69
406.66	88.69
406.883	89.69
407.107	87.69
407.331	80.69
407.555	93.69
407.778	90.69
408.002	86.69
408.226	92.69
408.449	100.69
408.673	88.69
408.896	79.69
409.12	82.69
409.344	88.69
409.567	80.69
409.791	80.69
410.014	98.69
410.238	85.69
410.461	79.69
410.685	81.69
410.908	81.69
411.132	88.69
411.355	96.69
411.578	86.69
411.802	85.69
412.025	76.69
412.249	88.69
412.472	97.69
412.695	71.69
412.919	85.69
413.142	83.69
413.365	93.69
413.589	72.69
413.812	76.69
414.035	91.69
414.258	68.69
414.482	75.69
414.705	87.69
414.928	85.69
415.151	88.69
415.374	83.69
415.597	81.69
415.821	78.69
416.044	84.69
416.267	86.69
416.49	81.69
416.713	73.69
416.936	92.69
417.159	84.69
417.382	93.69
417.605	85.69
417.828	98.69
418.051	90.69
418.274	81.69
418.497	92.69
418.72	92.69
418.943	92.69
419.166	86.69
419.389	96.69
419.611	82.69
419.834	82.69
420.057	91.69
420.28	74.69
420.503	78.69
420.726	81.69
420.948	89.69
421.171	80.69
421.394	96.69
421.617	100.69
421.839	83.69
422.062	86.69
422.285	84.69
422.507	87.69
422.73	93.69
422.953	94.69
423.175	87.69
423.398	76.69
423.621	83.69
423.843	91.69
424.066	74.69
424.288	85.69
424.511	82.69
424.733	74.69
424.956	83.69
425.178	66.69
425.401	77.69
425.623	96.69
425.846	69.69
426.068	80.69
426.291	96.69
426.513	78.69
426.735	80.69
426.958	76.69
427.18	76.69
427.402	74.69
427.625	78.69
427.847	82.69
428.069	91.69
428.292	77.69
428.514	80.69
428.736	88.69
428.958	91.69
429.181	97.69
429.403	82.69
429.625	86.69
429.847	85.69
430.069	86.69
430.292	86.69
430.514	99.69
430.736	78.69
430.958	96.69
431.18	80.69
431.402	64.69
431.624	79.69
431.846	72.69
432.068	87.69
432.29	91.69
432.512	84.69
432.734	78.69
432.956	78.69
433.178	74.69
433.4	83.69
433.622	99.69
433.844	81.69
434.066	92.69
434.287	78.69
434.509	79.69
434.731	83.69
434.953	83.69
435.175	81.69
435.397	92.69
435.618	80.69
435.84	78.69
436.062	79.69
436.284	76.69
436.505	91.69
436.727	78.69
436.949	88.69
437.17	72.69
437.392	79.69
437.614	78.69
437.835	80.69
438.057	84.69
438.278	102.69
438.5	82.69
438.721	83.69
438.943	91.69
439.165	84.69
439.386	96.69
439.608	91.69
439.829	88.69
440.05	85.69
440.272	100.69
440.493	98.69
440.715	86.69
440.936	90.69
441.158	98.69
441.379	80.69
441.6	80.69
441.822	78.69
442.043	70.69
442.264	70.69
442.486	72.69
442.707	92.69
442.928	77.69
443.149	83.69
443.371	81.69
443.592	90.69
443.813	89.69
444.034	91.69
444.255	83.69
444.476	91.69
444.698	78.69
444.919	90.69
445.14	182.69
445.361	118.69
445.582	91.69
445.803	81.69
446.024	91.69
446.245	84.69
446.466	93.69
446.687	93.69
446.908	86.69
447.129	93.69
447.35	76.69
447.571	92.69
447.792	94.69
448.013	91.69
448.234	89.69
448.455	89.69
448.675	94.69
448.896	80.69
449.117	84.69
449.338	90.69
449.559	81.69
449.779	93.69
450	80.69
450.221	75.69
450.442	79.69
450.662	80.69
450.883	73.69
451.104	80.69
451.324	81.69
451.545	86.69
451.766	83.69
451.986	80.69
452.207	100.69
452.428	87.69
452.648	89.69
452.869	77.69
453.089	84.69
453.31	90.69
453.53	82.69
453.751	75.69
453.971	75.69
454.192	82.69
454.412	78.69
454.633	71.69
454.853	89.69
455.073	78.69
455.294	84.69
455.514	80.69
455.734	76.69
455.955	78.69
456.175	84.69
456.395	83.69
456.616	91.69
456.836	80.69
457.056	88.69
457.276	84.69
457.497	85.69
457.717	92.69
457.937	78.69
458.157	88.69
458.377	90.69
458.598	90.69
458.818	81.69
459.038	77.69
459.258	83.69
459.478	86.69
459.698	84.69
459.918	92.69
460.138	83.69
460.358	101.69
460.578	88.69
460.798	82.69
461.018	88.69
461.238	85.69
461.458	83.69
461.678	97.69
461.898	66.69
462.118	74.69
462.338	82.69
462.558	96.69
462.777	82.69
462.997	85.69
463.217	101.69
463.437	90.69
463.657	85.69
463.876	82.69
464.096	80.69
464.316	87.69
464.536	85.69
464.755	88.69
464.975	104.69
465.195	85.69
465.414	86.69
465.634	80.69
465.854	84.69
466.073	87.69
466.293	84.69
466.512	89.69
466.732	81.69
466.951	69.69
467.171	76.69
467.391	82.69
467.61	88.69
467.829	86.69
468.049	98.69
468.268	97.69
468.488	94.69
468.707	84.69
468.927	80.69
469.146	86.69
469.365	81.69
469.585	94.69
469.804	83.69
470.023	100.69
470.243	90.69
470.462	91.69
470.681	83.69
470.901	83.69
471.12	93.69
471.339	87.69
471.558	95.69
471.777	80.69
471.997	88.69
472.216	93.69
472.435	70.69
472.654	86.69
472.873	90.69
473.092	91.69
473.311	97.69
473.53	87.69
473.749	78.69
473.968	90.69
474.187	89.69
474.406	84.69
474.625	80.69
474.844	93.69
475.063	94.69
475.282	71.69
475.501	74.69
475.72	85.69
475.939	98.69
476.158	98.69
476.377	75.69
476.596	77.69
476.814	91.69
477.033	76.69
477.252	91.69
477.471	80.69
477.69	93.69
477.908	81.69
478.127	81.69
478.346	101.69
478.564	97.69
478.783	80.69
479.002	74.69
479.22	97.69
479.439	97.69
479.658	89.69
479.876	85.69
480.095	87.69
480.313	89.69
480.532	68.69
480.751	72.69
480.969	92.69
481.188	89.69
481.406	91.69
481.624	73.69
481.843	80.69
482.061	84.69
482.28	85.69
482.498	77.69
482.717	96.69
482.935	78.69
483.153	91.69
483.372	75.69
483.59	85.69
483.808	76.69
484.027	86.69
484.245	94.69
484.463	78.69
484.681	84.69
484.9	88.69
485.118	88.69
485.336	92.69
485.554	83.69
485.772	92.69
485.99	87.69
486.209	86.69
486.427	104.69
486.645	90.69
486.863	74.69
487.081	75.69
487.299	76.69
487.517	89.69
487.735	90.69
487.953	82.69
488.171	86.69
488.389	83.69
488.607	70.69
488.825	90.69
489.043	88.69
489.261	85.69
489.479	96.69
489.696	90.69
489.914	98.69
490.132	92.69
490.35	85.69
490.568	88.69
490.786	90.69
491.003	73.69
491.221	80.69
491.439	77.69
491.657	86.69
491.874	86.69
492.092	97.69
492.31	71.69
492.527	87.69
492.745	91.69
492.963	90.69
493.18	95.69
493.398	90.69
493.615	86.69
493.833	74.69
494.05	97.69
494.268	76.69
494.485	96.69
494.703	74.69
494.92	75.69
495.138	100.69
495.355	76.69
495.573	85.69
495.79	83.69
496.008	88.69
496.225	88.69
496.442	83.69
496.66	93.69
496.877	87.69
497.094	91.69
497.312	106.69
497.529	89.69
497.746	102.69
497.963	91.69
498.181	89.69
498.398	92.69
498.615	95.69
498.832	100.69
499.049	93.69
499.267	96.69
499.484	100.69
499.701	115.69
499.918	108.69
500.135	92.69
500.352	111.69
500.569	103.69
500.786	113.69
501.003	101.69
501.22	106.69
501.437	91.69
501.654	77.69
501.871	90.69
502.088	88.69
502.305	103.69
502.522	81.69
502.739	94.69
502.956	81.69
503.172	83.69
503.389	80.69
503.606	85.69
503.823	87.69
504.04	91.69
504.256	85.69
504.473	96.69
504.69	78.69
504.907	98.69
505.123	91.69
505.34	85.69
505.557	75.69
505.773	82.69
505.99	104.69
506.207	80.69
506.423	85.69
506.64	95.69
506.856	77.69
507.073	77.69
507.289	92.69
507.506	84.69
507.722	90.69
507.939	83.69
508.155	98.69
508.372	77.69
508.588	100.69
508.805	78.69
509.021	86.69
509.238	105.69
509.454	91.69
509.67	93.69
509.887	81.69
510.103	74.69
510.319	90.69
510.536	73.69
510.752	84.69
510.968	83.69
511.184	78.69
511.401	88.69
511.617	96.69
511.833	90.69
512.049	89.69
512.265	88.69
512.481	77.69
512.698	84.69
512.914	82.69
513.13	73.69
513.346	66.69
513.562	79.69
513.778	90.69
513.994	81.69
514.21	90.69
514.426	95.69
514.642	90.69
514.858	104.69
515.074	96.69
515.29	83.69
515.506	88.69
515.721	102.69
515.937	89.69
516.153	70.69
516.369	91.69
516.585	99.69
516.801	102.69
517.016	92.69
517.232	81.69
517.448	87.69
517.664	92.69
517.879	94.69
518.095	90.69
518.311	76.69
518.527	89.69
518.742	77.69
518.958	96.69
519.173	96.69
519.389	89.69
519.605	90.69
