Data from BG_HRD10591_068.txt Node
Date: Fri May 16 15:21:27 EDT 2025
User: Yrep
Spectrometer: HR+D1059
Trigger mode: 1
Integration Time (sec): 1.000000E-1
Scans to average: 1
Electric dark correction enabled: true
Nonlinearity correction enabled: false
Boxcar width: 0
XAxis mode: Wavelengths
Number of Pixels in Spectrum: 2048
>>>>>Begin Spectral Data<<<<<
223.165	-24.25
223.4	-24.25
223.635	-24.25
223.869	-13.25
224.104	-27.25
224.338	-24.25
224.573	-17.25
224.808	-7.25
225.042	16.75
225.277	-23.25
225.511	-6.25
225.746	8.75
225.98	11.75
226.215	12.75
226.449	13.75
226.683	12.75
226.918	29.75
227.152	36.75
227.387	42.75
227.621	51.75
227.856	49.75
228.09	55.75
228.324	49.75
228.559	60.75
228.793	54.75
229.027	54.75
229.262	63.75
229.496	60.75
229.73	59.75
229.964	73.75
230.199	69.75
230.433	81.75
230.667	71.75
230.901	78.75
231.136	64.75
231.37	88.75
231.604	93.75
231.838	82.75
232.072	77.75
232.306	84.75
232.541	90.75
232.775	74.75
233.009	100.75
233.243	82.75
233.477	82.75
233.711	78.75
233.945	87.75
234.179	94.75
234.413	82.75
234.647	74.75
234.881	79.75
235.115	89.75
235.349	63.75
235.583	90.75
235.817	84.75
236.051	84.75
236.285	89.75
236.519	91.75
236.753	71.75
236.987	83.75
237.221	82.75
237.455	87.75
237.689	69.75
237.922	92.75
238.156	71.75
238.39	78.75
238.624	69.75
238.858	78.75
239.091	69.75
239.325	88.75
239.559	80.75
239.793	70.75
240.027	85.75
240.26	87.75
240.494	87.75
240.728	78.75
240.961	76.75
241.195	86.75
241.429	88.75
241.662	74.75
241.896	80.75
242.13	82.75
242.363	76.75
242.597	90.75
242.83	72.75
243.064	74.75
243.298	77.75
243.531	67.75
243.765	91.75
243.998	82.75
244.232	90.75
244.465	87.75
244.699	83.75
244.932	78.75
245.166	86.75
245.399	76.75
245.633	84.75
245.866	81.75
246.099	81.75
246.333	86.75
246.566	80.75
246.8	84.75
247.033	89.75
247.266	89.75
247.5	69.75
247.733	86.75
247.966	79.75
248.2	66.75
248.433	81.75
248.666	77.75
248.899	83.75
249.133	74.75
249.366	84.75
249.599	63.75
249.832	86.75
250.066	98.75
250.299	64.75
250.532	85.75
250.765	83.75
250.998	66.75
251.231	95.75
251.465	73.75
251.698	86.75
251.931	71.75
252.164	83.75
252.397	92.75
252.63	82.75
252.863	94.75
253.096	91.75
253.329	74.75
253.562	74.75
253.795	78.75
254.028	86.75
254.261	83.75
254.494	73.75
254.727	94.75
254.96	74.75
255.193	66.75
255.426	79.75
255.659	80.75
255.892	87.75
256.124	86.75
256.357	94.75
256.59	75.75
256.823	77.75
257.056	86.75
257.289	80.75
257.521	91.75
257.754	80.75
257.987	76.75
258.22	80.75
258.452	94.75
258.685	95.75
258.918	80.75
259.151	87.75
259.383	85.75
259.616	85.75
259.849	78.75
260.081	80.75
260.314	89.75
260.547	70.75
260.779	75.75
261.012	75.75
261.244	87.75
261.477	92.75
261.71	80.75
261.942	67.75
262.175	78.75
262.407	93.75
262.64	81.75
262.872	76.75
263.105	90.75
263.337	98.75
263.57	94.75
263.802	87.75
264.035	84.75
264.267	80.75
264.499	103.75
264.732	71.75
264.964	90.75
265.197	82.75
265.429	79.75
265.661	65.75
265.894	79.75
266.126	90.75
266.358	78.75
266.591	96.75
266.823	89.75
267.055	96.75
267.287	78.75
267.52	79.75
267.752	84.75
267.984	88.75
268.216	74.75
268.448	84.75
268.681	97.75
268.913	88.75
269.145	63.75
269.377	78.75
269.609	74.75
269.841	88.75
270.073	92.75
270.306	84.75
270.538	76.75
270.77	84.75
271.002	74.75
271.234	72.75
271.466	90.75
271.698	89.75
271.93	78.75
272.162	81.75
272.394	72.75
272.626	85.75
272.858	90.75
273.09	82.75
273.322	67.75
273.553	86.75
273.785	90.75
274.017	106.75
274.249	82.75
274.481	91.75
274.713	97.75
274.945	89.75
275.176	73.75
275.408	99.75
275.64	83.75
275.872	87.75
276.104	88.75
276.335	91.75
276.567	92.75
276.799	94.75
277.031	86.75
277.262	98.75
277.494	84.75
277.726	87.75
277.957	85.75
278.189	97.75
278.421	89.75
278.652	95.75
278.884	94.75
279.115	89.75
279.347	99.75
279.579	92.75
279.81	95.75
280.042	76.75
280.273	78.75
280.505	70.75
280.736	82.75
280.968	89.75
281.199	92.75
281.431	82.75
281.662	78.75
281.894	97.75
282.125	69.75
282.356	85.75
282.588	75.75
282.819	84.75
283.051	99.75
283.282	96.75
283.513	94.75
283.745	91.75
283.976	93.75
284.207	80.75
284.439	72.75
284.67	92.75
284.901	88.75
285.132	107.75
285.364	84.75
285.595	84.75
285.826	82.75
286.057	91.75
286.288	99.75
286.52	77.75
286.751	93.75
286.982	83.75
287.213	83.75
287.444	88.75
287.675	86.75
287.906	76.75
288.138	92.75
288.369	97.75
288.6	91.75
288.831	75.75
289.062	82.75
289.293	85.75
289.524	91.75
289.755	92.75
289.986	83.75
290.217	90.75
290.448	88.75
290.679	82.75
290.91	92.75
291.141	85.75
291.371	83.75
291.602	90.75
291.833	71.75
292.064	96.75
292.295	91.75
292.526	96.75
292.757	87.75
292.987	79.75
293.218	89.75
293.449	79.75
293.68	73.75
293.91	77.75
294.141	83.75
294.372	76.75
294.603	83.75
294.833	97.75
295.064	91.75
295.295	89.75
295.525	95.75
295.756	86.75
295.987	92.75
296.217	74.75
296.448	88.75
296.679	91.75
296.909	87.75
297.14	103.75
297.37	83.75
297.601	92.75
297.831	80.75
298.062	75.75
298.292	90.75
298.523	91.75
298.753	86.75
298.984	93.75
299.214	102.75
299.445	95.75
299.675	80.75
299.905	80.75
300.136	95.75
300.366	82.75
300.597	77.75
300.827	103.75
301.057	83.75
301.288	70.75
301.518	78.75
301.748	82.75
301.979	111.75
302.209	81.75
302.439	90.75
302.669	83.75
302.9	85.75
303.13	88.75
303.36	84.75
303.59	81.75
303.82	89.75
304.051	84.75
304.281	102.75
304.511	88.75
304.741	92.75
304.971	92.75
305.201	93.75
305.431	88.75
305.661	77.75
305.891	85.75
306.121	90.75
306.352	100.75
306.582	81.75
306.812	85.75
307.042	95.75
307.272	96.75
307.502	102.75
307.731	97.75
307.961	84.75
308.191	90.75
308.421	87.75
308.651	87.75
308.881	94.75
309.111	81.75
309.341	86.75
309.571	80.75
309.8	78.75
310.03	83.75
310.26	89.75
310.49	89.75
310.72	98.75
310.949	92.75
311.179	100.75
311.409	82.75
311.639	80.75
311.868	89.75
312.098	86.75
312.328	76.75
312.557	86.75
312.787	83.75
313.017	84.75
313.246	85.75
313.476	88.75
313.706	85.75
313.935	84.75
314.165	94.75
314.394	81.75
314.624	84.75
314.853	76.75
315.083	80.75
315.312	98.75
315.542	86.75
315.771	95.75
316.001	97.75
316.23	79.75
316.46	76.75
316.689	90.75
316.919	80.75
317.148	73.75
317.377	95.75
317.607	88.75
317.836	105.75
318.065	94.75
318.295	79.75
318.524	98.75
318.753	102.75
318.983	94.75
319.212	93.75
319.441	79.75
319.67	97.75
319.9	86.75
320.129	86.75
320.358	77.75
320.587	73.75
320.816	91.75
321.046	84.75
321.275	103.75
321.504	99.75
321.733	90.75
321.962	100.75
322.191	82.75
322.42	86.75
322.649	94.75
322.878	75.75
323.108	105.75
323.337	102.75
323.566	88.75
323.795	66.75
324.024	91.75
324.253	83.75
324.482	91.75
324.71	77.75
324.939	86.75
325.168	89.75
325.397	95.75
325.626	93.75
325.855	94.75
326.084	78.75
326.313	93.75
326.542	86.75
326.77	90.75
326.999	81.75
327.228	98.75
327.457	88.75
327.686	102.75
327.914	108.75
328.143	92.75
328.372	94.75
328.6	89.75
328.829	90.75
329.058	98.75
329.287	86.75
329.515	102.75
329.744	95.75
329.972	90.75
330.201	102.75
330.43	76.75
330.658	99.75
330.887	79.75
331.115	99.75
331.344	82.75
331.572	96.75
331.801	91.75
332.03	89.75
332.258	89.75
332.486	98.75
332.715	76.75
332.943	95.75
333.172	86.75
333.4	84.75
333.629	96.75
333.857	94.75
334.085	95.75
334.314	98.75
334.542	106.75
334.771	92.75
334.999	80.75
335.227	69.75
335.455	83.75
335.684	78.75
335.912	91.75
336.14	91.75
336.369	90.75
336.597	88.75
336.825	88.75
337.053	89.75
337.281	89.75
337.51	76.75
337.738	83.75
337.966	98.75
338.194	95.75
338.422	83.75
338.65	86.75
338.878	95.75
339.106	88.75
339.334	83.75
339.562	94.75
339.79	92.75
340.018	92.75
340.246	81.75
340.474	86.75
340.702	78.75
340.93	87.75
341.158	91.75
341.386	95.75
341.614	74.75
341.842	85.75
342.07	86.75
342.298	86.75
342.526	80.75
342.754	107.75
342.981	90.75
343.209	99.75
343.437	104.75
343.665	84.75
343.893	95.75
344.12	83.75
344.348	112.75
344.576	96.75
344.804	79.75
345.031	86.75
345.259	97.75
345.487	89.75
345.714	91.75
345.942	95.75
346.17	85.75
346.397	74.75
346.625	64.75
346.853	110.75
347.08	100.75
347.308	91.75
347.535	83.75
347.763	87.75
347.99	98.75
348.218	93.75
348.445	91.75
348.673	89.75
348.9	96.75
349.128	88.75
349.355	83.75
349.583	82.75
349.81	85.75
350.037	95.75
350.265	100.75
350.492	98.75
350.72	74.75
350.947	89.75
351.174	91.75
351.402	95.75
351.629	78.75
351.856	88.75
352.083	83.75
352.311	87.75
352.538	88.75
352.765	68.75
352.992	89.75
353.22	92.75
353.447	84.75
353.674	90.75
353.901	93.75
354.128	83.75
354.355	86.75
354.583	87.75
354.81	86.75
355.037	80.75
355.264	90.75
355.491	83.75
355.718	91.75
355.945	90.75
356.172	108.75
356.399	84.75
356.626	109.75
356.853	75.75
357.08	82.75
357.307	86.75
357.534	98.75
357.761	83.75
357.988	100.75
358.215	79.75
358.441	75.75
358.668	100.75
358.895	105.75
359.122	84.75
359.349	81.75
359.576	79.75
359.802	82.75
360.029	86.75
360.256	80.75
360.483	93.75
360.709	79.75
360.936	80.75
361.163	82.75
361.39	89.75
361.616	83.75
361.843	83.75
362.07	88.75
362.296	80.75
362.523	86.75
362.749	86.75
362.976	86.75
363.203	78.75
363.429	94.75
363.656	92.75
363.882	91.75
364.109	81.75
364.335	80.75
364.562	77.75
364.788	74.75
365.015	88.75
365.241	85.75
365.468	80.75
365.694	77.75
365.92	82.75
366.147	75.75
366.373	74.75
366.599	80.75
366.826	78.75
367.052	79.75
367.278	70.75
367.505	84.75
367.731	91.75
367.957	84.75
368.184	91.75
368.41	96.75
368.636	82.75
368.862	88.75
369.089	81.75
369.315	75.75
369.541	87.75
369.767	79.75
369.993	89.75
370.219	78.75
370.445	92.75
370.672	73.75
370.898	90.75
371.124	91.75
371.35	75.75
371.576	80.75
371.802	81.75
372.028	98.75
372.254	84.75
372.48	77.75
372.706	86.75
372.932	82.75
373.158	91.75
373.384	99.75
373.61	87.75
373.835	92.75
374.061	90.75
374.287	90.75
374.513	85.75
374.739	82.75
374.965	92.75
375.191	88.75
375.416	91.75
375.642	94.75
375.868	84.75
376.094	94.75
376.319	91.75
376.545	95.75
376.771	89.75
376.997	80.75
377.222	90.75
377.448	93.75
377.674	72.75
377.899	95.75
378.125	84.75
378.35	91.75
378.576	95.75
378.802	85.75
379.027	80.75
379.253	99.75
379.478	99.75
379.704	87.75
379.929	69.75
380.155	86.75
380.38	88.75
380.606	93.75
380.831	83.75
381.057	84.75
381.282	81.75
381.507	78.75
381.733	93.75
381.958	88.75
382.184	83.75
382.409	83.75
382.634	90.75
382.86	79.75
383.085	80.75
383.31	92.75
383.535	76.75
383.761	82.75
383.986	75.75
384.211	92.75
384.436	87.75
384.662	107.75
384.887	84.75
385.112	91.75
385.337	102.75
385.562	91.75
385.787	85.75
386.013	97.75
386.238	87.75
386.463	80.75
386.688	106.75
386.913	111.75
387.138	81.75
387.363	90.75
387.588	92.75
387.813	83.75
388.038	93.75
388.263	84.75
388.488	86.75
388.713	92.75
388.938	88.75
389.163	95.75
389.387	90.75
389.612	83.75
389.837	89.75
390.062	81.75
390.287	70.75
390.512	80.75
390.736	84.75
390.961	86.75
391.186	102.75
391.411	84.75
391.636	99.75
391.86	82.75
392.085	102.75
392.31	78.75
392.534	80.75
392.759	101.75
392.984	78.75
393.208	81.75
393.433	102.75
393.658	87.75
393.882	98.75
394.107	94.75
394.331	82.75
394.556	79.75
394.78	87.75
395.005	97.75
395.229	86.75
395.454	95.75
395.678	75.75
395.903	89.75
396.127	93.75
396.352	84.75
396.576	82.75
396.801	77.75
397.025	74.75
397.249	87.75
397.474	89.75
397.698	92.75
397.922	95.75
398.147	97.75
398.371	78.75
398.595	97.75
398.82	88.75
399.044	93.75
399.268	92.75
399.492	98.75
399.717	99.75
399.941	97.75
400.165	110.75
400.389	88.75
400.613	88.75
400.837	86.75
401.062	92.75
401.286	85.75
401.51	86.75
401.734	84.75
401.958	85.75
402.182	82.75
402.406	92.75
402.63	63.75
402.854	88.75
403.078	77.75
403.302	82.75
403.526	82.75
403.75	90.75
403.974	109.75
404.198	98.75
404.422	89.75
404.645	108.75
404.869	96.75
405.093	78.75
405.317	68.75
405.541	90.75
405.765	93.75
405.988	95.75
406.212	85.75
406.436	88.75
406.66	83.75
406.883	102.75
407.107	98.75
407.331	84.75
407.555	98.75
407.778	103.75
408.002	106.75
408.226	93.75
408.449	93.75
408.673	88.75
408.896	96.75
409.12	79.75
409.344	84.75
409.567	89.75
409.791	108.75
410.014	103.75
410.238	82.75
410.461	86.75
410.685	87.75
410.908	92.75
411.132	78.75
411.355	98.75
411.578	88.75
411.802	84.75
412.025	97.75
412.249	88.75
412.472	89.75
412.695	86.75
412.919	88.75
413.142	93.75
413.365	81.75
413.589	88.75
413.812	79.75
414.035	75.75
414.258	102.75
414.482	91.75
414.705	74.75
414.928	86.75
415.151	87.75
415.374	90.75
415.597	98.75
415.821	78.75
416.044	78.75
416.267	83.75
416.49	88.75
416.713	96.75
416.936	86.75
417.159	96.75
417.382	82.75
417.605	86.75
417.828	83.75
418.051	87.75
418.274	102.75
418.497	92.75
418.72	92.75
418.943	88.75
419.166	100.75
419.389	83.75
419.611	94.75
419.834	90.75
420.057	90.75
420.28	90.75
420.503	105.75
420.726	93.75
420.948	95.75
421.171	99.75
421.394	80.75
421.617	91.75
421.839	91.75
422.062	90.75
422.285	96.75
422.507	102.75
422.73	95.75
422.953	81.75
423.175	84.75
423.398	88.75
423.621	80.75
423.843	80.75
424.066	82.75
424.288	91.75
424.511	85.75
424.733	93.75
424.956	90.75
425.178	87.75
425.401	97.75
425.623	76.75
425.846	86.75
426.068	90.75
426.291	81.75
426.513	98.75
426.735	103.75
426.958	92.75
427.18	81.75
427.402	92.75
427.625	83.75
427.847	79.75
428.069	82.75
428.292	87.75
428.514	91.75
428.736	89.75
428.958	90.75
429.181	86.75
429.403	89.75
429.625	95.75
429.847	89.75
430.069	73.75
430.292	77.75
430.514	77.75
430.736	88.75
430.958	95.75
431.18	95.75
431.402	87.75
431.624	95.75
431.846	94.75
432.068	92.75
432.29	81.75
432.512	93.75
432.734	101.75
432.956	75.75
433.178	94.75
433.4	80.75
433.622	83.75
433.844	95.75
434.066	81.75
434.287	86.75
434.509	91.75
434.731	84.75
434.953	93.75
435.175	89.75
435.397	98.75
435.618	76.75
435.84	95.75
436.062	79.75
436.284	96.75
436.505	91.75
436.727	93.75
436.949	83.75
437.17	71.75
437.392	79.75
437.614	94.75
437.835	95.75
438.057	86.75
438.278	99.75
438.5	91.75
438.721	77.75
438.943	81.75
439.165	85.75
439.386	90.75
439.608	96.75
439.829	85.75
440.05	83.75
440.272	85.75
440.493	93.75
440.715	87.75
440.936	81.75
441.158	93.75
441.379	90.75
441.6	82.75
441.822	92.75
442.043	101.75
442.264	98.75
442.486	94.75
442.707	76.75
442.928	73.75
443.149	80.75
443.371	75.75
443.592	88.75
443.813	90.75
444.034	76.75
444.255	82.75
444.476	97.75
444.698	76.75
444.919	90.75
445.14	153.75
445.361	106.75
445.582	99.75
445.803	88.75
446.024	98.75
446.245	94.75
446.466	82.75
446.687	77.75
446.908	83.75
447.129	104.75
447.35	97.75
447.571	84.75
447.792	76.75
448.013	118.75
448.234	91.75
448.455	89.75
448.675	84.75
448.896	95.75
449.117	92.75
449.338	75.75
449.559	68.75
449.779	86.75
450	105.75
450.221	97.75
450.442	100.75
450.662	92.75
450.883	87.75
451.104	85.75
451.324	95.75
451.545	87.75
451.766	98.75
451.986	84.75
452.207	82.75
452.428	84.75
452.648	83.75
452.869	72.75
453.089	84.75
453.31	73.75
453.53	91.75
453.751	92.75
453.971	83.75
454.192	100.75
454.412	82.75
454.633	94.75
454.853	89.75
455.073	79.75
455.294	83.75
455.514	93.75
455.734	89.75
455.955	93.75
456.175	75.75
456.395	88.75
456.616	77.75
456.836	91.75
457.056	105.75
457.276	73.75
457.497	98.75
457.717	80.75
457.937	92.75
458.157	92.75
458.377	71.75
458.598	94.75
458.818	93.75
459.038	93.75
459.258	86.75
459.478	86.75
459.698	90.75
459.918	90.75
460.138	77.75
460.358	87.75
460.578	88.75
460.798	94.75
461.018	94.75
461.238	95.75
461.458	99.75
461.678	89.75
461.898	107.75
462.118	83.75
462.338	106.75
462.558	99.75
462.777	88.75
462.997	99.75
463.217	82.75
463.437	95.75
463.657	77.75
463.876	96.75
464.096	81.75
464.316	84.75
464.536	91.75
464.755	85.75
464.975	101.75
465.195	90.75
465.414	93.75
465.634	89.75
465.854	91.75
466.073	71.75
466.293	90.75
466.512	80.75
466.732	95.75
466.951	85.75
467.171	74.75
467.391	73.75
467.61	78.75
467.829	102.75
468.049	88.75
468.268	96.75
468.488	87.75
468.707	86.75
468.927	95.75
469.146	83.75
469.365	107.75
469.585	83.75
469.804	105.75
470.023	99.75
470.243	103.75
470.462	102.75
470.681	86.75
470.901	90.75
471.12	74.75
471.339	87.75
471.558	80.75
471.777	84.75
471.997	86.75
472.216	97.75
472.435	98.75
472.654	84.75
472.873	79.75
473.092	95.75
473.311	81.75
473.53	75.75
473.749	82.75
473.968	88.75
474.187	93.75
474.406	96.75
474.625	87.75
474.844	82.75
475.063	82.75
475.282	87.75
475.501	87.75
475.72	93.75
475.939	90.75
476.158	84.75
476.377	96.75
476.596	90.75
476.814	108.75
477.033	104.75
477.252	83.75
477.471	86.75
477.69	92.75
477.908	75.75
478.127	99.75
478.346	77.75
478.564	79.75
478.783	92.75
479.002	88.75
479.22	98.75
479.439	96.75
479.658	83.75
479.876	76.75
480.095	87.75
480.313	92.75
480.532	87.75
480.751	84.75
480.969	83.75
481.188	85.75
481.406	97.75
481.624	99.75
481.843	82.75
482.061	82.75
482.28	88.75
482.498	86.75
482.717	85.75
482.935	82.75
483.153	95.75
483.372	100.75
483.59	91.75
483.808	97.75
484.027	86.75
484.245	90.75
484.463	83.75
484.681	84.75
484.9	93.75
485.118	88.75
485.336	84.75
485.554	86.75
485.772	94.75
485.99	87.75
486.209	90.75
486.427	104.75
486.645	88.75
486.863	90.75
487.081	86.75
487.299	102.75
487.517	78.75
487.735	87.75
487.953	72.75
488.171	93.75
488.389	95.75
488.607	81.75
488.825	75.75
489.043	91.75
489.261	97.75
489.479	82.75
489.696	93.75
489.914	86.75
490.132	90.75
490.35	98.75
490.568	84.75
490.786	98.75
491.003	86.75
491.221	87.75
491.439	94.75
491.657	95.75
491.874	87.75
492.092	89.75
492.31	95.75
492.527	86.75
492.745	75.75
492.963	90.75
493.18	84.75
493.398	85.75
493.615	71.75
493.833	94.75
494.05	76.75
494.268	98.75
494.485	77.75
494.703	83.75
494.92	89.75
495.138	103.75
495.355	83.75
495.573	92.75
495.79	78.75
496.008	96.75
496.225	87.75
496.442	90.75
496.66	94.75
496.877	103.75
497.094	102.75
497.312	95.75
497.529	95.75
497.746	84.75
497.963	97.75
498.181	86.75
498.398	88.75
498.615	87.75
498.832	86.75
499.049	95.75
499.267	95.75
499.484	92.75
499.701	93.75
499.918	95.75
500.135	104.75
500.352	99.75
500.569	111.75
500.786	107.75
501.003	107.75
501.22	90.75
501.437	96.75
501.654	112.75
501.871	111.75
502.088	99.75
502.305	98.75
502.522	96.75
502.739	95.75
502.956	91.75
503.172	84.75
503.389	92.75
503.606	81.75
503.823	82.75
504.04	89.75
504.256	98.75
504.473	101.75
504.69	91.75
504.907	108.75
505.123	86.75
505.34	100.75
505.557	84.75
505.773	93.75
505.99	93.75
506.207	84.75
506.423	86.75
506.64	102.75
506.856	82.75
507.073	84.75
507.289	86.75
507.506	86.75
507.722	78.75
507.939	91.75
508.155	92.75
508.372	99.75
508.588	86.75
508.805	90.75
509.021	96.75
509.238	90.75
509.454	97.75
509.67	80.75
509.887	88.75
510.103	94.75
510.319	94.75
510.536	102.75
510.752	89.75
510.968	98.75
511.184	74.75
511.401	87.75
511.617	86.75
511.833	82.75
512.049	94.75
512.265	89.75
512.481	90.75
512.698	101.75
512.914	94.75
513.13	92.75
513.346	90.75
513.562	90.75
513.778	88.75
513.994	102.75
514.21	97.75
514.426	95.75
514.642	95.75
514.858	97.75
515.074	88.75
515.29	104.75
515.506	96.75
515.721	88.75
515.937	80.75
516.153	81.75
516.369	85.75
516.585	86.75
516.801	86.75
517.016	95.75
517.232	90.75
517.448	99.75
517.664	83.75
517.879	82.75
518.095	96.75
518.311	85.75
518.527	83.75
518.742	94.75
518.958	85.75
