Data from BG_HRD10591_017.txt Node
Date: Fri May 16 15:21:02 EDT 2025
User: Yrep
Spectrometer: HR+D1059
Trigger mode: 1
Integration Time (sec): 1.000000E-1
Scans to average: 1
Electric dark correction enabled: true
Nonlinearity correction enabled: false
Boxcar width: 0
XAxis mode: Wavelengths
Number of Pixels in Spectrum: 2048
>>>>>Begin Spectral Data<<<<<
223.165	-17.31
223.4	-17.31
223.635	-17.31
223.869	-10.31
224.104	-23.31
224.338	-21.31
224.573	-18.31
224.808	-8.31
225.042	-2.31
225.277	-9.31
225.511	-11.31
225.746	3.69
225.98	1.69
226.215	15.69
226.449	21.69
226.683	29.69
226.918	14.69
227.152	34.69
227.387	46.69
227.621	29.69
227.856	48.69
228.09	45.69
228.324	46.69
228.559	47.69
228.793	64.69
229.027	54.69
229.262	60.69
229.496	48.69
229.73	66.69
229.964	66.69
230.199	63.69
230.433	79.69
230.667	51.69
230.901	78.69
231.136	91.69
231.37	77.69
231.604	77.69
231.838	81.69
232.072	58.69
232.306	77.69
232.541	63.69
232.775	73.69
233.009	77.69
233.243	77.69
233.477	86.69
233.711	69.69
233.945	79.69
234.179	80.69
234.413	71.69
234.647	74.69
234.881	81.69
235.115	78.69
235.349	75.69
235.583	70.69
235.817	62.69
236.051	74.69
236.285	50.69
236.519	82.69
236.753	66.69
236.987	80.69
237.221	68.69
237.455	74.69
237.689	77.69
237.922	79.69
238.156	57.69
238.39	60.69
238.624	82.69
238.858	69.69
239.091	81.69
239.325	77.69
239.559	88.69
239.793	79.69
240.027	64.69
240.26	55.69
240.494	68.69
240.728	62.69
240.961	67.69
241.195	74.69
241.429	80.69
241.662	79.69
241.896	68.69
242.13	64.69
242.363	71.69
242.597	62.69
242.83	77.69
243.064	62.69
243.298	78.69
243.531	85.69
243.765	72.69
243.998	74.69
244.232	70.69
244.465	70.69
244.699	73.69
244.932	61.69
245.166	70.69
245.399	59.69
245.633	79.69
245.866	69.69
246.099	76.69
246.333	80.69
246.566	75.69
246.8	73.69
247.033	67.69
247.266	58.69
247.5	67.69
247.733	75.69
247.966	67.69
248.2	72.69
248.433	71.69
248.666	85.69
248.899	65.69
249.133	66.69
249.366	65.69
249.599	66.69
249.832	82.69
250.066	81.69
250.299	74.69
250.532	79.69
250.765	75.69
250.998	64.69
251.231	81.69
251.465	86.69
251.698	94.69
251.931	72.69
252.164	78.69
252.397	73.69
252.63	75.69
252.863	82.69
253.096	69.69
253.329	82.69
253.562	75.69
253.795	72.69
254.028	84.69
254.261	93.69
254.494	70.69
254.727	71.69
254.96	87.69
255.193	70.69
255.426	90.69
255.659	81.69
255.892	98.69
256.124	67.69
256.357	84.69
256.59	76.69
256.823	70.69
257.056	77.69
257.289	85.69
257.521	75.69
257.754	71.69
257.987	55.69
258.22	81.69
258.452	78.69
258.685	74.69
258.918	68.69
259.151	72.69
259.383	85.69
259.616	71.69
259.849	74.69
260.081	77.69
260.314	72.69
260.547	80.69
260.779	81.69
261.012	71.69
261.244	75.69
261.477	74.69
261.71	83.69
261.942	82.69
262.175	79.69
262.407	84.69
262.64	87.69
262.872	75.69
263.105	68.69
263.337	79.69
263.57	83.69
263.802	74.69
264.035	85.69
264.267	83.69
264.499	55.69
264.732	87.69
264.964	81.69
265.197	66.69
265.429	86.69
265.661	71.69
265.894	74.69
266.126	90.69
266.358	88.69
266.591	75.69
266.823	64.69
267.055	82.69
267.287	87.69
267.52	82.69
267.752	81.69
267.984	77.69
268.216	69.69
268.448	77.69
268.681	72.69
268.913	83.69
269.145	75.69
269.377	74.69
269.609	73.69
269.841	78.69
270.073	71.69
270.306	83.69
270.538	72.69
270.77	76.69
271.002	70.69
271.234	94.69
271.466	85.69
271.698	91.69
271.93	84.69
272.162	91.69
272.394	75.69
272.626	77.69
272.858	91.69
273.09	88.69
273.322	70.69
273.553	66.69
273.785	69.69
274.017	56.69
274.249	83.69
274.481	86.69
274.713	81.69
274.945	82.69
275.176	80.69
275.408	85.69
275.64	88.69
275.872	87.69
276.104	76.69
276.335	77.69
276.567	82.69
276.799	73.69
277.031	93.69
277.262	85.69
277.494	86.69
277.726	77.69
277.957	85.69
278.189	83.69
278.421	81.69
278.652	83.69
278.884	91.69
279.115	68.69
279.347	89.69
279.579	76.69
279.81	86.69
280.042	80.69
280.273	76.69
280.505	91.69
280.736	89.69
280.968	89.69
281.199	81.69
281.431	85.69
281.662	91.69
281.894	85.69
282.125	78.69
282.356	91.69
282.588	71.69
282.819	70.69
283.051	83.69
283.282	85.69
283.513	98.69
283.745	85.69
283.976	86.69
284.207	89.69
284.439	75.69
284.67	69.69
284.901	71.69
285.132	81.69
285.364	88.69
285.595	89.69
285.826	91.69
286.057	76.69
286.288	82.69
286.52	87.69
286.751	71.69
286.982	81.69
287.213	93.69
287.444	80.69
287.675	95.69
287.906	85.69
288.138	92.69
288.369	83.69
288.6	82.69
288.831	70.69
289.062	90.69
289.293	84.69
289.524	69.69
289.755	83.69
289.986	68.69
290.217	86.69
290.448	81.69
290.679	83.69
290.91	80.69
291.141	77.69
291.371	81.69
291.602	89.69
291.833	90.69
292.064	97.69
292.295	83.69
292.526	69.69
292.757	80.69
292.987	97.69
293.218	87.69
293.449	101.69
293.68	92.69
293.91	89.69
294.141	78.69
294.372	81.69
294.603	82.69
294.833	70.69
295.064	91.69
295.295	94.69
295.525	75.69
295.756	72.69
295.987	89.69
296.217	85.69
296.448	75.69
296.679	79.69
296.909	90.69
297.14	85.69
297.37	96.69
297.601	83.69
297.831	80.69
298.062	77.69
298.292	72.69
298.523	72.69
298.753	76.69
298.984	86.69
299.214	83.69
299.445	58.69
299.675	91.69
299.905	72.69
300.136	89.69
300.366	79.69
300.597	76.69
300.827	89.69
301.057	74.69
301.288	78.69
301.518	78.69
301.748	78.69
301.979	93.69
302.209	82.69
302.439	94.69
302.669	85.69
302.9	81.69
303.13	78.69
303.36	90.69
303.59	83.69
303.82	86.69
304.051	81.69
304.281	88.69
304.511	82.69
304.741	79.69
304.971	86.69
305.201	80.69
305.431	84.69
305.661	88.69
305.891	66.69
306.121	80.69
306.352	90.69
306.582	87.69
306.812	77.69
307.042	82.69
307.272	77.69
307.502	85.69
307.731	74.69
307.961	97.69
308.191	77.69
308.421	85.69
308.651	81.69
308.881	59.69
309.111	72.69
309.341	96.69
309.571	73.69
309.8	82.69
310.03	93.69
310.26	78.69
310.49	85.69
310.72	93.69
310.949	86.69
311.179	93.69
311.409	82.69
311.639	88.69
311.868	75.69
312.098	86.69
312.328	81.69
312.557	83.69
312.787	94.69
313.017	85.69
313.246	80.69
313.476	78.69
313.706	72.69
313.935	74.69
314.165	79.69
314.394	81.69
314.624	72.69
314.853	66.69
315.083	90.69
315.312	90.69
315.542	84.69
315.771	76.69
316.001	85.69
316.23	92.69
316.46	86.69
316.689	85.69
316.919	75.69
317.148	82.69
317.377	91.69
317.607	83.69
317.836	71.69
318.065	85.69
318.295	84.69
318.524	89.69
318.753	92.69
318.983	85.69
319.212	72.69
319.441	88.69
319.67	72.69
319.9	99.69
320.129	84.69
320.358	78.69
320.587	87.69
320.816	90.69
321.046	82.69
321.275	85.69
321.504	94.69
321.733	84.69
321.962	72.69
322.191	81.69
322.42	105.69
322.649	81.69
322.878	91.69
323.108	84.69
323.337	83.69
323.566	82.69
323.795	82.69
324.024	86.69
324.253	82.69
324.482	85.69
324.71	92.69
324.939	92.69
325.168	93.69
325.397	87.69
325.626	90.69
325.855	98.69
326.084	85.69
326.313	82.69
326.542	89.69
326.77	96.69
326.999	82.69
327.228	73.69
327.457	81.69
327.686	77.69
327.914	97.69
328.143	94.69
328.372	90.69
328.6	87.69
328.829	83.69
329.058	75.69
329.287	88.69
329.515	86.69
329.744	87.69
329.972	79.69
330.201	92.69
330.43	71.69
330.658	81.69
330.887	83.69
331.115	82.69
331.344	88.69
331.572	81.69
331.801	87.69
332.03	87.69
332.258	93.69
332.486	100.69
332.715	89.69
332.943	88.69
333.172	89.69
333.4	74.69
333.629	94.69
333.857	78.69
334.085	94.69
334.314	89.69
334.542	85.69
334.771	79.69
334.999	73.69
335.227	78.69
335.455	80.69
335.684	93.69
335.912	69.69
336.14	87.69
336.369	92.69
336.597	73.69
336.825	73.69
337.053	70.69
337.281	75.69
337.51	85.69
337.738	85.69
337.966	86.69
338.194	83.69
338.422	84.69
338.65	92.69
338.878	100.69
339.106	104.69
339.334	99.69
339.562	73.69
339.79	89.69
340.018	93.69
340.246	91.69
340.474	83.69
340.702	74.69
340.93	83.69
341.158	86.69
341.386	64.69
341.614	79.69
341.842	72.69
342.07	75.69
342.298	87.69
342.526	90.69
342.754	82.69
342.981	81.69
343.209	81.69
343.437	89.69
343.665	82.69
343.893	73.69
344.12	84.69
344.348	76.69
344.576	88.69
344.804	100.69
345.031	91.69
345.259	90.69
345.487	75.69
345.714	87.69
345.942	78.69
346.17	96.69
346.397	95.69
346.625	82.69
346.853	77.69
347.08	92.69
347.308	93.69
347.535	72.69
347.763	83.69
347.99	94.69
348.218	84.69
348.445	89.69
348.673	85.69
348.9	85.69
349.128	75.69
349.355	74.69
349.583	81.69
349.81	78.69
350.037	84.69
350.265	82.69
350.492	81.69
350.72	82.69
350.947	78.69
351.174	93.69
351.402	83.69
351.629	90.69
351.856	75.69
352.083	87.69
352.311	85.69
352.538	73.69
352.765	75.69
352.992	105.69
353.22	90.69
353.447	80.69
353.674	82.69
353.901	93.69
354.128	84.69
354.355	76.69
354.583	89.69
354.81	79.69
355.037	72.69
355.264	84.69
355.491	89.69
355.718	82.69
355.945	89.69
356.172	84.69
356.399	79.69
356.626	75.69
356.853	90.69
357.08	80.69
357.307	87.69
357.534	96.69
357.761	83.69
357.988	90.69
358.215	72.69
358.441	84.69
358.668	87.69
358.895	90.69
359.122	70.69
359.349	81.69
359.576	97.69
359.802	86.69
360.029	88.69
360.256	86.69
360.483	87.69
360.709	84.69
360.936	87.69
361.163	91.69
361.39	81.69
361.616	91.69
361.843	66.69
362.07	79.69
362.296	88.69
362.523	75.69
362.749	90.69
362.976	76.69
363.203	94.69
363.429	85.69
363.656	82.69
363.882	78.69
364.109	83.69
364.335	95.69
364.562	82.69
364.788	90.69
365.015	94.69
365.241	88.69
365.468	84.69
365.694	80.69
365.92	72.69
366.147	81.69
366.373	95.69
366.599	87.69
366.826	79.69
367.052	90.69
367.278	74.69
367.505	76.69
367.731	95.69
367.957	80.69
368.184	84.69
368.41	91.69
368.636	95.69
368.862	81.69
369.089	82.69
369.315	95.69
369.541	73.69
369.767	89.69
369.993	89.69
370.219	80.69
370.445	84.69
370.672	82.69
370.898	79.69
371.124	77.69
371.35	81.69
371.576	83.69
371.802	89.69
372.028	77.69
372.254	78.69
372.48	79.69
372.706	74.69
372.932	86.69
373.158	91.69
373.384	85.69
373.61	84.69
373.835	82.69
374.061	87.69
374.287	81.69
374.513	79.69
374.739	85.69
374.965	86.69
375.191	74.69
375.416	72.69
375.642	79.69
375.868	86.69
376.094	75.69
376.319	77.69
376.545	89.69
376.771	87.69
376.997	82.69
377.222	90.69
377.448	87.69
377.674	79.69
377.899	72.69
378.125	72.69
378.35	91.69
378.576	82.69
378.802	96.69
379.027	91.69
379.253	92.69
379.478	74.69
379.704	91.69
379.929	83.69
380.155	78.69
380.38	89.69
380.606	84.69
380.831	78.69
381.057	78.69
381.282	83.69
381.507	94.69
381.733	88.69
381.958	92.69
382.184	75.69
382.409	86.69
382.634	88.69
382.86	83.69
383.085	84.69
383.31	86.69
383.535	79.69
383.761	93.69
383.986	77.69
384.211	81.69
384.436	84.69
384.662	83.69
384.887	69.69
385.112	79.69
385.337	87.69
385.562	87.69
385.787	76.69
386.013	78.69
386.238	78.69
386.463	75.69
386.688	86.69
386.913	99.69
387.138	83.69
387.363	85.69
387.588	83.69
387.813	81.69
388.038	90.69
388.263	84.69
388.488	75.69
388.713	82.69
388.938	98.69
389.163	83.69
389.387	89.69
389.612	79.69
389.837	75.69
390.062	83.69
390.287	86.69
390.512	91.69
390.736	88.69
390.961	93.69
391.186	92.69
391.411	74.69
391.636	90.69
391.86	74.69
392.085	86.69
392.31	79.69
392.534	75.69
392.759	85.69
392.984	89.69
393.208	88.69
393.433	86.69
393.658	83.69
393.882	101.69
394.107	83.69
394.331	79.69
394.556	79.69
394.78	72.69
395.005	86.69
395.229	109.69
395.454	86.69
395.678	90.69
395.903	63.69
396.127	92.69
396.352	75.69
396.576	77.69
396.801	95.69
397.025	97.69
397.249	77.69
397.474	74.69
397.698	95.69
397.922	97.69
398.147	86.69
398.371	76.69
398.595	84.69
398.82	73.69
399.044	88.69
399.268	91.69
399.492	84.69
399.717	102.69
399.941	87.69
400.165	101.69
400.389	81.69
400.613	84.69
400.837	90.69
401.062	81.69
401.286	76.69
401.51	85.69
401.734	86.69
401.958	93.69
402.182	81.69
402.406	71.69
402.63	90.69
402.854	75.69
403.078	102.69
403.302	87.69
403.526	80.69
403.75	79.69
403.974	86.69
404.198	100.69
404.422	99.69
404.645	88.69
404.869	82.69
405.093	92.69
405.317	87.69
405.541	83.69
405.765	72.69
405.988	91.69
406.212	86.69
406.436	89.69
406.66	81.69
406.883	86.69
407.107	95.69
407.331	78.69
407.555	82.69
407.778	96.69
408.002	87.69
408.226	83.69
408.449	94.69
408.673	73.69
408.896	87.69
409.12	102.69
409.344	97.69
409.567	92.69
409.791	86.69
410.014	93.69
410.238	82.69
410.461	79.69
410.685	69.69
410.908	84.69
411.132	86.69
411.355	80.69
411.578	80.69
411.802	89.69
412.025	79.69
412.249	88.69
412.472	83.69
412.695	84.69
412.919	95.69
413.142	88.69
413.365	85.69
413.589	93.69
413.812	85.69
414.035	97.69
414.258	83.69
414.482	86.69
414.705	90.69
414.928	88.69
415.151	75.69
415.374	79.69
415.597	92.69
415.821	83.69
416.044	93.69
416.267	89.69
416.49	73.69
416.713	88.69
416.936	80.69
417.159	85.69
417.382	90.69
417.605	70.69
417.828	86.69
418.051	76.69
418.274	87.69
418.497	84.69
418.72	84.69
418.943	89.69
419.166	90.69
419.389	84.69
419.611	92.69
419.834	102.69
420.057	81.69
420.28	97.69
420.503	88.69
420.726	81.69
420.948	86.69
421.171	90.69
421.394	81.69
421.617	87.69
421.839	87.69
422.062	68.69
422.285	75.69
422.507	88.69
422.73	85.69
422.953	81.69
423.175	81.69
423.398	85.69
423.621	95.69
423.843	89.69
424.066	79.69
424.288	97.69
424.511	94.69
424.733	97.69
424.956	101.69
425.178	79.69
425.401	86.69
425.623	75.69
425.846	79.69
426.068	91.69
426.291	85.69
426.513	84.69
426.735	75.69
426.958	69.69
427.18	87.69
427.402	90.69
427.625	73.69
427.847	77.69
428.069	78.69
428.292	103.69
428.514	91.69
428.736	94.69
428.958	97.69
429.181	97.69
429.403	76.69
429.625	81.69
429.847	91.69
430.069	93.69
430.292	87.69
430.514	91.69
430.736	97.69
430.958	93.69
431.18	89.69
431.402	85.69
431.624	93.69
431.846	100.69
432.068	85.69
432.29	82.69
432.512	89.69
432.734	80.69
432.956	78.69
433.178	93.69
433.4	79.69
433.622	81.69
433.844	92.69
434.066	89.69
434.287	96.69
434.509	84.69
434.731	99.69
434.953	100.69
435.175	73.69
435.397	86.69
435.618	88.69
435.84	73.69
436.062	86.69
436.284	91.69
436.505	82.69
436.727	94.69
436.949	84.69
437.17	85.69
437.392	91.69
437.614	66.69
437.835	99.69
438.057	76.69
438.278	81.69
438.5	93.69
438.721	102.69
438.943	73.69
439.165	81.69
439.386	79.69
439.608	93.69
439.829	90.69
440.05	87.69
440.272	81.69
440.493	80.69
440.715	92.69
440.936	100.69
441.158	77.69
441.379	69.69
441.6	81.69
441.822	85.69
442.043	83.69
442.264	79.69
442.486	92.69
442.707	75.69
442.928	91.69
443.149	82.69
443.371	88.69
443.592	81.69
443.813	81.69
444.034	83.69
444.255	89.69
444.476	79.69
444.698	82.69
444.919	89.69
445.14	151.69
445.361	121.69
445.582	83.69
445.803	82.69
446.024	82.69
446.245	81.69
446.466	88.69
446.687	89.69
446.908	89.69
447.129	79.69
447.35	85.69
447.571	82.69
447.792	90.69
448.013	67.69
448.234	85.69
448.455	89.69
448.675	92.69
448.896	81.69
449.117	90.69
449.338	93.69
449.559	67.69
449.779	73.69
450	89.69
450.221	92.69
450.442	85.69
450.662	83.69
450.883	80.69
451.104	93.69
451.324	93.69
451.545	88.69
451.766	87.69
451.986	85.69
452.207	87.69
452.428	94.69
452.648	88.69
452.869	84.69
453.089	83.69
453.31	78.69
453.53	81.69
453.751	75.69
453.971	88.69
454.192	86.69
454.412	87.69
454.633	106.69
454.853	89.69
455.073	63.69
455.294	74.69
455.514	84.69
455.734	85.69
455.955	80.69
456.175	81.69
456.395	67.69
456.616	105.69
456.836	97.69
457.056	84.69
457.276	94.69
457.497	79.69
457.717	78.69
457.937	86.69
458.157	86.69
458.377	89.69
458.598	83.69
458.818	81.69
459.038	83.69
459.258	102.69
459.478	81.69
459.698	95.69
459.918	92.69
460.138	72.69
460.358	72.69
460.578	90.69
460.798	85.69
461.018	84.69
461.238	87.69
461.458	80.69
461.678	68.69
461.898	81.69
462.118	98.69
462.338	81.69
462.558	81.69
462.777	93.69
462.997	87.69
463.217	98.69
463.437	85.69
463.657	82.69
463.876	92.69
464.096	98.69
464.316	83.69
464.536	93.69
464.755	87.69
464.975	89.69
465.195	74.69
465.414	88.69
465.634	85.69
465.854	101.69
466.073	94.69
466.293	99.69
466.512	84.69
466.732	71.69
466.951	84.69
467.171	79.69
467.391	84.69
467.61	77.69
467.829	83.69
468.049	95.69
468.268	81.69
468.488	90.69
468.707	88.69
468.927	88.69
469.146	88.69
469.365	90.69
469.585	77.69
469.804	100.69
470.023	78.69
470.243	72.69
470.462	73.69
470.681	86.69
470.901	74.69
471.12	85.69
471.339	97.69
471.558	79.69
471.777	73.69
471.997	74.69
472.216	73.69
472.435	95.69
472.654	82.69
472.873	89.69
473.092	72.69
473.311	69.69
473.53	73.69
473.749	78.69
473.968	90.69
474.187	77.69
474.406	89.69
474.625	81.69
474.844	79.69
475.063	82.69
475.282	82.69
475.501	85.69
475.72	88.69
475.939	81.69
476.158	79.69
476.377	81.69
476.596	88.69
476.814	90.69
477.033	84.69
477.252	70.69
477.471	78.69
477.69	81.69
477.908	82.69
478.127	76.69
478.346	84.69
478.564	83.69
478.783	67.69
479.002	88.69
479.22	88.69
479.439	94.69
479.658	82.69
479.876	83.69
480.095	77.69
480.313	91.69
480.532	73.69
480.751	81.69
480.969	87.69
481.188	105.69
481.406	75.69
481.624	78.69
481.843	88.69
482.061	92.69
482.28	88.69
482.498	96.69
482.717	72.69
482.935	91.69
483.153	78.69
483.372	71.69
483.59	79.69
483.808	87.69
484.027	79.69
484.245	95.69
484.463	82.69
484.681	90.69
484.9	82.69
485.118	75.69
485.336	81.69
485.554	83.69
485.772	84.69
485.99	79.69
486.209	78.69
486.427	82.69
486.645	79.69
486.863	92.69
487.081	87.69
487.299	98.69
487.517	86.69
487.735	76.69
487.953	79.69
488.171	99.69
488.389	102.69
488.607	78.69
488.825	75.69
489.043	94.69
489.261	81.69
489.479	69.69
489.696	101.69
489.914	83.69
490.132	97.69
490.35	90.69
490.568	89.69
490.786	88.69
491.003	85.69
491.221	91.69
491.439	86.69
491.657	86.69
491.874	92.69
492.092	82.69
492.31	70.69
492.527	90.69
492.745	89.69
492.963	88.69
493.18	94.69
493.398	78.69
493.615	98.69
493.833	79.69
494.05	74.69
494.268	92.69
494.485	93.69
494.703	88.69
494.92	78.69
495.138	94.69
495.355	101.69
495.573	81.69
495.79	91.69
496.008	84.69
496.225	94.69
496.442	88.69
496.66	95.69
496.877	85.69
497.094	92.69
497.312	81.69
497.529	96.69
497.746	84.69
497.963	81.69
498.181	79.69
498.398	87.69
498.615	67.69
498.832	69.69
499.049	99.69
499.267	100.69
499.484	91.69
499.701	90.69
499.918	88.69
500.135	101.69
500.352	92.69
500.569	87.69
500.786	111.69
501.003	95.69
501.22	102.69
501.437	101.69
501.654	88.69
501.871	89.69
502.088	76.69
502.305	68.69
502.522	99.69
502.739	95.69
502.956	91.69
503.172	108.69
503.389	86.69
503.606	81.69
503.823	89.69
504.04	98.69
504.256	94.69
504.473	73.69
504.69	83.69
504.907	90.69
505.123	102.69
505.34	86.69
505.557	91.69
505.773	75.69
505.99	89.69
506.207	93.69
506.423	94.69
506.64	100.69
506.856	87.69
507.073	78.69
507.289	88.69
507.506	97.69
507.722	81.69
507.939	81.69
508.155	91.69
508.372	80.69
508.588	80.69
508.805	107.69
509.021	93.69
509.238	95.69
509.454	98.69
509.67	90.69
509.887	105.69
510.103	89.69
510.319	72.69
510.536	93.69
510.752	97.69
510.968	78.69
511.184	73.69
511.401	82.69
511.617	89.69
511.833	91.69
512.049	83.69
512.265	93.69
512.481	88.69
512.698	76.69
512.914	85.69
513.13	89.69
513.346	75.69
513.562	84.69
513.778	93.69
513.994	80.69
514.21	85.69
514.426	98.69
514.642	99.69
514.858	74.69
515.074	94.69
515.29	94.69
515.506	83.69
515.721	99.69
515.937	92.69
516.153	91.69
516.369	89.69
516.585	92.69
516.801	92.69
517.016	77.69
517.232	90.69
517.448	77.69
517.664	101.69
517.879	102.69
518.095	99.69
518.311	85.69
518.527	85.69
518.742	91.69
518.958	94.69
519.173	88.69
519.389	82.69
519.605	83.69
519.82	86.69
