Data from BG_HRD10591_007.txt Node
Date: Fri May 16 15:20:57 EDT 2025
User: Yrep
Spectrometer: HR+D1059
Trigger mode: 1
Integration Time (sec): 1.000000E-1
Scans to average: 1
Electric dark correction enabled: true
Nonlinearity correction enabled: false
Boxcar width: 0
XAxis mode: Wavelengths
Number of Pixels in Spectrum: 2048
>>>>>Begin Spectral Data<<<<<
223.165	-17.44
223.4	-17.44
223.635	-17.44
223.869	-25.44
224.104	-8.44
224.338	-3.44
224.573	-18.44
224.808	-23.44
225.042	-23.44
225.277	-12.44
225.511	0.56
225.746	6.56
225.98	-0.44
226.215	12.56
226.449	14.56
226.683	23.56
226.918	42.56
227.152	32.56
227.387	37.56
227.621	42.56
227.856	55.56
228.09	50.56
228.324	57.56
228.559	58.56
228.793	41.56
229.027	59.56
229.262	56.56
229.496	61.56
229.73	78.56
229.964	83.56
230.199	73.56
230.433	73.56
230.667	88.56
230.901	77.56
231.136	72.56
231.37	78.56
231.604	70.56
231.838	83.56
232.072	74.56
232.306	91.56
232.541	76.56
232.775	72.56
233.009	81.56
233.243	78.56
233.477	82.56
233.711	95.56
233.945	89.56
234.179	88.56
234.413	88.56
234.647	79.56
234.881	83.56
235.115	79.56
235.349	84.56
235.583	89.56
235.817	67.56
236.051	86.56
236.285	96.56
236.519	74.56
236.753	65.56
236.987	82.56
237.221	74.56
237.455	83.56
237.689	85.56
237.922	73.56
238.156	77.56
238.39	72.56
238.624	81.56
238.858	73.56
239.091	76.56
239.325	65.56
239.559	70.56
239.793	62.56
240.027	75.56
240.26	75.56
240.494	81.56
240.728	71.56
240.961	66.56
241.195	86.56
241.429	87.56
241.662	79.56
241.896	77.56
242.13	74.56
242.363	72.56
242.597	70.56
242.83	95.56
243.064	81.56
243.298	72.56
243.531	75.56
243.765	63.56
243.998	85.56
244.232	74.56
244.465	94.56
244.699	81.56
244.932	80.56
245.166	60.56
245.399	65.56
245.633	74.56
245.866	72.56
246.099	90.56
246.333	82.56
246.566	90.56
246.8	78.56
247.033	81.56
247.266	75.56
247.5	69.56
247.733	91.56
247.966	66.56
248.2	79.56
248.433	88.56
248.666	79.56
248.899	77.56
249.133	81.56
249.366	72.56
249.599	69.56
249.832	79.56
250.066	84.56
250.299	78.56
250.532	87.56
250.765	82.56
250.998	76.56
251.231	94.56
251.465	96.56
251.698	90.56
251.931	72.56
252.164	84.56
252.397	81.56
252.63	78.56
252.863	85.56
253.096	77.56
253.329	75.56
253.562	82.56
253.795	78.56
254.028	86.56
254.261	77.56
254.494	88.56
254.727	81.56
254.96	96.56
255.193	80.56
255.426	84.56
255.659	78.56
255.892	84.56
256.124	88.56
256.357	78.56
256.59	77.56
256.823	86.56
257.056	72.56
257.289	87.56
257.521	87.56
257.754	69.56
257.987	84.56
258.22	82.56
258.452	73.56
258.685	72.56
258.918	73.56
259.151	81.56
259.383	75.56
259.616	60.56
259.849	89.56
260.081	85.56
260.314	94.56
260.547	89.56
260.779	81.56
261.012	94.56
261.244	84.56
261.477	87.56
261.71	95.56
261.942	67.56
262.175	73.56
262.407	84.56
262.64	89.56
262.872	92.56
263.105	79.56
263.337	86.56
263.57	81.56
263.802	86.56
264.035	78.56
264.267	80.56
264.499	82.56
264.732	87.56
264.964	78.56
265.197	70.56
265.429	78.56
265.661	103.56
265.894	87.56
266.126	86.56
266.358	88.56
266.591	89.56
266.823	76.56
267.055	80.56
267.287	96.56
267.52	83.56
267.752	83.56
267.984	83.56
268.216	70.56
268.448	81.56
268.681	77.56
268.913	77.56
269.145	82.56
269.377	80.56
269.609	81.56
269.841	74.56
270.073	97.56
270.306	82.56
270.538	79.56
270.77	88.56
271.002	88.56
271.234	94.56
271.466	80.56
271.698	82.56
271.93	92.56
272.162	86.56
272.394	85.56
272.626	74.56
272.858	91.56
273.09	75.56
273.322	78.56
273.553	83.56
273.785	84.56
274.017	86.56
274.249	100.56
274.481	76.56
274.713	88.56
274.945	76.56
275.176	77.56
275.408	87.56
275.64	94.56
275.872	83.56
276.104	88.56
276.335	88.56
276.567	74.56
276.799	74.56
277.031	78.56
277.262	101.56
277.494	93.56
277.726	85.56
277.957	85.56
278.189	94.56
278.421	84.56
278.652	100.56
278.884	82.56
279.115	95.56
279.347	94.56
279.579	82.56
279.81	77.56
280.042	81.56
280.273	87.56
280.505	79.56
280.736	96.56
280.968	84.56
281.199	88.56
281.431	96.56
281.662	91.56
281.894	71.56
282.125	88.56
282.356	88.56
282.588	93.56
282.819	81.56
283.051	64.56
283.282	73.56
283.513	85.56
283.745	87.56
283.976	82.56
284.207	75.56
284.439	100.56
284.67	93.56
284.901	97.56
285.132	92.56
285.364	86.56
285.595	89.56
285.826	89.56
286.057	77.56
286.288	95.56
286.52	86.56
286.751	80.56
286.982	97.56
287.213	76.56
287.444	82.56
287.675	91.56
287.906	96.56
288.138	88.56
288.369	92.56
288.6	77.56
288.831	85.56
289.062	74.56
289.293	76.56
289.524	80.56
289.755	84.56
289.986	90.56
290.217	92.56
290.448	92.56
290.679	85.56
290.91	77.56
291.141	85.56
291.371	86.56
291.602	91.56
291.833	76.56
292.064	78.56
292.295	95.56
292.526	92.56
292.757	85.56
292.987	93.56
293.218	89.56
293.449	88.56
293.68	92.56
293.91	93.56
294.141	93.56
294.372	92.56
294.603	69.56
294.833	85.56
295.064	80.56
295.295	79.56
295.525	79.56
295.756	88.56
295.987	93.56
296.217	91.56
296.448	86.56
296.679	80.56
296.909	88.56
297.14	74.56
297.37	88.56
297.601	78.56
297.831	97.56
298.062	97.56
298.292	93.56
298.523	84.56
298.753	92.56
298.984	96.56
299.214	79.56
299.445	87.56
299.675	92.56
299.905	88.56
300.136	86.56
300.366	90.56
300.597	77.56
300.827	85.56
301.057	82.56
301.288	99.56
301.518	87.56
301.748	94.56
301.979	105.56
302.209	76.56
302.439	82.56
302.669	88.56
302.9	85.56
303.13	82.56
303.36	72.56
303.59	84.56
303.82	69.56
304.051	85.56
304.281	85.56
304.511	91.56
304.741	83.56
304.971	101.56
305.201	94.56
305.431	74.56
305.661	96.56
305.891	93.56
306.121	77.56
306.352	81.56
306.582	76.56
306.812	72.56
307.042	90.56
307.272	95.56
307.502	81.56
307.731	97.56
307.961	100.56
308.191	62.56
308.421	74.56
308.651	97.56
308.881	87.56
309.111	74.56
309.341	96.56
309.571	84.56
309.8	73.56
310.03	88.56
310.26	103.56
310.49	76.56
310.72	95.56
310.949	79.56
311.179	77.56
311.409	78.56
311.639	89.56
311.868	84.56
312.098	82.56
312.328	101.56
312.557	100.56
312.787	102.56
313.017	95.56
313.246	93.56
313.476	93.56
313.706	87.56
313.935	88.56
314.165	80.56
314.394	80.56
314.624	85.56
314.853	74.56
315.083	76.56
315.312	93.56
315.542	93.56
315.771	88.56
316.001	82.56
316.23	84.56
316.46	87.56
316.689	85.56
316.919	90.56
317.148	88.56
317.377	96.56
317.607	85.56
317.836	93.56
318.065	90.56
318.295	88.56
318.524	84.56
318.753	84.56
318.983	88.56
319.212	96.56
319.441	81.56
319.67	80.56
319.9	86.56
320.129	93.56
320.358	92.56
320.587	81.56
320.816	91.56
321.046	81.56
321.275	97.56
321.504	105.56
321.733	91.56
321.962	74.56
322.191	84.56
322.42	89.56
322.649	92.56
322.878	103.56
323.108	92.56
323.337	85.56
323.566	87.56
323.795	86.56
324.024	74.56
324.253	105.56
324.482	88.56
324.71	88.56
324.939	91.56
325.168	92.56
325.397	89.56
325.626	74.56
325.855	89.56
326.084	80.56
326.313	88.56
326.542	80.56
326.77	85.56
326.999	88.56
327.228	82.56
327.457	80.56
327.686	80.56
327.914	92.56
328.143	84.56
328.372	91.56
328.6	95.56
328.829	105.56
329.058	95.56
329.287	85.56
329.515	94.56
329.744	96.56
329.972	87.56
330.201	83.56
330.43	91.56
330.658	82.56
330.887	75.56
331.115	92.56
331.344	87.56
331.572	85.56
331.801	85.56
332.03	92.56
332.258	83.56
332.486	77.56
332.715	94.56
332.943	86.56
333.172	85.56
333.4	104.56
333.629	87.56
333.857	78.56
334.085	91.56
334.314	94.56
334.542	93.56
334.771	89.56
334.999	87.56
335.227	97.56
335.455	105.56
335.684	83.56
335.912	80.56
336.14	93.56
336.369	90.56
336.597	87.56
336.825	76.56
337.053	84.56
337.281	89.56
337.51	84.56
337.738	79.56
337.966	76.56
338.194	90.56
338.422	80.56
338.65	74.56
338.878	101.56
339.106	90.56
339.334	80.56
339.562	104.56
339.79	81.56
340.018	78.56
340.246	76.56
340.474	81.56
340.702	75.56
340.93	84.56
341.158	84.56
341.386	88.56
341.614	86.56
341.842	86.56
342.07	89.56
342.298	101.56
342.526	90.56
342.754	87.56
342.981	93.56
343.209	85.56
343.437	98.56
343.665	89.56
343.893	92.56
344.12	86.56
344.348	96.56
344.576	96.56
344.804	95.56
345.031	75.56
345.259	75.56
345.487	81.56
345.714	98.56
345.942	94.56
346.17	95.56
346.397	99.56
346.625	83.56
346.853	74.56
347.08	82.56
347.308	78.56
347.535	89.56
347.763	83.56
347.99	94.56
348.218	90.56
348.445	89.56
348.673	93.56
348.9	92.56
349.128	77.56
349.355	88.56
349.583	88.56
349.81	88.56
350.037	82.56
350.265	96.56
350.492	96.56
350.72	97.56
350.947	90.56
351.174	89.56
351.402	81.56
351.629	84.56
351.856	82.56
352.083	89.56
352.311	91.56
352.538	91.56
352.765	82.56
352.992	101.56
353.22	95.56
353.447	101.56
353.674	91.56
353.901	81.56
354.128	80.56
354.355	93.56
354.583	92.56
354.81	90.56
355.037	85.56
355.264	82.56
355.491	88.56
355.718	86.56
355.945	104.56
356.172	86.56
356.399	72.56
356.626	90.56
356.853	76.56
357.08	88.56
357.307	81.56
357.534	94.56
357.761	88.56
357.988	94.56
358.215	80.56
358.441	93.56
358.668	81.56
358.895	93.56
359.122	83.56
359.349	97.56
359.576	101.56
359.802	82.56
360.029	87.56
360.256	82.56
360.483	83.56
360.709	85.56
360.936	81.56
361.163	87.56
361.39	93.56
361.616	78.56
361.843	85.56
362.07	83.56
362.296	76.56
362.523	65.56
362.749	97.56
362.976	81.56
363.203	107.56
363.429	93.56
363.656	102.56
363.882	93.56
364.109	72.56
364.335	97.56
364.562	74.56
364.788	90.56
365.015	81.56
365.241	74.56
365.468	95.56
365.694	94.56
365.92	92.56
366.147	94.56
366.373	93.56
366.599	96.56
366.826	81.56
367.052	83.56
367.278	75.56
367.505	101.56
367.731	96.56
367.957	78.56
368.184	94.56
368.41	81.56
368.636	78.56
368.862	95.56
369.089	81.56
369.315	74.56
369.541	91.56
369.767	94.56
369.993	76.56
370.219	96.56
370.445	79.56
370.672	82.56
370.898	91.56
371.124	86.56
371.35	90.56
371.576	84.56
371.802	70.56
372.028	94.56
372.254	84.56
372.48	87.56
372.706	65.56
372.932	93.56
373.158	87.56
373.384	93.56
373.61	87.56
373.835	92.56
374.061	71.56
374.287	87.56
374.513	78.56
374.739	85.56
374.965	82.56
375.191	104.56
375.416	88.56
375.642	87.56
375.868	93.56
376.094	102.56
376.319	81.56
376.545	81.56
376.771	79.56
376.997	82.56
377.222	87.56
377.448	89.56
377.674	83.56
377.899	93.56
378.125	80.56
378.35	81.56
378.576	94.56
378.802	84.56
379.027	86.56
379.253	76.56
379.478	86.56
379.704	84.56
379.929	93.56
380.155	92.56
380.38	82.56
380.606	91.56
380.831	81.56
381.057	80.56
381.282	76.56
381.507	94.56
381.733	102.56
381.958	94.56
382.184	88.56
382.409	81.56
382.634	88.56
382.86	80.56
383.085	79.56
383.31	75.56
383.535	97.56
383.761	100.56
383.986	86.56
384.211	81.56
384.436	82.56
384.662	87.56
384.887	88.56
385.112	80.56
385.337	74.56
385.562	83.56
385.787	92.56
386.013	88.56
386.238	84.56
386.463	89.56
386.688	93.56
386.913	100.56
387.138	96.56
387.363	80.56
387.588	89.56
387.813	98.56
388.038	98.56
388.263	81.56
388.488	81.56
388.713	96.56
388.938	96.56
389.163	89.56
389.387	95.56
389.612	101.56
389.837	90.56
390.062	96.56
390.287	100.56
390.512	86.56
390.736	87.56
390.961	76.56
391.186	95.56
391.411	91.56
391.636	83.56
391.86	86.56
392.085	113.56
392.31	88.56
392.534	76.56
392.759	96.56
392.984	90.56
393.208	86.56
393.433	80.56
393.658	98.56
393.882	87.56
394.107	82.56
394.331	97.56
394.556	95.56
394.78	90.56
395.005	89.56
395.229	86.56
395.454	86.56
395.678	86.56
395.903	87.56
396.127	90.56
396.352	91.56
396.576	87.56
396.801	84.56
397.025	82.56
397.249	95.56
397.474	88.56
397.698	80.56
397.922	88.56
398.147	88.56
398.371	92.56
398.595	86.56
398.82	97.56
399.044	87.56
399.268	91.56
399.492	92.56
399.717	89.56
399.941	96.56
400.165	93.56
400.389	86.56
400.613	79.56
400.837	88.56
401.062	92.56
401.286	99.56
401.51	100.56
401.734	72.56
401.958	100.56
402.182	95.56
402.406	96.56
402.63	78.56
402.854	96.56
403.078	90.56
403.302	85.56
403.526	102.56
403.75	81.56
403.974	78.56
404.198	89.56
404.422	94.56
404.645	105.56
404.869	80.56
405.093	101.56
405.317	82.56
405.541	79.56
405.765	88.56
405.988	94.56
406.212	96.56
406.436	98.56
406.66	77.56
406.883	81.56
407.107	79.56
407.331	91.56
407.555	105.56
407.778	86.56
408.002	88.56
408.226	96.56
408.449	90.56
408.673	89.56
408.896	85.56
409.12	85.56
409.344	103.56
409.567	86.56
409.791	83.56
410.014	71.56
410.238	79.56
410.461	96.56
410.685	75.56
410.908	89.56
411.132	84.56
411.355	69.56
411.578	80.56
411.802	89.56
412.025	87.56
412.249	89.56
412.472	88.56
412.695	89.56
412.919	93.56
413.142	97.56
413.365	100.56
413.589	79.56
413.812	89.56
414.035	104.56
414.258	94.56
414.482	91.56
414.705	90.56
414.928	93.56
415.151	84.56
415.374	90.56
415.597	88.56
415.821	84.56
416.044	95.56
416.267	96.56
416.49	109.56
416.713	91.56
416.936	90.56
417.159	80.56
417.382	71.56
417.605	90.56
417.828	74.56
418.051	98.56
418.274	82.56
418.497	84.56
418.72	88.56
418.943	86.56
419.166	96.56
419.389	90.56
419.611	93.56
419.834	86.56
420.057	84.56
420.28	94.56
420.503	80.56
420.726	87.56
420.948	87.56
421.171	106.56
421.394	76.56
421.617	97.56
421.839	81.56
422.062	89.56
422.285	84.56
422.507	95.56
422.73	95.56
422.953	81.56
423.175	69.56
423.398	94.56
423.621	86.56
423.843	85.56
424.066	89.56
424.288	76.56
424.511	84.56
424.733	82.56
424.956	94.56
425.178	100.56
425.401	106.56
425.623	92.56
425.846	89.56
426.068	86.56
426.291	80.56
426.513	95.56
426.735	88.56
426.958	86.56
427.18	95.56
427.402	85.56
427.625	81.56
427.847	78.56
428.069	85.56
428.292	82.56
428.514	95.56
428.736	78.56
428.958	72.56
429.181	78.56
429.403	92.56
429.625	79.56
429.847	88.56
430.069	88.56
430.292	78.56
430.514	85.56
430.736	85.56
430.958	86.56
431.18	97.56
431.402	82.56
431.624	95.56
431.846	87.56
432.068	68.56
432.29	83.56
432.512	92.56
432.734	91.56
432.956	83.56
433.178	106.56
433.4	98.56
433.622	86.56
433.844	108.56
434.066	106.56
434.287	85.56
434.509	84.56
434.731	90.56
434.953	86.56
435.175	86.56
435.397	86.56
435.618	85.56
435.84	78.56
436.062	87.56
436.284	96.56
436.505	96.56
436.727	72.56
436.949	97.56
437.17	78.56
437.392	93.56
437.614	80.56
437.835	77.56
438.057	76.56
438.278	93.56
438.5	84.56
438.721	100.56
438.943	91.56
439.165	91.56
439.386	106.56
439.608	95.56
439.829	83.56
440.05	85.56
440.272	88.56
440.493	88.56
440.715	89.56
440.936	86.56
441.158	103.56
441.379	88.56
441.6	93.56
441.822	105.56
442.043	93.56
442.264	95.56
442.486	99.56
442.707	89.56
442.928	91.56
443.149	92.56
443.371	95.56
443.592	90.56
443.813	92.56
444.034	79.56
444.255	84.56
444.476	95.56
444.698	78.56
444.919	90.56
445.14	145.56
445.361	116.56
445.582	92.56
445.803	92.56
446.024	85.56
446.245	82.56
446.466	93.56
446.687	95.56
446.908	81.56
447.129	88.56
447.35	81.56
447.571	84.56
447.792	95.56
448.013	95.56
448.234	78.56
448.455	97.56
448.675	97.56
448.896	84.56
449.117	78.56
449.338	94.56
449.559	84.56
449.779	87.56
450	96.56
450.221	76.56
450.442	81.56
450.662	86.56
450.883	92.56
451.104	83.56
451.324	100.56
451.545	90.56
451.766	80.56
451.986	89.56
452.207	104.56
452.428	85.56
452.648	90.56
452.869	92.56
453.089	81.56
453.31	85.56
453.53	90.56
453.751	96.56
453.971	77.56
454.192	76.56
454.412	92.56
454.633	90.56
454.853	82.56
455.073	84.56
455.294	100.56
455.514	85.56
455.734	99.56
455.955	78.56
456.175	90.56
456.395	91.56
456.616	97.56
456.836	85.56
457.056	94.56
457.276	90.56
457.497	75.56
457.717	91.56
457.937	82.56
458.157	96.56
458.377	88.56
458.598	77.56
458.818	81.56
459.038	87.56
459.258	77.56
459.478	73.56
459.698	69.56
459.918	92.56
460.138	71.56
460.358	85.56
460.578	92.56
460.798	100.56
461.018	89.56
461.238	94.56
461.458	84.56
461.678	96.56
461.898	86.56
462.118	88.56
462.338	78.56
462.558	95.56
462.777	93.56
462.997	92.56
463.217	95.56
463.437	89.56
463.657	106.56
463.876	76.56
464.096	86.56
464.316	83.56
464.536	82.56
464.755	95.56
464.975	100.56
465.195	93.56
465.414	91.56
465.634	96.56
465.854	89.56
466.073	85.56
466.293	81.56
466.512	82.56
466.732	73.56
466.951	75.56
467.171	89.56
467.391	81.56
467.61	78.56
467.829	90.56
468.049	84.56
468.268	82.56
468.488	94.56
468.707	73.56
468.927	88.56
469.146	77.56
469.365	81.56
469.585	75.56
469.804	74.56
470.023	91.56
470.243	97.56
470.462	92.56
470.681	97.56
470.901	86.56
471.12	77.56
471.339	85.56
471.558	81.56
471.777	75.56
471.997	76.56
472.216	93.56
472.435	102.56
472.654	88.56
472.873	86.56
473.092	92.56
473.311	94.56
473.53	86.56
473.749	77.56
473.968	80.56
474.187	93.56
474.406	82.56
474.625	87.56
474.844	95.56
475.063	82.56
475.282	82.56
475.501	72.56
475.72	86.56
475.939	90.56
476.158	75.56
476.377	92.56
476.596	68.56
476.814	94.56
477.033	91.56
477.252	92.56
477.471	87.56
477.69	83.56
477.908	79.56
478.127	100.56
478.346	78.56
478.564	98.56
478.783	79.56
479.002	96.56
479.22	95.56
479.439	82.56
479.658	87.56
479.876	88.56
480.095	72.56
480.313	93.56
480.532	82.56
480.751	93.56
480.969	80.56
481.188	69.56
481.406	97.56
481.624	83.56
481.843	84.56
482.061	69.56
482.28	88.56
482.498	92.56
482.717	93.56
482.935	95.56
483.153	88.56
483.372	84.56
483.59	92.56
483.808	90.56
484.027	88.56
484.245	90.56
484.463	93.56
484.681	90.56
484.9	94.56
485.118	100.56
485.336	72.56
485.554	92.56
485.772	98.56
485.99	88.56
486.209	95.56
486.427	104.56
486.645	79.56
486.863	86.56
487.081	95.56
487.299	82.56
487.517	79.56
487.735	85.56
487.953	76.56
488.171	102.56
488.389	83.56
488.607	89.56
488.825	92.56
489.043	90.56
489.261	92.56
489.479	87.56
489.696	91.56
489.914	85.56
490.132	100.56
490.35	88.56
490.568	83.56
490.786	105.56
491.003	95.56
491.221	76.56
491.439	95.56
491.657	87.56
491.874	90.56
492.092	91.56
492.31	86.56
492.527	110.56
492.745	81.56
492.963	92.56
493.18	76.56
493.398	97.56
493.615	98.56
493.833	97.56
494.05	87.56
494.268	92.56
494.485	90.56
494.703	87.56
494.92	94.56
495.138	90.56
495.355	85.56
495.573	109.56
495.79	88.56
496.008	90.56
496.225	88.56
496.442	92.56
496.66	85.56
496.877	101.56
497.094	100.56
497.312	91.56
497.529	79.56
497.746	85.56
497.963	90.56
498.181	87.56
498.398	104.56
498.615	80.56
498.832	89.56
499.049	85.56
499.267	88.56
499.484	88.56
499.701	96.56
499.918	109.56
500.135	113.56
500.352	112.56
500.569	106.56
500.786	113.56
501.003	121.56
501.22	116.56
501.437	102.56
501.654	96.56
501.871	106.56
502.088	84.56
502.305	84.56
502.522	95.56
502.739	97.56
502.956	95.56
503.172	93.56
503.389	82.56
503.606	95.56
503.823	95.56
504.04	103.56
504.256	104.56
504.473	95.56
504.69	91.56
504.907	84.56
505.123	90.56
505.34	97.56
505.557	86.56
505.773	102.56
505.99	84.56
506.207	81.56
506.423	78.56
506.64	95.56
506.856	90.56
507.073	103.56
507.289	108.56
507.506	89.56
507.722	85.56
507.939	81.56
508.155	93.56
508.372	80.56
508.588	104.56
508.805	98.56
509.021	81.56
509.238	91.56
509.454	80.56
509.67	106.56
509.887	98.56
510.103	85.56
510.319	76.56
510.536	79.56
510.752	81.56
510.968	92.56
511.184	86.56
511.401	96.56
511.617	100.56
511.833	95.56
512.049	84.56
512.265	81.56
512.481	100.56
512.698	99.56
512.914	85.56
513.13	87.56
513.346	85.56
513.562	89.56
513.778	94.56
513.994	92.56
514.21	71.56
514.426	100.56
514.642	97.56
514.858	87.56
515.074	88.56
515.29	87.56
515.506	72.56
515.721	92.56
515.937	75.56
516.153	76.56
516.369	80.56
516.585	87.56
516.801	86.56
517.016	103.56
517.232	88.56
517.448	102.56
517.664	94.56
517.879	93.56
518.095	75.56
518.311	95.56
518.527	88.56
518.742	93.56
518.958	79.56
