Data from BG_HRD10591_046.txt Node
Date: Fri May 16 15:21:17 EDT 2025
User: Yrep
Spectrometer: HR+D1059
Trigger mode: 1
Integration Time (sec): 1.000000E-1
Scans to average: 1
Electric dark correction enabled: true
Nonlinearity correction enabled: false
Boxcar width: 0
XAxis mode: Wavelengths
Number of Pixels in Spectrum: 2048
>>>>>Begin Spectral Data<<<<<
223.165	-20
223.4	-20
223.635	-20
223.869	-19
224.104	-14
224.338	-22
224.573	-18
224.808	-13
225.042	-13
225.277	-2
225.511	-6
225.746	11
225.98	11
226.215	11
226.449	18
226.683	12
226.918	34
227.152	30
227.387	29
227.621	32
227.856	38
228.09	42
228.324	52
228.559	48
228.793	63
229.027	56
229.262	57
229.496	61
229.73	74
229.964	60
230.199	70
230.433	68
230.667	73
230.901	86
231.136	72
231.37	76
231.604	78
231.838	87
232.072	74
232.306	82
232.541	78
232.775	87
233.009	67
233.243	62
233.477	74
233.711	91
233.945	82
234.179	93
234.413	87
234.647	87
234.881	65
235.115	78
235.349	78
235.583	68
235.817	92
236.051	86
236.285	75
236.519	87
236.753	78
236.987	74
237.221	81
237.455	80
237.689	82
237.922	76
238.156	80
238.39	79
238.624	74
238.858	69
239.091	86
239.325	80
239.559	67
239.793	71
240.027	72
240.26	66
240.494	67
240.728	66
240.961	83
241.195	86
241.429	83
241.662	68
241.896	70
242.13	77
242.363	69
242.597	60
242.83	85
243.064	61
243.298	75
243.531	75
243.765	88
243.998	82
244.232	76
244.465	72
244.699	78
244.932	90
245.166	88
245.399	78
245.633	82
245.866	82
246.099	93
246.333	89
246.566	79
246.8	70
247.033	76
247.266	81
247.5	71
247.733	77
247.966	71
248.2	80
248.433	71
248.666	72
248.899	92
249.133	85
249.366	66
249.599	82
249.832	87
250.066	82
250.299	78
250.532	92
250.765	77
250.998	83
251.231	90
251.465	68
251.698	81
251.931	76
252.164	68
252.397	82
252.63	83
252.863	69
253.096	65
253.329	68
253.562	84
253.795	63
254.028	81
254.261	67
254.494	70
254.727	70
254.96	88
255.193	80
255.426	74
255.659	72
255.892	86
256.124	84
256.357	87
256.59	71
256.823	87
257.056	77
257.289	82
257.521	75
257.754	87
257.987	74
258.22	94
258.452	70
258.685	74
258.918	95
259.151	82
259.383	78
259.616	87
259.849	92
260.081	84
260.314	69
260.547	84
260.779	85
261.012	79
261.244	79
261.477	93
261.71	80
261.942	74
262.175	76
262.407	68
262.64	94
262.872	82
263.105	73
263.337	81
263.57	82
263.802	79
264.035	71
264.267	87
264.499	80
264.732	76
264.964	90
265.197	77
265.429	87
265.661	86
265.894	74
266.126	76
266.358	78
266.591	83
266.823	80
267.055	78
267.287	86
267.52	73
267.752	67
267.984	84
268.216	88
268.448	91
268.681	78
268.913	85
269.145	71
269.377	90
269.609	88
269.841	79
270.073	80
270.306	90
270.538	92
270.77	74
271.002	70
271.234	76
271.466	76
271.698	81
271.93	68
272.162	86
272.394	78
272.626	85
272.858	77
273.09	82
273.322	76
273.553	76
273.785	89
274.017	82
274.249	81
274.481	87
274.713	88
274.945	74
275.176	80
275.408	85
275.64	87
275.872	96
276.104	93
276.335	93
276.567	76
276.799	78
277.031	85
277.262	101
277.494	93
277.726	76
277.957	94
278.189	74
278.421	81
278.652	82
278.884	69
279.115	89
279.347	93
279.579	86
279.81	77
280.042	82
280.273	80
280.505	81
280.736	94
280.968	82
281.199	96
281.431	97
281.662	85
281.894	86
282.125	81
282.356	87
282.588	91
282.819	83
283.051	93
283.282	80
283.513	84
283.745	79
283.976	95
284.207	87
284.439	87
284.67	91
284.901	88
285.132	74
285.364	88
285.595	89
285.826	77
286.057	81
286.288	93
286.52	75
286.751	82
286.982	84
287.213	76
287.444	79
287.675	72
287.906	86
288.138	83
288.369	93
288.6	87
288.831	79
289.062	71
289.293	77
289.524	84
289.755	86
289.986	84
290.217	82
290.448	95
290.679	86
290.91	81
291.141	93
291.371	73
291.602	80
291.833	76
292.064	83
292.295	85
292.526	82
292.757	80
292.987	79
293.218	101
293.449	84
293.68	88
293.91	72
294.141	84
294.372	86
294.603	89
294.833	85
295.064	80
295.295	79
295.525	87
295.756	81
295.987	87
296.217	86
296.448	71
296.679	76
296.909	83
297.14	76
297.37	89
297.601	94
297.831	86
298.062	93
298.292	99
298.523	76
298.753	82
298.984	93
299.214	87
299.445	87
299.675	69
299.905	86
300.136	88
300.366	89
300.597	92
300.827	87
301.057	77
301.288	92
301.518	95
301.748	89
301.979	100
302.209	71
302.439	79
302.669	81
302.9	74
303.13	76
303.36	83
303.59	78
303.82	71
304.051	88
304.281	105
304.511	84
304.741	89
304.971	106
305.201	85
305.431	87
305.661	94
305.891	87
306.121	87
306.352	89
306.582	96
306.812	79
307.042	80
307.272	83
307.502	85
307.731	87
307.961	95
308.191	85
308.421	81
308.651	80
308.881	98
309.111	90
309.341	79
309.571	85
309.8	92
310.03	94
310.26	81
310.49	89
310.72	75
310.949	64
311.179	86
311.409	86
311.639	79
311.868	92
312.098	93
312.328	82
312.557	81
312.787	87
313.017	85
313.246	86
313.476	101
313.706	98
313.935	94
314.165	104
314.394	83
314.624	77
314.853	86
315.083	83
315.312	90
315.542	87
315.771	91
316.001	90
316.23	75
316.46	75
316.689	108
316.919	85
317.148	70
317.377	86
317.607	83
317.836	90
318.065	82
318.295	97
318.524	94
318.753	80
318.983	87
319.212	82
319.441	88
319.67	85
319.9	84
320.129	93
320.358	88
320.587	95
320.816	97
321.046	84
321.275	82
321.504	82
321.733	84
321.962	78
322.191	99
322.42	94
322.649	75
322.878	78
323.108	98
323.337	86
323.566	80
323.795	86
324.024	71
324.253	87
324.482	91
324.71	98
324.939	92
325.168	87
325.397	98
325.626	84
325.855	80
326.084	77
326.313	83
326.542	86
326.77	88
326.999	83
327.228	74
327.457	94
327.686	81
327.914	78
328.143	90
328.372	94
328.6	89
328.829	85
329.058	91
329.287	100
329.515	80
329.744	82
329.972	89
330.201	82
330.43	86
330.658	91
330.887	89
331.115	77
331.344	86
331.572	90
331.801	80
332.03	68
332.258	82
332.486	90
332.715	78
332.943	89
333.172	86
333.4	87
333.629	85
333.857	95
334.085	88
334.314	94
334.542	85
334.771	77
334.999	100
335.227	88
335.455	90
335.684	93
335.912	89
336.14	94
336.369	88
336.597	98
336.825	94
337.053	92
337.281	91
337.51	90
337.738	87
337.966	82
338.194	83
338.422	94
338.65	77
338.878	90
339.106	76
339.334	80
339.562	87
339.79	101
340.018	88
340.246	88
340.474	86
340.702	94
340.93	83
341.158	77
341.386	77
341.614	89
341.842	75
342.07	92
342.298	71
342.526	86
342.754	75
342.981	91
343.209	82
343.437	91
343.665	81
343.893	90
344.12	85
344.348	82
344.576	83
344.804	86
345.031	82
345.259	81
345.487	87
345.714	73
345.942	96
346.17	95
346.397	96
346.625	90
346.853	87
347.08	80
347.308	79
347.535	81
347.763	76
347.99	86
348.218	86
348.445	95
348.673	90
348.9	84
349.128	93
349.355	73
349.583	74
349.81	90
350.037	82
350.265	80
350.492	78
350.72	74
350.947	86
351.174	94
351.402	87
351.629	80
351.856	87
352.083	68
352.311	91
352.538	81
352.765	85
352.992	103
353.22	86
353.447	74
353.674	84
353.901	84
354.128	88
354.355	91
354.583	84
354.81	105
355.037	98
355.264	87
355.491	80
355.718	76
355.945	92
356.172	98
356.399	84
356.626	90
356.853	84
357.08	102
357.307	95
357.534	90
357.761	85
357.988	89
358.215	88
358.441	90
358.668	88
358.895	78
359.122	78
359.349	93
359.576	87
359.802	92
360.029	89
360.256	86
360.483	74
360.709	79
360.936	86
361.163	87
361.39	91
361.616	95
361.843	95
362.07	91
362.296	92
362.523	84
362.749	82
362.976	102
363.203	93
363.429	86
363.656	83
363.882	76
364.109	73
364.335	78
364.562	80
364.788	77
365.015	83
365.241	92
365.468	80
365.694	75
365.92	86
366.147	74
366.373	79
366.599	86
366.826	94
367.052	69
367.278	92
367.505	98
367.731	98
367.957	86
368.184	101
368.41	77
368.636	86
368.862	94
369.089	82
369.315	80
369.541	94
369.767	85
369.993	77
370.219	82
370.445	96
370.672	78
370.898	91
371.124	79
371.35	87
371.576	74
371.802	86
372.028	86
372.254	81
372.48	86
372.706	85
372.932	95
373.158	86
373.384	92
373.61	95
373.835	99
374.061	74
374.287	88
374.513	92
374.739	90
374.965	89
375.191	93
375.416	88
375.642	82
375.868	77
376.094	72
376.319	80
376.545	86
376.771	98
376.997	73
377.222	83
377.448	76
377.674	90
377.899	84
378.125	83
378.35	83
378.576	91
378.802	97
379.027	78
379.253	95
379.478	91
379.704	82
379.929	83
380.155	85
380.38	76
380.606	83
380.831	75
381.057	88
381.282	84
381.507	86
381.733	87
381.958	89
382.184	86
382.409	82
382.634	94
382.86	88
383.085	89
383.31	84
383.535	98
383.761	91
383.986	88
384.211	84
384.436	87
384.662	74
384.887	88
385.112	87
385.337	92
385.562	90
385.787	80
386.013	78
386.238	93
386.463	98
386.688	101
386.913	86
387.138	86
387.363	91
387.588	89
387.813	69
388.038	80
388.263	83
388.488	87
388.713	91
388.938	88
389.163	92
389.387	75
389.612	87
389.837	89
390.062	92
390.287	94
390.512	91
390.736	89
390.961	91
391.186	92
391.411	95
391.636	86
391.86	76
392.085	101
392.31	98
392.534	73
392.759	86
392.984	92
393.208	83
393.433	89
393.658	78
393.882	88
394.107	102
394.331	89
394.556	77
394.78	89
395.005	98
395.229	88
395.454	99
395.678	94
395.903	82
396.127	98
396.352	83
396.576	88
396.801	102
397.025	91
397.249	94
397.474	96
397.698	86
397.922	90
398.147	85
398.371	75
398.595	79
398.82	106
399.044	93
399.268	89
399.492	97
399.717	95
399.941	84
400.165	98
400.389	86
400.613	94
400.837	85
401.062	94
401.286	91
401.51	74
401.734	108
401.958	86
402.182	76
402.406	77
402.63	77
402.854	92
403.078	98
403.302	66
403.526	78
403.75	84
403.974	87
404.198	88
404.422	79
404.645	75
404.869	99
405.093	95
405.317	84
405.541	84
405.765	80
405.988	86
406.212	96
406.436	91
406.66	102
406.883	85
407.107	94
407.331	98
407.555	108
407.778	94
408.002	74
408.226	104
408.449	88
408.673	83
408.896	84
409.12	90
409.344	91
409.567	85
409.791	83
410.014	93
410.238	93
410.461	86
410.685	99
410.908	78
411.132	90
411.355	86
411.578	91
411.802	90
412.025	85
412.249	78
412.472	88
412.695	83
412.919	86
413.142	98
413.365	80
413.589	81
413.812	79
414.035	86
414.258	82
414.482	90
414.705	65
414.928	77
415.151	92
415.374	88
415.597	92
415.821	89
416.044	84
416.267	95
416.49	91
416.713	91
416.936	86
417.159	83
417.382	80
417.605	82
417.828	102
418.051	98
418.274	79
418.497	87
418.72	94
418.943	93
419.166	87
419.389	87
419.611	87
419.834	79
420.057	73
420.28	86
420.503	88
420.726	103
420.948	86
421.171	88
421.394	94
421.617	86
421.839	88
422.062	91
422.285	79
422.507	93
422.73	88
422.953	75
423.175	89
423.398	102
423.621	97
423.843	74
424.066	79
424.288	101
424.511	83
424.733	90
424.956	70
425.178	110
425.401	96
425.623	82
425.846	91
426.068	90
426.291	88
426.513	84
426.735	84
426.958	82
427.18	96
427.402	89
427.625	80
427.847	96
428.069	89
428.292	82
428.514	84
428.736	83
428.958	78
429.181	93
429.403	83
429.625	92
429.847	80
430.069	69
430.292	105
430.514	76
430.736	85
430.958	78
431.18	82
431.402	93
431.624	85
431.846	91
432.068	88
432.29	95
432.512	83
432.734	78
432.956	90
433.178	92
433.4	91
433.622	81
433.844	84
434.066	79
434.287	88
434.509	90
434.731	89
434.953	84
435.175	74
435.397	93
435.618	68
435.84	78
436.062	75
436.284	74
436.505	84
436.727	86
436.949	98
437.17	74
437.392	88
437.614	76
437.835	86
438.057	94
438.278	89
438.5	91
438.721	86
438.943	81
439.165	91
439.386	90
439.608	92
439.829	102
440.05	89
440.272	98
440.493	95
440.715	91
440.936	94
441.158	88
441.379	79
441.6	96
441.822	95
442.043	87
442.264	90
442.486	88
442.707	78
442.928	70
443.149	85
443.371	93
443.592	80
443.813	83
444.034	82
444.255	78
444.476	78
444.698	88
444.919	88
445.14	170
445.361	118
445.582	79
445.803	69
446.024	94
446.245	86
446.466	81
446.687	104
446.908	86
447.129	79
447.35	77
447.571	93
447.792	80
448.013	90
448.234	80
448.455	88
448.675	83
448.896	84
449.117	75
449.338	102
449.559	93
449.779	88
450	80
450.221	87
450.442	92
450.662	94
450.883	86
451.104	64
451.324	77
451.545	83
451.766	87
451.986	76
452.207	82
452.428	78
452.648	81
452.869	90
453.089	88
453.31	94
453.53	74
453.751	78
453.971	71
454.192	83
454.412	87
454.633	83
454.853	84
455.073	90
455.294	72
455.514	77
455.734	81
455.955	87
456.175	78
456.395	88
456.616	87
456.836	95
457.056	96
457.276	88
457.497	77
457.717	89
457.937	87
458.157	68
458.377	80
458.598	87
458.818	86
459.038	102
459.258	92
459.478	81
459.698	85
459.918	88
460.138	89
460.358	89
460.578	96
460.798	78
461.018	99
461.238	83
461.458	81
461.678	95
461.898	86
462.118	88
462.338	86
462.558	86
462.777	76
462.997	79
463.217	94
463.437	84
463.657	91
463.876	85
464.096	89
464.316	90
464.536	91
464.755	89
464.975	85
465.195	87
465.414	100
465.634	87
465.854	82
466.073	80
466.293	78
466.512	88
466.732	86
466.951	87
467.171	80
467.391	82
467.61	80
467.829	101
468.049	81
468.268	68
468.488	84
468.707	76
468.927	82
469.146	76
469.365	99
469.585	102
469.804	86
470.023	78
470.243	87
470.462	75
470.681	96
470.901	72
471.12	98
471.339	91
471.558	92
471.777	91
471.997	83
472.216	81
472.435	91
472.654	89
472.873	90
473.092	75
473.311	78
473.53	97
473.749	83
473.968	81
474.187	86
474.406	80
474.625	98
474.844	64
475.063	84
475.282	75
475.501	87
475.72	101
475.939	92
476.158	94
476.377	92
476.596	87
476.814	90
477.033	74
477.252	71
477.471	96
477.69	86
477.908	99
478.127	74
478.346	82
478.564	84
478.783	82
479.002	83
479.22	77
479.439	86
479.658	97
479.876	91
480.095	86
480.313	95
480.532	93
480.751	87
480.969	79
481.188	101
481.406	74
481.624	80
481.843	91
482.061	92
482.28	85
482.498	91
482.717	83
482.935	94
483.153	98
483.372	86
483.59	82
483.808	102
484.027	86
484.245	84
484.463	80
484.681	95
484.9	104
485.118	85
485.336	85
485.554	81
485.772	102
485.99	96
486.209	90
486.427	87
486.645	84
486.863	87
487.081	86
487.299	94
487.517	95
487.735	94
487.953	90
488.171	84
488.389	86
488.607	76
488.825	76
489.043	82
489.261	91
489.479	96
489.696	88
489.914	91
490.132	91
490.35	92
490.568	83
490.786	92
491.003	88
491.221	87
491.439	78
491.657	77
491.874	95
492.092	83
492.31	92
492.527	102
492.745	95
492.963	74
493.18	83
493.398	86
493.615	85
493.833	99
494.05	72
494.268	95
494.485	85
494.703	88
494.92	86
495.138	75
495.355	98
495.573	89
495.79	92
496.008	86
496.225	82
496.442	89
496.66	91
496.877	94
497.094	91
497.312	72
497.529	90
497.746	85
497.963	87
498.181	91
498.398	110
498.615	68
498.832	80
499.049	85
499.267	103
499.484	104
499.701	102
499.918	101
500.135	114
500.352	109
500.569	100
500.786	87
501.003	95
501.22	105
501.437	97
501.654	69
501.871	82
502.088	90
502.305	102
502.522	95
502.739	102
502.956	107
503.172	101
503.389	94
503.606	94
503.823	86
504.04	94
504.256	93
504.473	104
504.69	87
504.907	95
505.123	89
505.34	94
505.557	86
505.773	82
505.99	100
506.207	98
506.423	95
506.64	82
506.856	83
507.073	87
507.289	102
507.506	87
507.722	82
507.939	87
508.155	75
508.372	80
508.588	96
508.805	99
509.021	85
509.238	92
509.454	83
509.67	92
509.887	89
510.103	85
510.319	95
510.536	85
510.752	82
510.968	78
511.184	80
511.401	71
511.617	87
511.833	89
512.049	82
512.265	91
512.481	78
512.698	87
512.914	86
513.13	82
513.346	94
513.562	83
513.778	84
513.994	80
514.21	79
514.426	90
514.642	92
514.858	87
515.074	100
515.29	97
515.506	70
515.721	90
515.937	79
516.153	86
516.369	76
516.585	99
516.801	79
517.016	86
517.232	92
517.448	89
517.664	91
517.879	70
518.095	78
518.311	98
518.527	78
518.742	93
518.958	94
519.173	102
519.389	76
519.605	108
519.82	103
520.036	98
520.251	87
520.467	86
520.682	82
520.898	89
521.113	82
521.329	94
521.544	90
521.76	80
521.975	79
522.19	87
522.406	100
522.621	83
522.836	77
523.052	90
523.267	94
523.482	86
523.698	77
523.913	79
524.128	71
524.343	81
524.559	92
524.774	79
524.989	82
525.204	77
525.419	91
525.634	102
525.849	100
526.064	88
526.28	98
526.495	84
526.71	76
526.925	87
527.14	76
527.355	85
527.57	87
527.785	98
527.999	94
528.214	101
528.429	71
528.644	84
528.859	82
529.074	92
529.289	92
529.503	80
529.718	86
529.933	93
530.148	87
530.363	87
530.577	100
530.792	84
531.007	90
531.221	87
531.436	80
531.651	90
531.865	91
532.08	87
532.295	90
532.509	83
532.724	87
532.938	88
533.153	91
533.367	90
533.582	98
533.796	74
534.011	88
534.225	79
534.44	86
534.654	85
534.868	81
535.083	93
535.297	89
535.511	101
535.726	90
535.94	77
536.154	79
536.369	92
536.583	79
536.797	87
537.011	89
537.225	84
537.44	79
537.654	86
537.868	80
538.082	92
538.296	61
538.51	84
538.724	82
538.938	89
539.153	93
539.367	102
539.581	82
539.795	82
540.009	87
540.222	95
540.436	78
540.65	88
540.864	85
541.078	89
541.292	101
541.506	92
541.72	94
541.934	80
542.147	91
542.361	88
542.575	88
542.789	71
543.002	72
543.216	93
543.43	93
543.644	92
543.857	79
544.071	83
544.285	104
544.498	72
544.712	96
544.925	78
545.139	81
545.352	77
545.566	90
545.779	74
545.993	90
546.206	90
546.42	95
546.633	90
546.847	106
547.06	95
547.274	84
547.487	92
547.7	90
547.914	75
548.127	80
548.34	82
548.554	77
548.767	87
548.98	79
549.193	84
549.407	93
549.62	79
549.833	78
550.046	92
550.259	86
550.473	73
550.686	88
550.899	88
551.112	98
551.325	82
551.538	85
551.751	80
551.964	87
552.177	92
552.39	94
552.603	98
552.816	102
553.029	79
553.242	86
553.455	101
553.667	91
553.88	98
554.093	102
554.306	92
554.519	79
554.732	102
554.944	79
555.157	92
555.37	105
555.583	85
555.795	91
556.008	98
556.221	95
556.433	80
556.646	85
556.859	81
557.071	91
557.284	86
557.496	83
557.709	77
557.921	86
558.134	76
558.346	79
558.559	83
558.771	76
558.984	95
559.196	86
559.409	83
559.621	95
559.833	68
560.046	78
560.258	86
560.47	83
560.683	92
560.895	84
561.107	86
561.32	100
561.532	80
561.744	85
561.956	80
562.168	70
562.381	84
562.593	84
562.805	88
563.017	92
563.229	88
563.441	89
563.653	80
563.865	96
564.077	86
564.289	88
564.501	93
564.713	93
564.925	101
565.137	81
565.349	100
565.561	79
565.773	81
565.985	78
566.197	94
566.408	95
566.62	92
566.832	90
567.044	91
567.255	99
567.467	87
567.679	81
567.891	95
568.102	92
568.314	96
568.526	94
568.737	85
568.949	88
569.161	79
569.372	96
569.584	84
569.795	86
570.007	96
570.218	83
570.43	90
570.641	86
570.853	96
571.064	99
571.276	86
571.487	90
571.698	92
571.91	80
572.121	87
572.333	77
572.544	84
572.755	85
572.966	86
573.178	100
573.389	84
573.6	85
573.811	87
574.023	89
574.234	99
574.445	78
574.656	84
574.867	87
575.078	92
575.289	103
575.501	97
575.712	93
575.923	90
576.134	75
576.345	79
576.556	76
576.767	86
576.978	79
577.188	79
577.399	84
577.61	70
577.821	100
578.032	100
578.243	85
578.454	76
578.665	80
578.875	84
579.086	79
579.297	74
579.508	79
579.718	93
579.929	74
580.14	82
580.35	70
580.561	99
580.772	85
580.982	82
581.193	88
581.403	82
581.614	96
581.825	72
582.035	71
582.246	91
582.456	81
582.667	78
582.877	80
583.087	86
583.298	75
583.508	88
583.719	73
583.929	94
584.139	84
584.35	78
584.56	91
584.77	79
584.981	85
585.191	102
585.401	87
585.611	98
585.821	74
586.032	82
586.242	70
586.452	93
586.662	92
586.872	88
587.082	91
587.292	65
587.502	87
587.713	89
587.923	64
588.133	96
588.343	75
588.553	81
588.762	98
588.972	101
589.182	78
589.392	85
589.602	106
