Data from BG_HRD10591_004.txt Node
Date: Fri May 16 15:20:56 EDT 2025
User: Yrep
Spectrometer: HR+D1059
Trigger mode: 1
Integration Time (sec): 1.000000E-1
Scans to average: 1
Electric dark correction enabled: true
Nonlinearity correction enabled: false
Boxcar width: 0
XAxis mode: Wavelengths
Number of Pixels in Spectrum: 2048
>>>>>Begin Spectral Data<<<<<
223.165	-7.25
223.4	-7.25
223.635	-7.25
223.869	-12.25
224.104	-19.25
224.338	-10.25
224.573	-25.25
224.808	-17.25
225.042	-13.25
225.277	-17.25
225.511	4.75
225.746	5.75
225.98	11.75
226.215	9.75
226.449	23.75
226.683	22.75
226.918	22.75
227.152	20.75
227.387	38.75
227.621	33.75
227.856	31.75
228.09	49.75
228.324	46.75
228.559	64.75
228.793	61.75
229.027	60.75
229.262	73.75
229.496	74.75
229.73	65.75
229.964	60.75
230.199	74.75
230.433	61.75
230.667	80.75
230.901	80.75
231.136	86.75
231.37	77.75
231.604	81.75
231.838	78.75
232.072	96.75
232.306	86.75
232.541	96.75
232.775	76.75
233.009	83.75
233.243	86.75
233.477	85.75
233.711	80.75
233.945	92.75
234.179	83.75
234.413	83.75
234.647	94.75
234.881	94.75
235.115	84.75
235.349	65.75
235.583	76.75
235.817	74.75
236.051	72.75
236.285	79.75
236.519	75.75
236.753	77.75
236.987	62.75
237.221	80.75
237.455	71.75
237.689	73.75
237.922	82.75
238.156	63.75
238.39	75.75
238.624	76.75
238.858	90.75
239.091	74.75
239.325	84.75
239.559	73.75
239.793	74.75
240.027	74.75
240.26	79.75
240.494	85.75
240.728	73.75
240.961	58.75
241.195	77.75
241.429	60.75
241.662	69.75
241.896	78.75
242.13	82.75
242.363	69.75
242.597	81.75
242.83	90.75
243.064	83.75
243.298	81.75
243.531	75.75
243.765	76.75
243.998	72.75
244.232	70.75
244.465	76.75
244.699	82.75
244.932	98.75
245.166	89.75
245.399	84.75
245.633	82.75
245.866	84.75
246.099	74.75
246.333	82.75
246.566	75.75
246.8	56.75
247.033	79.75
247.266	81.75
247.5	88.75
247.733	81.75
247.966	69.75
248.2	94.75
248.433	72.75
248.666	79.75
248.899	87.75
249.133	106.75
249.366	70.75
249.599	90.75
249.832	90.75
250.066	91.75
250.299	79.75
250.532	80.75
250.765	84.75
250.998	76.75
251.231	74.75
251.465	84.75
251.698	80.75
251.931	85.75
252.164	79.75
252.397	66.75
252.63	73.75
252.863	84.75
253.096	85.75
253.329	89.75
253.562	81.75
253.795	82.75
254.028	86.75
254.261	74.75
254.494	89.75
254.727	87.75
254.96	80.75
255.193	75.75
255.426	82.75
255.659	85.75
255.892	73.75
256.124	70.75
256.357	71.75
256.59	74.75
256.823	73.75
257.056	85.75
257.289	79.75
257.521	79.75
257.754	81.75
257.987	66.75
258.22	76.75
258.452	80.75
258.685	82.75
258.918	81.75
259.151	81.75
259.383	82.75
259.616	95.75
259.849	100.75
260.081	85.75
260.314	96.75
260.547	75.75
260.779	79.75
261.012	95.75
261.244	99.75
261.477	72.75
261.71	85.75
261.942	71.75
262.175	88.75
262.407	85.75
262.64	96.75
262.872	91.75
263.105	97.75
263.337	81.75
263.57	92.75
263.802	78.75
264.035	85.75
264.267	81.75
264.499	84.75
264.732	74.75
264.964	90.75
265.197	80.75
265.429	85.75
265.661	91.75
265.894	89.75
266.126	74.75
266.358	79.75
266.591	94.75
266.823	84.75
267.055	79.75
267.287	73.75
267.52	67.75
267.752	81.75
267.984	74.75
268.216	91.75
268.448	96.75
268.681	81.75
268.913	84.75
269.145	85.75
269.377	88.75
269.609	91.75
269.841	93.75
270.073	90.75
270.306	84.75
270.538	81.75
270.77	80.75
271.002	76.75
271.234	81.75
271.466	80.75
271.698	88.75
271.93	90.75
272.162	83.75
272.394	87.75
272.626	90.75
272.858	85.75
273.09	86.75
273.322	93.75
273.553	92.75
273.785	95.75
274.017	90.75
274.249	90.75
274.481	83.75
274.713	93.75
274.945	84.75
275.176	87.75
275.408	83.75
275.64	76.75
275.872	86.75
276.104	79.75
276.335	89.75
276.567	81.75
276.799	76.75
277.031	74.75
277.262	76.75
277.494	91.75
277.726	90.75
277.957	86.75
278.189	81.75
278.421	78.75
278.652	87.75
278.884	78.75
279.115	89.75
279.347	86.75
279.579	74.75
279.81	97.75
280.042	87.75
280.273	91.75
280.505	90.75
280.736	83.75
280.968	84.75
281.199	80.75
281.431	83.75
281.662	84.75
281.894	89.75
282.125	87.75
282.356	88.75
282.588	91.75
282.819	89.75
283.051	81.75
283.282	78.75
283.513	80.75
283.745	86.75
283.976	72.75
284.207	87.75
284.439	78.75
284.67	95.75
284.901	79.75
285.132	89.75
285.364	92.75
285.595	76.75
285.826	75.75
286.057	86.75
286.288	88.75
286.52	88.75
286.751	93.75
286.982	90.75
287.213	87.75
287.444	94.75
287.675	75.75
287.906	83.75
288.138	83.75
288.369	85.75
288.6	95.75
288.831	78.75
289.062	86.75
289.293	90.75
289.524	89.75
289.755	92.75
289.986	90.75
290.217	100.75
290.448	86.75
290.679	95.75
290.91	84.75
291.141	87.75
291.371	101.75
291.602	102.75
291.833	100.75
292.064	84.75
292.295	79.75
292.526	87.75
292.757	90.75
292.987	91.75
293.218	91.75
293.449	87.75
293.68	87.75
293.91	85.75
294.141	85.75
294.372	93.75
294.603	89.75
294.833	102.75
295.064	77.75
295.295	84.75
295.525	100.75
295.756	80.75
295.987	88.75
296.217	94.75
296.448	104.75
296.679	76.75
296.909	90.75
297.14	100.75
297.37	82.75
297.601	77.75
297.831	78.75
298.062	79.75
298.292	87.75
298.523	91.75
298.753	109.75
298.984	91.75
299.214	82.75
299.445	81.75
299.675	79.75
299.905	80.75
300.136	74.75
300.366	94.75
300.597	94.75
300.827	102.75
301.057	90.75
301.288	77.75
301.518	92.75
301.748	92.75
301.979	96.75
302.209	90.75
302.439	81.75
302.669	73.75
302.9	89.75
303.13	92.75
303.36	88.75
303.59	94.75
303.82	90.75
304.051	102.75
304.281	102.75
304.511	76.75
304.741	102.75
304.971	82.75
305.201	78.75
305.431	86.75
305.661	93.75
305.891	84.75
306.121	84.75
306.352	85.75
306.582	102.75
306.812	92.75
307.042	89.75
307.272	93.75
307.502	78.75
307.731	93.75
307.961	108.75
308.191	91.75
308.421	104.75
308.651	92.75
308.881	84.75
309.111	86.75
309.341	90.75
309.571	82.75
309.8	77.75
310.03	79.75
310.26	96.75
310.49	92.75
310.72	78.75
310.949	97.75
311.179	89.75
311.409	87.75
311.639	81.75
311.868	87.75
312.098	102.75
312.328	90.75
312.557	91.75
312.787	97.75
313.017	85.75
313.246	93.75
313.476	80.75
313.706	97.75
313.935	85.75
314.165	87.75
314.394	90.75
314.624	86.75
314.853	87.75
315.083	81.75
315.312	91.75
315.542	92.75
315.771	86.75
316.001	103.75
316.23	96.75
316.46	80.75
316.689	101.75
316.919	80.75
317.148	97.75
317.377	80.75
317.607	92.75
317.836	76.75
318.065	80.75
318.295	86.75
318.524	107.75
318.753	94.75
318.983	93.75
319.212	82.75
319.441	88.75
319.67	87.75
319.9	91.75
320.129	105.75
320.358	96.75
320.587	80.75
320.816	89.75
321.046	93.75
321.275	90.75
321.504	89.75
321.733	88.75
321.962	90.75
322.191	87.75
322.42	84.75
322.649	99.75
322.878	78.75
323.108	91.75
323.337	89.75
323.566	97.75
323.795	91.75
324.024	98.75
324.253	90.75
324.482	88.75
324.71	92.75
324.939	90.75
325.168	90.75
325.397	87.75
325.626	93.75
325.855	85.75
326.084	91.75
326.313	96.75
326.542	90.75
326.77	76.75
326.999	92.75
327.228	90.75
327.457	88.75
327.686	90.75
327.914	94.75
328.143	93.75
328.372	80.75
328.6	104.75
328.829	92.75
329.058	90.75
329.287	76.75
329.515	86.75
329.744	97.75
329.972	82.75
330.201	92.75
330.43	80.75
330.658	67.75
330.887	85.75
331.115	93.75
331.344	98.75
331.572	90.75
331.801	97.75
332.03	92.75
332.258	82.75
332.486	84.75
332.715	93.75
332.943	88.75
333.172	84.75
333.4	105.75
333.629	96.75
333.857	94.75
334.085	94.75
334.314	93.75
334.542	80.75
334.771	94.75
334.999	94.75
335.227	82.75
335.455	96.75
335.684	90.75
335.912	86.75
336.14	86.75
336.369	95.75
336.597	88.75
336.825	79.75
337.053	86.75
337.281	90.75
337.51	85.75
337.738	96.75
337.966	88.75
338.194	112.75
338.422	89.75
338.65	86.75
338.878	92.75
339.106	88.75
339.334	97.75
339.562	85.75
339.79	88.75
340.018	72.75
340.246	87.75
340.474	89.75
340.702	93.75
340.93	88.75
341.158	90.75
341.386	93.75
341.614	90.75
341.842	80.75
342.07	76.75
342.298	96.75
342.526	90.75
342.754	97.75
342.981	90.75
343.209	102.75
343.437	100.75
343.665	88.75
343.893	96.75
344.12	79.75
344.348	98.75
344.576	81.75
344.804	74.75
345.031	89.75
345.259	77.75
345.487	85.75
345.714	84.75
345.942	89.75
346.17	88.75
346.397	105.75
346.625	97.75
346.853	97.75
347.08	97.75
347.308	92.75
347.535	91.75
347.763	93.75
347.99	90.75
348.218	92.75
348.445	89.75
348.673	89.75
348.9	96.75
349.128	86.75
349.355	89.75
349.583	83.75
349.81	95.75
350.037	92.75
350.265	74.75
350.492	74.75
350.72	91.75
350.947	72.75
351.174	97.75
351.402	89.75
351.629	89.75
351.856	82.75
352.083	95.75
352.311	80.75
352.538	80.75
352.765	78.75
352.992	92.75
353.22	89.75
353.447	82.75
353.674	98.75
353.901	90.75
354.128	90.75
354.355	87.75
354.583	100.75
354.81	94.75
355.037	94.75
355.264	92.75
355.491	92.75
355.718	93.75
355.945	97.75
356.172	91.75
356.399	64.75
356.626	89.75
356.853	82.75
357.08	85.75
357.307	82.75
357.534	79.75
357.761	79.75
357.988	88.75
358.215	88.75
358.441	93.75
358.668	84.75
358.895	74.75
359.122	87.75
359.349	97.75
359.576	101.75
359.802	92.75
360.029	91.75
360.256	87.75
360.483	90.75
360.709	85.75
360.936	99.75
361.163	94.75
361.39	88.75
361.616	88.75
361.843	79.75
362.07	81.75
362.296	87.75
362.523	94.75
362.749	84.75
362.976	78.75
363.203	85.75
363.429	89.75
363.656	86.75
363.882	94.75
364.109	93.75
364.335	86.75
364.562	86.75
364.788	86.75
365.015	84.75
365.241	95.75
365.468	101.75
365.694	88.75
365.92	81.75
366.147	72.75
366.373	84.75
366.599	76.75
366.826	101.75
367.052	108.75
367.278	97.75
367.505	72.75
367.731	90.75
367.957	81.75
368.184	88.75
368.41	89.75
368.636	89.75
368.862	93.75
369.089	83.75
369.315	100.75
369.541	85.75
369.767	87.75
369.993	91.75
370.219	79.75
370.445	107.75
370.672	102.75
370.898	86.75
371.124	103.75
371.35	95.75
371.576	89.75
371.802	87.75
372.028	89.75
372.254	89.75
372.48	83.75
372.706	79.75
372.932	89.75
373.158	81.75
373.384	87.75
373.61	97.75
373.835	89.75
374.061	96.75
374.287	78.75
374.513	89.75
374.739	80.75
374.965	96.75
375.191	81.75
375.416	96.75
375.642	92.75
375.868	93.75
376.094	88.75
376.319	76.75
376.545	90.75
376.771	97.75
376.997	101.75
377.222	107.75
377.448	97.75
377.674	85.75
377.899	88.75
378.125	82.75
378.35	82.75
378.576	74.75
378.802	97.75
379.027	96.75
379.253	92.75
379.478	80.75
379.704	86.75
379.929	91.75
380.155	86.75
380.38	85.75
380.606	72.75
380.831	80.75
381.057	88.75
381.282	85.75
381.507	89.75
381.733	93.75
381.958	92.75
382.184	88.75
382.409	91.75
382.634	83.75
382.86	84.75
383.085	92.75
383.31	76.75
383.535	79.75
383.761	79.75
383.986	88.75
384.211	90.75
384.436	88.75
384.662	82.75
384.887	96.75
385.112	79.75
385.337	92.75
385.562	98.75
385.787	104.75
386.013	96.75
386.238	88.75
386.463	77.75
386.688	110.75
386.913	90.75
387.138	88.75
387.363	75.75
387.588	88.75
387.813	74.75
388.038	94.75
388.263	85.75
388.488	76.75
388.713	89.75
388.938	77.75
389.163	85.75
389.387	100.75
389.612	98.75
389.837	84.75
390.062	82.75
390.287	72.75
390.512	91.75
390.736	88.75
390.961	85.75
391.186	103.75
391.411	89.75
391.636	93.75
391.86	72.75
392.085	94.75
392.31	84.75
392.534	89.75
392.759	101.75
392.984	87.75
393.208	82.75
393.433	92.75
393.658	84.75
393.882	94.75
394.107	87.75
394.331	78.75
394.556	87.75
394.78	95.75
395.005	92.75
395.229	80.75
395.454	103.75
395.678	82.75
395.903	92.75
396.127	102.75
396.352	91.75
396.576	77.75
396.801	86.75
397.025	72.75
397.249	98.75
397.474	92.75
397.698	94.75
397.922	82.75
398.147	85.75
398.371	76.75
398.595	60.75
398.82	82.75
399.044	94.75
399.268	100.75
399.492	105.75
399.717	95.75
399.941	95.75
400.165	91.75
400.389	92.75
400.613	84.75
400.837	94.75
401.062	85.75
401.286	83.75
401.51	95.75
401.734	103.75
401.958	95.75
402.182	71.75
402.406	89.75
402.63	80.75
402.854	94.75
403.078	91.75
403.302	95.75
403.526	92.75
403.75	83.75
403.974	81.75
404.198	88.75
404.422	84.75
404.645	100.75
404.869	97.75
405.093	92.75
405.317	82.75
405.541	80.75
405.765	92.75
405.988	82.75
406.212	80.75
406.436	94.75
406.66	95.75
406.883	85.75
407.107	87.75
407.331	91.75
407.555	87.75
407.778	72.75
408.002	81.75
408.226	78.75
408.449	89.75
408.673	88.75
408.896	83.75
409.12	97.75
409.344	97.75
409.567	94.75
409.791	89.75
410.014	92.75
410.238	83.75
410.461	80.75
410.685	92.75
410.908	88.75
411.132	89.75
411.355	77.75
411.578	93.75
411.802	101.75
412.025	92.75
412.249	94.75
412.472	88.75
412.695	81.75
412.919	90.75
413.142	87.75
413.365	90.75
413.589	87.75
413.812	91.75
414.035	92.75
414.258	90.75
414.482	86.75
414.705	81.75
414.928	83.75
415.151	92.75
415.374	90.75
415.597	80.75
415.821	73.75
416.044	85.75
416.267	89.75
416.49	97.75
416.713	93.75
416.936	94.75
417.159	77.75
417.382	86.75
417.605	98.75
417.828	77.75
418.051	80.75
418.274	90.75
418.497	86.75
418.72	88.75
418.943	74.75
419.166	84.75
419.389	80.75
419.611	87.75
419.834	91.75
420.057	85.75
420.28	86.75
420.503	97.75
420.726	91.75
420.948	92.75
421.171	98.75
421.394	92.75
421.617	79.75
421.839	99.75
422.062	79.75
422.285	81.75
422.507	90.75
422.73	97.75
422.953	90.75
423.175	88.75
423.398	83.75
423.621	84.75
423.843	84.75
424.066	80.75
424.288	72.75
424.511	81.75
424.733	91.75
424.956	90.75
425.178	100.75
425.401	88.75
425.623	93.75
425.846	88.75
426.068	103.75
426.291	92.75
426.513	97.75
426.735	103.75
426.958	87.75
427.18	84.75
427.402	93.75
427.625	96.75
427.847	98.75
428.069	93.75
428.292	86.75
428.514	85.75
428.736	98.75
428.958	97.75
429.181	87.75
429.403	94.75
429.625	65.75
429.847	97.75
430.069	94.75
430.292	95.75
430.514	100.75
430.736	79.75
430.958	100.75
431.18	90.75
431.402	84.75
431.624	81.75
431.846	96.75
432.068	75.75
432.29	100.75
432.512	80.75
432.734	87.75
432.956	93.75
433.178	102.75
433.4	96.75
433.622	72.75
433.844	86.75
434.066	85.75
434.287	89.75
434.509	75.75
434.731	88.75
434.953	92.75
435.175	92.75
435.397	100.75
435.618	99.75
435.84	92.75
436.062	89.75
436.284	67.75
436.505	80.75
436.727	93.75
436.949	89.75
437.17	81.75
437.392	88.75
437.614	83.75
437.835	88.75
438.057	97.75
438.278	91.75
438.5	81.75
438.721	93.75
438.943	82.75
439.165	72.75
439.386	90.75
439.608	100.75
439.829	102.75
440.05	90.75
440.272	81.75
440.493	104.75
440.715	84.75
440.936	91.75
441.158	97.75
441.379	93.75
441.6	97.75
441.822	71.75
442.043	76.75
442.264	93.75
442.486	85.75
442.707	98.75
442.928	87.75
443.149	95.75
443.371	101.75
443.592	92.75
443.813	91.75
444.034	97.75
444.255	87.75
444.476	87.75
444.698	98.75
444.919	95.75
445.14	168.75
445.361	112.75
445.582	82.75
445.803	75.75
446.024	85.75
446.245	98.75
446.466	69.75
446.687	84.75
446.908	93.75
447.129	79.75
447.35	94.75
447.571	90.75
447.792	104.75
448.013	81.75
448.234	80.75
448.455	81.75
448.675	90.75
448.896	95.75
449.117	87.75
449.338	91.75
449.559	83.75
449.779	86.75
450	76.75
450.221	82.75
450.442	93.75
450.662	76.75
450.883	73.75
451.104	89.75
451.324	88.75
451.545	79.75
451.766	76.75
451.986	85.75
452.207	87.75
452.428	100.75
452.648	98.75
452.869	92.75
453.089	91.75
453.31	81.75
453.53	83.75
453.751	82.75
453.971	76.75
454.192	88.75
454.412	85.75
454.633	88.75
454.853	92.75
455.073	93.75
455.294	92.75
455.514	88.75
455.734	85.75
455.955	82.75
456.175	91.75
456.395	78.75
456.616	68.75
456.836	97.75
457.056	86.75
457.276	87.75
457.497	77.75
457.717	92.75
457.937	84.75
458.157	72.75
458.377	101.75
458.598	84.75
458.818	87.75
459.038	88.75
459.258	93.75
459.478	91.75
459.698	84.75
459.918	91.75
460.138	88.75
460.358	87.75
460.578	94.75
460.798	98.75
461.018	93.75
461.238	92.75
461.458	92.75
461.678	84.75
461.898	86.75
462.118	86.75
462.338	88.75
462.558	91.75
462.777	91.75
462.997	104.75
463.217	83.75
463.437	100.75
463.657	81.75
463.876	85.75
464.096	90.75
464.316	80.75
464.536	84.75
464.755	78.75
464.975	84.75
465.195	100.75
465.414	104.75
465.634	86.75
465.854	86.75
466.073	86.75
466.293	86.75
466.512	93.75
466.732	80.75
466.951	80.75
467.171	97.75
467.391	80.75
467.61	83.75
467.829	87.75
468.049	82.75
468.268	84.75
468.488	98.75
468.707	96.75
468.927	98.75
469.146	94.75
469.365	84.75
469.585	82.75
469.804	107.75
470.023	80.75
470.243	86.75
470.462	74.75
470.681	89.75
470.901	89.75
471.12	89.75
471.339	88.75
471.558	96.75
471.777	97.75
471.997	85.75
472.216	82.75
472.435	80.75
472.654	102.75
472.873	104.75
473.092	83.75
473.311	85.75
473.53	81.75
473.749	87.75
473.968	83.75
474.187	90.75
474.406	68.75
474.625	82.75
474.844	81.75
475.063	97.75
475.282	96.75
475.501	82.75
475.72	88.75
475.939	83.75
476.158	97.75
476.377	80.75
476.596	85.75
476.814	93.75
477.033	90.75
477.252	86.75
477.471	80.75
477.69	88.75
477.908	79.75
478.127	104.75
478.346	94.75
478.564	78.75
478.783	82.75
479.002	104.75
479.22	86.75
479.439	88.75
479.658	76.75
479.876	101.75
480.095	67.75
480.313	93.75
480.532	92.75
480.751	77.75
480.969	84.75
481.188	92.75
481.406	73.75
481.624	97.75
481.843	88.75
482.061	86.75
482.28	92.75
482.498	92.75
482.717	85.75
482.935	82.75
483.153	101.75
483.372	86.75
483.59	95.75
483.808	81.75
484.027	89.75
484.245	92.75
484.463	92.75
484.681	103.75
484.9	96.75
485.118	95.75
485.336	85.75
485.554	86.75
485.772	85.75
485.99	80.75
486.209	75.75
486.427	77.75
486.645	78.75
486.863	82.75
487.081	101.75
487.299	101.75
487.517	100.75
487.735	85.75
487.953	86.75
488.171	89.75
488.389	86.75
488.607	89.75
488.825	83.75
489.043	82.75
489.261	104.75
489.479	86.75
489.696	77.75
489.914	89.75
490.132	98.75
490.35	90.75
490.568	77.75
490.786	95.75
491.003	89.75
491.221	91.75
491.439	89.75
491.657	98.75
491.874	80.75
492.092	77.75
492.31	106.75
492.527	95.75
492.745	89.75
492.963	102.75
493.18	90.75
493.398	100.75
493.615	94.75
493.833	80.75
494.05	81.75
494.268	99.75
494.485	87.75
494.703	79.75
494.92	87.75
495.138	99.75
495.355	97.75
495.573	89.75
495.79	87.75
496.008	95.75
496.225	91.75
496.442	88.75
496.66	111.75
496.877	99.75
497.094	110.75
497.312	89.75
497.529	95.75
497.746	97.75
497.963	95.75
498.181	100.75
498.398	84.75
498.615	99.75
498.832	88.75
499.049	78.75
499.267	108.75
499.484	96.75
499.701	100.75
499.918	106.75
500.135	117.75
500.352	102.75
500.569	115.75
500.786	110.75
501.003	93.75
501.22	92.75
501.437	95.75
501.654	98.75
501.871	95.75
502.088	79.75
502.305	85.75
502.522	85.75
502.739	97.75
502.956	84.75
503.172	86.75
503.389	86.75
503.606	82.75
503.823	86.75
504.04	90.75
504.256	73.75
504.473	96.75
504.69	95.75
504.907	96.75
505.123	97.75
505.34	105.75
505.557	82.75
505.773	87.75
505.99	87.75
506.207	93.75
506.423	108.75
506.64	95.75
506.856	73.75
507.073	91.75
507.289	90.75
507.506	89.75
507.722	79.75
507.939	88.75
508.155	77.75
508.372	78.75
508.588	85.75
508.805	86.75
509.021	84.75
509.238	90.75
509.454	80.75
509.67	98.75
509.887	89.75
510.103	83.75
510.319	72.75
510.536	97.75
510.752	74.75
510.968	94.75
511.184	89.75
511.401	93.75
511.617	90.75
511.833	89.75
512.049	79.75
512.265	75.75
512.481	83.75
512.698	82.75
512.914	94.75
513.13	84.75
513.346	86.75
513.562	92.75
513.778	98.75
513.994	89.75
514.21	76.75
514.426	94.75
514.642	80.75
514.858	97.75
515.074	67.75
515.29	101.75
515.506	97.75
515.721	83.75
515.937	87.75
516.153	85.75
516.369	100.75
516.585	75.75
516.801	96.75
517.016	101.75
517.232	86.75
517.448	97.75
517.664	113.75
517.879	90.75
518.095	76.75
518.311	84.75
518.527	81.75
518.742	92.75
518.958	91.75
