Data from BG_HRD10591_033.txt Node
Date: Fri May 16 15:21:10 EDT 2025
User: Yrep
Spectrometer: HR+D1059
Trigger mode: 1
Integration Time (sec): 1.000000E-1
Scans to average: 1
Electric dark correction enabled: true
Nonlinearity correction enabled: false
Boxcar width: 0
XAxis mode: Wavelengths
Number of Pixels in Spectrum: 2048
>>>>>Begin Spectral Data<<<<<
223.165	-17.62
223.4	-17.62
223.635	-17.62
223.869	-26.62
224.104	-20.62
224.338	-16.62
224.573	-15.62
224.808	-21.62
225.042	-4.62
225.277	1.38
225.511	0.38
225.746	-2.62
225.98	7.38
226.215	11.38
226.449	20.38
226.683	32.38
226.918	18.38
227.152	34.38
227.387	38.38
227.621	38.38
227.856	51.38
228.09	44.38
228.324	60.38
228.559	70.38
228.793	60.38
229.027	60.38
229.262	52.38
229.496	67.38
229.73	56.38
229.964	64.38
230.199	66.38
230.433	86.38
230.667	60.38
230.901	82.38
231.136	71.38
231.37	89.38
231.604	86.38
231.838	82.38
232.072	82.38
232.306	76.38
232.541	67.38
232.775	62.38
233.009	76.38
233.243	68.38
233.477	81.38
233.711	83.38
233.945	74.38
234.179	68.38
234.413	79.38
234.647	74.38
234.881	74.38
235.115	78.38
235.349	90.38
235.583	76.38
235.817	75.38
236.051	72.38
236.285	83.38
236.519	85.38
236.753	88.38
236.987	73.38
237.221	65.38
237.455	66.38
237.689	83.38
237.922	72.38
238.156	68.38
238.39	66.38
238.624	81.38
238.858	75.38
239.091	66.38
239.325	70.38
239.559	80.38
239.793	62.38
240.027	53.38
240.26	69.38
240.494	85.38
240.728	78.38
240.961	58.38
241.195	67.38
241.429	72.38
241.662	80.38
241.896	88.38
242.13	73.38
242.363	75.38
242.597	75.38
242.83	73.38
243.064	80.38
243.298	72.38
243.531	73.38
243.765	58.38
243.998	70.38
244.232	83.38
244.465	77.38
244.699	71.38
244.932	74.38
245.166	86.38
245.399	72.38
245.633	80.38
245.866	79.38
246.099	74.38
246.333	83.38
246.566	76.38
246.8	70.38
247.033	74.38
247.266	72.38
247.5	70.38
247.733	72.38
247.966	84.38
248.2	90.38
248.433	74.38
248.666	82.38
248.899	85.38
249.133	88.38
249.366	74.38
249.599	74.38
249.832	83.38
250.066	88.38
250.299	80.38
250.532	82.38
250.765	70.38
250.998	79.38
251.231	62.38
251.465	67.38
251.698	68.38
251.931	76.38
252.164	87.38
252.397	66.38
252.63	74.38
252.863	80.38
253.096	80.38
253.329	62.38
253.562	77.38
253.795	72.38
254.028	75.38
254.261	80.38
254.494	84.38
254.727	72.38
254.96	80.38
255.193	63.38
255.426	68.38
255.659	72.38
255.892	61.38
256.124	80.38
256.357	79.38
256.59	85.38
256.823	75.38
257.056	96.38
257.289	85.38
257.521	76.38
257.754	82.38
257.987	87.38
258.22	82.38
258.452	87.38
258.685	82.38
258.918	80.38
259.151	73.38
259.383	74.38
259.616	73.38
259.849	87.38
260.081	72.38
260.314	75.38
260.547	86.38
260.779	86.38
261.012	91.38
261.244	73.38
261.477	84.38
261.71	64.38
261.942	66.38
262.175	74.38
262.407	81.38
262.64	77.38
262.872	89.38
263.105	86.38
263.337	76.38
263.57	79.38
263.802	84.38
264.035	91.38
264.267	72.38
264.499	66.38
264.732	97.38
264.964	85.38
265.197	76.38
265.429	69.38
265.661	78.38
265.894	76.38
266.126	71.38
266.358	83.38
266.591	84.38
266.823	74.38
267.055	87.38
267.287	73.38
267.52	96.38
267.752	84.38
267.984	76.38
268.216	74.38
268.448	70.38
268.681	63.38
268.913	76.38
269.145	86.38
269.377	69.38
269.609	73.38
269.841	74.38
270.073	81.38
270.306	88.38
270.538	76.38
270.77	93.38
271.002	78.38
271.234	93.38
271.466	89.38
271.698	67.38
271.93	81.38
272.162	78.38
272.394	95.38
272.626	83.38
272.858	80.38
273.09	78.38
273.322	86.38
273.553	67.38
273.785	82.38
274.017	80.38
274.249	77.38
274.481	78.38
274.713	90.38
274.945	81.38
275.176	70.38
275.408	90.38
275.64	90.38
275.872	87.38
276.104	88.38
276.335	75.38
276.567	69.38
276.799	75.38
277.031	68.38
277.262	86.38
277.494	89.38
277.726	76.38
277.957	85.38
278.189	72.38
278.421	86.38
278.652	75.38
278.884	104.38
279.115	82.38
279.347	91.38
279.579	80.38
279.81	78.38
280.042	96.38
280.273	85.38
280.505	84.38
280.736	83.38
280.968	83.38
281.199	74.38
281.431	87.38
281.662	72.38
281.894	77.38
282.125	76.38
282.356	78.38
282.588	75.38
282.819	83.38
283.051	98.38
283.282	88.38
283.513	78.38
283.745	86.38
283.976	94.38
284.207	91.38
284.439	84.38
284.67	92.38
284.901	84.38
285.132	73.38
285.364	84.38
285.595	92.38
285.826	80.38
286.057	89.38
286.288	72.38
286.52	91.38
286.751	83.38
286.982	80.38
287.213	81.38
287.444	98.38
287.675	76.38
287.906	87.38
288.138	88.38
288.369	79.38
288.6	86.38
288.831	91.38
289.062	89.38
289.293	91.38
289.524	100.38
289.755	89.38
289.986	88.38
290.217	73.38
290.448	82.38
290.679	87.38
290.91	88.38
291.141	90.38
291.371	76.38
291.602	90.38
291.833	93.38
292.064	89.38
292.295	79.38
292.526	97.38
292.757	86.38
292.987	84.38
293.218	79.38
293.449	75.38
293.68	77.38
293.91	70.38
294.141	77.38
294.372	96.38
294.603	94.38
294.833	82.38
295.064	90.38
295.295	85.38
295.525	81.38
295.756	80.38
295.987	74.38
296.217	84.38
296.448	81.38
296.679	90.38
296.909	91.38
297.14	92.38
297.37	76.38
297.601	94.38
297.831	81.38
298.062	89.38
298.292	81.38
298.523	98.38
298.753	74.38
298.984	89.38
299.214	84.38
299.445	67.38
299.675	80.38
299.905	80.38
300.136	74.38
300.366	88.38
300.597	84.38
300.827	89.38
301.057	94.38
301.288	87.38
301.518	86.38
301.748	93.38
301.979	90.38
302.209	85.38
302.439	90.38
302.669	90.38
302.9	75.38
303.13	98.38
303.36	73.38
303.59	75.38
303.82	107.38
304.051	81.38
304.281	81.38
304.511	105.38
304.741	77.38
304.971	78.38
305.201	85.38
305.431	104.38
305.661	84.38
305.891	80.38
306.121	84.38
306.352	99.38
306.582	88.38
306.812	82.38
307.042	72.38
307.272	89.38
307.502	79.38
307.731	86.38
307.961	85.38
308.191	84.38
308.421	85.38
308.651	88.38
308.881	87.38
309.111	91.38
309.341	76.38
309.571	78.38
309.8	93.38
310.03	97.38
310.26	90.38
310.49	92.38
310.72	78.38
310.949	94.38
311.179	84.38
311.409	74.38
311.639	86.38
311.868	84.38
312.098	89.38
312.328	86.38
312.557	88.38
312.787	80.38
313.017	77.38
313.246	74.38
313.476	84.38
313.706	85.38
313.935	78.38
314.165	84.38
314.394	81.38
314.624	84.38
314.853	72.38
315.083	110.38
315.312	99.38
315.542	88.38
315.771	84.38
316.001	96.38
316.23	81.38
316.46	70.38
316.689	74.38
316.919	94.38
317.148	82.38
317.377	86.38
317.607	85.38
317.836	78.38
318.065	84.38
318.295	91.38
318.524	103.38
318.753	83.38
318.983	71.38
319.212	76.38
319.441	105.38
319.67	82.38
319.9	88.38
320.129	83.38
320.358	97.38
320.587	93.38
320.816	82.38
321.046	76.38
321.275	88.38
321.504	82.38
321.733	89.38
321.962	83.38
322.191	83.38
322.42	76.38
322.649	93.38
322.878	81.38
323.108	80.38
323.337	98.38
323.566	79.38
323.795	80.38
324.024	97.38
324.253	89.38
324.482	76.38
324.71	90.38
324.939	69.38
325.168	76.38
325.397	97.38
325.626	82.38
325.855	88.38
326.084	80.38
326.313	87.38
326.542	83.38
326.77	89.38
326.999	84.38
327.228	80.38
327.457	88.38
327.686	87.38
327.914	88.38
328.143	85.38
328.372	94.38
328.6	89.38
328.829	94.38
329.058	82.38
329.287	78.38
329.515	69.38
329.744	70.38
329.972	92.38
330.201	89.38
330.43	90.38
330.658	81.38
330.887	77.38
331.115	89.38
331.344	76.38
331.572	77.38
331.801	69.38
332.03	90.38
332.258	85.38
332.486	82.38
332.715	96.38
332.943	92.38
333.172	98.38
333.4	100.38
333.629	85.38
333.857	91.38
334.085	84.38
334.314	74.38
334.542	83.38
334.771	69.38
334.999	80.38
335.227	82.38
335.455	90.38
335.684	90.38
335.912	72.38
336.14	67.38
336.369	74.38
336.597	97.38
336.825	75.38
337.053	81.38
337.281	78.38
337.51	87.38
337.738	84.38
337.966	90.38
338.194	78.38
338.422	87.38
338.65	89.38
338.878	87.38
339.106	74.38
339.334	90.38
339.562	96.38
339.79	90.38
340.018	83.38
340.246	90.38
340.474	91.38
340.702	83.38
340.93	99.38
341.158	82.38
341.386	76.38
341.614	82.38
341.842	75.38
342.07	79.38
342.298	82.38
342.526	95.38
342.754	90.38
342.981	92.38
343.209	94.38
343.437	91.38
343.665	89.38
343.893	84.38
344.12	89.38
344.348	94.38
344.576	89.38
344.804	88.38
345.031	75.38
345.259	82.38
345.487	75.38
345.714	66.38
345.942	79.38
346.17	81.38
346.397	80.38
346.625	79.38
346.853	85.38
347.08	69.38
347.308	82.38
347.535	80.38
347.763	72.38
347.99	83.38
348.218	91.38
348.445	85.38
348.673	83.38
348.9	87.38
349.128	76.38
349.355	81.38
349.583	89.38
349.81	80.38
350.037	74.38
350.265	83.38
350.492	88.38
350.72	74.38
350.947	84.38
351.174	77.38
351.402	91.38
351.629	86.38
351.856	85.38
352.083	88.38
352.311	93.38
352.538	69.38
352.765	89.38
352.992	108.38
353.22	86.38
353.447	82.38
353.674	84.38
353.901	90.38
354.128	83.38
354.355	78.38
354.583	83.38
354.81	88.38
355.037	88.38
355.264	85.38
355.491	86.38
355.718	98.38
355.945	87.38
356.172	78.38
356.399	85.38
356.626	85.38
356.853	89.38
357.08	85.38
357.307	74.38
357.534	81.38
357.761	76.38
357.988	79.38
358.215	89.38
358.441	74.38
358.668	79.38
358.895	89.38
359.122	91.38
359.349	82.38
359.576	73.38
359.802	73.38
360.029	77.38
360.256	85.38
360.483	92.38
360.709	72.38
360.936	75.38
361.163	96.38
361.39	88.38
361.616	92.38
361.843	90.38
362.07	74.38
362.296	80.38
362.523	77.38
362.749	91.38
362.976	87.38
363.203	93.38
363.429	89.38
363.656	82.38
363.882	87.38
364.109	80.38
364.335	93.38
364.562	86.38
364.788	89.38
365.015	72.38
365.241	69.38
365.468	83.38
365.694	82.38
365.92	89.38
366.147	84.38
366.373	88.38
366.599	84.38
366.826	85.38
367.052	82.38
367.278	72.38
367.505	90.38
367.731	80.38
367.957	77.38
368.184	74.38
368.41	81.38
368.636	89.38
368.862	101.38
369.089	91.38
369.315	80.38
369.541	88.38
369.767	82.38
369.993	88.38
370.219	90.38
370.445	68.38
370.672	93.38
370.898	89.38
371.124	96.38
371.35	85.38
371.576	86.38
371.802	84.38
372.028	85.38
372.254	80.38
372.48	88.38
372.706	85.38
372.932	80.38
373.158	86.38
373.384	103.38
373.61	104.38
373.835	83.38
374.061	83.38
374.287	74.38
374.513	76.38
374.739	87.38
374.965	86.38
375.191	88.38
375.416	94.38
375.642	73.38
375.868	75.38
376.094	88.38
376.319	86.38
376.545	80.38
376.771	77.38
376.997	84.38
377.222	78.38
377.448	84.38
377.674	84.38
377.899	81.38
378.125	76.38
378.35	85.38
378.576	79.38
378.802	78.38
379.027	90.38
379.253	88.38
379.478	85.38
379.704	88.38
379.929	87.38
380.155	85.38
380.38	87.38
380.606	77.38
380.831	86.38
381.057	98.38
381.282	69.38
381.507	96.38
381.733	85.38
381.958	84.38
382.184	73.38
382.409	88.38
382.634	104.38
382.86	82.38
383.085	76.38
383.31	71.38
383.535	75.38
383.761	88.38
383.986	70.38
384.211	76.38
384.436	85.38
384.662	85.38
384.887	89.38
385.112	102.38
385.337	85.38
385.562	84.38
385.787	90.38
386.013	90.38
386.238	86.38
386.463	86.38
386.688	93.38
386.913	88.38
387.138	79.38
387.363	78.38
387.588	88.38
387.813	89.38
388.038	80.38
388.263	82.38
388.488	70.38
388.713	87.38
388.938	82.38
389.163	77.38
389.387	89.38
389.612	89.38
389.837	85.38
390.062	98.38
390.287	84.38
390.512	96.38
390.736	82.38
390.961	95.38
391.186	93.38
391.411	80.38
391.636	74.38
391.86	80.38
392.085	84.38
392.31	83.38
392.534	84.38
392.759	81.38
392.984	88.38
393.208	86.38
393.433	86.38
393.658	84.38
393.882	86.38
394.107	104.38
394.331	77.38
394.556	82.38
394.78	78.38
395.005	78.38
395.229	86.38
395.454	104.38
395.678	88.38
395.903	94.38
396.127	75.38
396.352	76.38
396.576	75.38
396.801	73.38
397.025	73.38
397.249	83.38
397.474	76.38
397.698	86.38
397.922	107.38
398.147	82.38
398.371	80.38
398.595	88.38
398.82	97.38
399.044	85.38
399.268	98.38
399.492	98.38
399.717	97.38
399.941	97.38
400.165	77.38
400.389	86.38
400.613	85.38
400.837	96.38
401.062	88.38
401.286	86.38
401.51	93.38
401.734	81.38
401.958	69.38
402.182	84.38
402.406	87.38
402.63	86.38
402.854	84.38
403.078	83.38
403.302	91.38
403.526	92.38
403.75	74.38
403.974	96.38
404.198	93.38
404.422	93.38
404.645	81.38
404.869	89.38
405.093	96.38
405.317	88.38
405.541	75.38
405.765	90.38
405.988	77.38
406.212	91.38
406.436	91.38
406.66	99.38
406.883	80.38
407.107	80.38
407.331	87.38
407.555	85.38
407.778	85.38
408.002	79.38
408.226	91.38
408.449	94.38
408.673	76.38
408.896	86.38
409.12	86.38
409.344	77.38
409.567	84.38
409.791	86.38
410.014	101.38
410.238	88.38
410.461	76.38
410.685	84.38
410.908	84.38
411.132	92.38
411.355	74.38
411.578	90.38
411.802	79.38
412.025	84.38
412.249	79.38
412.472	87.38
412.695	86.38
412.919	77.38
413.142	98.38
413.365	92.38
413.589	83.38
413.812	82.38
414.035	105.38
414.258	80.38
414.482	85.38
414.705	92.38
414.928	86.38
415.151	82.38
415.374	97.38
415.597	100.38
415.821	80.38
416.044	98.38
416.267	85.38
416.49	85.38
416.713	90.38
416.936	87.38
417.159	85.38
417.382	90.38
417.605	93.38
417.828	85.38
418.051	81.38
418.274	85.38
418.497	80.38
418.72	87.38
418.943	87.38
419.166	90.38
419.389	92.38
419.611	87.38
419.834	89.38
420.057	77.38
420.28	79.38
420.503	84.38
420.726	73.38
420.948	77.38
421.171	74.38
421.394	100.38
421.617	79.38
421.839	103.38
422.062	92.38
422.285	79.38
422.507	87.38
422.73	87.38
422.953	92.38
423.175	80.38
423.398	96.38
423.621	87.38
423.843	76.38
424.066	64.38
424.288	82.38
424.511	81.38
424.733	91.38
424.956	85.38
425.178	94.38
425.401	84.38
425.623	86.38
425.846	90.38
426.068	89.38
426.291	81.38
426.513	85.38
426.735	81.38
426.958	100.38
427.18	77.38
427.402	84.38
427.625	90.38
427.847	88.38
428.069	79.38
428.292	75.38
428.514	82.38
428.736	96.38
428.958	95.38
429.181	94.38
429.403	96.38
429.625	89.38
429.847	84.38
430.069	84.38
430.292	75.38
430.514	90.38
430.736	92.38
430.958	78.38
431.18	76.38
431.402	69.38
431.624	87.38
431.846	99.38
432.068	84.38
432.29	75.38
432.512	88.38
432.734	101.38
432.956	76.38
433.178	92.38
433.4	92.38
433.622	85.38
433.844	102.38
434.066	88.38
434.287	86.38
434.509	82.38
434.731	85.38
434.953	82.38
435.175	72.38
435.397	89.38
435.618	87.38
435.84	71.38
436.062	94.38
436.284	92.38
436.505	93.38
436.727	95.38
436.949	81.38
437.17	82.38
437.392	78.38
437.614	89.38
437.835	77.38
438.057	80.38
438.278	75.38
438.5	89.38
438.721	73.38
438.943	62.38
439.165	80.38
439.386	85.38
439.608	94.38
439.829	77.38
440.05	84.38
440.272	98.38
440.493	81.38
440.715	87.38
440.936	88.38
441.158	88.38
441.379	84.38
441.6	88.38
441.822	75.38
442.043	84.38
442.264	88.38
442.486	80.38
442.707	74.38
442.928	72.38
443.149	80.38
443.371	92.38
443.592	91.38
443.813	68.38
444.034	77.38
444.255	84.38
444.476	85.38
444.698	70.38
444.919	85.38
445.14	163.38
445.361	115.38
445.582	94.38
445.803	69.38
446.024	78.38
446.245	88.38
446.466	92.38
446.687	65.38
446.908	88.38
447.129	91.38
447.35	84.38
447.571	80.38
447.792	78.38
448.013	74.38
448.234	101.38
448.455	93.38
448.675	91.38
448.896	89.38
449.117	84.38
449.338	80.38
449.559	81.38
449.779	88.38
450	90.38
450.221	92.38
450.442	81.38
450.662	91.38
450.883	91.38
451.104	92.38
451.324	69.38
451.545	64.38
451.766	75.38
451.986	100.38
452.207	84.38
452.428	81.38
452.648	99.38
452.869	86.38
453.089	92.38
453.31	91.38
453.53	85.38
453.751	88.38
453.971	84.38
454.192	67.38
454.412	68.38
454.633	85.38
454.853	81.38
455.073	85.38
455.294	81.38
455.514	83.38
455.734	83.38
455.955	82.38
456.175	82.38
456.395	81.38
456.616	90.38
456.836	94.38
457.056	87.38
457.276	79.38
457.497	73.38
457.717	86.38
457.937	75.38
458.157	73.38
458.377	72.38
458.598	90.38
458.818	78.38
459.038	76.38
459.258	80.38
459.478	82.38
459.698	82.38
459.918	78.38
460.138	89.38
460.358	91.38
460.578	82.38
460.798	99.38
461.018	86.38
461.238	79.38
461.458	92.38
461.678	84.38
461.898	85.38
462.118	100.38
462.338	90.38
462.558	92.38
462.777	90.38
462.997	87.38
463.217	78.38
463.437	92.38
463.657	90.38
463.876	80.38
464.096	99.38
464.316	88.38
464.536	87.38
464.755	86.38
464.975	84.38
465.195	76.38
465.414	90.38
465.634	81.38
465.854	84.38
466.073	89.38
466.293	90.38
466.512	85.38
466.732	94.38
466.951	76.38
467.171	81.38
467.391	83.38
467.61	100.38
467.829	79.38
468.049	70.38
468.268	82.38
468.488	83.38
468.707	84.38
468.927	100.38
469.146	72.38
469.365	81.38
469.585	94.38
469.804	94.38
470.023	93.38
470.243	81.38
470.462	82.38
470.681	91.38
470.901	90.38
471.12	86.38
471.339	72.38
471.558	71.38
471.777	92.38
471.997	80.38
472.216	80.38
472.435	80.38
472.654	86.38
472.873	88.38
473.092	85.38
473.311	80.38
473.53	85.38
473.749	68.38
473.968	100.38
474.187	84.38
474.406	90.38
474.625	85.38
474.844	82.38
475.063	87.38
475.282	90.38
475.501	90.38
475.72	83.38
475.939	69.38
476.158	89.38
476.377	81.38
476.596	85.38
476.814	83.38
477.033	84.38
477.252	80.38
477.471	82.38
477.69	88.38
477.908	86.38
478.127	85.38
478.346	89.38
478.564	88.38
478.783	98.38
479.002	85.38
479.22	82.38
479.439	80.38
479.658	77.38
479.876	92.38
480.095	93.38
480.313	80.38
480.532	86.38
480.751	82.38
480.969	65.38
481.188	93.38
481.406	86.38
481.624	86.38
481.843	90.38
482.061	92.38
482.28	98.38
482.498	76.38
482.717	65.38
482.935	62.38
483.153	101.38
483.372	88.38
483.59	96.38
483.808	76.38
484.027	91.38
484.245	78.38
484.463	104.38
484.681	78.38
484.9	89.38
485.118	96.38
485.336	96.38
485.554	89.38
485.772	75.38
485.99	103.38
486.209	84.38
486.427	85.38
486.645	93.38
486.863	69.38
487.081	83.38
487.299	90.38
487.517	92.38
487.735	82.38
487.953	86.38
488.171	97.38
488.389	90.38
488.607	82.38
488.825	78.38
489.043	83.38
489.261	99.38
489.479	97.38
489.696	100.38
489.914	103.38
490.132	81.38
490.35	74.38
490.568	72.38
490.786	86.38
491.003	88.38
491.221	75.38
491.439	89.38
491.657	80.38
491.874	95.38
492.092	96.38
492.31	84.38
492.527	88.38
492.745	76.38
492.963	87.38
493.18	81.38
493.398	82.38
493.615	91.38
493.833	91.38
494.05	91.38
494.268	90.38
494.485	87.38
494.703	84.38
494.92	81.38
495.138	77.38
495.355	100.38
495.573	98.38
495.79	86.38
496.008	86.38
496.225	98.38
496.442	90.38
496.66	102.38
496.877	93.38
497.094	98.38
497.312	74.38
497.529	74.38
497.746	91.38
497.963	74.38
498.181	99.38
498.398	86.38
498.615	88.38
498.832	87.38
499.049	104.38
499.267	109.38
499.484	103.38
499.701	92.38
499.918	82.38
500.135	101.38
500.352	112.38
500.569	120.38
500.786	108.38
501.003	92.38
501.22	92.38
501.437	110.38
501.654	114.38
501.871	99.38
502.088	86.38
502.305	84.38
502.522	100.38
502.739	86.38
502.956	100.38
503.172	100.38
503.389	92.38
503.606	89.38
503.823	79.38
504.04	74.38
504.256	74.38
504.473	84.38
504.69	87.38
504.907	109.38
505.123	91.38
505.34	80.38
505.557	91.38
505.773	96.38
505.99	88.38
506.207	91.38
506.423	89.38
506.64	97.38
506.856	90.38
507.073	74.38
507.289	84.38
507.506	104.38
507.722	84.38
507.939	90.38
508.155	76.38
508.372	110.38
508.588	100.38
508.805	76.38
509.021	90.38
509.238	85.38
509.454	81.38
509.67	100.38
509.887	86.38
510.103	80.38
510.319	85.38
510.536	82.38
510.752	84.38
510.968	80.38
511.184	87.38
511.401	91.38
511.617	85.38
511.833	85.38
512.049	79.38
512.265	79.38
512.481	92.38
512.698	68.38
512.914	83.38
513.13	94.38
513.346	98.38
513.562	88.38
513.778	98.38
513.994	81.38
514.21	83.38
514.426	95.38
514.642	99.38
514.858	78.38
515.074	70.38
515.29	88.38
515.506	90.38
515.721	78.38
515.937	87.38
516.153	72.38
516.369	78.38
516.585	86.38
516.801	82.38
517.016	85.38
517.232	88.38
517.448	92.38
517.664	104.38
517.879	85.38
518.095	98.38
518.311	86.38
518.527	83.38
518.742	85.38
518.958	73.38
519.173	103.38
519.389	89.38
519.605	76.38
