Data from BG_HRD10591_024.txt Node
Date: Fri May 16 15:21:06 EDT 2025
User: Yrep
Spectrometer: HR+D1059
Trigger mode: 1
Integration Time (sec): 1.000000E-1
Scans to average: 1
Electric dark correction enabled: true
Nonlinearity correction enabled: false
Boxcar width: 0
XAxis mode: Wavelengths
Number of Pixels in Spectrum: 2048
>>>>>Begin Spectral Data<<<<<
223.165	-17.69
223.4	-17.69
223.635	-17.69
223.869	-22.69
224.104	-17.69
224.338	-20.69
224.573	-10.69
224.808	-3.69
225.042	-9.69
225.277	0.31
225.511	-4.69
225.746	11.31
225.98	16.31
226.215	-13.69
226.449	16.31
226.683	25.31
226.918	16.31
227.152	35.31
227.387	29.31
227.621	27.31
227.856	41.31
228.09	37.31
228.324	49.31
228.559	59.31
228.793	72.31
229.027	50.31
229.262	59.31
229.496	62.31
229.73	62.31
229.964	71.31
230.199	76.31
230.433	50.31
230.667	67.31
230.901	65.31
231.136	82.31
231.37	86.31
231.604	67.31
231.838	73.31
232.072	75.31
232.306	83.31
232.541	81.31
232.775	76.31
233.009	82.31
233.243	83.31
233.477	73.31
233.711	78.31
233.945	91.31
234.179	82.31
234.413	76.31
234.647	73.31
234.881	84.31
235.115	82.31
235.349	68.31
235.583	71.31
235.817	73.31
236.051	68.31
236.285	72.31
236.519	69.31
236.753	59.31
236.987	74.31
237.221	77.31
237.455	81.31
237.689	72.31
237.922	70.31
238.156	89.31
238.39	57.31
238.624	66.31
238.858	72.31
239.091	43.31
239.325	80.31
239.559	69.31
239.793	75.31
240.027	68.31
240.26	70.31
240.494	73.31
240.728	82.31
240.961	69.31
241.195	89.31
241.429	83.31
241.662	67.31
241.896	74.31
242.13	70.31
242.363	72.31
242.597	84.31
242.83	70.31
243.064	73.31
243.298	64.31
243.531	73.31
243.765	80.31
243.998	60.31
244.232	56.31
244.465	85.31
244.699	60.31
244.932	83.31
245.166	67.31
245.399	67.31
245.633	67.31
245.866	60.31
246.099	73.31
246.333	81.31
246.566	81.31
246.8	67.31
247.033	85.31
247.266	60.31
247.5	62.31
247.733	71.31
247.966	76.31
248.2	66.31
248.433	72.31
248.666	76.31
248.899	73.31
249.133	65.31
249.366	65.31
249.599	69.31
249.832	65.31
250.066	89.31
250.299	80.31
250.532	78.31
250.765	75.31
250.998	69.31
251.231	74.31
251.465	79.31
251.698	66.31
251.931	81.31
252.164	68.31
252.397	77.31
252.63	69.31
252.863	83.31
253.096	61.31
253.329	76.31
253.562	73.31
253.795	68.31
254.028	80.31
254.261	77.31
254.494	80.31
254.727	98.31
254.96	81.31
255.193	67.31
255.426	67.31
255.659	75.31
255.892	90.31
256.124	76.31
256.357	92.31
256.59	84.31
256.823	70.31
257.056	79.31
257.289	89.31
257.521	88.31
257.754	66.31
257.987	68.31
258.22	66.31
258.452	79.31
258.685	55.31
258.918	80.31
259.151	59.31
259.383	74.31
259.616	75.31
259.849	67.31
260.081	59.31
260.314	76.31
260.547	79.31
260.779	76.31
261.012	93.31
261.244	80.31
261.477	80.31
261.71	75.31
261.942	80.31
262.175	80.31
262.407	63.31
262.64	83.31
262.872	65.31
263.105	85.31
263.337	84.31
263.57	79.31
263.802	87.31
264.035	72.31
264.267	58.31
264.499	85.31
264.732	76.31
264.964	68.31
265.197	64.31
265.429	79.31
265.661	83.31
265.894	90.31
266.126	73.31
266.358	85.31
266.591	73.31
266.823	91.31
267.055	85.31
267.287	66.31
267.52	68.31
267.752	72.31
267.984	73.31
268.216	71.31
268.448	74.31
268.681	85.31
268.913	76.31
269.145	81.31
269.377	83.31
269.609	74.31
269.841	77.31
270.073	99.31
270.306	69.31
270.538	73.31
270.77	70.31
271.002	84.31
271.234	83.31
271.466	78.31
271.698	74.31
271.93	70.31
272.162	88.31
272.394	76.31
272.626	71.31
272.858	63.31
273.09	71.31
273.322	77.31
273.553	77.31
273.785	68.31
274.017	76.31
274.249	66.31
274.481	61.31
274.713	93.31
274.945	80.31
275.176	77.31
275.408	85.31
275.64	75.31
275.872	85.31
276.104	84.31
276.335	66.31
276.567	84.31
276.799	69.31
277.031	83.31
277.262	78.31
277.494	88.31
277.726	85.31
277.957	71.31
278.189	67.31
278.421	84.31
278.652	75.31
278.884	71.31
279.115	80.31
279.347	92.31
279.579	78.31
279.81	87.31
280.042	69.31
280.273	64.31
280.505	82.31
280.736	71.31
280.968	75.31
281.199	87.31
281.431	80.31
281.662	75.31
281.894	92.31
282.125	83.31
282.356	79.31
282.588	75.31
282.819	81.31
283.051	84.31
283.282	90.31
283.513	99.31
283.745	73.31
283.976	74.31
284.207	71.31
284.439	80.31
284.67	85.31
284.901	76.31
285.132	76.31
285.364	96.31
285.595	96.31
285.826	84.31
286.057	82.31
286.288	83.31
286.52	62.31
286.751	77.31
286.982	75.31
287.213	91.31
287.444	88.31
287.675	83.31
287.906	75.31
288.138	81.31
288.369	66.31
288.6	80.31
288.831	75.31
289.062	79.31
289.293	93.31
289.524	69.31
289.755	92.31
289.986	85.31
290.217	81.31
290.448	84.31
290.679	76.31
290.91	72.31
291.141	58.31
291.371	78.31
291.602	82.31
291.833	58.31
292.064	88.31
292.295	69.31
292.526	85.31
292.757	78.31
292.987	80.31
293.218	86.31
293.449	74.31
293.68	84.31
293.91	82.31
294.141	89.31
294.372	92.31
294.603	87.31
294.833	87.31
295.064	71.31
295.295	83.31
295.525	81.31
295.756	75.31
295.987	82.31
296.217	73.31
296.448	67.31
296.679	75.31
296.909	84.31
297.14	77.31
297.37	74.31
297.601	87.31
297.831	65.31
298.062	87.31
298.292	84.31
298.523	87.31
298.753	81.31
298.984	78.31
299.214	81.31
299.445	91.31
299.675	82.31
299.905	80.31
300.136	98.31
300.366	83.31
300.597	75.31
300.827	73.31
301.057	70.31
301.288	75.31
301.518	77.31
301.748	80.31
301.979	82.31
302.209	93.31
302.439	81.31
302.669	81.31
302.9	75.31
303.13	87.31
303.36	71.31
303.59	93.31
303.82	87.31
304.051	82.31
304.281	87.31
304.511	82.31
304.741	86.31
304.971	82.31
305.201	81.31
305.431	74.31
305.661	87.31
305.891	81.31
306.121	68.31
306.352	70.31
306.582	80.31
306.812	84.31
307.042	78.31
307.272	76.31
307.502	80.31
307.731	90.31
307.961	86.31
308.191	83.31
308.421	90.31
308.651	72.31
308.881	76.31
309.111	85.31
309.341	83.31
309.571	80.31
309.8	79.31
310.03	82.31
310.26	78.31
310.49	78.31
310.72	76.31
310.949	90.31
311.179	85.31
311.409	81.31
311.639	85.31
311.868	87.31
312.098	64.31
312.328	84.31
312.557	90.31
312.787	76.31
313.017	76.31
313.246	81.31
313.476	88.31
313.706	75.31
313.935	79.31
314.165	76.31
314.394	91.31
314.624	84.31
314.853	90.31
315.083	74.31
315.312	72.31
315.542	73.31
315.771	73.31
316.001	88.31
316.23	61.31
316.46	79.31
316.689	91.31
316.919	72.31
317.148	63.31
317.377	69.31
317.607	77.31
317.836	81.31
318.065	84.31
318.295	89.31
318.524	72.31
318.753	92.31
318.983	79.31
319.212	66.31
319.441	74.31
319.67	84.31
319.9	84.31
320.129	83.31
320.358	68.31
320.587	75.31
320.816	80.31
321.046	89.31
321.275	71.31
321.504	91.31
321.733	72.31
321.962	75.31
322.191	74.31
322.42	82.31
322.649	80.31
322.878	79.31
323.108	89.31
323.337	83.31
323.566	82.31
323.795	81.31
324.024	82.31
324.253	75.31
324.482	67.31
324.71	77.31
324.939	82.31
325.168	81.31
325.397	67.31
325.626	75.31
325.855	78.31
326.084	80.31
326.313	90.31
326.542	82.31
326.77	76.31
326.999	87.31
327.228	69.31
327.457	75.31
327.686	62.31
327.914	91.31
328.143	83.31
328.372	85.31
328.6	71.31
328.829	81.31
329.058	76.31
329.287	76.31
329.515	63.31
329.744	63.31
329.972	67.31
330.201	88.31
330.43	75.31
330.658	79.31
330.887	80.31
331.115	80.31
331.344	70.31
331.572	85.31
331.801	90.31
332.03	83.31
332.258	72.31
332.486	84.31
332.715	87.31
332.943	75.31
333.172	94.31
333.4	87.31
333.629	73.31
333.857	71.31
334.085	77.31
334.314	73.31
334.542	86.31
334.771	83.31
334.999	86.31
335.227	78.31
335.455	61.31
335.684	93.31
335.912	87.31
336.14	77.31
336.369	75.31
336.597	71.31
336.825	85.31
337.053	80.31
337.281	68.31
337.51	83.31
337.738	79.31
337.966	72.31
338.194	82.31
338.422	72.31
338.65	82.31
338.878	73.31
339.106	90.31
339.334	91.31
339.562	82.31
339.79	69.31
340.018	71.31
340.246	78.31
340.474	65.31
340.702	73.31
340.93	80.31
341.158	86.31
341.386	85.31
341.614	77.31
341.842	83.31
342.07	83.31
342.298	78.31
342.526	69.31
342.754	63.31
342.981	79.31
343.209	88.31
343.437	89.31
343.665	79.31
343.893	67.31
344.12	83.31
344.348	83.31
344.576	80.31
344.804	73.31
345.031	69.31
345.259	87.31
345.487	65.31
345.714	72.31
345.942	80.31
346.17	74.31
346.397	87.31
346.625	77.31
346.853	89.31
347.08	81.31
347.308	75.31
347.535	62.31
347.763	79.31
347.99	62.31
348.218	71.31
348.445	79.31
348.673	76.31
348.9	69.31
349.128	75.31
349.355	80.31
349.583	86.31
349.81	76.31
350.037	81.31
350.265	87.31
350.492	89.31
350.72	95.31
350.947	76.31
351.174	83.31
351.402	78.31
351.629	72.31
351.856	59.31
352.083	70.31
352.311	84.31
352.538	83.31
352.765	75.31
352.992	85.31
353.22	86.31
353.447	85.31
353.674	77.31
353.901	81.31
354.128	79.31
354.355	79.31
354.583	80.31
354.81	85.31
355.037	77.31
355.264	82.31
355.491	82.31
355.718	85.31
355.945	87.31
356.172	73.31
356.399	77.31
356.626	78.31
356.853	69.31
357.08	80.31
357.307	79.31
357.534	85.31
357.761	82.31
357.988	83.31
358.215	83.31
358.441	71.31
358.668	81.31
358.895	66.31
359.122	87.31
359.349	88.31
359.576	83.31
359.802	73.31
360.029	68.31
360.256	72.31
360.483	68.31
360.709	78.31
360.936	77.31
361.163	76.31
361.39	77.31
361.616	75.31
361.843	73.31
362.07	70.31
362.296	81.31
362.523	67.31
362.749	89.31
362.976	78.31
363.203	75.31
363.429	77.31
363.656	85.31
363.882	70.31
364.109	77.31
364.335	78.31
364.562	79.31
364.788	76.31
365.015	92.31
365.241	81.31
365.468	88.31
365.694	69.31
365.92	80.31
366.147	83.31
366.373	65.31
366.599	68.31
366.826	79.31
367.052	84.31
367.278	82.31
367.505	81.31
367.731	82.31
367.957	73.31
368.184	67.31
368.41	79.31
368.636	78.31
368.862	83.31
369.089	76.31
369.315	84.31
369.541	65.31
369.767	77.31
369.993	86.31
370.219	74.31
370.445	72.31
370.672	84.31
370.898	72.31
371.124	78.31
371.35	73.31
371.576	70.31
371.802	90.31
372.028	72.31
372.254	80.31
372.48	62.31
372.706	83.31
372.932	83.31
373.158	88.31
373.384	85.31
373.61	76.31
373.835	75.31
374.061	67.31
374.287	96.31
374.513	76.31
374.739	83.31
374.965	81.31
375.191	76.31
375.416	74.31
375.642	81.31
375.868	83.31
376.094	83.31
376.319	72.31
376.545	77.31
376.771	90.31
376.997	76.31
377.222	90.31
377.448	72.31
377.674	79.31
377.899	62.31
378.125	76.31
378.35	72.31
378.576	73.31
378.802	81.31
379.027	67.31
379.253	73.31
379.478	71.31
379.704	82.31
379.929	68.31
380.155	69.31
380.38	84.31
380.606	80.31
380.831	80.31
381.057	82.31
381.282	95.31
381.507	83.31
381.733	90.31
381.958	96.31
382.184	79.31
382.409	85.31
382.634	79.31
382.86	82.31
383.085	71.31
383.31	80.31
383.535	71.31
383.761	74.31
383.986	83.31
384.211	83.31
384.436	69.31
384.662	75.31
384.887	74.31
385.112	78.31
385.337	78.31
385.562	66.31
385.787	83.31
386.013	73.31
386.238	77.31
386.463	95.31
386.688	85.31
386.913	89.31
387.138	68.31
387.363	71.31
387.588	76.31
387.813	78.31
388.038	90.31
388.263	90.31
388.488	80.31
388.713	96.31
388.938	76.31
389.163	76.31
389.387	85.31
389.612	69.31
389.837	70.31
390.062	71.31
390.287	82.31
390.512	79.31
390.736	61.31
390.961	85.31
391.186	68.31
391.411	60.31
391.636	88.31
391.86	75.31
392.085	70.31
392.31	74.31
392.534	77.31
392.759	84.31
392.984	64.31
393.208	79.31
393.433	71.31
393.658	72.31
393.882	84.31
394.107	87.31
394.331	74.31
394.556	85.31
394.78	76.31
395.005	88.31
395.229	72.31
395.454	96.31
395.678	76.31
395.903	73.31
396.127	78.31
396.352	68.31
396.576	76.31
396.801	77.31
397.025	63.31
397.249	75.31
397.474	70.31
397.698	73.31
397.922	88.31
398.147	75.31
398.371	63.31
398.595	80.31
398.82	91.31
399.044	62.31
399.268	67.31
399.492	69.31
399.717	87.31
399.941	65.31
400.165	75.31
400.389	83.31
400.613	79.31
400.837	63.31
401.062	84.31
401.286	77.31
401.51	84.31
401.734	72.31
401.958	65.31
402.182	83.31
402.406	69.31
402.63	73.31
402.854	80.31
403.078	82.31
403.302	72.31
403.526	79.31
403.75	82.31
403.974	74.31
404.198	68.31
404.422	73.31
404.645	58.31
404.869	67.31
405.093	67.31
405.317	86.31
405.541	79.31
405.765	80.31
405.988	76.31
406.212	79.31
406.436	79.31
406.66	73.31
406.883	72.31
407.107	92.31
407.331	87.31
407.555	85.31
407.778	88.31
408.002	74.31
408.226	71.31
408.449	91.31
408.673	79.31
408.896	84.31
409.12	67.31
409.344	89.31
409.567	102.31
409.791	78.31
410.014	75.31
410.238	69.31
410.461	86.31
410.685	76.31
410.908	75.31
411.132	68.31
411.355	75.31
411.578	79.31
411.802	61.31
412.025	71.31
412.249	81.31
412.472	66.31
412.695	78.31
412.919	79.31
413.142	78.31
413.365	84.31
413.589	79.31
413.812	83.31
414.035	57.31
414.258	63.31
414.482	79.31
414.705	74.31
414.928	80.31
415.151	99.31
415.374	69.31
415.597	67.31
415.821	80.31
416.044	74.31
416.267	81.31
416.49	73.31
416.713	76.31
416.936	95.31
417.159	86.31
417.382	80.31
417.605	69.31
417.828	71.31
418.051	58.31
418.274	73.31
418.497	85.31
418.72	90.31
418.943	67.31
419.166	83.31
419.389	76.31
419.611	86.31
419.834	78.31
420.057	69.31
420.28	73.31
420.503	84.31
420.726	77.31
420.948	70.31
421.171	83.31
421.394	52.31
421.617	62.31
421.839	68.31
422.062	63.31
422.285	72.31
422.507	79.31
422.73	69.31
422.953	69.31
423.175	69.31
423.398	83.31
423.621	64.31
423.843	57.31
424.066	80.31
424.288	72.31
424.511	77.31
424.733	85.31
424.956	79.31
425.178	83.31
425.401	73.31
425.623	79.31
425.846	69.31
426.068	58.31
426.291	86.31
426.513	66.31
426.735	84.31
426.958	83.31
427.18	79.31
427.402	75.31
427.625	74.31
427.847	74.31
428.069	70.31
428.292	92.31
428.514	65.31
428.736	76.31
428.958	92.31
429.181	72.31
429.403	79.31
429.625	74.31
429.847	82.31
430.069	72.31
430.292	67.31
430.514	70.31
430.736	76.31
430.958	85.31
431.18	71.31
431.402	67.31
431.624	89.31
431.846	82.31
432.068	80.31
432.29	79.31
432.512	83.31
432.734	75.31
432.956	75.31
433.178	87.31
433.4	98.31
433.622	79.31
433.844	76.31
434.066	73.31
434.287	89.31
434.509	73.31
434.731	76.31
434.953	72.31
435.175	82.31
435.397	88.31
435.618	64.31
435.84	70.31
436.062	74.31
436.284	80.31
436.505	62.31
436.727	84.31
436.949	77.31
437.17	77.31
437.392	73.31
437.614	71.31
437.835	90.31
438.057	88.31
438.278	65.31
438.5	82.31
438.721	79.31
438.943	91.31
439.165	86.31
439.386	90.31
439.608	78.31
439.829	74.31
440.05	77.31
440.272	76.31
440.493	76.31
440.715	83.31
440.936	79.31
441.158	76.31
441.379	71.31
441.6	68.31
441.822	72.31
442.043	80.31
442.264	74.31
442.486	77.31
442.707	77.31
442.928	75.31
443.149	61.31
443.371	67.31
443.592	72.31
443.813	80.31
444.034	59.31
444.255	72.31
444.476	72.31
444.698	71.31
444.919	72.31
445.14	154.31
445.361	122.31
445.582	79.31
445.803	57.31
446.024	71.31
446.245	76.31
446.466	72.31
446.687	80.31
446.908	73.31
447.129	83.31
447.35	90.31
447.571	76.31
447.792	74.31
448.013	67.31
448.234	84.31
448.455	71.31
448.675	74.31
448.896	67.31
449.117	86.31
449.338	75.31
449.559	77.31
449.779	76.31
450	74.31
450.221	68.31
450.442	68.31
450.662	84.31
450.883	70.31
451.104	86.31
451.324	72.31
451.545	76.31
451.766	79.31
451.986	71.31
452.207	83.31
452.428	89.31
452.648	77.31
452.869	82.31
453.089	85.31
453.31	76.31
453.53	80.31
453.751	84.31
453.971	79.31
454.192	75.31
454.412	88.31
454.633	71.31
454.853	65.31
455.073	77.31
455.294	67.31
455.514	79.31
455.734	80.31
455.955	55.31
456.175	81.31
456.395	74.31
456.616	88.31
456.836	75.31
457.056	75.31
457.276	70.31
457.497	84.31
457.717	88.31
457.937	87.31
458.157	82.31
458.377	79.31
458.598	90.31
458.818	73.31
459.038	83.31
459.258	83.31
459.478	66.31
459.698	77.31
459.918	63.31
460.138	59.31
460.358	75.31
460.578	80.31
460.798	79.31
461.018	75.31
461.238	87.31
461.458	65.31
461.678	74.31
461.898	74.31
462.118	83.31
462.338	79.31
462.558	92.31
462.777	69.31
462.997	79.31
463.217	84.31
463.437	71.31
463.657	84.31
463.876	69.31
464.096	72.31
464.316	79.31
464.536	86.31
464.755	72.31
464.975	75.31
465.195	78.31
465.414	74.31
465.634	76.31
465.854	86.31
466.073	79.31
466.293	78.31
466.512	65.31
466.732	71.31
466.951	76.31
467.171	75.31
467.391	73.31
467.61	93.31
467.829	70.31
468.049	76.31
468.268	78.31
468.488	78.31
468.707	77.31
468.927	67.31
469.146	67.31
469.365	70.31
469.585	78.31
469.804	78.31
470.023	81.31
470.243	75.31
470.462	79.31
470.681	79.31
470.901	74.31
471.12	96.31
471.339	84.31
471.558	73.31
471.777	76.31
471.997	98.31
472.216	79.31
472.435	69.31
472.654	77.31
472.873	86.31
473.092	76.31
473.311	92.31
473.53	83.31
473.749	81.31
473.968	87.31
474.187	67.31
474.406	81.31
474.625	72.31
474.844	84.31
475.063	73.31
475.282	87.31
475.501	77.31
475.72	80.31
475.939	79.31
476.158	76.31
476.377	83.31
476.596	63.31
476.814	61.31
477.033	65.31
477.252	75.31
477.471	79.31
477.69	73.31
477.908	76.31
478.127	69.31
478.346	76.31
478.564	76.31
478.783	64.31
479.002	64.31
479.22	80.31
479.439	100.31
479.658	77.31
479.876	76.31
480.095	77.31
480.313	78.31
480.532	62.31
480.751	68.31
480.969	86.31
481.188	76.31
481.406	70.31
481.624	96.31
481.843	81.31
482.061	79.31
482.28	90.31
482.498	92.31
482.717	64.31
482.935	73.31
483.153	91.31
483.372	67.31
483.59	72.31
483.808	84.31
484.027	86.31
484.245	79.31
484.463	82.31
484.681	71.31
484.9	83.31
485.118	68.31
485.336	81.31
485.554	69.31
485.772	75.31
485.99	80.31
486.209	78.31
486.427	78.31
486.645	75.31
486.863	67.31
487.081	70.31
487.299	71.31
487.517	77.31
487.735	70.31
487.953	73.31
488.171	93.31
488.389	84.31
488.607	75.31
488.825	81.31
489.043	82.31
489.261	75.31
489.479	73.31
489.696	81.31
489.914	74.31
490.132	71.31
490.35	62.31
490.568	70.31
490.786	74.31
491.003	87.31
491.221	84.31
491.439	95.31
491.657	78.31
491.874	69.31
492.092	93.31
492.31	71.31
492.527	75.31
492.745	71.31
492.963	81.31
493.18	85.31
493.398	85.31
493.615	94.31
493.833	74.31
494.05	77.31
494.268	70.31
494.485	76.31
494.703	72.31
494.92	80.31
495.138	80.31
495.355	68.31
495.573	87.31
495.79	71.31
496.008	94.31
496.225	71.31
496.442	62.31
496.66	59.31
496.877	67.31
497.094	75.31
497.312	76.31
497.529	74.31
497.746	70.31
497.963	84.31
498.181	71.31
498.398	75.31
498.615	73.31
498.832	60.31
499.049	84.31
499.267	87.31
499.484	68.31
499.701	81.31
499.918	82.31
500.135	104.31
500.352	69.31
500.569	81.31
500.786	87.31
501.003	74.31
501.22	75.31
501.437	86.31
501.654	69.31
501.871	74.31
502.088	69.31
502.305	84.31
502.522	79.31
502.739	81.31
502.956	89.31
503.172	68.31
503.389	71.31
503.606	89.31
503.823	77.31
504.04	81.31
504.256	80.31
504.473	74.31
504.69	73.31
504.907	76.31
505.123	82.31
505.34	77.31
505.557	67.31
505.773	74.31
505.99	84.31
506.207	84.31
506.423	67.31
506.64	84.31
506.856	89.31
507.073	70.31
507.289	75.31
507.506	74.31
507.722	69.31
507.939	87.31
508.155	83.31
508.372	74.31
508.588	75.31
508.805	82.31
509.021	88.31
509.238	80.31
509.454	81.31
509.67	89.31
509.887	81.31
510.103	75.31
510.319	84.31
510.536	70.31
510.752	82.31
510.968	82.31
511.184	79.31
511.401	73.31
511.617	80.31
511.833	74.31
512.049	67.31
512.265	60.31
512.481	77.31
512.698	75.31
512.914	73.31
513.13	97.31
513.346	78.31
513.562	92.31
513.778	76.31
513.994	72.31
514.21	81.31
514.426	77.31
514.642	91.31
514.858	78.31
515.074	79.31
515.29	81.31
515.506	71.31
515.721	72.31
515.937	82.31
516.153	81.31
516.369	100.31
516.585	73.31
516.801	77.31
517.016	78.31
517.232	75.31
517.448	77.31
517.664	78.31
517.879	76.31
518.095	80.31
518.311	76.31
518.527	73.31
518.742	65.31
518.958	79.31
519.173	83.31
519.389	88.31
519.605	99.31
519.82	83.31
520.036	74.31
520.251	69.31
