Data from BG_HRD10591_095.txt Node
Date: Fri May 16 15:21:41 EDT 2025
User: Yrep
Spectrometer: HR+D1059
Trigger mode: 1
Integration Time (sec): 1.000000E-1
Scans to average: 1
Electric dark correction enabled: true
Nonlinearity correction enabled: false
Boxcar width: 0
XAxis mode: Wavelengths
Number of Pixels in Spectrum: 2048
>>>>>Begin Spectral Data<<<<<
223.165	-30.81
223.4	-30.81
223.635	-30.81
223.869	-22.81
224.104	-27.81
224.338	-12.81
224.573	-6.81
224.808	-23.81
225.042	-14.81
225.277	-5.81
225.511	4.19
225.746	10.19
225.98	9.19
226.215	18.19
226.449	15.19
226.683	20.19
226.918	39.19
227.152	29.19
227.387	38.19
227.621	42.19
227.856	47.19
228.09	33.19
228.324	42.19
228.559	54.19
228.793	55.19
229.027	58.19
229.262	59.19
229.496	68.19
229.73	74.19
229.964	76.19
230.199	59.19
230.433	92.19
230.667	75.19
230.901	74.19
231.136	80.19
231.37	75.19
231.604	77.19
231.838	86.19
232.072	86.19
232.306	70.19
232.541	72.19
232.775	84.19
233.009	86.19
233.243	81.19
233.477	80.19
233.711	74.19
233.945	73.19
234.179	80.19
234.413	72.19
234.647	88.19
234.881	86.19
235.115	80.19
235.349	76.19
235.583	83.19
235.817	77.19
236.051	72.19
236.285	71.19
236.519	74.19
236.753	70.19
236.987	73.19
237.221	93.19
237.455	69.19
237.689	71.19
237.922	73.19
238.156	71.19
238.39	81.19
238.624	81.19
238.858	82.19
239.091	81.19
239.325	62.19
239.559	69.19
239.793	78.19
240.027	73.19
240.26	68.19
240.494	65.19
240.728	82.19
240.961	79.19
241.195	78.19
241.429	88.19
241.662	76.19
241.896	70.19
242.13	70.19
242.363	74.19
242.597	80.19
242.83	75.19
243.064	57.19
243.298	76.19
243.531	78.19
243.765	82.19
243.998	71.19
244.232	82.19
244.465	72.19
244.699	79.19
244.932	85.19
245.166	90.19
245.399	76.19
245.633	80.19
245.866	87.19
246.099	88.19
246.333	70.19
246.566	76.19
246.8	72.19
247.033	76.19
247.266	78.19
247.5	55.19
247.733	82.19
247.966	85.19
248.2	70.19
248.433	91.19
248.666	64.19
248.899	80.19
249.133	72.19
249.366	72.19
249.599	81.19
249.832	70.19
250.066	70.19
250.299	73.19
250.532	89.19
250.765	78.19
250.998	81.19
251.231	81.19
251.465	83.19
251.698	88.19
251.931	81.19
252.164	82.19
252.397	78.19
252.63	84.19
252.863	65.19
253.096	84.19
253.329	65.19
253.562	71.19
253.795	76.19
254.028	88.19
254.261	76.19
254.494	66.19
254.727	82.19
254.96	76.19
255.193	84.19
255.426	76.19
255.659	85.19
255.892	81.19
256.124	85.19
256.357	87.19
256.59	80.19
256.823	89.19
257.056	79.19
257.289	84.19
257.521	79.19
257.754	79.19
257.987	85.19
258.22	72.19
258.452	73.19
258.685	79.19
258.918	73.19
259.151	78.19
259.383	86.19
259.616	95.19
259.849	80.19
260.081	81.19
260.314	91.19
260.547	86.19
260.779	83.19
261.012	85.19
261.244	85.19
261.477	79.19
261.71	88.19
261.942	87.19
262.175	82.19
262.407	77.19
262.64	67.19
262.872	74.19
263.105	79.19
263.337	69.19
263.57	88.19
263.802	97.19
264.035	87.19
264.267	78.19
264.499	82.19
264.732	70.19
264.964	63.19
265.197	72.19
265.429	71.19
265.661	77.19
265.894	82.19
266.126	73.19
266.358	76.19
266.591	67.19
266.823	73.19
267.055	86.19
267.287	78.19
267.52	67.19
267.752	78.19
267.984	91.19
268.216	99.19
268.448	80.19
268.681	66.19
268.913	95.19
269.145	86.19
269.377	76.19
269.609	70.19
269.841	66.19
270.073	84.19
270.306	80.19
270.538	78.19
270.77	72.19
271.002	90.19
271.234	82.19
271.466	90.19
271.698	81.19
271.93	92.19
272.162	93.19
272.394	72.19
272.626	74.19
272.858	71.19
273.09	91.19
273.322	75.19
273.553	61.19
273.785	69.19
274.017	78.19
274.249	74.19
274.481	67.19
274.713	87.19
274.945	88.19
275.176	90.19
275.408	79.19
275.64	80.19
275.872	82.19
276.104	80.19
276.335	70.19
276.567	71.19
276.799	80.19
277.031	100.19
277.262	84.19
277.494	78.19
277.726	87.19
277.957	93.19
278.189	94.19
278.421	95.19
278.652	87.19
278.884	92.19
279.115	84.19
279.347	87.19
279.579	80.19
279.81	86.19
280.042	71.19
280.273	93.19
280.505	78.19
280.736	91.19
280.968	64.19
281.199	78.19
281.431	78.19
281.662	87.19
281.894	86.19
282.125	92.19
282.356	85.19
282.588	93.19
282.819	82.19
283.051	84.19
283.282	96.19
283.513	97.19
283.745	84.19
283.976	89.19
284.207	85.19
284.439	83.19
284.67	84.19
284.901	84.19
285.132	73.19
285.364	88.19
285.595	83.19
285.826	74.19
286.057	89.19
286.288	94.19
286.52	84.19
286.751	83.19
286.982	84.19
287.213	82.19
287.444	89.19
287.675	86.19
287.906	94.19
288.138	83.19
288.369	78.19
288.6	86.19
288.831	84.19
289.062	90.19
289.293	89.19
289.524	90.19
289.755	87.19
289.986	80.19
290.217	86.19
290.448	90.19
290.679	80.19
290.91	76.19
291.141	81.19
291.371	90.19
291.602	84.19
291.833	82.19
292.064	70.19
292.295	74.19
292.526	80.19
292.757	85.19
292.987	88.19
293.218	82.19
293.449	90.19
293.68	82.19
293.91	86.19
294.141	86.19
294.372	77.19
294.603	79.19
294.833	75.19
295.064	92.19
295.295	85.19
295.525	85.19
295.756	89.19
295.987	66.19
296.217	77.19
296.448	72.19
296.679	79.19
296.909	92.19
297.14	73.19
297.37	80.19
297.601	87.19
297.831	74.19
298.062	93.19
298.292	97.19
298.523	100.19
298.753	70.19
298.984	95.19
299.214	70.19
299.445	87.19
299.675	75.19
299.905	86.19
300.136	89.19
300.366	72.19
300.597	81.19
300.827	81.19
301.057	85.19
301.288	79.19
301.518	80.19
301.748	87.19
301.979	89.19
302.209	96.19
302.439	78.19
302.669	90.19
302.9	81.19
303.13	76.19
303.36	78.19
303.59	72.19
303.82	79.19
304.051	80.19
304.281	72.19
304.511	86.19
304.741	71.19
304.971	80.19
305.201	74.19
305.431	85.19
305.661	80.19
305.891	78.19
306.121	73.19
306.352	80.19
306.582	72.19
306.812	69.19
307.042	87.19
307.272	85.19
307.502	85.19
307.731	83.19
307.961	92.19
308.191	87.19
308.421	96.19
308.651	66.19
308.881	102.19
309.111	89.19
309.341	92.19
309.571	100.19
309.8	70.19
310.03	91.19
310.26	66.19
310.49	78.19
310.72	82.19
310.949	91.19
311.179	100.19
311.409	90.19
311.639	88.19
311.868	103.19
312.098	92.19
312.328	88.19
312.557	96.19
312.787	95.19
313.017	89.19
313.246	76.19
313.476	79.19
313.706	80.19
313.935	95.19
314.165	94.19
314.394	91.19
314.624	86.19
314.853	84.19
315.083	86.19
315.312	97.19
315.542	89.19
315.771	92.19
316.001	72.19
316.23	89.19
316.46	86.19
316.689	88.19
316.919	86.19
317.148	93.19
317.377	88.19
317.607	95.19
317.836	82.19
318.065	87.19
318.295	92.19
318.524	66.19
318.753	69.19
318.983	79.19
319.212	83.19
319.441	82.19
319.67	81.19
319.9	90.19
320.129	88.19
320.358	90.19
320.587	68.19
320.816	91.19
321.046	85.19
321.275	78.19
321.504	96.19
321.733	79.19
321.962	82.19
322.191	78.19
322.42	82.19
322.649	92.19
322.878	78.19
323.108	84.19
323.337	81.19
323.566	91.19
323.795	75.19
324.024	77.19
324.253	86.19
324.482	68.19
324.71	79.19
324.939	90.19
325.168	80.19
325.397	83.19
325.626	87.19
325.855	93.19
326.084	96.19
326.313	98.19
326.542	68.19
326.77	71.19
326.999	89.19
327.228	88.19
327.457	76.19
327.686	87.19
327.914	89.19
328.143	86.19
328.372	78.19
328.6	86.19
328.829	82.19
329.058	92.19
329.287	93.19
329.515	81.19
329.744	90.19
329.972	84.19
330.201	86.19
330.43	64.19
330.658	94.19
330.887	85.19
331.115	102.19
331.344	94.19
331.572	81.19
331.801	78.19
332.03	84.19
332.258	85.19
332.486	85.19
332.715	75.19
332.943	81.19
333.172	85.19
333.4	87.19
333.629	84.19
333.857	87.19
334.085	79.19
334.314	84.19
334.542	77.19
334.771	80.19
334.999	75.19
335.227	86.19
335.455	82.19
335.684	73.19
335.912	78.19
336.14	87.19
336.369	78.19
336.597	84.19
336.825	83.19
337.053	80.19
337.281	86.19
337.51	96.19
337.738	85.19
337.966	74.19
338.194	84.19
338.422	87.19
338.65	73.19
338.878	92.19
339.106	71.19
339.334	92.19
339.562	77.19
339.79	78.19
340.018	78.19
340.246	81.19
340.474	73.19
340.702	89.19
340.93	85.19
341.158	84.19
341.386	84.19
341.614	89.19
341.842	65.19
342.07	90.19
342.298	85.19
342.526	88.19
342.754	77.19
342.981	88.19
343.209	80.19
343.437	104.19
343.665	91.19
343.893	81.19
344.12	87.19
344.348	81.19
344.576	81.19
344.804	90.19
345.031	76.19
345.259	82.19
345.487	88.19
345.714	90.19
345.942	64.19
346.17	72.19
346.397	77.19
346.625	88.19
346.853	91.19
347.08	81.19
347.308	79.19
347.535	71.19
347.763	86.19
347.99	77.19
348.218	83.19
348.445	64.19
348.673	81.19
348.9	77.19
349.128	74.19
349.355	75.19
349.583	67.19
349.81	93.19
350.037	77.19
350.265	66.19
350.492	80.19
350.72	68.19
350.947	87.19
351.174	88.19
351.402	80.19
351.629	81.19
351.856	87.19
352.083	87.19
352.311	82.19
352.538	86.19
352.765	78.19
352.992	70.19
353.22	78.19
353.447	80.19
353.674	78.19
353.901	82.19
354.128	86.19
354.355	83.19
354.583	94.19
354.81	87.19
355.037	80.19
355.264	89.19
355.491	86.19
355.718	82.19
355.945	85.19
356.172	71.19
356.399	89.19
356.626	71.19
356.853	83.19
357.08	76.19
357.307	85.19
357.534	82.19
357.761	77.19
357.988	100.19
358.215	85.19
358.441	62.19
358.668	95.19
358.895	76.19
359.122	74.19
359.349	89.19
359.576	79.19
359.802	82.19
360.029	77.19
360.256	84.19
360.483	81.19
360.709	90.19
360.936	100.19
361.163	92.19
361.39	77.19
361.616	71.19
361.843	72.19
362.07	88.19
362.296	79.19
362.523	97.19
362.749	81.19
362.976	78.19
363.203	67.19
363.429	101.19
363.656	79.19
363.882	79.19
364.109	93.19
364.335	85.19
364.562	88.19
364.788	91.19
365.015	78.19
365.241	89.19
365.468	84.19
365.694	84.19
365.92	85.19
366.147	73.19
366.373	76.19
366.599	83.19
366.826	81.19
367.052	86.19
367.278	83.19
367.505	78.19
367.731	88.19
367.957	82.19
368.184	82.19
368.41	69.19
368.636	89.19
368.862	88.19
369.089	79.19
369.315	78.19
369.541	110.19
369.767	89.19
369.993	76.19
370.219	84.19
370.445	87.19
370.672	83.19
370.898	98.19
371.124	87.19
371.35	88.19
371.576	89.19
371.802	73.19
372.028	69.19
372.254	91.19
372.48	76.19
372.706	92.19
372.932	87.19
373.158	86.19
373.384	75.19
373.61	78.19
373.835	86.19
374.061	92.19
374.287	86.19
374.513	69.19
374.739	63.19
374.965	70.19
375.191	81.19
375.416	89.19
375.642	89.19
375.868	81.19
376.094	86.19
376.319	83.19
376.545	89.19
376.771	95.19
376.997	94.19
377.222	84.19
377.448	79.19
377.674	81.19
377.899	77.19
378.125	75.19
378.35	85.19
378.576	77.19
378.802	77.19
379.027	84.19
379.253	87.19
379.478	76.19
379.704	72.19
379.929	69.19
380.155	77.19
380.38	89.19
380.606	85.19
380.831	86.19
381.057	103.19
381.282	86.19
381.507	72.19
381.733	95.19
381.958	85.19
382.184	81.19
382.409	83.19
382.634	71.19
382.86	73.19
383.085	80.19
383.31	73.19
383.535	66.19
383.761	84.19
383.986	73.19
384.211	78.19
384.436	80.19
384.662	82.19
384.887	87.19
385.112	88.19
385.337	84.19
385.562	53.19
385.787	88.19
386.013	77.19
386.238	86.19
386.463	81.19
386.688	95.19
386.913	81.19
387.138	75.19
387.363	72.19
387.588	80.19
387.813	86.19
388.038	73.19
388.263	72.19
388.488	79.19
388.713	77.19
388.938	75.19
389.163	81.19
389.387	78.19
389.612	82.19
389.837	77.19
390.062	80.19
390.287	85.19
390.512	76.19
390.736	84.19
390.961	70.19
391.186	66.19
391.411	78.19
391.636	92.19
391.86	81.19
392.085	71.19
392.31	62.19
392.534	81.19
392.759	89.19
392.984	92.19
393.208	78.19
393.433	64.19
393.658	83.19
393.882	71.19
394.107	81.19
394.331	79.19
394.556	73.19
394.78	93.19
395.005	75.19
395.229	89.19
395.454	81.19
395.678	81.19
395.903	81.19
396.127	73.19
396.352	84.19
396.576	74.19
396.801	76.19
397.025	70.19
397.249	62.19
397.474	96.19
397.698	92.19
397.922	72.19
398.147	77.19
398.371	75.19
398.595	96.19
398.82	84.19
399.044	76.19
399.268	75.19
399.492	90.19
399.717	85.19
399.941	89.19
400.165	70.19
400.389	71.19
400.613	88.19
400.837	84.19
401.062	73.19
401.286	80.19
401.51	85.19
401.734	78.19
401.958	92.19
402.182	75.19
402.406	80.19
402.63	90.19
402.854	86.19
403.078	77.19
403.302	86.19
403.526	81.19
403.75	91.19
403.974	79.19
404.198	93.19
404.422	63.19
404.645	87.19
404.869	80.19
405.093	78.19
405.317	80.19
405.541	85.19
405.765	85.19
405.988	71.19
406.212	79.19
406.436	73.19
406.66	67.19
406.883	75.19
407.107	65.19
407.331	78.19
407.555	82.19
407.778	70.19
408.002	79.19
408.226	89.19
408.449	89.19
408.673	83.19
408.896	87.19
409.12	72.19
409.344	82.19
409.567	91.19
409.791	87.19
410.014	93.19
410.238	78.19
410.461	96.19
410.685	65.19
410.908	80.19
411.132	76.19
411.355	69.19
411.578	69.19
411.802	92.19
412.025	72.19
412.249	93.19
412.472	84.19
412.695	82.19
412.919	81.19
413.142	90.19
413.365	70.19
413.589	90.19
413.812	84.19
414.035	88.19
414.258	81.19
414.482	89.19
414.705	74.19
414.928	82.19
415.151	76.19
415.374	90.19
415.597	84.19
415.821	80.19
416.044	90.19
416.267	72.19
416.49	93.19
416.713	79.19
416.936	74.19
417.159	85.19
417.382	74.19
417.605	76.19
417.828	77.19
418.051	78.19
418.274	81.19
418.497	84.19
418.72	80.19
418.943	94.19
419.166	95.19
419.389	83.19
419.611	82.19
419.834	92.19
420.057	91.19
420.28	90.19
420.503	84.19
420.726	75.19
420.948	96.19
421.171	74.19
421.394	81.19
421.617	73.19
421.839	84.19
422.062	82.19
422.285	70.19
422.507	72.19
422.73	77.19
422.953	74.19
423.175	77.19
423.398	65.19
423.621	80.19
423.843	84.19
424.066	80.19
424.288	94.19
424.511	77.19
424.733	92.19
424.956	69.19
425.178	74.19
425.401	86.19
425.623	81.19
425.846	75.19
426.068	75.19
426.291	74.19
426.513	65.19
426.735	90.19
426.958	78.19
427.18	78.19
427.402	81.19
427.625	84.19
427.847	77.19
428.069	89.19
428.292	80.19
428.514	93.19
428.736	81.19
428.958	78.19
429.181	80.19
429.403	79.19
429.625	83.19
429.847	75.19
430.069	82.19
430.292	86.19
430.514	78.19
430.736	65.19
430.958	73.19
431.18	65.19
431.402	75.19
431.624	81.19
431.846	84.19
432.068	86.19
432.29	84.19
432.512	85.19
432.734	69.19
432.956	74.19
433.178	93.19
433.4	64.19
433.622	90.19
433.844	78.19
434.066	64.19
434.287	72.19
434.509	84.19
434.731	81.19
434.953	78.19
435.175	77.19
435.397	79.19
435.618	72.19
435.84	89.19
436.062	86.19
436.284	79.19
436.505	88.19
436.727	74.19
436.949	94.19
437.17	77.19
437.392	82.19
437.614	78.19
437.835	84.19
438.057	61.19
438.278	85.19
438.5	84.19
438.721	90.19
438.943	64.19
439.165	80.19
439.386	76.19
439.608	84.19
439.829	86.19
440.05	76.19
440.272	91.19
440.493	78.19
440.715	70.19
440.936	76.19
441.158	77.19
441.379	73.19
441.6	80.19
441.822	76.19
442.043	81.19
442.264	74.19
442.486	82.19
442.707	94.19
442.928	85.19
443.149	64.19
443.371	77.19
443.592	80.19
443.813	77.19
444.034	80.19
444.255	79.19
444.476	75.19
444.698	88.19
444.919	78.19
445.14	165.19
445.361	131.19
445.582	78.19
445.803	83.19
446.024	86.19
446.245	80.19
446.466	78.19
446.687	80.19
446.908	70.19
447.129	98.19
447.35	75.19
447.571	77.19
447.792	81.19
448.013	71.19
448.234	80.19
448.455	94.19
448.675	72.19
448.896	84.19
449.117	81.19
449.338	74.19
449.559	78.19
449.779	74.19
450	79.19
450.221	80.19
450.442	72.19
450.662	75.19
450.883	86.19
451.104	72.19
451.324	80.19
451.545	65.19
451.766	83.19
451.986	83.19
452.207	78.19
452.428	87.19
452.648	80.19
452.869	93.19
453.089	87.19
453.31	82.19
453.53	94.19
453.751	85.19
453.971	79.19
454.192	80.19
454.412	80.19
454.633	84.19
454.853	91.19
455.073	86.19
455.294	73.19
455.514	84.19
455.734	77.19
455.955	75.19
456.175	81.19
456.395	97.19
456.616	75.19
456.836	73.19
457.056	80.19
457.276	74.19
457.497	81.19
457.717	68.19
457.937	77.19
458.157	79.19
458.377	69.19
458.598	88.19
458.818	70.19
459.038	87.19
459.258	85.19
459.478	70.19
459.698	85.19
459.918	74.19
460.138	79.19
460.358	69.19
460.578	82.19
460.798	79.19
461.018	82.19
461.238	90.19
461.458	73.19
461.678	86.19
461.898	79.19
462.118	73.19
462.338	68.19
462.558	95.19
462.777	78.19
462.997	83.19
463.217	80.19
463.437	71.19
463.657	71.19
463.876	74.19
464.096	90.19
464.316	73.19
464.536	92.19
464.755	62.19
464.975	74.19
465.195	79.19
465.414	75.19
465.634	88.19
465.854	84.19
466.073	94.19
466.293	81.19
466.512	90.19
466.732	87.19
466.951	75.19
467.171	83.19
467.391	67.19
467.61	80.19
467.829	78.19
468.049	74.19
468.268	75.19
468.488	88.19
468.707	76.19
468.927	81.19
469.146	70.19
469.365	83.19
469.585	84.19
469.804	91.19
470.023	80.19
470.243	77.19
470.462	85.19
470.681	84.19
470.901	68.19
471.12	81.19
471.339	90.19
471.558	63.19
471.777	94.19
471.997	65.19
472.216	80.19
472.435	77.19
472.654	83.19
472.873	80.19
473.092	61.19
473.311	80.19
473.53	82.19
473.749	77.19
473.968	85.19
474.187	79.19
474.406	80.19
474.625	73.19
474.844	79.19
475.063	84.19
475.282	79.19
475.501	86.19
475.72	91.19
475.939	78.19
476.158	90.19
476.377	86.19
476.596	68.19
476.814	74.19
477.033	79.19
477.252	91.19
477.471	89.19
477.69	72.19
477.908	80.19
478.127	78.19
478.346	76.19
478.564	74.19
478.783	78.19
479.002	80.19
479.22	82.19
479.439	81.19
479.658	81.19
479.876	81.19
480.095	74.19
480.313	84.19
480.532	98.19
480.751	79.19
480.969	91.19
481.188	74.19
481.406	81.19
481.624	88.19
481.843	82.19
482.061	72.19
482.28	82.19
482.498	79.19
482.717	84.19
482.935	79.19
483.153	84.19
483.372	79.19
483.59	79.19
483.808	89.19
484.027	76.19
484.245	85.19
484.463	80.19
484.681	86.19
484.9	78.19
485.118	75.19
485.336	102.19
485.554	77.19
485.772	81.19
485.99	61.19
486.209	83.19
486.427	82.19
486.645	86.19
486.863	80.19
487.081	86.19
487.299	76.19
487.517	67.19
487.735	84.19
487.953	79.19
488.171	77.19
488.389	77.19
488.607	93.19
488.825	86.19
489.043	73.19
489.261	93.19
489.479	77.19
489.696	86.19
489.914	78.19
490.132	83.19
490.35	78.19
490.568	78.19
490.786	84.19
491.003	61.19
491.221	84.19
491.439	71.19
491.657	81.19
491.874	86.19
492.092	86.19
492.31	83.19
492.527	80.19
492.745	85.19
492.963	68.19
493.18	79.19
493.398	94.19
493.615	66.19
493.833	62.19
494.05	95.19
494.268	84.19
494.485	84.19
494.703	77.19
494.92	88.19
495.138	84.19
495.355	88.19
495.573	85.19
495.79	102.19
496.008	80.19
496.225	85.19
496.442	84.19
496.66	88.19
496.877	77.19
497.094	100.19
497.312	77.19
497.529	79.19
497.746	87.19
497.963	80.19
498.181	72.19
498.398	76.19
498.615	81.19
498.832	94.19
499.049	88.19
499.267	94.19
499.484	77.19
499.701	72.19
499.918	88.19
500.135	78.19
500.352	60.19
500.569	81.19
500.786	82.19
501.003	85.19
501.22	80.19
501.437	76.19
501.654	61.19
501.871	77.19
502.088	74.19
502.305	84.19
502.522	89.19
502.739	86.19
502.956	87.19
503.172	88.19
503.389	86.19
503.606	78.19
503.823	80.19
504.04	88.19
504.256	84.19
504.473	81.19
504.69	88.19
504.907	80.19
505.123	92.19
505.34	83.19
505.557	70.19
505.773	84.19
505.99	88.19
506.207	69.19
506.423	90.19
506.64	78.19
506.856	72.19
507.073	80.19
507.289	78.19
507.506	77.19
507.722	77.19
507.939	79.19
508.155	76.19
508.372	88.19
508.588	84.19
508.805	79.19
509.021	88.19
509.238	89.19
509.454	84.19
509.67	75.19
509.887	76.19
510.103	90.19
510.319	75.19
510.536	83.19
510.752	78.19
510.968	97.19
511.184	77.19
511.401	77.19
511.617	82.19
511.833	89.19
512.049	65.19
512.265	79.19
512.481	76.19
512.698	80.19
512.914	77.19
513.13	85.19
513.346	77.19
513.562	87.19
513.778	87.19
513.994	88.19
514.21	75.19
514.426	89.19
514.642	86.19
514.858	79.19
515.074	80.19
515.29	86.19
515.506	69.19
515.721	64.19
515.937	76.19
516.153	89.19
516.369	88.19
516.585	78.19
516.801	89.19
517.016	81.19
517.232	83.19
517.448	82.19
517.664	78.19
517.879	84.19
518.095	82.19
518.311	88.19
518.527	76.19
518.742	82.19
518.958	82.19
519.173	83.19
519.389	72.19
519.605	78.19
519.82	91.19
520.036	92.19
520.251	91.19
