Data from BG_HRD10591_002.txt Node
Date: Fri May 16 15:20:55 EDT 2025
User: Yrep
Spectrometer: HR+D1059
Trigger mode: 1
Integration Time (sec): 1.000000E-1
Scans to average: 1
Electric dark correction enabled: true
Nonlinearity correction enabled: false
Boxcar width: 0
XAxis mode: Wavelengths
Number of Pixels in Spectrum: 2048
>>>>>Begin Spectral Data<<<<<
223.165	-22.25
223.4	-22.25
223.635	-22.25
223.869	-25.25
224.104	-12.25
224.338	-13.25
224.573	-15.25
224.808	-7.25
225.042	2.75
225.277	-9.25
225.511	-8.25
225.746	12.75
225.98	-1.25
226.215	11.75
226.449	25.75
226.683	6.75
226.918	19.75
227.152	34.75
227.387	37.75
227.621	40.75
227.856	52.75
228.09	43.75
228.324	46.75
228.559	68.75
228.793	62.75
229.027	67.75
229.262	53.75
229.496	62.75
229.73	68.75
229.964	68.75
230.199	68.75
230.433	69.75
230.667	64.75
230.901	66.75
231.136	68.75
231.37	78.75
231.604	83.75
231.838	80.75
232.072	72.75
232.306	72.75
232.541	83.75
232.775	78.75
233.009	72.75
233.243	77.75
233.477	75.75
233.711	67.75
233.945	80.75
234.179	69.75
234.413	64.75
234.647	77.75
234.881	64.75
235.115	90.75
235.349	72.75
235.583	75.75
235.817	89.75
236.051	77.75
236.285	77.75
236.519	83.75
236.753	83.75
236.987	65.75
237.221	74.75
237.455	90.75
237.689	78.75
237.922	76.75
238.156	72.75
238.39	80.75
238.624	74.75
238.858	55.75
239.091	65.75
239.325	75.75
239.559	74.75
239.793	78.75
240.027	77.75
240.26	71.75
240.494	72.75
240.728	82.75
240.961	74.75
241.195	73.75
241.429	90.75
241.662	76.75
241.896	78.75
242.13	63.75
242.363	92.75
242.597	71.75
242.83	71.75
243.064	76.75
243.298	63.75
243.531	74.75
243.765	73.75
243.998	85.75
244.232	93.75
244.465	90.75
244.699	68.75
244.932	81.75
245.166	78.75
245.399	77.75
245.633	79.75
245.866	74.75
246.099	79.75
246.333	75.75
246.566	75.75
246.8	83.75
247.033	68.75
247.266	72.75
247.5	85.75
247.733	70.75
247.966	75.75
248.2	82.75
248.433	78.75
248.666	84.75
248.899	66.75
249.133	75.75
249.366	66.75
249.599	80.75
249.832	68.75
250.066	77.75
250.299	82.75
250.532	71.75
250.765	80.75
250.998	53.75
251.231	82.75
251.465	73.75
251.698	56.75
251.931	68.75
252.164	60.75
252.397	77.75
252.63	69.75
252.863	84.75
253.096	74.75
253.329	82.75
253.562	83.75
253.795	73.75
254.028	67.75
254.261	78.75
254.494	76.75
254.727	87.75
254.96	79.75
255.193	96.75
255.426	65.75
255.659	74.75
255.892	84.75
256.124	69.75
256.357	88.75
256.59	68.75
256.823	68.75
257.056	76.75
257.289	68.75
257.521	84.75
257.754	75.75
257.987	73.75
258.22	94.75
258.452	80.75
258.685	75.75
258.918	85.75
259.151	87.75
259.383	86.75
259.616	72.75
259.849	82.75
260.081	87.75
260.314	72.75
260.547	76.75
260.779	89.75
261.012	82.75
261.244	73.75
261.477	76.75
261.71	78.75
261.942	74.75
262.175	86.75
262.407	90.75
262.64	83.75
262.872	86.75
263.105	68.75
263.337	85.75
263.57	71.75
263.802	77.75
264.035	78.75
264.267	95.75
264.499	88.75
264.732	86.75
264.964	73.75
265.197	73.75
265.429	64.75
265.661	85.75
265.894	77.75
266.126	86.75
266.358	89.75
266.591	79.75
266.823	80.75
267.055	79.75
267.287	71.75
267.52	91.75
267.752	91.75
267.984	87.75
268.216	82.75
268.448	88.75
268.681	85.75
268.913	77.75
269.145	87.75
269.377	70.75
269.609	75.75
269.841	94.75
270.073	71.75
270.306	83.75
270.538	86.75
270.77	73.75
271.002	97.75
271.234	92.75
271.466	92.75
271.698	80.75
271.93	75.75
272.162	92.75
272.394	82.75
272.626	68.75
272.858	83.75
273.09	84.75
273.322	80.75
273.553	89.75
273.785	84.75
274.017	86.75
274.249	75.75
274.481	83.75
274.713	91.75
274.945	78.75
275.176	78.75
275.408	87.75
275.64	79.75
275.872	82.75
276.104	82.75
276.335	91.75
276.567	83.75
276.799	82.75
277.031	94.75
277.262	82.75
277.494	82.75
277.726	75.75
277.957	94.75
278.189	76.75
278.421	76.75
278.652	79.75
278.884	75.75
279.115	88.75
279.347	74.75
279.579	84.75
279.81	84.75
280.042	85.75
280.273	89.75
280.505	77.75
280.736	67.75
280.968	93.75
281.199	101.75
281.431	73.75
281.662	81.75
281.894	86.75
282.125	86.75
282.356	79.75
282.588	68.75
282.819	76.75
283.051	82.75
283.282	82.75
283.513	103.75
283.745	79.75
283.976	57.75
284.207	68.75
284.439	87.75
284.67	87.75
284.901	95.75
285.132	87.75
285.364	91.75
285.595	74.75
285.826	79.75
286.057	84.75
286.288	84.75
286.52	72.75
286.751	85.75
286.982	83.75
287.213	79.75
287.444	89.75
287.675	87.75
287.906	84.75
288.138	83.75
288.369	77.75
288.6	72.75
288.831	81.75
289.062	85.75
289.293	83.75
289.524	83.75
289.755	88.75
289.986	83.75
290.217	69.75
290.448	91.75
290.679	80.75
290.91	82.75
291.141	64.75
291.371	88.75
291.602	89.75
291.833	91.75
292.064	96.75
292.295	68.75
292.526	76.75
292.757	69.75
292.987	72.75
293.218	79.75
293.449	78.75
293.68	72.75
293.91	76.75
294.141	87.75
294.372	96.75
294.603	83.75
294.833	84.75
295.064	79.75
295.295	100.75
295.525	76.75
295.756	104.75
295.987	85.75
296.217	78.75
296.448	90.75
296.679	68.75
296.909	82.75
297.14	88.75
297.37	83.75
297.601	90.75
297.831	87.75
298.062	80.75
298.292	84.75
298.523	70.75
298.753	74.75
298.984	85.75
299.214	88.75
299.445	98.75
299.675	98.75
299.905	77.75
300.136	86.75
300.366	85.75
300.597	93.75
300.827	83.75
301.057	77.75
301.288	91.75
301.518	71.75
301.748	68.75
301.979	80.75
302.209	78.75
302.439	94.75
302.669	85.75
302.9	78.75
303.13	82.75
303.36	85.75
303.59	84.75
303.82	88.75
304.051	88.75
304.281	93.75
304.511	73.75
304.741	91.75
304.971	84.75
305.201	82.75
305.431	74.75
305.661	84.75
305.891	83.75
306.121	102.75
306.352	90.75
306.582	89.75
306.812	87.75
307.042	70.75
307.272	95.75
307.502	85.75
307.731	90.75
307.961	79.75
308.191	85.75
308.421	82.75
308.651	102.75
308.881	89.75
309.111	62.75
309.341	87.75
309.571	86.75
309.8	92.75
310.03	80.75
310.26	82.75
310.49	83.75
310.72	72.75
310.949	82.75
311.179	82.75
311.409	83.75
311.639	73.75
311.868	91.75
312.098	85.75
312.328	88.75
312.557	83.75
312.787	79.75
313.017	83.75
313.246	87.75
313.476	79.75
313.706	78.75
313.935	80.75
314.165	86.75
314.394	92.75
314.624	78.75
314.853	79.75
315.083	76.75
315.312	65.75
315.542	94.75
315.771	94.75
316.001	88.75
316.23	90.75
316.46	91.75
316.689	101.75
316.919	95.75
317.148	92.75
317.377	79.75
317.607	96.75
317.836	80.75
318.065	77.75
318.295	72.75
318.524	102.75
318.753	82.75
318.983	67.75
319.212	83.75
319.441	82.75
319.67	87.75
319.9	85.75
320.129	95.75
320.358	82.75
320.587	93.75
320.816	91.75
321.046	82.75
321.275	94.75
321.504	75.75
321.733	84.75
321.962	84.75
322.191	82.75
322.42	78.75
322.649	85.75
322.878	74.75
323.108	78.75
323.337	88.75
323.566	86.75
323.795	80.75
324.024	98.75
324.253	87.75
324.482	64.75
324.71	94.75
324.939	83.75
325.168	79.75
325.397	83.75
325.626	99.75
325.855	74.75
326.084	82.75
326.313	82.75
326.542	77.75
326.77	88.75
326.999	103.75
327.228	88.75
327.457	96.75
327.686	83.75
327.914	77.75
328.143	94.75
328.372	95.75
328.6	82.75
328.829	90.75
329.058	92.75
329.287	87.75
329.515	87.75
329.744	86.75
329.972	72.75
330.201	80.75
330.43	98.75
330.658	83.75
330.887	86.75
331.115	80.75
331.344	69.75
331.572	94.75
331.801	68.75
332.03	86.75
332.258	96.75
332.486	81.75
332.715	87.75
332.943	86.75
333.172	74.75
333.4	91.75
333.629	83.75
333.857	92.75
334.085	88.75
334.314	93.75
334.542	92.75
334.771	97.75
334.999	80.75
335.227	85.75
335.455	88.75
335.684	88.75
335.912	96.75
336.14	80.75
336.369	91.75
336.597	75.75
336.825	97.75
337.053	89.75
337.281	90.75
337.51	85.75
337.738	92.75
337.966	91.75
338.194	82.75
338.422	92.75
338.65	72.75
338.878	80.75
339.106	71.75
339.334	84.75
339.562	75.75
339.79	75.75
340.018	85.75
340.246	84.75
340.474	83.75
340.702	93.75
340.93	78.75
341.158	92.75
341.386	85.75
341.614	96.75
341.842	76.75
342.07	81.75
342.298	98.75
342.526	92.75
342.754	84.75
342.981	73.75
343.209	94.75
343.437	98.75
343.665	75.75
343.893	83.75
344.12	82.75
344.348	101.75
344.576	83.75
344.804	83.75
345.031	88.75
345.259	89.75
345.487	86.75
345.714	76.75
345.942	90.75
346.17	78.75
346.397	80.75
346.625	71.75
346.853	83.75
347.08	77.75
347.308	78.75
347.535	91.75
347.763	85.75
347.99	87.75
348.218	87.75
348.445	78.75
348.673	79.75
348.9	85.75
349.128	95.75
349.355	63.75
349.583	93.75
349.81	82.75
350.037	95.75
350.265	89.75
350.492	86.75
350.72	75.75
350.947	78.75
351.174	93.75
351.402	76.75
351.629	84.75
351.856	84.75
352.083	85.75
352.311	93.75
352.538	86.75
352.765	91.75
352.992	82.75
353.22	86.75
353.447	74.75
353.674	84.75
353.901	77.75
354.128	89.75
354.355	82.75
354.583	73.75
354.81	73.75
355.037	75.75
355.264	89.75
355.491	89.75
355.718	83.75
355.945	87.75
356.172	100.75
356.399	88.75
356.626	101.75
356.853	82.75
357.08	91.75
357.307	83.75
357.534	82.75
357.761	86.75
357.988	88.75
358.215	91.75
358.441	99.75
358.668	87.75
358.895	96.75
359.122	71.75
359.349	98.75
359.576	85.75
359.802	91.75
360.029	76.75
360.256	89.75
360.483	63.75
360.709	82.75
360.936	85.75
361.163	85.75
361.39	85.75
361.616	87.75
361.843	89.75
362.07	69.75
362.296	86.75
362.523	90.75
362.749	75.75
362.976	98.75
363.203	82.75
363.429	91.75
363.656	86.75
363.882	85.75
364.109	85.75
364.335	80.75
364.562	72.75
364.788	83.75
365.015	90.75
365.241	91.75
365.468	76.75
365.694	84.75
365.92	91.75
366.147	72.75
366.373	84.75
366.599	102.75
366.826	78.75
367.052	89.75
367.278	92.75
367.505	94.75
367.731	98.75
367.957	95.75
368.184	89.75
368.41	88.75
368.636	83.75
368.862	85.75
369.089	75.75
369.315	75.75
369.541	84.75
369.767	80.75
369.993	87.75
370.219	85.75
370.445	81.75
370.672	81.75
370.898	74.75
371.124	80.75
371.35	94.75
371.576	80.75
371.802	83.75
372.028	92.75
372.254	68.75
372.48	80.75
372.706	88.75
372.932	87.75
373.158	79.75
373.384	79.75
373.61	92.75
373.835	81.75
374.061	75.75
374.287	85.75
374.513	91.75
374.739	82.75
374.965	78.75
375.191	91.75
375.416	74.75
375.642	81.75
375.868	81.75
376.094	81.75
376.319	100.75
376.545	78.75
376.771	80.75
376.997	104.75
377.222	94.75
377.448	85.75
377.674	82.75
377.899	88.75
378.125	86.75
378.35	80.75
378.576	86.75
378.802	78.75
379.027	87.75
379.253	92.75
379.478	93.75
379.704	97.75
379.929	79.75
380.155	68.75
380.38	84.75
380.606	71.75
380.831	83.75
381.057	95.75
381.282	91.75
381.507	82.75
381.733	87.75
381.958	87.75
382.184	81.75
382.409	72.75
382.634	90.75
382.86	84.75
383.085	87.75
383.31	74.75
383.535	87.75
383.761	74.75
383.986	82.75
384.211	93.75
384.436	94.75
384.662	71.75
384.887	78.75
385.112	82.75
385.337	94.75
385.562	89.75
385.787	86.75
386.013	86.75
386.238	77.75
386.463	88.75
386.688	101.75
386.913	77.75
387.138	82.75
387.363	94.75
387.588	90.75
387.813	94.75
388.038	99.75
388.263	86.75
388.488	83.75
388.713	92.75
388.938	96.75
389.163	83.75
389.387	88.75
389.612	83.75
389.837	77.75
390.062	73.75
390.287	94.75
390.512	80.75
390.736	76.75
390.961	87.75
391.186	84.75
391.411	90.75
391.636	96.75
391.86	90.75
392.085	71.75
392.31	90.75
392.534	84.75
392.759	86.75
392.984	87.75
393.208	85.75
393.433	82.75
393.658	89.75
393.882	77.75
394.107	90.75
394.331	78.75
394.556	85.75
394.78	80.75
395.005	80.75
395.229	85.75
395.454	77.75
395.678	80.75
395.903	83.75
396.127	79.75
396.352	85.75
396.576	97.75
396.801	75.75
397.025	71.75
397.249	91.75
397.474	90.75
397.698	79.75
397.922	84.75
398.147	85.75
398.371	92.75
398.595	100.75
398.82	84.75
399.044	78.75
399.268	76.75
399.492	86.75
399.717	85.75
399.941	83.75
400.165	82.75
400.389	83.75
400.613	80.75
400.837	86.75
401.062	86.75
401.286	87.75
401.51	85.75
401.734	83.75
401.958	88.75
402.182	84.75
402.406	88.75
402.63	89.75
402.854	89.75
403.078	88.75
403.302	95.75
403.526	96.75
403.75	85.75
403.974	108.75
404.198	82.75
404.422	94.75
404.645	105.75
404.869	94.75
405.093	98.75
405.317	86.75
405.541	96.75
405.765	97.75
405.988	100.75
406.212	86.75
406.436	72.75
406.66	79.75
406.883	76.75
407.107	80.75
407.331	79.75
407.555	104.75
407.778	95.75
408.002	78.75
408.226	93.75
408.449	102.75
408.673	95.75
408.896	87.75
409.12	93.75
409.344	78.75
409.567	70.75
409.791	83.75
410.014	109.75
410.238	91.75
410.461	83.75
410.685	105.75
410.908	89.75
411.132	106.75
411.355	88.75
411.578	86.75
411.802	86.75
412.025	95.75
412.249	79.75
412.472	95.75
412.695	96.75
412.919	97.75
413.142	97.75
413.365	98.75
413.589	75.75
413.812	82.75
414.035	92.75
414.258	79.75
414.482	95.75
414.705	86.75
414.928	92.75
415.151	94.75
415.374	84.75
415.597	93.75
415.821	86.75
416.044	98.75
416.267	95.75
416.49	89.75
416.713	85.75
416.936	87.75
417.159	90.75
417.382	90.75
417.605	88.75
417.828	90.75
418.051	91.75
418.274	88.75
418.497	88.75
418.72	85.75
418.943	81.75
419.166	99.75
419.389	90.75
419.611	88.75
419.834	85.75
420.057	86.75
420.28	79.75
420.503	76.75
420.726	95.75
420.948	79.75
421.171	88.75
421.394	86.75
421.617	101.75
421.839	81.75
422.062	73.75
422.285	94.75
422.507	82.75
422.73	90.75
422.953	91.75
423.175	88.75
423.398	91.75
423.621	98.75
423.843	92.75
424.066	81.75
424.288	72.75
424.511	80.75
424.733	98.75
424.956	86.75
425.178	93.75
425.401	84.75
425.623	85.75
425.846	90.75
426.068	102.75
426.291	88.75
426.513	86.75
426.735	95.75
426.958	80.75
427.18	94.75
427.402	77.75
427.625	87.75
427.847	72.75
428.069	95.75
428.292	85.75
428.514	79.75
428.736	94.75
428.958	79.75
429.181	83.75
429.403	93.75
429.625	76.75
429.847	78.75
430.069	84.75
430.292	92.75
430.514	85.75
430.736	84.75
430.958	72.75
431.18	80.75
431.402	81.75
431.624	83.75
431.846	73.75
432.068	79.75
432.29	85.75
432.512	92.75
432.734	85.75
432.956	74.75
433.178	74.75
433.4	76.75
433.622	89.75
433.844	92.75
434.066	88.75
434.287	92.75
434.509	86.75
434.731	85.75
434.953	80.75
435.175	95.75
435.397	77.75
435.618	93.75
435.84	87.75
436.062	87.75
436.284	89.75
436.505	91.75
436.727	86.75
436.949	87.75
437.17	84.75
437.392	71.75
437.614	95.75
437.835	79.75
438.057	91.75
438.278	83.75
438.5	85.75
438.721	95.75
438.943	92.75
439.165	92.75
439.386	88.75
439.608	80.75
439.829	86.75
440.05	70.75
440.272	77.75
440.493	87.75
440.715	84.75
440.936	70.75
441.158	80.75
441.379	86.75
441.6	77.75
441.822	83.75
442.043	71.75
442.264	75.75
442.486	91.75
442.707	93.75
442.928	96.75
443.149	80.75
443.371	97.75
443.592	91.75
443.813	78.75
444.034	86.75
444.255	87.75
444.476	76.75
444.698	86.75
444.919	91.75
445.14	170.75
445.361	132.75
445.582	100.75
445.803	91.75
446.024	82.75
446.245	83.75
446.466	90.75
446.687	90.75
446.908	101.75
447.129	77.75
447.35	84.75
447.571	94.75
447.792	74.75
448.013	92.75
448.234	90.75
448.455	92.75
448.675	92.75
448.896	88.75
449.117	94.75
449.338	91.75
449.559	85.75
449.779	84.75
450	90.75
450.221	91.75
450.442	80.75
450.662	83.75
450.883	93.75
451.104	79.75
451.324	79.75
451.545	75.75
451.766	89.75
451.986	76.75
452.207	85.75
452.428	76.75
452.648	76.75
452.869	85.75
453.089	80.75
453.31	95.75
453.53	83.75
453.751	86.75
453.971	79.75
454.192	88.75
454.412	87.75
454.633	79.75
454.853	83.75
455.073	76.75
455.294	91.75
455.514	89.75
455.734	83.75
455.955	72.75
456.175	70.75
456.395	99.75
456.616	108.75
456.836	84.75
457.056	78.75
457.276	81.75
457.497	91.75
457.717	92.75
457.937	89.75
458.157	84.75
458.377	84.75
458.598	82.75
458.818	93.75
459.038	90.75
459.258	79.75
459.478	84.75
459.698	89.75
459.918	74.75
460.138	89.75
460.358	102.75
460.578	104.75
460.798	93.75
461.018	84.75
461.238	83.75
461.458	88.75
461.678	86.75
461.898	80.75
462.118	87.75
462.338	94.75
462.558	83.75
462.777	92.75
462.997	106.75
463.217	85.75
463.437	95.75
463.657	91.75
463.876	81.75
464.096	93.75
464.316	96.75
464.536	97.75
464.755	87.75
464.975	88.75
465.195	87.75
465.414	86.75
465.634	94.75
465.854	79.75
466.073	99.75
466.293	78.75
466.512	106.75
466.732	86.75
466.951	87.75
467.171	75.75
467.391	84.75
467.61	71.75
467.829	87.75
468.049	94.75
468.268	95.75
468.488	88.75
468.707	87.75
468.927	58.75
469.146	83.75
469.365	88.75
469.585	76.75
469.804	83.75
470.023	95.75
470.243	82.75
470.462	94.75
470.681	76.75
470.901	91.75
471.12	102.75
471.339	88.75
471.558	86.75
471.777	77.75
471.997	89.75
472.216	74.75
472.435	92.75
472.654	98.75
472.873	85.75
473.092	88.75
473.311	83.75
473.53	90.75
473.749	90.75
473.968	87.75
474.187	90.75
474.406	91.75
474.625	81.75
474.844	79.75
475.063	83.75
475.282	89.75
475.501	83.75
475.72	90.75
475.939	91.75
476.158	93.75
476.377	102.75
476.596	95.75
476.814	89.75
477.033	72.75
477.252	84.75
477.471	83.75
477.69	102.75
477.908	91.75
478.127	91.75
478.346	71.75
478.564	90.75
478.783	94.75
479.002	80.75
479.22	87.75
479.439	96.75
479.658	90.75
479.876	67.75
480.095	82.75
480.313	83.75
480.532	89.75
480.751	86.75
480.969	72.75
481.188	88.75
481.406	83.75
481.624	87.75
481.843	93.75
482.061	82.75
482.28	78.75
482.498	74.75
482.717	85.75
482.935	90.75
483.153	91.75
483.372	86.75
483.59	75.75
483.808	88.75
484.027	98.75
484.245	91.75
484.463	92.75
484.681	94.75
484.9	83.75
485.118	79.75
485.336	96.75
485.554	105.75
485.772	89.75
485.99	92.75
486.209	92.75
486.427	83.75
486.645	78.75
486.863	96.75
487.081	80.75
487.299	86.75
487.517	78.75
487.735	84.75
487.953	88.75
488.171	76.75
488.389	75.75
488.607	85.75
488.825	95.75
489.043	88.75
489.261	94.75
489.479	91.75
489.696	88.75
489.914	103.75
490.132	94.75
490.35	90.75
490.568	82.75
490.786	79.75
491.003	88.75
491.221	84.75
491.439	80.75
491.657	101.75
491.874	86.75
492.092	88.75
492.31	90.75
492.527	81.75
492.745	96.75
492.963	97.75
493.18	92.75
493.398	92.75
493.615	90.75
493.833	84.75
494.05	93.75
494.268	70.75
494.485	78.75
494.703	82.75
494.92	91.75
495.138	78.75
495.355	75.75
495.573	98.75
495.79	81.75
496.008	86.75
496.225	91.75
496.442	91.75
496.66	79.75
496.877	91.75
497.094	91.75
497.312	89.75
497.529	92.75
497.746	76.75
497.963	86.75
498.181	92.75
498.398	91.75
498.615	81.75
498.832	90.75
499.049	94.75
499.267	85.75
499.484	98.75
499.701	94.75
499.918	95.75
500.135	114.75
500.352	109.75
500.569	114.75
500.786	105.75
501.003	87.75
501.22	94.75
501.437	94.75
501.654	101.75
501.871	95.75
502.088	84.75
502.305	84.75
502.522	102.75
502.739	94.75
502.956	78.75
503.172	87.75
503.389	92.75
503.606	74.75
503.823	88.75
504.04	98.75
504.256	94.75
504.473	86.75
504.69	85.75
504.907	91.75
505.123	98.75
505.34	94.75
505.557	94.75
505.773	92.75
505.99	83.75
506.207	79.75
506.423	84.75
506.64	90.75
506.856	74.75
507.073	87.75
507.289	88.75
507.506	91.75
507.722	85.75
507.939	66.75
508.155	67.75
508.372	76.75
508.588	84.75
508.805	100.75
509.021	87.75
509.238	91.75
509.454	81.75
509.67	76.75
509.887	84.75
510.103	92.75
510.319	89.75
510.536	77.75
510.752	80.75
510.968	101.75
511.184	90.75
511.401	92.75
511.617	83.75
511.833	89.75
512.049	88.75
512.265	86.75
512.481	100.75
512.698	106.75
512.914	102.75
513.13	99.75
513.346	87.75
513.562	86.75
513.778	75.75
513.994	85.75
514.21	87.75
514.426	83.75
514.642	100.75
514.858	86.75
515.074	83.75
515.29	88.75
515.506	79.75
515.721	79.75
515.937	95.75
516.153	98.75
516.369	81.75
516.585	90.75
516.801	102.75
517.016	94.75
517.232	86.75
517.448	109.75
517.664	88.75
517.879	85.75
518.095	102.75
518.311	92.75
518.527	111.75
518.742	94.75
518.958	86.75
519.173	87.75
519.389	95.75
519.605	81.75
