Data from BG_HRD10591_074.txt Node
Date: Fri May 16 15:21:30 EDT 2025
User: Yrep
Spectrometer: HR+D1059
Trigger mode: 1
Integration Time (sec): 1.000000E-1
Scans to average: 1
Electric dark correction enabled: true
Nonlinearity correction enabled: false
Boxcar width: 0
XAxis mode: Wavelengths
Number of Pixels in Spectrum: 2048
>>>>>Begin Spectral Data<<<<<
223.165	-21.56
223.4	-21.56
223.635	-21.56
223.869	-32.56
224.104	-25.56
224.338	-10.56
224.573	-18.56
224.808	-18.56
225.042	-2.56
225.277	12.44
225.511	-6.56
225.746	6.44
225.98	10.44
226.215	7.44
226.449	19.44
226.683	16.44
226.918	29.44
227.152	34.44
227.387	33.44
227.621	53.44
227.856	59.44
228.09	54.44
228.324	44.44
228.559	60.44
228.793	68.44
229.027	64.44
229.262	74.44
229.496	61.44
229.73	59.44
229.964	83.44
230.199	68.44
230.433	62.44
230.667	86.44
230.901	91.44
231.136	85.44
231.37	86.44
231.604	94.44
231.838	88.44
232.072	96.44
232.306	87.44
232.541	85.44
232.775	88.44
233.009	89.44
233.243	87.44
233.477	94.44
233.711	97.44
233.945	69.44
234.179	80.44
234.413	79.44
234.647	93.44
234.881	85.44
235.115	90.44
235.349	83.44
235.583	84.44
235.817	93.44
236.051	95.44
236.285	89.44
236.519	93.44
236.753	82.44
236.987	78.44
237.221	84.44
237.455	88.44
237.689	72.44
237.922	79.44
238.156	76.44
238.39	78.44
238.624	79.44
238.858	83.44
239.091	76.44
239.325	69.44
239.559	68.44
239.793	77.44
240.027	81.44
240.26	79.44
240.494	91.44
240.728	83.44
240.961	94.44
241.195	78.44
241.429	73.44
241.662	84.44
241.896	88.44
242.13	85.44
242.363	71.44
242.597	75.44
242.83	88.44
243.064	79.44
243.298	98.44
243.531	96.44
243.765	77.44
243.998	91.44
244.232	101.44
244.465	83.44
244.699	66.44
244.932	81.44
245.166	87.44
245.399	93.44
245.633	89.44
245.866	72.44
246.099	76.44
246.333	83.44
246.566	77.44
246.8	77.44
247.033	76.44
247.266	87.44
247.5	79.44
247.733	79.44
247.966	83.44
248.2	96.44
248.433	101.44
248.666	89.44
248.899	95.44
249.133	94.44
249.366	94.44
249.599	91.44
249.832	90.44
250.066	107.44
250.299	95.44
250.532	85.44
250.765	96.44
250.998	89.44
251.231	90.44
251.465	87.44
251.698	94.44
251.931	93.44
252.164	86.44
252.397	89.44
252.63	90.44
252.863	94.44
253.096	77.44
253.329	83.44
253.562	95.44
253.795	77.44
254.028	97.44
254.261	79.44
254.494	78.44
254.727	84.44
254.96	95.44
255.193	82.44
255.426	87.44
255.659	79.44
255.892	80.44
256.124	87.44
256.357	90.44
256.59	90.44
256.823	95.44
257.056	85.44
257.289	90.44
257.521	95.44
257.754	94.44
257.987	86.44
258.22	89.44
258.452	73.44
258.685	93.44
258.918	83.44
259.151	93.44
259.383	80.44
259.616	90.44
259.849	81.44
260.081	83.44
260.314	90.44
260.547	100.44
260.779	81.44
261.012	98.44
261.244	89.44
261.477	94.44
261.71	81.44
261.942	82.44
262.175	89.44
262.407	90.44
262.64	75.44
262.872	87.44
263.105	93.44
263.337	93.44
263.57	74.44
263.802	90.44
264.035	82.44
264.267	81.44
264.499	106.44
264.732	99.44
264.964	93.44
265.197	84.44
265.429	85.44
265.661	99.44
265.894	85.44
266.126	89.44
266.358	96.44
266.591	84.44
266.823	99.44
267.055	85.44
267.287	87.44
267.52	97.44
267.752	62.44
267.984	83.44
268.216	93.44
268.448	99.44
268.681	91.44
268.913	107.44
269.145	82.44
269.377	86.44
269.609	86.44
269.841	89.44
270.073	99.44
270.306	125.44
270.538	89.44
270.77	90.44
271.002	86.44
271.234	89.44
271.466	90.44
271.698	100.44
271.93	95.44
272.162	84.44
272.394	100.44
272.626	85.44
272.858	92.44
273.09	95.44
273.322	90.44
273.553	93.44
273.785	95.44
274.017	87.44
274.249	99.44
274.481	95.44
274.713	83.44
274.945	95.44
275.176	83.44
275.408	98.44
275.64	102.44
275.872	79.44
276.104	82.44
276.335	92.44
276.567	92.44
276.799	94.44
277.031	75.44
277.262	83.44
277.494	93.44
277.726	82.44
277.957	85.44
278.189	86.44
278.421	98.44
278.652	98.44
278.884	93.44
279.115	100.44
279.347	97.44
279.579	90.44
279.81	96.44
280.042	83.44
280.273	93.44
280.505	86.44
280.736	78.44
280.968	91.44
281.199	106.44
281.431	92.44
281.662	89.44
281.894	92.44
282.125	88.44
282.356	79.44
282.588	92.44
282.819	94.44
283.051	99.44
283.282	75.44
283.513	98.44
283.745	102.44
283.976	95.44
284.207	97.44
284.439	84.44
284.67	93.44
284.901	92.44
285.132	96.44
285.364	93.44
285.595	99.44
285.826	81.44
286.057	86.44
286.288	96.44
286.52	89.44
286.751	102.44
286.982	89.44
287.213	91.44
287.444	89.44
287.675	99.44
287.906	86.44
288.138	81.44
288.369	96.44
288.6	79.44
288.831	85.44
289.062	90.44
289.293	96.44
289.524	99.44
289.755	102.44
289.986	94.44
290.217	98.44
290.448	88.44
290.679	83.44
290.91	94.44
291.141	87.44
291.371	105.44
291.602	75.44
291.833	94.44
292.064	93.44
292.295	103.44
292.526	93.44
292.757	91.44
292.987	83.44
293.218	86.44
293.449	98.44
293.68	81.44
293.91	72.44
294.141	97.44
294.372	85.44
294.603	82.44
294.833	92.44
295.064	72.44
295.295	86.44
295.525	89.44
295.756	91.44
295.987	101.44
296.217	96.44
296.448	89.44
296.679	82.44
296.909	95.44
297.14	92.44
297.37	87.44
297.601	88.44
297.831	81.44
298.062	99.44
298.292	91.44
298.523	107.44
298.753	90.44
298.984	80.44
299.214	94.44
299.445	91.44
299.675	102.44
299.905	109.44
300.136	102.44
300.366	99.44
300.597	79.44
300.827	93.44
301.057	88.44
301.288	95.44
301.518	79.44
301.748	97.44
301.979	94.44
302.209	89.44
302.439	94.44
302.669	89.44
302.9	94.44
303.13	83.44
303.36	89.44
303.59	91.44
303.82	95.44
304.051	93.44
304.281	84.44
304.511	95.44
304.741	95.44
304.971	97.44
305.201	92.44
305.431	98.44
305.661	103.44
305.891	96.44
306.121	91.44
306.352	105.44
306.582	96.44
306.812	93.44
307.042	101.44
307.272	93.44
307.502	98.44
307.731	96.44
307.961	102.44
308.191	93.44
308.421	94.44
308.651	79.44
308.881	75.44
309.111	89.44
309.341	100.44
309.571	95.44
309.8	96.44
310.03	96.44
310.26	98.44
310.49	109.44
310.72	82.44
310.949	89.44
311.179	85.44
311.409	99.44
311.639	96.44
311.868	100.44
312.098	94.44
312.328	83.44
312.557	88.44
312.787	101.44
313.017	112.44
313.246	100.44
313.476	90.44
313.706	102.44
313.935	93.44
314.165	92.44
314.394	89.44
314.624	89.44
314.853	97.44
315.083	87.44
315.312	105.44
315.542	84.44
315.771	96.44
316.001	102.44
316.23	100.44
316.46	85.44
316.689	87.44
316.919	84.44
317.148	81.44
317.377	99.44
317.607	100.44
317.836	91.44
318.065	95.44
318.295	94.44
318.524	93.44
318.753	105.44
318.983	92.44
319.212	98.44
319.441	94.44
319.67	98.44
319.9	84.44
320.129	85.44
320.358	98.44
320.587	87.44
320.816	91.44
321.046	92.44
321.275	98.44
321.504	103.44
321.733	105.44
321.962	91.44
322.191	80.44
322.42	101.44
322.649	94.44
322.878	100.44
323.108	102.44
323.337	85.44
323.566	94.44
323.795	89.44
324.024	98.44
324.253	85.44
324.482	91.44
324.71	102.44
324.939	86.44
325.168	110.44
325.397	84.44
325.626	90.44
325.855	86.44
326.084	90.44
326.313	89.44
326.542	94.44
326.77	99.44
326.999	107.44
327.228	91.44
327.457	95.44
327.686	83.44
327.914	90.44
328.143	85.44
328.372	102.44
328.6	95.44
328.829	95.44
329.058	101.44
329.287	88.44
329.515	91.44
329.744	81.44
329.972	97.44
330.201	91.44
330.43	96.44
330.658	94.44
330.887	95.44
331.115	107.44
331.344	94.44
331.572	92.44
331.801	103.44
332.03	86.44
332.258	85.44
332.486	95.44
332.715	87.44
332.943	92.44
333.172	90.44
333.4	98.44
333.629	99.44
333.857	91.44
334.085	103.44
334.314	106.44
334.542	103.44
334.771	92.44
334.999	95.44
335.227	91.44
335.455	93.44
335.684	102.44
335.912	99.44
336.14	84.44
336.369	85.44
336.597	92.44
336.825	104.44
337.053	99.44
337.281	92.44
337.51	89.44
337.738	94.44
337.966	95.44
338.194	84.44
338.422	85.44
338.65	89.44
338.878	97.44
339.106	85.44
339.334	99.44
339.562	104.44
339.79	91.44
340.018	93.44
340.246	90.44
340.474	100.44
340.702	92.44
340.93	94.44
341.158	91.44
341.386	95.44
341.614	92.44
341.842	91.44
342.07	92.44
342.298	90.44
342.526	96.44
342.754	105.44
342.981	108.44
343.209	99.44
343.437	120.44
343.665	91.44
343.893	95.44
344.12	94.44
344.348	97.44
344.576	93.44
344.804	90.44
345.031	102.44
345.259	103.44
345.487	83.44
345.714	83.44
345.942	87.44
346.17	89.44
346.397	87.44
346.625	94.44
346.853	87.44
347.08	86.44
347.308	93.44
347.535	75.44
347.763	101.44
347.99	96.44
348.218	108.44
348.445	101.44
348.673	91.44
348.9	89.44
349.128	85.44
349.355	91.44
349.583	101.44
349.81	108.44
350.037	85.44
350.265	91.44
350.492	84.44
350.72	85.44
350.947	76.44
351.174	95.44
351.402	89.44
351.629	90.44
351.856	106.44
352.083	89.44
352.311	87.44
352.538	93.44
352.765	96.44
352.992	102.44
353.22	110.44
353.447	89.44
353.674	95.44
353.901	105.44
354.128	77.44
354.355	85.44
354.583	100.44
354.81	96.44
355.037	101.44
355.264	91.44
355.491	98.44
355.718	94.44
355.945	91.44
356.172	91.44
356.399	90.44
356.626	91.44
356.853	97.44
357.08	91.44
357.307	99.44
357.534	95.44
357.761	97.44
357.988	86.44
358.215	103.44
358.441	95.44
358.668	83.44
358.895	100.44
359.122	89.44
359.349	94.44
359.576	94.44
359.802	100.44
360.029	110.44
360.256	83.44
360.483	82.44
360.709	83.44
360.936	95.44
361.163	97.44
361.39	103.44
361.616	96.44
361.843	95.44
362.07	90.44
362.296	101.44
362.523	95.44
362.749	91.44
362.976	84.44
363.203	97.44
363.429	97.44
363.656	88.44
363.882	84.44
364.109	101.44
364.335	95.44
364.562	93.44
364.788	95.44
365.015	87.44
365.241	94.44
365.468	83.44
365.694	83.44
365.92	97.44
366.147	89.44
366.373	93.44
366.599	99.44
366.826	97.44
367.052	101.44
367.278	94.44
367.505	91.44
367.731	107.44
367.957	85.44
368.184	101.44
368.41	100.44
368.636	95.44
368.862	90.44
369.089	86.44
369.315	89.44
369.541	102.44
369.767	93.44
369.993	94.44
370.219	107.44
370.445	94.44
370.672	97.44
370.898	93.44
371.124	87.44
371.35	98.44
371.576	79.44
371.802	90.44
372.028	84.44
372.254	74.44
372.48	89.44
372.706	97.44
372.932	106.44
373.158	93.44
373.384	105.44
373.61	89.44
373.835	89.44
374.061	88.44
374.287	98.44
374.513	101.44
374.739	83.44
374.965	99.44
375.191	86.44
375.416	95.44
375.642	103.44
375.868	78.44
376.094	97.44
376.319	92.44
376.545	86.44
376.771	107.44
376.997	94.44
377.222	105.44
377.448	92.44
377.674	89.44
377.899	88.44
378.125	90.44
378.35	95.44
378.576	106.44
378.802	89.44
379.027	101.44
379.253	99.44
379.478	87.44
379.704	78.44
379.929	86.44
380.155	96.44
380.38	90.44
380.606	89.44
380.831	102.44
381.057	88.44
381.282	93.44
381.507	109.44
381.733	89.44
381.958	91.44
382.184	89.44
382.409	87.44
382.634	107.44
382.86	99.44
383.085	99.44
383.31	94.44
383.535	110.44
383.761	91.44
383.986	71.44
384.211	81.44
384.436	85.44
384.662	91.44
384.887	101.44
385.112	82.44
385.337	97.44
385.562	103.44
385.787	101.44
386.013	87.44
386.238	76.44
386.463	93.44
386.688	91.44
386.913	91.44
387.138	102.44
387.363	91.44
387.588	82.44
387.813	102.44
388.038	108.44
388.263	93.44
388.488	90.44
388.713	72.44
388.938	93.44
389.163	82.44
389.387	91.44
389.612	98.44
389.837	94.44
390.062	99.44
390.287	89.44
390.512	107.44
390.736	97.44
390.961	84.44
391.186	97.44
391.411	93.44
391.636	90.44
391.86	97.44
392.085	88.44
392.31	97.44
392.534	90.44
392.759	81.44
392.984	95.44
393.208	93.44
393.433	93.44
393.658	107.44
393.882	86.44
394.107	97.44
394.331	107.44
394.556	88.44
394.78	111.44
395.005	100.44
395.229	89.44
395.454	110.44
395.678	73.44
395.903	86.44
396.127	93.44
396.352	89.44
396.576	84.44
396.801	93.44
397.025	94.44
397.249	93.44
397.474	91.44
397.698	99.44
397.922	95.44
398.147	93.44
398.371	91.44
398.595	87.44
398.82	98.44
399.044	99.44
399.268	98.44
399.492	109.44
399.717	95.44
399.941	90.44
400.165	94.44
400.389	109.44
400.613	83.44
400.837	94.44
401.062	79.44
401.286	93.44
401.51	87.44
401.734	100.44
401.958	81.44
402.182	94.44
402.406	89.44
402.63	90.44
402.854	88.44
403.078	85.44
403.302	89.44
403.526	92.44
403.75	93.44
403.974	96.44
404.198	103.44
404.422	101.44
404.645	85.44
404.869	98.44
405.093	95.44
405.317	93.44
405.541	110.44
405.765	92.44
405.988	86.44
406.212	92.44
406.436	107.44
406.66	87.44
406.883	100.44
407.107	95.44
407.331	95.44
407.555	96.44
407.778	107.44
408.002	95.44
408.226	95.44
408.449	94.44
408.673	91.44
408.896	95.44
409.12	92.44
409.344	94.44
409.567	89.44
409.791	100.44
410.014	95.44
410.238	90.44
410.461	105.44
410.685	96.44
410.908	99.44
411.132	89.44
411.355	99.44
411.578	86.44
411.802	76.44
412.025	85.44
412.249	92.44
412.472	112.44
412.695	103.44
412.919	95.44
413.142	107.44
413.365	84.44
413.589	83.44
413.812	92.44
414.035	83.44
414.258	100.44
414.482	89.44
414.705	105.44
414.928	99.44
415.151	83.44
415.374	77.44
415.597	86.44
415.821	82.44
416.044	82.44
416.267	97.44
416.49	103.44
416.713	107.44
416.936	89.44
417.159	89.44
417.382	88.44
417.605	105.44
417.828	98.44
418.051	84.44
418.274	85.44
418.497	103.44
418.72	98.44
418.943	93.44
419.166	105.44
419.389	100.44
419.611	97.44
419.834	102.44
420.057	95.44
420.28	94.44
420.503	95.44
420.726	93.44
420.948	107.44
421.171	105.44
421.394	89.44
421.617	98.44
421.839	89.44
422.062	86.44
422.285	94.44
422.507	98.44
422.73	99.44
422.953	79.44
423.175	98.44
423.398	95.44
423.621	94.44
423.843	87.44
424.066	87.44
424.288	90.44
424.511	92.44
424.733	100.44
424.956	95.44
425.178	80.44
425.401	85.44
425.623	92.44
425.846	97.44
426.068	90.44
426.291	78.44
426.513	101.44
426.735	102.44
426.958	99.44
427.18	105.44
427.402	95.44
427.625	102.44
427.847	85.44
428.069	107.44
428.292	81.44
428.514	82.44
428.736	89.44
428.958	98.44
429.181	96.44
429.403	93.44
429.625	75.44
429.847	102.44
430.069	98.44
430.292	98.44
430.514	88.44
430.736	88.44
430.958	83.44
431.18	93.44
431.402	89.44
431.624	89.44
431.846	94.44
432.068	75.44
432.29	107.44
432.512	94.44
432.734	105.44
432.956	107.44
433.178	100.44
433.4	109.44
433.622	88.44
433.844	91.44
434.066	84.44
434.287	103.44
434.509	93.44
434.731	94.44
434.953	105.44
435.175	97.44
435.397	95.44
435.618	85.44
435.84	86.44
436.062	90.44
436.284	93.44
436.505	104.44
436.727	93.44
436.949	89.44
437.17	83.44
437.392	81.44
437.614	85.44
437.835	76.44
438.057	86.44
438.278	82.44
438.5	92.44
438.721	94.44
438.943	90.44
439.165	87.44
439.386	101.44
439.608	88.44
439.829	94.44
440.05	94.44
440.272	86.44
440.493	90.44
440.715	89.44
440.936	92.44
441.158	91.44
441.379	86.44
441.6	82.44
441.822	106.44
442.043	102.44
442.264	95.44
442.486	91.44
442.707	97.44
442.928	93.44
443.149	79.44
443.371	80.44
443.592	101.44
443.813	89.44
444.034	86.44
444.255	91.44
444.476	94.44
444.698	108.44
444.919	107.44
445.14	177.44
445.361	119.44
445.582	86.44
445.803	103.44
446.024	82.44
446.245	87.44
446.466	94.44
446.687	91.44
446.908	92.44
447.129	92.44
447.35	105.44
447.571	83.44
447.792	78.44
448.013	115.44
448.234	114.44
448.455	90.44
448.675	82.44
448.896	85.44
449.117	82.44
449.338	98.44
449.559	92.44
449.779	93.44
450	95.44
450.221	87.44
450.442	102.44
450.662	95.44
450.883	97.44
451.104	91.44
451.324	90.44
451.545	95.44
451.766	90.44
451.986	79.44
452.207	91.44
452.428	97.44
452.648	95.44
452.869	93.44
453.089	98.44
453.31	89.44
453.53	99.44
453.751	99.44
453.971	98.44
454.192	87.44
454.412	95.44
454.633	108.44
454.853	93.44
455.073	86.44
455.294	83.44
455.514	84.44
455.734	90.44
455.955	85.44
456.175	92.44
456.395	98.44
456.616	79.44
456.836	87.44
457.056	84.44
457.276	97.44
457.497	95.44
457.717	82.44
457.937	81.44
458.157	99.44
458.377	85.44
458.598	97.44
458.818	78.44
459.038	100.44
459.258	99.44
459.478	98.44
459.698	91.44
459.918	99.44
460.138	82.44
460.358	100.44
460.578	110.44
460.798	96.44
461.018	102.44
461.238	97.44
461.458	100.44
461.678	93.44
461.898	99.44
462.118	93.44
462.338	93.44
462.558	93.44
462.777	86.44
462.997	108.44
463.217	88.44
463.437	99.44
463.657	107.44
463.876	90.44
464.096	96.44
464.316	104.44
464.536	107.44
464.755	97.44
464.975	95.44
465.195	98.44
465.414	96.44
465.634	96.44
465.854	90.44
466.073	86.44
466.293	85.44
466.512	88.44
466.732	91.44
466.951	81.44
467.171	92.44
467.391	89.44
467.61	98.44
467.829	86.44
468.049	98.44
468.268	111.44
468.488	95.44
468.707	97.44
468.927	106.44
469.146	103.44
469.365	101.44
469.585	89.44
469.804	90.44
470.023	110.44
470.243	93.44
470.462	95.44
470.681	109.44
470.901	83.44
471.12	96.44
471.339	96.44
471.558	105.44
471.777	94.44
471.997	90.44
472.216	86.44
472.435	85.44
472.654	91.44
472.873	87.44
473.092	92.44
473.311	79.44
473.53	85.44
473.749	110.44
473.968	96.44
474.187	103.44
474.406	97.44
474.625	88.44
474.844	85.44
475.063	90.44
475.282	72.44
475.501	82.44
475.72	99.44
475.939	95.44
476.158	92.44
476.377	100.44
476.596	101.44
476.814	89.44
477.033	89.44
477.252	97.44
477.471	93.44
477.69	98.44
477.908	98.44
478.127	111.44
478.346	100.44
478.564	85.44
478.783	95.44
479.002	87.44
479.22	88.44
479.439	79.44
479.658	99.44
479.876	93.44
480.095	99.44
480.313	100.44
480.532	97.44
480.751	95.44
480.969	90.44
481.188	97.44
481.406	100.44
481.624	96.44
481.843	94.44
482.061	96.44
482.28	107.44
482.498	95.44
482.717	97.44
482.935	109.44
483.153	99.44
483.372	88.44
483.59	99.44
483.808	102.44
484.027	92.44
484.245	94.44
484.463	112.44
484.681	90.44
484.9	94.44
485.118	87.44
485.336	99.44
485.554	102.44
485.772	97.44
485.99	94.44
486.209	97.44
486.427	91.44
486.645	70.44
486.863	73.44
487.081	91.44
487.299	96.44
487.517	96.44
487.735	97.44
487.953	95.44
488.171	92.44
488.389	98.44
488.607	89.44
488.825	93.44
489.043	104.44
489.261	85.44
489.479	97.44
489.696	95.44
489.914	110.44
490.132	99.44
490.35	109.44
490.568	96.44
490.786	86.44
491.003	96.44
491.221	106.44
491.439	99.44
491.657	89.44
491.874	87.44
492.092	94.44
492.31	102.44
492.527	93.44
492.745	87.44
492.963	94.44
493.18	89.44
493.398	110.44
493.615	88.44
493.833	97.44
494.05	93.44
494.268	95.44
494.485	84.44
494.703	102.44
494.92	96.44
495.138	101.44
495.355	98.44
495.573	99.44
495.79	97.44
496.008	95.44
496.225	98.44
496.442	93.44
496.66	102.44
496.877	95.44
497.094	81.44
497.312	91.44
497.529	109.44
497.746	93.44
497.963	91.44
498.181	95.44
498.398	84.44
498.615	113.44
498.832	96.44
499.049	91.44
499.267	105.44
499.484	111.44
499.701	107.44
499.918	119.44
500.135	115.44
500.352	122.44
500.569	121.44
500.786	126.44
501.003	116.44
501.22	112.44
501.437	102.44
501.654	105.44
501.871	105.44
502.088	101.44
502.305	102.44
502.522	101.44
502.739	112.44
502.956	105.44
503.172	94.44
503.389	102.44
503.606	94.44
503.823	95.44
504.04	101.44
504.256	89.44
504.473	98.44
504.69	98.44
504.907	107.44
505.123	108.44
505.34	96.44
505.557	103.44
505.773	109.44
505.99	103.44
506.207	97.44
506.423	100.44
506.64	91.44
506.856	75.44
507.073	84.44
507.289	95.44
507.506	107.44
507.722	91.44
507.939	96.44
508.155	83.44
508.372	92.44
508.588	77.44
508.805	91.44
509.021	95.44
509.238	94.44
509.454	111.44
509.67	101.44
509.887	94.44
510.103	86.44
510.319	86.44
510.536	92.44
510.752	99.44
510.968	86.44
511.184	93.44
511.401	91.44
511.617	103.44
511.833	111.44
512.049	95.44
512.265	96.44
512.481	102.44
512.698	108.44
512.914	113.44
513.13	82.44
513.346	85.44
513.562	86.44
513.778	86.44
513.994	109.44
514.21	96.44
514.426	113.44
514.642	96.44
514.858	91.44
515.074	93.44
515.29	104.44
515.506	92.44
515.721	89.44
515.937	92.44
516.153	87.44
516.369	99.44
516.585	99.44
516.801	110.44
