Data from BG_HRD10591_067.txt Node
Date: Fri May 16 15:21:27 EDT 2025
User: Yrep
Spectrometer: HR+D1059
Trigger mode: 1
Integration Time (sec): 1.000000E-1
Scans to average: 1
Electric dark correction enabled: true
Nonlinearity correction enabled: false
Boxcar width: 0
XAxis mode: Wavelengths
Number of Pixels in Spectrum: 2048
>>>>>Begin Spectral Data<<<<<
223.165	-21.31
223.4	-21.31
223.635	-21.31
223.869	-32.31
224.104	-21.31
224.338	-19.31
224.573	-7.31
224.808	-20.31
225.042	-3.31
225.277	4.69
225.511	-8.31
225.746	-2.31
225.98	24.69
226.215	4.69
226.449	10.69
226.683	31.69
226.918	28.69
227.152	30.69
227.387	44.69
227.621	44.69
227.856	38.69
228.09	50.69
228.324	41.69
228.559	68.69
228.793	46.69
229.027	68.69
229.262	59.69
229.496	72.69
229.73	75.69
229.964	79.69
230.199	62.69
230.433	69.69
230.667	83.69
230.901	72.69
231.136	79.69
231.37	69.69
231.604	76.69
231.838	83.69
232.072	79.69
232.306	88.69
232.541	74.69
232.775	80.69
233.009	89.69
233.243	86.69
233.477	77.69
233.711	84.69
233.945	79.69
234.179	89.69
234.413	82.69
234.647	76.69
234.881	83.69
235.115	76.69
235.349	69.69
235.583	83.69
235.817	70.69
236.051	65.69
236.285	90.69
236.519	58.69
236.753	79.69
236.987	73.69
237.221	83.69
237.455	75.69
237.689	82.69
237.922	81.69
238.156	78.69
238.39	70.69
238.624	82.69
238.858	78.69
239.091	82.69
239.325	69.69
239.559	74.69
239.793	85.69
240.027	78.69
240.26	63.69
240.494	78.69
240.728	63.69
240.961	71.69
241.195	87.69
241.429	77.69
241.662	60.69
241.896	70.69
242.13	78.69
242.363	69.69
242.597	88.69
242.83	79.69
243.064	68.69
243.298	67.69
243.531	64.69
243.765	78.69
243.998	86.69
244.232	88.69
244.465	80.69
244.699	77.69
244.932	70.69
245.166	64.69
245.399	75.69
245.633	73.69
245.866	78.69
246.099	79.69
246.333	78.69
246.566	83.69
246.8	86.69
247.033	81.69
247.266	77.69
247.5	64.69
247.733	63.69
247.966	69.69
248.2	74.69
248.433	63.69
248.666	70.69
248.899	76.69
249.133	77.69
249.366	73.69
249.599	65.69
249.832	76.69
250.066	82.69
250.299	85.69
250.532	64.69
250.765	75.69
250.998	70.69
251.231	88.69
251.465	66.69
251.698	66.69
251.931	84.69
252.164	80.69
252.397	75.69
252.63	79.69
252.863	73.69
253.096	67.69
253.329	86.69
253.562	95.69
253.795	82.69
254.028	89.69
254.261	84.69
254.494	78.69
254.727	80.69
254.96	82.69
255.193	75.69
255.426	73.69
255.659	92.69
255.892	89.69
256.124	78.69
256.357	82.69
256.59	88.69
256.823	78.69
257.056	71.69
257.289	86.69
257.521	75.69
257.754	76.69
257.987	69.69
258.22	76.69
258.452	87.69
258.685	85.69
258.918	79.69
259.151	90.69
259.383	77.69
259.616	88.69
259.849	85.69
260.081	67.69
260.314	77.69
260.547	82.69
260.779	78.69
261.012	82.69
261.244	67.69
261.477	79.69
261.71	78.69
261.942	69.69
262.175	74.69
262.407	72.69
262.64	90.69
262.872	93.69
263.105	94.69
263.337	85.69
263.57	75.69
263.802	86.69
264.035	86.69
264.267	62.69
264.499	90.69
264.732	91.69
264.964	78.69
265.197	90.69
265.429	72.69
265.661	82.69
265.894	68.69
266.126	91.69
266.358	80.69
266.591	98.69
266.823	80.69
267.055	76.69
267.287	86.69
267.52	80.69
267.752	86.69
267.984	88.69
268.216	82.69
268.448	82.69
268.681	87.69
268.913	76.69
269.145	71.69
269.377	80.69
269.609	71.69
269.841	88.69
270.073	85.69
270.306	84.69
270.538	81.69
270.77	96.69
271.002	84.69
271.234	83.69
271.466	92.69
271.698	86.69
271.93	59.69
272.162	77.69
272.394	85.69
272.626	75.69
272.858	73.69
273.09	85.69
273.322	92.69
273.553	78.69
273.785	78.69
274.017	76.69
274.249	76.69
274.481	94.69
274.713	84.69
274.945	84.69
275.176	80.69
275.408	95.69
275.64	86.69
275.872	83.69
276.104	80.69
276.335	87.69
276.567	86.69
276.799	86.69
277.031	83.69
277.262	88.69
277.494	80.69
277.726	79.69
277.957	80.69
278.189	69.69
278.421	78.69
278.652	76.69
278.884	68.69
279.115	75.69
279.347	75.69
279.579	83.69
279.81	79.69
280.042	62.69
280.273	82.69
280.505	78.69
280.736	84.69
280.968	84.69
281.199	80.69
281.431	79.69
281.662	72.69
281.894	71.69
282.125	77.69
282.356	80.69
282.588	74.69
282.819	90.69
283.051	85.69
283.282	89.69
283.513	86.69
283.745	72.69
283.976	77.69
284.207	90.69
284.439	71.69
284.67	83.69
284.901	76.69
285.132	86.69
285.364	93.69
285.595	90.69
285.826	73.69
286.057	76.69
286.288	93.69
286.52	68.69
286.751	74.69
286.982	74.69
287.213	84.69
287.444	90.69
287.675	80.69
287.906	86.69
288.138	83.69
288.369	80.69
288.6	88.69
288.831	87.69
289.062	72.69
289.293	72.69
289.524	89.69
289.755	100.69
289.986	90.69
290.217	86.69
290.448	78.69
290.679	100.69
290.91	70.69
291.141	78.69
291.371	86.69
291.602	77.69
291.833	82.69
292.064	80.69
292.295	76.69
292.526	90.69
292.757	90.69
292.987	79.69
293.218	95.69
293.449	85.69
293.68	93.69
293.91	92.69
294.141	92.69
294.372	86.69
294.603	80.69
294.833	79.69
295.064	87.69
295.295	89.69
295.525	77.69
295.756	77.69
295.987	81.69
296.217	66.69
296.448	87.69
296.679	81.69
296.909	71.69
297.14	87.69
297.37	92.69
297.601	94.69
297.831	85.69
298.062	81.69
298.292	79.69
298.523	95.69
298.753	78.69
298.984	79.69
299.214	81.69
299.445	86.69
299.675	73.69
299.905	79.69
300.136	92.69
300.366	69.69
300.597	87.69
300.827	70.69
301.057	72.69
301.288	63.69
301.518	84.69
301.748	80.69
301.979	88.69
302.209	87.69
302.439	77.69
302.669	86.69
302.9	82.69
303.13	65.69
303.36	93.69
303.59	86.69
303.82	84.69
304.051	71.69
304.281	88.69
304.511	82.69
304.741	81.69
304.971	81.69
305.201	89.69
305.431	83.69
305.661	102.69
305.891	64.69
306.121	79.69
306.352	85.69
306.582	80.69
306.812	95.69
307.042	82.69
307.272	95.69
307.502	90.69
307.731	73.69
307.961	90.69
308.191	76.69
308.421	75.69
308.651	84.69
308.881	101.69
309.111	86.69
309.341	82.69
309.571	90.69
309.8	78.69
310.03	81.69
310.26	77.69
310.49	74.69
310.72	81.69
310.949	76.69
311.179	82.69
311.409	80.69
311.639	80.69
311.868	84.69
312.098	87.69
312.328	82.69
312.557	98.69
312.787	91.69
313.017	82.69
313.246	83.69
313.476	88.69
313.706	86.69
313.935	77.69
314.165	78.69
314.394	71.69
314.624	78.69
314.853	79.69
315.083	78.69
315.312	88.69
315.542	80.69
315.771	86.69
316.001	87.69
316.23	89.69
316.46	71.69
316.689	71.69
316.919	74.69
317.148	78.69
317.377	84.69
317.607	84.69
317.836	80.69
318.065	76.69
318.295	87.69
318.524	85.69
318.753	86.69
318.983	82.69
319.212	84.69
319.441	86.69
319.67	75.69
319.9	86.69
320.129	95.69
320.358	90.69
320.587	82.69
320.816	80.69
321.046	69.69
321.275	86.69
321.504	76.69
321.733	78.69
321.962	86.69
322.191	90.69
322.42	80.69
322.649	74.69
322.878	76.69
323.108	96.69
323.337	85.69
323.566	80.69
323.795	84.69
324.024	82.69
324.253	82.69
324.482	82.69
324.71	82.69
324.939	78.69
325.168	88.69
325.397	88.69
325.626	92.69
325.855	73.69
326.084	82.69
326.313	88.69
326.542	87.69
326.77	85.69
326.999	78.69
327.228	75.69
327.457	78.69
327.686	89.69
327.914	82.69
328.143	87.69
328.372	84.69
328.6	70.69
328.829	82.69
329.058	76.69
329.287	76.69
329.515	82.69
329.744	83.69
329.972	88.69
330.201	94.69
330.43	74.69
330.658	89.69
330.887	60.69
331.115	101.69
331.344	72.69
331.572	70.69
331.801	85.69
332.03	79.69
332.258	71.69
332.486	87.69
332.715	83.69
332.943	72.69
333.172	71.69
333.4	89.69
333.629	82.69
333.857	84.69
334.085	84.69
334.314	79.69
334.542	87.69
334.771	81.69
334.999	72.69
335.227	87.69
335.455	84.69
335.684	96.69
335.912	79.69
336.14	87.69
336.369	84.69
336.597	84.69
336.825	84.69
337.053	84.69
337.281	75.69
337.51	68.69
337.738	86.69
337.966	82.69
338.194	82.69
338.422	80.69
338.65	92.69
338.878	95.69
339.106	74.69
339.334	71.69
339.562	83.69
339.79	87.69
340.018	91.69
340.246	67.69
340.474	87.69
340.702	84.69
340.93	70.69
341.158	73.69
341.386	84.69
341.614	87.69
341.842	81.69
342.07	93.69
342.298	71.69
342.526	72.69
342.754	73.69
342.981	82.69
343.209	72.69
343.437	96.69
343.665	100.69
343.893	74.69
344.12	82.69
344.348	78.69
344.576	84.69
344.804	93.69
345.031	83.69
345.259	80.69
345.487	82.69
345.714	82.69
345.942	87.69
346.17	78.69
346.397	87.69
346.625	78.69
346.853	77.69
347.08	93.69
347.308	87.69
347.535	78.69
347.763	83.69
347.99	79.69
348.218	95.69
348.445	90.69
348.673	76.69
348.9	77.69
349.128	94.69
349.355	89.69
349.583	77.69
349.81	87.69
350.037	79.69
350.265	87.69
350.492	78.69
350.72	78.69
350.947	82.69
351.174	68.69
351.402	64.69
351.629	82.69
351.856	76.69
352.083	75.69
352.311	88.69
352.538	78.69
352.765	83.69
352.992	76.69
353.22	78.69
353.447	63.69
353.674	89.69
353.901	82.69
354.128	73.69
354.355	75.69
354.583	72.69
354.81	91.69
355.037	88.69
355.264	88.69
355.491	76.69
355.718	68.69
355.945	93.69
356.172	92.69
356.399	68.69
356.626	87.69
356.853	78.69
357.08	88.69
357.307	72.69
357.534	81.69
357.761	86.69
357.988	99.69
358.215	82.69
358.441	74.69
358.668	101.69
358.895	78.69
359.122	83.69
359.349	82.69
359.576	79.69
359.802	76.69
360.029	82.69
360.256	86.69
360.483	87.69
360.709	88.69
360.936	85.69
361.163	75.69
361.39	89.69
361.616	83.69
361.843	88.69
362.07	82.69
362.296	89.69
362.523	79.69
362.749	91.69
362.976	80.69
363.203	88.69
363.429	78.69
363.656	90.69
363.882	91.69
364.109	84.69
364.335	72.69
364.562	75.69
364.788	78.69
365.015	86.69
365.241	82.69
365.468	81.69
365.694	70.69
365.92	80.69
366.147	95.69
366.373	92.69
366.599	85.69
366.826	93.69
367.052	82.69
367.278	88.69
367.505	87.69
367.731	79.69
367.957	86.69
368.184	85.69
368.41	77.69
368.636	86.69
368.862	76.69
369.089	87.69
369.315	80.69
369.541	73.69
369.767	79.69
369.993	87.69
370.219	79.69
370.445	88.69
370.672	74.69
370.898	94.69
371.124	90.69
371.35	89.69
371.576	89.69
371.802	86.69
372.028	69.69
372.254	71.69
372.48	77.69
372.706	93.69
372.932	69.69
373.158	61.69
373.384	95.69
373.61	81.69
373.835	86.69
374.061	96.69
374.287	90.69
374.513	68.69
374.739	75.69
374.965	78.69
375.191	83.69
375.416	78.69
375.642	78.69
375.868	78.69
376.094	77.69
376.319	85.69
376.545	74.69
376.771	61.69
376.997	68.69
377.222	80.69
377.448	77.69
377.674	71.69
377.899	78.69
378.125	82.69
378.35	72.69
378.576	83.69
378.802	73.69
379.027	77.69
379.253	78.69
379.478	78.69
379.704	70.69
379.929	87.69
380.155	79.69
380.38	86.69
380.606	86.69
380.831	83.69
381.057	82.69
381.282	82.69
381.507	71.69
381.733	78.69
381.958	87.69
382.184	91.69
382.409	80.69
382.634	102.69
382.86	85.69
383.085	81.69
383.31	74.69
383.535	76.69
383.761	79.69
383.986	82.69
384.211	77.69
384.436	73.69
384.662	89.69
384.887	86.69
385.112	80.69
385.337	85.69
385.562	72.69
385.787	85.69
386.013	85.69
386.238	73.69
386.463	80.69
386.688	86.69
386.913	73.69
387.138	81.69
387.363	91.69
387.588	87.69
387.813	83.69
388.038	78.69
388.263	78.69
388.488	82.69
388.713	79.69
388.938	87.69
389.163	92.69
389.387	92.69
389.612	82.69
389.837	73.69
390.062	88.69
390.287	91.69
390.512	84.69
390.736	94.69
390.961	82.69
391.186	86.69
391.411	102.69
391.636	87.69
391.86	82.69
392.085	81.69
392.31	82.69
392.534	72.69
392.759	83.69
392.984	87.69
393.208	77.69
393.433	70.69
393.658	72.69
393.882	74.69
394.107	76.69
394.331	84.69
394.556	74.69
394.78	95.69
395.005	91.69
395.229	80.69
395.454	73.69
395.678	69.69
395.903	67.69
396.127	80.69
396.352	78.69
396.576	78.69
396.801	85.69
397.025	70.69
397.249	77.69
397.474	72.69
397.698	89.69
397.922	87.69
398.147	84.69
398.371	79.69
398.595	72.69
398.82	85.69
399.044	82.69
399.268	74.69
399.492	73.69
399.717	65.69
399.941	74.69
400.165	72.69
400.389	77.69
400.613	82.69
400.837	94.69
401.062	77.69
401.286	85.69
401.51	76.69
401.734	64.69
401.958	79.69
402.182	78.69
402.406	64.69
402.63	82.69
402.854	72.69
403.078	83.69
403.302	67.69
403.526	74.69
403.75	81.69
403.974	86.69
404.198	74.69
404.422	90.69
404.645	72.69
404.869	82.69
405.093	80.69
405.317	73.69
405.541	75.69
405.765	74.69
405.988	70.69
406.212	81.69
406.436	87.69
406.66	76.69
406.883	71.69
407.107	85.69
407.331	85.69
407.555	84.69
407.778	72.69
408.002	73.69
408.226	79.69
408.449	77.69
408.673	80.69
408.896	91.69
409.12	86.69
409.344	80.69
409.567	82.69
409.791	63.69
410.014	66.69
410.238	77.69
410.461	75.69
410.685	86.69
410.908	77.69
411.132	85.69
411.355	75.69
411.578	79.69
411.802	85.69
412.025	83.69
412.249	72.69
412.472	74.69
412.695	73.69
412.919	69.69
413.142	82.69
413.365	63.69
413.589	82.69
413.812	79.69
414.035	87.69
414.258	79.69
414.482	84.69
414.705	76.69
414.928	74.69
415.151	69.69
415.374	67.69
415.597	78.69
415.821	68.69
416.044	72.69
416.267	70.69
416.49	77.69
416.713	90.69
416.936	79.69
417.159	78.69
417.382	74.69
417.605	81.69
417.828	74.69
418.051	64.69
418.274	75.69
418.497	87.69
418.72	80.69
418.943	90.69
419.166	78.69
419.389	84.69
419.611	70.69
419.834	78.69
420.057	94.69
420.28	87.69
420.503	80.69
420.726	71.69
420.948	84.69
421.171	87.69
421.394	79.69
421.617	71.69
421.839	74.69
422.062	79.69
422.285	88.69
422.507	86.69
422.73	82.69
422.953	83.69
423.175	75.69
423.398	84.69
423.621	76.69
423.843	75.69
424.066	80.69
424.288	74.69
424.511	82.69
424.733	79.69
424.956	82.69
425.178	75.69
425.401	76.69
425.623	80.69
425.846	74.69
426.068	64.69
426.291	82.69
426.513	79.69
426.735	92.69
426.958	90.69
427.18	80.69
427.402	71.69
427.625	75.69
427.847	81.69
428.069	78.69
428.292	64.69
428.514	93.69
428.736	77.69
428.958	90.69
429.181	82.69
429.403	86.69
429.625	77.69
429.847	78.69
430.069	86.69
430.292	88.69
430.514	76.69
430.736	80.69
430.958	79.69
431.18	70.69
431.402	78.69
431.624	78.69
431.846	72.69
432.068	88.69
432.29	72.69
432.512	84.69
432.734	68.69
432.956	86.69
433.178	79.69
433.4	81.69
433.622	79.69
433.844	77.69
434.066	72.69
434.287	72.69
434.509	82.69
434.731	82.69
434.953	73.69
435.175	92.69
435.397	77.69
435.618	79.69
435.84	82.69
436.062	68.69
436.284	79.69
436.505	85.69
436.727	63.69
436.949	77.69
437.17	92.69
437.392	93.69
437.614	58.69
437.835	85.69
438.057	71.69
438.278	63.69
438.5	70.69
438.721	75.69
438.943	75.69
439.165	75.69
439.386	86.69
439.608	76.69
439.829	64.69
440.05	77.69
440.272	83.69
440.493	87.69
440.715	78.69
440.936	79.69
441.158	75.69
441.379	68.69
441.6	91.69
441.822	88.69
442.043	72.69
442.264	79.69
442.486	91.69
442.707	92.69
442.928	68.69
443.149	90.69
443.371	89.69
443.592	76.69
443.813	74.69
444.034	79.69
444.255	82.69
444.476	71.69
444.698	74.69
444.919	74.69
445.14	144.69
445.361	128.69
445.582	83.69
445.803	84.69
446.024	70.69
446.245	74.69
446.466	80.69
446.687	80.69
446.908	83.69
447.129	78.69
447.35	78.69
447.571	79.69
447.792	89.69
448.013	84.69
448.234	67.69
448.455	89.69
448.675	72.69
448.896	74.69
449.117	81.69
449.338	63.69
449.559	87.69
449.779	79.69
450	70.69
450.221	68.69
450.442	85.69
450.662	94.69
450.883	76.69
451.104	84.69
451.324	78.69
451.545	64.69
451.766	71.69
451.986	87.69
452.207	85.69
452.428	75.69
452.648	74.69
452.869	75.69
453.089	78.69
453.31	83.69
453.53	88.69
453.751	91.69
453.971	81.69
454.192	72.69
454.412	83.69
454.633	74.69
454.853	87.69
455.073	74.69
455.294	102.69
455.514	86.69
455.734	76.69
455.955	79.69
456.175	84.69
456.395	74.69
456.616	78.69
456.836	74.69
457.056	73.69
457.276	91.69
457.497	64.69
457.717	83.69
457.937	82.69
458.157	69.69
458.377	75.69
458.598	78.69
458.818	76.69
459.038	85.69
459.258	78.69
459.478	76.69
459.698	88.69
459.918	94.69
460.138	74.69
460.358	92.69
460.578	101.69
460.798	70.69
461.018	70.69
461.238	78.69
461.458	72.69
461.678	70.69
461.898	70.69
462.118	91.69
462.338	76.69
462.558	77.69
462.777	77.69
462.997	86.69
463.217	88.69
463.437	78.69
463.657	69.69
463.876	87.69
464.096	83.69
464.316	83.69
464.536	77.69
464.755	76.69
464.975	98.69
465.195	77.69
465.414	78.69
465.634	91.69
465.854	86.69
466.073	88.69
466.293	90.69
466.512	69.69
466.732	68.69
466.951	78.69
467.171	79.69
467.391	82.69
467.61	80.69
467.829	77.69
468.049	89.69
468.268	84.69
468.488	72.69
468.707	76.69
468.927	80.69
469.146	86.69
469.365	86.69
469.585	70.69
469.804	87.69
470.023	77.69
470.243	68.69
470.462	78.69
470.681	85.69
470.901	86.69
471.12	81.69
471.339	83.69
471.558	89.69
471.777	84.69
471.997	84.69
472.216	86.69
472.435	91.69
472.654	73.69
472.873	95.69
473.092	77.69
473.311	83.69
473.53	70.69
473.749	76.69
473.968	74.69
474.187	69.69
474.406	85.69
474.625	84.69
474.844	85.69
475.063	77.69
475.282	72.69
475.501	70.69
475.72	86.69
475.939	84.69
476.158	86.69
476.377	99.69
476.596	68.69
476.814	82.69
477.033	74.69
477.252	78.69
477.471	75.69
477.69	60.69
477.908	78.69
478.127	74.69
478.346	77.69
478.564	73.69
478.783	72.69
479.002	64.69
479.22	86.69
479.439	74.69
479.658	82.69
479.876	76.69
480.095	77.69
480.313	68.69
480.532	88.69
480.751	79.69
480.969	81.69
481.188	74.69
481.406	72.69
481.624	66.69
481.843	82.69
482.061	93.69
482.28	76.69
482.498	86.69
482.717	83.69
482.935	77.69
483.153	83.69
483.372	85.69
483.59	82.69
483.808	64.69
484.027	84.69
484.245	73.69
484.463	88.69
484.681	73.69
484.9	76.69
485.118	90.69
485.336	85.69
485.554	85.69
485.772	87.69
485.99	81.69
486.209	90.69
486.427	74.69
486.645	74.69
486.863	70.69
487.081	79.69
487.299	70.69
487.517	95.69
487.735	88.69
487.953	78.69
488.171	91.69
488.389	78.69
488.607	83.69
488.825	81.69
489.043	77.69
489.261	94.69
489.479	99.69
489.696	87.69
489.914	86.69
490.132	75.69
490.35	86.69
490.568	86.69
490.786	77.69
491.003	76.69
491.221	90.69
491.439	70.69
491.657	68.69
491.874	78.69
492.092	86.69
492.31	78.69
492.527	83.69
492.745	90.69
492.963	70.69
493.18	72.69
493.398	74.69
493.615	89.69
493.833	83.69
494.05	76.69
494.268	74.69
494.485	98.69
494.703	81.69
494.92	64.69
495.138	88.69
495.355	91.69
495.573	74.69
495.79	88.69
496.008	85.69
496.225	83.69
496.442	86.69
496.66	94.69
496.877	81.69
497.094	89.69
497.312	92.69
497.529	75.69
497.746	76.69
497.963	89.69
498.181	80.69
498.398	82.69
498.615	87.69
498.832	82.69
499.049	81.69
499.267	76.69
499.484	75.69
499.701	88.69
499.918	81.69
500.135	90.69
500.352	82.69
500.569	84.69
500.786	86.69
501.003	76.69
501.22	74.69
501.437	97.69
501.654	82.69
501.871	85.69
502.088	76.69
502.305	70.69
502.522	85.69
502.739	86.69
502.956	75.69
503.172	76.69
503.389	72.69
503.606	90.69
503.823	71.69
504.04	82.69
504.256	96.69
504.473	81.69
504.69	86.69
504.907	80.69
505.123	93.69
505.34	91.69
505.557	84.69
505.773	91.69
505.99	78.69
506.207	78.69
506.423	88.69
506.64	76.69
506.856	86.69
507.073	83.69
507.289	89.69
507.506	89.69
507.722	94.69
507.939	83.69
508.155	63.69
508.372	84.69
508.588	88.69
508.805	90.69
509.021	90.69
509.238	79.69
509.454	88.69
509.67	68.69
509.887	72.69
510.103	73.69
510.319	89.69
510.536	85.69
510.752	72.69
510.968	74.69
511.184	68.69
511.401	79.69
511.617	79.69
511.833	71.69
512.049	86.69
512.265	77.69
512.481	98.69
512.698	81.69
512.914	74.69
513.13	87.69
513.346	66.69
513.562	72.69
513.778	90.69
513.994	84.69
514.21	82.69
514.426	98.69
514.642	77.69
514.858	84.69
515.074	96.69
515.29	85.69
515.506	69.69
515.721	90.69
515.937	83.69
516.153	76.69
516.369	80.69
516.585	71.69
516.801	77.69
517.016	86.69
517.232	78.69
517.448	79.69
517.664	81.69
517.879	82.69
518.095	74.69
518.311	85.69
518.527	70.69
518.742	92.69
518.958	89.69
519.173	80.69
519.389	87.69
519.605	72.69
519.82	80.69
520.036	78.69
520.251	76.69
