Data from BG_HRD10591_015.txt Node
Date: Fri May 16 15:21:01 EDT 2025
User: Yrep
Spectrometer: HR+D1059
Trigger mode: 1
Integration Time (sec): 1.000000E-1
Scans to average: 1
Electric dark correction enabled: true
Nonlinearity correction enabled: false
Boxcar width: 0
XAxis mode: Wavelengths
Number of Pixels in Spectrum: 2048
>>>>>Begin Spectral Data<<<<<
223.165	-13
223.4	-13
223.635	-13
223.869	-12
224.104	-16
224.338	-24
224.573	-14
224.808	-20
225.042	-10
225.277	-2
225.511	-1
225.746	13
225.98	-2
226.215	13
226.449	17
226.683	7
226.918	34
227.152	30
227.387	45
227.621	44
227.856	46
228.09	60
228.324	52
228.559	65
228.793	48
229.027	70
229.262	66
229.496	70
229.73	79
229.964	76
230.199	73
230.433	80
230.667	80
230.901	89
231.136	89
231.37	83
231.604	81
231.838	82
232.072	72
232.306	69
232.541	83
232.775	91
233.009	81
233.243	73
233.477	82
233.711	82
233.945	88
234.179	78
234.413	82
234.647	79
234.881	81
235.115	68
235.349	88
235.583	71
235.817	76
236.051	67
236.285	69
236.519	79
236.753	78
236.987	69
237.221	72
237.455	78
237.689	66
237.922	78
238.156	66
238.39	68
238.624	80
238.858	81
239.091	79
239.325	53
239.559	74
239.793	82
240.027	89
240.26	79
240.494	77
240.728	84
240.961	80
241.195	76
241.429	72
241.662	80
241.896	70
242.13	77
242.363	81
242.597	82
242.83	72
243.064	78
243.298	87
243.531	80
243.765	74
243.998	74
244.232	78
244.465	84
244.699	66
244.932	79
245.166	70
245.399	76
245.633	61
245.866	82
246.099	87
246.333	85
246.566	85
246.8	72
247.033	83
247.266	79
247.5	74
247.733	78
247.966	82
248.2	76
248.433	71
248.666	81
248.899	84
249.133	80
249.366	81
249.599	75
249.832	69
250.066	78
250.299	67
250.532	65
250.765	74
250.998	68
251.231	65
251.465	86
251.698	72
251.931	88
252.164	76
252.397	87
252.63	70
252.863	69
253.096	75
253.329	84
253.562	67
253.795	82
254.028	77
254.261	90
254.494	74
254.727	96
254.96	78
255.193	77
255.426	71
255.659	79
255.892	78
256.124	80
256.357	76
256.59	90
256.823	88
257.056	89
257.289	77
257.521	81
257.754	84
257.987	93
258.22	83
258.452	76
258.685	73
258.918	76
259.151	82
259.383	87
259.616	91
259.849	80
260.081	88
260.314	95
260.547	87
260.779	80
261.012	76
261.244	79
261.477	77
261.71	78
261.942	73
262.175	87
262.407	77
262.64	75
262.872	90
263.105	84
263.337	68
263.57	86
263.802	87
264.035	80
264.267	73
264.499	85
264.732	80
264.964	93
265.197	71
265.429	93
265.661	68
265.894	81
266.126	98
266.358	85
266.591	88
266.823	77
267.055	82
267.287	89
267.52	84
267.752	84
267.984	84
268.216	88
268.448	77
268.681	79
268.913	78
269.145	91
269.377	84
269.609	91
269.841	78
270.073	96
270.306	89
270.538	82
270.77	75
271.002	87
271.234	104
271.466	74
271.698	77
271.93	81
272.162	81
272.394	76
272.626	82
272.858	86
273.09	84
273.322	75
273.553	75
273.785	93
274.017	88
274.249	70
274.481	84
274.713	89
274.945	72
275.176	90
275.408	89
275.64	84
275.872	88
276.104	85
276.335	81
276.567	79
276.799	82
277.031	85
277.262	72
277.494	95
277.726	84
277.957	87
278.189	79
278.421	88
278.652	89
278.884	72
279.115	80
279.347	74
279.579	78
279.81	95
280.042	93
280.273	95
280.505	94
280.736	90
280.968	83
281.199	88
281.431	90
281.662	92
281.894	80
282.125	95
282.356	87
282.588	87
282.819	98
283.051	84
283.282	65
283.513	84
283.745	84
283.976	85
284.207	76
284.439	90
284.67	97
284.901	89
285.132	88
285.364	84
285.595	85
285.826	95
286.057	90
286.288	88
286.52	86
286.751	75
286.982	92
287.213	78
287.444	78
287.675	76
287.906	81
288.138	89
288.369	91
288.6	80
288.831	84
289.062	74
289.293	77
289.524	84
289.755	72
289.986	85
290.217	86
290.448	77
290.679	86
290.91	81
291.141	90
291.371	92
291.602	85
291.833	75
292.064	78
292.295	85
292.526	93
292.757	84
292.987	87
293.218	93
293.449	96
293.68	75
293.91	78
294.141	79
294.372	86
294.603	95
294.833	101
295.064	82
295.295	81
295.525	88
295.756	95
295.987	72
296.217	93
296.448	78
296.679	87
296.909	87
297.14	72
297.37	81
297.601	85
297.831	81
298.062	88
298.292	92
298.523	92
298.753	77
298.984	87
299.214	94
299.445	93
299.675	98
299.905	86
300.136	77
300.366	87
300.597	70
300.827	85
301.057	93
301.288	93
301.518	97
301.748	93
301.979	103
302.209	68
302.439	75
302.669	89
302.9	79
303.13	82
303.36	80
303.59	89
303.82	89
304.051	90
304.281	77
304.511	88
304.741	86
304.971	80
305.201	81
305.431	94
305.661	66
305.891	84
306.121	98
306.352	89
306.582	84
306.812	92
307.042	81
307.272	97
307.502	89
307.731	82
307.961	87
308.191	87
308.421	81
308.651	85
308.881	82
309.111	70
309.341	86
309.571	86
309.8	87
310.03	86
310.26	87
310.49	80
310.72	86
310.949	84
311.179	91
311.409	88
311.639	86
311.868	78
312.098	77
312.328	92
312.557	85
312.787	86
313.017	92
313.246	88
313.476	87
313.706	80
313.935	85
314.165	89
314.394	82
314.624	74
314.853	76
315.083	92
315.312	88
315.542	90
315.771	82
316.001	72
316.23	79
316.46	82
316.689	72
316.919	91
317.148	85
317.377	89
317.607	84
317.836	90
318.065	77
318.295	84
318.524	86
318.753	70
318.983	76
319.212	87
319.441	86
319.67	97
319.9	84
320.129	97
320.358	79
320.587	81
320.816	89
321.046	77
321.275	81
321.504	69
321.733	94
321.962	79
322.191	90
322.42	87
322.649	76
322.878	91
323.108	89
323.337	87
323.566	87
323.795	90
324.024	86
324.253	93
324.482	71
324.71	81
324.939	94
325.168	79
325.397	81
325.626	98
325.855	100
326.084	93
326.313	86
326.542	93
326.77	93
326.999	101
327.228	100
327.457	80
327.686	81
327.914	87
328.143	92
328.372	80
328.6	71
328.829	92
329.058	88
329.287	89
329.515	94
329.744	91
329.972	77
330.201	88
330.43	72
330.658	78
330.887	81
331.115	79
331.344	84
331.572	85
331.801	85
332.03	76
332.258	92
332.486	102
332.715	81
332.943	80
333.172	80
333.4	101
333.629	87
333.857	89
334.085	89
334.314	92
334.542	84
334.771	70
334.999	70
335.227	97
335.455	84
335.684	84
335.912	92
336.14	90
336.369	83
336.597	95
336.825	88
337.053	77
337.281	88
337.51	82
337.738	80
337.966	84
338.194	80
338.422	94
338.65	95
338.878	96
339.106	94
339.334	81
339.562	85
339.79	96
340.018	71
340.246	85
340.474	76
340.702	80
340.93	88
341.158	78
341.386	96
341.614	94
341.842	92
342.07	87
342.298	86
342.526	86
342.754	89
342.981	86
343.209	94
343.437	111
343.665	78
343.893	75
344.12	87
344.348	74
344.576	83
344.804	88
345.031	79
345.259	82
345.487	103
345.714	82
345.942	89
346.17	93
346.397	90
346.625	72
346.853	99
347.08	69
347.308	84
347.535	93
347.763	84
347.99	88
348.218	91
348.445	85
348.673	82
348.9	92
349.128	84
349.355	86
349.583	95
349.81	72
350.037	79
350.265	68
350.492	90
350.72	81
350.947	81
351.174	101
351.402	85
351.629	67
351.856	86
352.083	89
352.311	85
352.538	72
352.765	76
352.992	86
353.22	84
353.447	94
353.674	85
353.901	80
354.128	98
354.355	87
354.583	93
354.81	73
355.037	97
355.264	81
355.491	80
355.718	86
355.945	89
356.172	89
356.399	86
356.626	96
356.853	90
357.08	92
357.307	92
357.534	96
357.761	90
357.988	80
358.215	86
358.441	75
358.668	81
358.895	91
359.122	85
359.349	78
359.576	84
359.802	78
360.029	90
360.256	86
360.483	75
360.709	87
360.936	102
361.163	92
361.39	88
361.616	91
361.843	77
362.07	92
362.296	84
362.523	93
362.749	81
362.976	94
363.203	100
363.429	84
363.656	86
363.882	86
364.109	87
364.335	89
364.562	89
364.788	85
365.015	87
365.241	78
365.468	83
365.694	88
365.92	78
366.147	83
366.373	68
366.599	92
366.826	83
367.052	93
367.278	87
367.505	80
367.731	77
367.957	89
368.184	81
368.41	96
368.636	80
368.862	85
369.089	89
369.315	59
369.541	84
369.767	92
369.993	93
370.219	83
370.445	86
370.672	82
370.898	86
371.124	89
371.35	88
371.576	90
371.802	72
372.028	89
372.254	91
372.48	81
372.706	80
372.932	95
373.158	91
373.384	91
373.61	87
373.835	80
374.061	89
374.287	82
374.513	74
374.739	82
374.965	78
375.191	87
375.416	82
375.642	81
375.868	85
376.094	86
376.319	93
376.545	95
376.771	89
376.997	93
377.222	75
377.448	77
377.674	96
377.899	92
378.125	73
378.35	79
378.576	95
378.802	91
379.027	88
379.253	88
379.478	74
379.704	98
379.929	81
380.155	74
380.38	77
380.606	87
380.831	83
381.057	76
381.282	68
381.507	84
381.733	85
381.958	70
382.184	80
382.409	91
382.634	85
382.86	83
383.085	71
383.31	78
383.535	81
383.761	81
383.986	73
384.211	85
384.436	64
384.662	79
384.887	86
385.112	89
385.337	81
385.562	82
385.787	84
386.013	81
386.238	93
386.463	76
386.688	91
386.913	76
387.138	80
387.363	84
387.588	67
387.813	85
388.038	80
388.263	88
388.488	88
388.713	75
388.938	64
389.163	66
389.387	88
389.612	78
389.837	84
390.062	66
390.287	100
390.512	89
390.736	92
390.961	92
391.186	93
391.411	80
391.636	76
391.86	85
392.085	88
392.31	75
392.534	84
392.759	75
392.984	74
393.208	80
393.433	88
393.658	86
393.882	96
394.107	91
394.331	73
394.556	88
394.78	90
395.005	76
395.229	77
395.454	82
395.678	86
395.903	83
396.127	91
396.352	84
396.576	81
396.801	76
397.025	91
397.249	93
397.474	66
397.698	91
397.922	84
398.147	85
398.371	86
398.595	82
398.82	72
399.044	76
399.268	82
399.492	81
399.717	80
399.941	89
400.165	77
400.389	78
400.613	96
400.837	84
401.062	90
401.286	86
401.51	80
401.734	86
401.958	66
402.182	84
402.406	74
402.63	79
402.854	78
403.078	97
403.302	85
403.526	85
403.75	82
403.974	85
404.198	94
404.422	78
404.645	87
404.869	76
405.093	83
405.317	78
405.541	79
405.765	76
405.988	80
406.212	87
406.436	82
406.66	82
406.883	78
407.107	80
407.331	89
407.555	72
407.778	82
408.002	85
408.226	62
408.449	86
408.673	84
408.896	79
409.12	89
409.344	87
409.567	73
409.791	77
410.014	81
410.238	69
410.461	79
410.685	102
410.908	84
411.132	84
411.355	90
411.578	74
411.802	61
412.025	80
412.249	80
412.472	79
412.695	92
412.919	66
413.142	81
413.365	72
413.589	78
413.812	81
414.035	84
414.258	90
414.482	72
414.705	90
414.928	80
415.151	72
415.374	82
415.597	81
415.821	92
416.044	81
416.267	91
416.49	82
416.713	88
416.936	74
417.159	70
417.382	77
417.605	99
417.828	92
418.051	86
418.274	79
418.497	85
418.72	73
418.943	76
419.166	54
419.389	91
419.611	81
419.834	94
420.057	97
420.28	97
420.503	72
420.726	85
420.948	78
421.171	77
421.394	67
421.617	78
421.839	68
422.062	87
422.285	86
422.507	90
422.73	84
422.953	68
423.175	78
423.398	75
423.621	86
423.843	71
424.066	76
424.288	87
424.511	87
424.733	77
424.956	89
425.178	68
425.401	74
425.623	81
425.846	80
426.068	77
426.291	83
426.513	72
426.735	74
426.958	85
427.18	80
427.402	89
427.625	81
427.847	76
428.069	92
428.292	74
428.514	80
428.736	77
428.958	82
429.181	78
429.403	76
429.625	71
429.847	69
430.069	80
430.292	64
430.514	74
430.736	83
430.958	81
431.18	78
431.402	72
431.624	85
431.846	90
432.068	91
432.29	92
432.512	87
432.734	81
432.956	69
433.178	84
433.4	80
433.622	78
433.844	80
434.066	81
434.287	85
434.509	84
434.731	79
434.953	60
435.175	83
435.397	82
435.618	74
435.84	79
436.062	78
436.284	72
436.505	73
436.727	87
436.949	67
437.17	74
437.392	94
437.614	88
437.835	76
438.057	81
438.278	81
438.5	60
438.721	70
438.943	84
439.165	64
439.386	85
439.608	83
439.829	93
440.05	87
440.272	86
440.493	72
440.715	80
440.936	78
441.158	94
441.379	77
441.6	61
441.822	78
442.043	79
442.264	91
442.486	80
442.707	72
442.928	101
443.149	60
443.371	76
443.592	83
443.813	88
444.034	77
444.255	77
444.476	72
444.698	89
444.919	87
445.14	155
445.361	115
445.582	86
445.803	74
446.024	83
446.245	88
446.466	81
446.687	82
446.908	93
447.129	70
447.35	94
447.571	87
447.792	85
448.013	92
448.234	87
448.455	92
448.675	95
448.896	76
449.117	82
449.338	82
449.559	94
449.779	81
450	80
450.221	87
450.442	86
450.662	70
450.883	80
451.104	83
451.324	84
451.545	94
451.766	78
451.986	92
452.207	87
452.428	84
452.648	73
452.869	75
453.089	75
453.31	82
453.53	85
453.751	68
453.971	84
454.192	71
454.412	78
454.633	79
454.853	82
455.073	73
455.294	80
455.514	79
455.734	79
455.955	93
456.175	80
456.395	79
456.616	69
456.836	81
457.056	86
457.276	80
457.497	94
457.717	90
457.937	79
458.157	84
458.377	101
458.598	79
458.818	81
459.038	72
459.258	93
459.478	81
459.698	73
459.918	87
460.138	79
460.358	82
460.578	79
460.798	91
461.018	86
461.238	77
461.458	85
461.678	86
461.898	75
462.118	80
462.338	88
462.558	80
462.777	82
462.997	85
463.217	76
463.437	91
463.657	74
463.876	88
464.096	75
464.316	90
464.536	82
464.755	88
464.975	80
465.195	75
465.414	76
465.634	86
465.854	84
466.073	82
466.293	70
466.512	85
466.732	93
466.951	80
467.171	81
467.391	74
467.61	81
467.829	91
468.049	81
468.268	76
468.488	78
468.707	73
468.927	79
469.146	83
469.365	78
469.585	75
469.804	88
470.023	80
470.243	75
470.462	79
470.681	89
470.901	74
471.12	88
471.339	81
471.558	80
471.777	95
471.997	90
472.216	68
472.435	81
472.654	90
472.873	72
473.092	73
473.311	86
473.53	64
473.749	93
473.968	86
474.187	82
474.406	78
474.625	79
474.844	78
475.063	74
475.282	74
475.501	87
475.72	72
475.939	73
476.158	86
476.377	82
476.596	74
476.814	69
477.033	80
477.252	78
477.471	81
477.69	79
477.908	81
478.127	81
478.346	77
478.564	99
478.783	87
479.002	88
479.22	93
479.439	97
479.658	97
479.876	84
480.095	94
480.313	82
480.532	72
480.751	75
480.969	93
481.188	88
481.406	82
481.624	75
481.843	85
482.061	93
482.28	91
482.498	92
482.717	70
482.935	95
483.153	97
483.372	89
483.59	87
483.808	70
484.027	91
484.245	78
484.463	93
484.681	94
484.9	82
485.118	84
485.336	82
485.554	77
485.772	72
485.99	91
486.209	83
486.427	73
486.645	83
486.863	88
487.081	85
487.299	94
487.517	69
487.735	71
487.953	94
488.171	84
488.389	82
488.607	79
488.825	84
489.043	79
489.261	92
489.479	72
489.696	78
489.914	90
490.132	84
490.35	92
490.568	80
490.786	65
491.003	89
491.221	83
491.439	77
491.657	81
491.874	74
492.092	78
492.31	77
492.527	80
492.745	91
492.963	79
493.18	77
493.398	67
493.615	70
493.833	71
494.05	80
494.268	84
494.485	99
494.703	76
494.92	88
495.138	78
495.355	80
495.573	72
495.79	83
496.008	77
496.225	86
496.442	83
496.66	88
496.877	85
497.094	92
497.312	91
497.529	73
497.746	89
497.963	76
498.181	80
498.398	85
498.615	82
498.832	78
499.049	92
499.267	86
499.484	74
499.701	81
499.918	81
500.135	86
500.352	85
500.569	84
500.786	86
501.003	83
501.22	85
501.437	81
501.654	78
501.871	68
502.088	84
502.305	73
502.522	76
502.739	65
502.956	90
503.172	90
503.389	91
503.606	84
503.823	86
504.04	87
504.256	86
504.473	73
504.69	78
504.907	98
505.123	72
505.34	70
505.557	97
505.773	95
505.99	89
506.207	84
506.423	79
506.64	87
506.856	90
507.073	77
507.289	78
507.506	84
507.722	84
507.939	78
508.155	92
508.372	66
508.588	81
508.805	72
509.021	79
509.238	90
509.454	84
509.67	71
509.887	88
510.103	81
510.319	88
510.536	82
510.752	84
510.968	80
511.184	80
511.401	76
511.617	86
511.833	90
512.049	96
512.265	100
512.481	72
512.698	71
512.914	67
513.13	87
513.346	81
513.562	93
513.778	90
513.994	92
514.21	80
514.426	86
514.642	77
514.858	81
515.074	75
515.29	77
515.506	72
515.721	89
515.937	78
516.153	83
516.369	81
516.585	85
516.801	81
517.016	78
517.232	81
517.448	93
517.664	94
517.879	79
518.095	88
518.311	84
518.527	81
518.742	97
518.958	71
519.173	66
519.389	84
519.605	91
519.82	82
520.036	85
520.251	91
520.467	83
520.682	70
520.898	80
521.113	84
521.329	76
521.544	82
521.76	91
521.975	83
522.19	83
522.406	84
522.621	95
522.836	84
523.052	65
523.267	89
523.482	86
523.698	76
523.913	100
524.128	85
524.343	86
524.559	98
524.774	80
524.989	74
525.204	84
525.419	89
525.634	92
525.849	89
526.064	81
526.28	77
526.495	90
526.71	78
526.925	81
527.14	88
527.355	72
527.57	85
527.785	88
527.999	70
528.214	78
528.429	80
528.644	79
528.859	72
529.074	84
529.289	81
529.503	97
529.718	85
529.933	86
530.148	92
530.363	82
530.577	95
530.792	78
531.007	94
531.221	84
531.436	74
531.651	103
531.865	88
532.08	76
532.295	87
532.509	70
532.724	87
532.938	78
533.153	79
533.367	73
533.582	80
533.796	97
534.011	73
534.225	78
534.44	88
534.654	76
534.868	76
535.083	77
535.297	80
535.511	82
535.726	76
535.94	94
536.154	102
536.369	80
536.583	83
536.797	94
537.011	77
537.225	90
537.44	86
537.654	75
537.868	61
538.082	87
538.296	97
538.51	89
538.724	85
538.938	102
539.153	80
539.367	85
539.581	73
539.795	68
540.009	82
540.222	90
540.436	70
540.65	77
540.864	93
541.078	85
541.292	82
541.506	92
541.72	79
541.934	78
542.147	85
542.361	76
542.575	88
542.789	93
543.002	75
543.216	88
543.43	82
543.644	78
543.857	77
544.071	95
544.285	83
544.498	94
544.712	76
544.925	84
545.139	81
545.352	88
545.566	75
545.779	84
545.993	81
546.206	79
546.42	92
546.633	86
546.847	95
547.06	90
547.274	97
547.487	85
547.7	86
547.914	82
548.127	81
548.34	77
548.554	83
548.767	88
548.98	90
549.193	90
549.407	84
549.62	74
549.833	85
550.046	73
550.259	89
550.473	81
550.686	78
550.899	86
551.112	85
551.325	79
551.538	92
551.751	84
551.964	94
552.177	93
552.39	91
552.603	76
552.816	72
553.029	77
553.242	84
553.455	74
553.667	92
553.88	86
554.093	78
554.306	89
554.519	80
554.732	82
554.944	81
555.157	88
555.37	92
555.583	79
555.795	94
556.008	88
556.221	84
556.433	85
556.646	91
556.859	81
557.071	88
557.284	79
557.496	94
557.709	82
557.921	89
558.134	84
558.346	81
558.559	91
558.771	84
558.984	96
559.196	90
559.409	87
559.621	88
559.833	82
560.046	91
560.258	84
560.47	102
560.683	86
560.895	87
561.107	80
561.32	88
561.532	77
561.744	81
561.956	97
562.168	71
562.381	90
562.593	91
562.805	92
563.017	70
563.229	84
563.441	98
563.653	77
563.865	92
564.077	77
564.289	89
564.501	96
564.713	92
564.925	87
565.137	98
565.349	83
565.561	95
565.773	87
565.985	84
566.197	105
566.408	88
566.62	91
566.832	74
567.044	86
567.255	94
567.467	86
567.679	89
567.891	100
568.102	78
568.314	72
568.526	83
568.737	88
568.949	80
569.161	80
569.372	86
569.584	89
569.795	91
570.007	63
570.218	79
570.43	71
570.641	85
570.853	83
571.064	104
571.276	76
571.487	79
571.698	90
571.91	88
572.121	87
572.333	74
572.544	74
572.755	87
572.966	70
573.178	96
573.389	90
573.6	85
573.811	87
574.023	88
574.234	82
574.445	79
574.656	78
574.867	82
575.078	83
575.289	86
575.501	75
575.712	67
575.923	76
576.134	75
576.345	90
576.556	80
576.767	90
576.978	94
577.188	88
577.399	97
577.61	77
577.821	77
578.032	84
578.243	86
578.454	89
578.665	97
578.875	66
579.086	87
579.297	70
579.508	88
579.718	90
579.929	93
580.14	79
580.35	89
580.561	82
580.772	83
580.982	72
581.193	95
581.403	83
581.614	80
581.825	96
582.035	92
582.246	89
582.456	82
582.667	77
582.877	79
583.087	76
583.298	64
583.508	82
583.719	90
583.929	76
584.139	91
584.35	92
584.56	80
584.77	91
584.981	91
585.191	85
585.401	81
585.611	85
585.821	91
586.032	91
586.242	89
586.452	87
586.662	87
586.872	78
587.082	79
587.292	83
587.502	78
587.713	87
587.923	96
588.133	102
588.343	88
588.553	84
588.762	88
588.972	91
589.182	86
589.392	81
589.602	76
589.812	71
590.022	86
590.232	86
590.441	84
590.651	76
