Data from BG_HRD10591_057.txt Node
Date: Fri May 16 15:21:22 EDT 2025
User: Yrep
Spectrometer: HR+D1059
Trigger mode: 1
Integration Time (sec): 1.000000E-1
Scans to average: 1
Electric dark correction enabled: true
Nonlinearity correction enabled: false
Boxcar width: 0
XAxis mode: Wavelengths
Number of Pixels in Spectrum: 2048
>>>>>Begin Spectral Data<<<<<
223.165	-19.69
223.4	-19.69
223.635	-19.69
223.869	-18.69
224.104	-15.69
224.338	-20.69
224.573	-12.69
224.808	-16.69
225.042	-2.69
225.277	-6.69
225.511	-7.69
225.746	9.31
225.98	7.31
226.215	15.31
226.449	18.31
226.683	20.31
226.918	18.31
227.152	32.31
227.387	25.31
227.621	38.31
227.856	39.31
228.09	45.31
228.324	63.31
228.559	42.31
228.793	63.31
229.027	59.31
229.262	70.31
229.496	68.31
229.73	59.31
229.964	82.31
230.199	66.31
230.433	74.31
230.667	81.31
230.901	74.31
231.136	77.31
231.37	79.31
231.604	85.31
231.838	80.31
232.072	83.31
232.306	88.31
232.541	75.31
232.775	90.31
233.009	85.31
233.243	79.31
233.477	81.31
233.711	76.31
233.945	75.31
234.179	77.31
234.413	85.31
234.647	79.31
234.881	70.31
235.115	68.31
235.349	79.31
235.583	81.31
235.817	83.31
236.051	88.31
236.285	79.31
236.519	76.31
236.753	63.31
236.987	77.31
237.221	70.31
237.455	67.31
237.689	75.31
237.922	81.31
238.156	69.31
238.39	77.31
238.624	75.31
238.858	71.31
239.091	77.31
239.325	77.31
239.559	85.31
239.793	72.31
240.027	70.31
240.26	75.31
240.494	83.31
240.728	68.31
240.961	78.31
241.195	67.31
241.429	82.31
241.662	71.31
241.896	89.31
242.13	81.31
242.363	76.31
242.597	72.31
242.83	74.31
243.064	76.31
243.298	80.31
243.531	69.31
243.765	72.31
243.998	83.31
244.232	85.31
244.465	80.31
244.699	79.31
244.932	80.31
245.166	77.31
245.399	68.31
245.633	87.31
245.866	75.31
246.099	79.31
246.333	79.31
246.566	75.31
246.8	64.31
247.033	69.31
247.266	79.31
247.5	91.31
247.733	89.31
247.966	63.31
248.2	79.31
248.433	75.31
248.666	85.31
248.899	96.31
249.133	73.31
249.366	81.31
249.599	77.31
249.832	76.31
250.066	83.31
250.299	67.31
250.532	75.31
250.765	66.31
250.998	83.31
251.231	87.31
251.465	83.31
251.698	65.31
251.931	71.31
252.164	85.31
252.397	83.31
252.63	84.31
252.863	89.31
253.096	70.31
253.329	89.31
253.562	74.31
253.795	78.31
254.028	75.31
254.261	68.31
254.494	80.31
254.727	76.31
254.96	85.31
255.193	71.31
255.426	72.31
255.659	78.31
255.892	95.31
256.124	90.31
256.357	83.31
256.59	78.31
256.823	90.31
257.056	85.31
257.289	78.31
257.521	81.31
257.754	88.31
257.987	78.31
258.22	74.31
258.452	73.31
258.685	100.31
258.918	73.31
259.151	82.31
259.383	73.31
259.616	81.31
259.849	90.31
260.081	93.31
260.314	87.31
260.547	75.31
260.779	77.31
261.012	82.31
261.244	92.31
261.477	101.31
261.71	89.31
261.942	81.31
262.175	79.31
262.407	79.31
262.64	92.31
262.872	83.31
263.105	80.31
263.337	82.31
263.57	82.31
263.802	88.31
264.035	90.31
264.267	77.31
264.499	73.31
264.732	83.31
264.964	90.31
265.197	83.31
265.429	67.31
265.661	85.31
265.894	83.31
266.126	71.31
266.358	78.31
266.591	83.31
266.823	77.31
267.055	77.31
267.287	87.31
267.52	73.31
267.752	82.31
267.984	112.31
268.216	81.31
268.448	91.31
268.681	91.31
268.913	86.31
269.145	75.31
269.377	96.31
269.609	93.31
269.841	93.31
270.073	73.31
270.306	73.31
270.538	64.31
270.77	88.31
271.002	88.31
271.234	77.31
271.466	85.31
271.698	80.31
271.93	88.31
272.162	77.31
272.394	88.31
272.626	77.31
272.858	80.31
273.09	85.31
273.322	78.31
273.553	87.31
273.785	94.31
274.017	85.31
274.249	85.31
274.481	80.31
274.713	80.31
274.945	77.31
275.176	72.31
275.408	86.31
275.64	88.31
275.872	79.31
276.104	93.31
276.335	66.31
276.567	82.31
276.799	78.31
277.031	83.31
277.262	83.31
277.494	75.31
277.726	86.31
277.957	82.31
278.189	83.31
278.421	87.31
278.652	70.31
278.884	78.31
279.115	82.31
279.347	90.31
279.579	88.31
279.81	91.31
280.042	95.31
280.273	90.31
280.505	77.31
280.736	89.31
280.968	70.31
281.199	59.31
281.431	82.31
281.662	85.31
281.894	83.31
282.125	73.31
282.356	88.31
282.588	85.31
282.819	94.31
283.051	81.31
283.282	80.31
283.513	83.31
283.745	89.31
283.976	86.31
284.207	83.31
284.439	87.31
284.67	85.31
284.901	77.31
285.132	78.31
285.364	85.31
285.595	90.31
285.826	80.31
286.057	82.31
286.288	83.31
286.52	94.31
286.751	78.31
286.982	83.31
287.213	91.31
287.444	81.31
287.675	81.31
287.906	77.31
288.138	83.31
288.369	91.31
288.6	81.31
288.831	76.31
289.062	84.31
289.293	75.31
289.524	73.31
289.755	92.31
289.986	69.31
290.217	86.31
290.448	86.31
290.679	77.31
290.91	85.31
291.141	80.31
291.371	82.31
291.602	81.31
291.833	77.31
292.064	93.31
292.295	81.31
292.526	78.31
292.757	77.31
292.987	96.31
293.218	90.31
293.449	90.31
293.68	89.31
293.91	84.31
294.141	83.31
294.372	90.31
294.603	90.31
294.833	85.31
295.064	81.31
295.295	85.31
295.525	82.31
295.756	85.31
295.987	92.31
296.217	88.31
296.448	78.31
296.679	80.31
296.909	80.31
297.14	76.31
297.37	83.31
297.601	92.31
297.831	95.31
298.062	84.31
298.292	75.31
298.523	89.31
298.753	101.31
298.984	81.31
299.214	85.31
299.445	87.31
299.675	101.31
299.905	83.31
300.136	101.31
300.366	99.31
300.597	94.31
300.827	95.31
301.057	79.31
301.288	79.31
301.518	91.31
301.748	89.31
301.979	93.31
302.209	77.31
302.439	83.31
302.669	79.31
302.9	87.31
303.13	87.31
303.36	79.31
303.59	94.31
303.82	90.31
304.051	67.31
304.281	81.31
304.511	105.31
304.741	97.31
304.971	90.31
305.201	79.31
305.431	75.31
305.661	72.31
305.891	85.31
306.121	79.31
306.352	91.31
306.582	83.31
306.812	86.31
307.042	90.31
307.272	75.31
307.502	86.31
307.731	84.31
307.961	92.31
308.191	83.31
308.421	82.31
308.651	99.31
308.881	76.31
309.111	78.31
309.341	82.31
309.571	74.31
309.8	86.31
310.03	83.31
310.26	85.31
310.49	85.31
310.72	86.31
310.949	79.31
311.179	77.31
311.409	81.31
311.639	68.31
311.868	68.31
312.098	78.31
312.328	94.31
312.557	66.31
312.787	80.31
313.017	79.31
313.246	94.31
313.476	83.31
313.706	72.31
313.935	83.31
314.165	80.31
314.394	88.31
314.624	92.31
314.853	88.31
315.083	74.31
315.312	87.31
315.542	85.31
315.771	95.31
316.001	90.31
316.23	83.31
316.46	71.31
316.689	82.31
316.919	90.31
317.148	92.31
317.377	79.31
317.607	84.31
317.836	67.31
318.065	87.31
318.295	92.31
318.524	102.31
318.753	80.31
318.983	79.31
319.212	73.31
319.441	82.31
319.67	99.31
319.9	74.31
320.129	76.31
320.358	83.31
320.587	87.31
320.816	82.31
321.046	91.31
321.275	91.31
321.504	79.31
321.733	75.31
321.962	62.31
322.191	83.31
322.42	82.31
322.649	93.31
322.878	89.31
323.108	88.31
323.337	78.31
323.566	101.31
323.795	86.31
324.024	95.31
324.253	95.31
324.482	73.31
324.71	105.31
324.939	94.31
325.168	99.31
325.397	94.31
325.626	92.31
325.855	95.31
326.084	81.31
326.313	82.31
326.542	93.31
326.77	96.31
326.999	83.31
327.228	93.31
327.457	85.31
327.686	85.31
327.914	86.31
328.143	83.31
328.372	88.31
328.6	84.31
328.829	84.31
329.058	106.31
329.287	79.31
329.515	81.31
329.744	87.31
329.972	84.31
330.201	83.31
330.43	76.31
330.658	83.31
330.887	91.31
331.115	80.31
331.344	77.31
331.572	73.31
331.801	71.31
332.03	88.31
332.258	95.31
332.486	87.31
332.715	84.31
332.943	62.31
333.172	94.31
333.4	82.31
333.629	79.31
333.857	93.31
334.085	80.31
334.314	84.31
334.542	76.31
334.771	82.31
334.999	82.31
335.227	72.31
335.455	83.31
335.684	83.31
335.912	97.31
336.14	87.31
336.369	77.31
336.597	80.31
336.825	83.31
337.053	89.31
337.281	81.31
337.51	89.31
337.738	90.31
337.966	80.31
338.194	79.31
338.422	85.31
338.65	88.31
338.878	91.31
339.106	94.31
339.334	101.31
339.562	89.31
339.79	98.31
340.018	88.31
340.246	67.31
340.474	82.31
340.702	89.31
340.93	72.31
341.158	96.31
341.386	83.31
341.614	84.31
341.842	88.31
342.07	81.31
342.298	75.31
342.526	86.31
342.754	68.31
342.981	73.31
343.209	71.31
343.437	97.31
343.665	92.31
343.893	88.31
344.12	82.31
344.348	94.31
344.576	82.31
344.804	81.31
345.031	83.31
345.259	79.31
345.487	75.31
345.714	92.31
345.942	79.31
346.17	80.31
346.397	86.31
346.625	88.31
346.853	83.31
347.08	78.31
347.308	81.31
347.535	80.31
347.763	75.31
347.99	79.31
348.218	86.31
348.445	81.31
348.673	82.31
348.9	99.31
349.128	97.31
349.355	92.31
349.583	86.31
349.81	91.31
350.037	73.31
350.265	71.31
350.492	80.31
350.72	75.31
350.947	89.31
351.174	85.31
351.402	80.31
351.629	84.31
351.856	98.31
352.083	74.31
352.311	92.31
352.538	73.31
352.765	73.31
352.992	92.31
353.22	82.31
353.447	76.31
353.674	84.31
353.901	80.31
354.128	91.31
354.355	83.31
354.583	79.31
354.81	79.31
355.037	85.31
355.264	82.31
355.491	91.31
355.718	67.31
355.945	81.31
356.172	86.31
356.399	74.31
356.626	79.31
356.853	86.31
357.08	77.31
357.307	79.31
357.534	81.31
357.761	77.31
357.988	87.31
358.215	92.31
358.441	79.31
358.668	86.31
358.895	88.31
359.122	81.31
359.349	79.31
359.576	85.31
359.802	79.31
360.029	66.31
360.256	79.31
360.483	68.31
360.709	83.31
360.936	88.31
361.163	84.31
361.39	88.31
361.616	83.31
361.843	85.31
362.07	86.31
362.296	94.31
362.523	84.31
362.749	85.31
362.976	75.31
363.203	81.31
363.429	83.31
363.656	99.31
363.882	108.31
364.109	76.31
364.335	81.31
364.562	85.31
364.788	88.31
365.015	73.31
365.241	64.31
365.468	85.31
365.694	83.31
365.92	84.31
366.147	89.31
366.373	79.31
366.599	77.31
366.826	91.31
367.052	82.31
367.278	88.31
367.505	92.31
367.731	91.31
367.957	91.31
368.184	83.31
368.41	88.31
368.636	75.31
368.862	95.31
369.089	90.31
369.315	78.31
369.541	84.31
369.767	77.31
369.993	85.31
370.219	94.31
370.445	85.31
370.672	87.31
370.898	74.31
371.124	73.31
371.35	79.31
371.576	86.31
371.802	85.31
372.028	86.31
372.254	81.31
372.48	92.31
372.706	73.31
372.932	82.31
373.158	92.31
373.384	79.31
373.61	87.31
373.835	95.31
374.061	83.31
374.287	74.31
374.513	68.31
374.739	83.31
374.965	75.31
375.191	71.31
375.416	80.31
375.642	72.31
375.868	83.31
376.094	91.31
376.319	88.31
376.545	72.31
376.771	69.31
376.997	88.31
377.222	74.31
377.448	81.31
377.674	94.31
377.899	80.31
378.125	74.31
378.35	82.31
378.576	89.31
378.802	82.31
379.027	75.31
379.253	97.31
379.478	80.31
379.704	83.31
379.929	94.31
380.155	80.31
380.38	94.31
380.606	74.31
380.831	80.31
381.057	96.31
381.282	83.31
381.507	95.31
381.733	89.31
381.958	85.31
382.184	77.31
382.409	80.31
382.634	86.31
382.86	67.31
383.085	89.31
383.31	80.31
383.535	89.31
383.761	81.31
383.986	76.31
384.211	86.31
384.436	92.31
384.662	72.31
384.887	80.31
385.112	71.31
385.337	81.31
385.562	64.31
385.787	89.31
386.013	80.31
386.238	77.31
386.463	72.31
386.688	86.31
386.913	69.31
387.138	92.31
387.363	85.31
387.588	91.31
387.813	85.31
388.038	88.31
388.263	90.31
388.488	80.31
388.713	81.31
388.938	56.31
389.163	75.31
389.387	80.31
389.612	84.31
389.837	79.31
390.062	80.31
390.287	79.31
390.512	87.31
390.736	79.31
390.961	77.31
391.186	75.31
391.411	89.31
391.636	86.31
391.86	72.31
392.085	80.31
392.31	71.31
392.534	85.31
392.759	88.31
392.984	81.31
393.208	85.31
393.433	91.31
393.658	83.31
393.882	96.31
394.107	79.31
394.331	80.31
394.556	70.31
394.78	81.31
395.005	79.31
395.229	79.31
395.454	107.31
395.678	85.31
395.903	85.31
396.127	89.31
396.352	82.31
396.576	80.31
396.801	88.31
397.025	77.31
397.249	86.31
397.474	93.31
397.698	75.31
397.922	87.31
398.147	99.31
398.371	76.31
398.595	97.31
398.82	82.31
399.044	73.31
399.268	81.31
399.492	80.31
399.717	77.31
399.941	80.31
400.165	73.31
400.389	78.31
400.613	87.31
400.837	80.31
401.062	84.31
401.286	81.31
401.51	80.31
401.734	87.31
401.958	86.31
402.182	79.31
402.406	75.31
402.63	59.31
402.854	79.31
403.078	84.31
403.302	80.31
403.526	82.31
403.75	79.31
403.974	93.31
404.198	95.31
404.422	81.31
404.645	75.31
404.869	89.31
405.093	79.31
405.317	79.31
405.541	84.31
405.765	89.31
405.988	101.31
406.212	84.31
406.436	81.31
406.66	63.31
406.883	84.31
407.107	88.31
407.331	81.31
407.555	76.31
407.778	75.31
408.002	83.31
408.226	84.31
408.449	73.31
408.673	79.31
408.896	88.31
409.12	85.31
409.344	83.31
409.567	73.31
409.791	96.31
410.014	82.31
410.238	74.31
410.461	62.31
410.685	80.31
410.908	75.31
411.132	65.31
411.355	78.31
411.578	73.31
411.802	71.31
412.025	70.31
412.249	83.31
412.472	89.31
412.695	84.31
412.919	69.31
413.142	74.31
413.365	81.31
413.589	78.31
413.812	83.31
414.035	90.31
414.258	80.31
414.482	61.31
414.705	70.31
414.928	77.31
415.151	85.31
415.374	79.31
415.597	65.31
415.821	75.31
416.044	82.31
416.267	92.31
416.49	78.31
416.713	80.31
416.936	86.31
417.159	81.31
417.382	77.31
417.605	74.31
417.828	73.31
418.051	63.31
418.274	86.31
418.497	73.31
418.72	87.31
418.943	81.31
419.166	83.31
419.389	81.31
419.611	84.31
419.834	56.31
420.057	86.31
420.28	76.31
420.503	91.31
420.726	87.31
420.948	83.31
421.171	75.31
421.394	78.31
421.617	72.31
421.839	81.31
422.062	82.31
422.285	69.31
422.507	85.31
422.73	87.31
422.953	80.31
423.175	74.31
423.398	78.31
423.621	76.31
423.843	77.31
424.066	72.31
424.288	75.31
424.511	85.31
424.733	72.31
424.956	73.31
425.178	66.31
425.401	74.31
425.623	75.31
425.846	74.31
426.068	93.31
426.291	80.31
426.513	79.31
426.735	86.31
426.958	89.31
427.18	86.31
427.402	85.31
427.625	83.31
427.847	79.31
428.069	97.31
428.292	96.31
428.514	61.31
428.736	87.31
428.958	95.31
429.181	82.31
429.403	79.31
429.625	70.31
429.847	77.31
430.069	68.31
430.292	74.31
430.514	78.31
430.736	68.31
430.958	88.31
431.18	86.31
431.402	79.31
431.624	85.31
431.846	79.31
432.068	81.31
432.29	87.31
432.512	80.31
432.734	73.31
432.956	76.31
433.178	87.31
433.4	69.31
433.622	83.31
433.844	87.31
434.066	73.31
434.287	81.31
434.509	83.31
434.731	84.31
434.953	72.31
435.175	84.31
435.397	87.31
435.618	78.31
435.84	83.31
436.062	91.31
436.284	80.31
436.505	65.31
436.727	83.31
436.949	80.31
437.17	94.31
437.392	95.31
437.614	95.31
437.835	81.31
438.057	79.31
438.278	78.31
438.5	91.31
438.721	74.31
438.943	81.31
439.165	86.31
439.386	73.31
439.608	101.31
439.829	83.31
440.05	86.31
440.272	78.31
440.493	83.31
440.715	88.31
440.936	93.31
441.158	87.31
441.379	67.31
441.6	85.31
441.822	79.31
442.043	85.31
442.264	82.31
442.486	95.31
442.707	81.31
442.928	89.31
443.149	84.31
443.371	77.31
443.592	86.31
443.813	81.31
444.034	91.31
444.255	90.31
444.476	82.31
444.698	78.31
444.919	82.31
445.14	162.31
445.361	119.31
445.582	74.31
445.803	89.31
446.024	75.31
446.245	88.31
446.466	90.31
446.687	72.31
446.908	86.31
447.129	85.31
447.35	68.31
447.571	85.31
447.792	70.31
448.013	63.31
448.234	78.31
448.455	93.31
448.675	78.31
448.896	87.31
449.117	96.31
449.338	78.31
449.559	77.31
449.779	90.31
450	69.31
450.221	67.31
450.442	89.31
450.662	84.31
450.883	79.31
451.104	72.31
451.324	89.31
451.545	86.31
451.766	83.31
451.986	85.31
452.207	67.31
452.428	82.31
452.648	82.31
452.869	87.31
453.089	83.31
453.31	74.31
453.53	73.31
453.751	81.31
453.971	72.31
454.192	88.31
454.412	85.31
454.633	78.31
454.853	78.31
455.073	74.31
455.294	72.31
455.514	93.31
455.734	71.31
455.955	92.31
456.175	71.31
456.395	73.31
456.616	67.31
456.836	79.31
457.056	80.31
457.276	73.31
457.497	73.31
457.717	86.31
457.937	97.31
458.157	90.31
458.377	94.31
458.598	72.31
458.818	79.31
459.038	81.31
459.258	80.31
459.478	89.31
459.698	87.31
459.918	70.31
460.138	69.31
460.358	70.31
460.578	89.31
460.798	81.31
461.018	77.31
461.238	71.31
461.458	83.31
461.678	92.31
461.898	75.31
462.118	87.31
462.338	85.31
462.558	90.31
462.777	72.31
462.997	77.31
463.217	75.31
463.437	73.31
463.657	81.31
463.876	80.31
464.096	79.31
464.316	77.31
464.536	72.31
464.755	81.31
464.975	78.31
465.195	75.31
465.414	77.31
465.634	88.31
465.854	85.31
466.073	77.31
466.293	85.31
466.512	82.31
466.732	77.31
466.951	81.31
467.171	72.31
467.391	65.31
467.61	82.31
467.829	76.31
468.049	84.31
468.268	83.31
468.488	87.31
468.707	83.31
468.927	87.31
469.146	73.31
469.365	81.31
469.585	78.31
469.804	81.31
470.023	81.31
470.243	92.31
470.462	81.31
470.681	86.31
470.901	88.31
471.12	81.31
471.339	73.31
471.558	86.31
471.777	80.31
471.997	89.31
472.216	80.31
472.435	85.31
472.654	77.31
472.873	71.31
473.092	82.31
473.311	96.31
473.53	85.31
473.749	84.31
473.968	84.31
474.187	78.31
474.406	92.31
474.625	83.31
474.844	87.31
475.063	76.31
475.282	91.31
475.501	77.31
475.72	86.31
475.939	93.31
476.158	62.31
476.377	89.31
476.596	92.31
476.814	81.31
477.033	85.31
477.252	81.31
477.471	78.31
477.69	83.31
477.908	82.31
478.127	69.31
478.346	71.31
478.564	83.31
478.783	74.31
479.002	85.31
479.22	91.31
479.439	86.31
479.658	84.31
479.876	72.31
480.095	93.31
480.313	87.31
480.532	94.31
480.751	82.31
480.969	80.31
481.188	81.31
481.406	80.31
481.624	78.31
481.843	81.31
482.061	81.31
482.28	77.31
482.498	94.31
482.717	78.31
482.935	91.31
483.153	70.31
483.372	80.31
483.59	82.31
483.808	83.31
484.027	77.31
484.245	88.31
484.463	104.31
484.681	83.31
484.9	81.31
485.118	81.31
485.336	67.31
485.554	87.31
485.772	83.31
485.99	92.31
486.209	84.31
486.427	80.31
486.645	59.31
486.863	75.31
487.081	83.31
487.299	83.31
487.517	86.31
487.735	79.31
487.953	77.31
488.171	89.31
488.389	71.31
488.607	91.31
488.825	99.31
489.043	97.31
489.261	76.31
489.479	87.31
489.696	76.31
489.914	82.31
490.132	81.31
490.35	92.31
490.568	74.31
490.786	78.31
491.003	85.31
491.221	92.31
491.439	87.31
491.657	81.31
491.874	88.31
492.092	77.31
492.31	90.31
492.527	87.31
492.745	77.31
492.963	80.31
493.18	85.31
493.398	77.31
493.615	88.31
493.833	89.31
494.05	84.31
494.268	88.31
494.485	88.31
494.703	91.31
494.92	82.31
495.138	80.31
495.355	81.31
495.573	80.31
495.79	84.31
496.008	74.31
496.225	71.31
496.442	88.31
496.66	95.31
496.877	77.31
497.094	76.31
497.312	86.31
497.529	77.31
497.746	82.31
497.963	83.31
498.181	95.31
498.398	61.31
498.615	88.31
498.832	84.31
499.049	69.31
499.267	89.31
499.484	89.31
499.701	74.31
499.918	92.31
500.135	87.31
500.352	70.31
500.569	95.31
500.786	77.31
501.003	86.31
501.22	95.31
501.437	85.31
501.654	75.31
501.871	64.31
502.088	80.31
502.305	83.31
502.522	75.31
502.739	88.31
502.956	99.31
503.172	83.31
503.389	90.31
503.606	93.31
503.823	76.31
504.04	96.31
504.256	91.31
504.473	82.31
504.69	96.31
504.907	86.31
505.123	71.31
505.34	82.31
505.557	94.31
505.773	92.31
505.99	90.31
506.207	81.31
506.423	72.31
506.64	70.31
506.856	74.31
507.073	76.31
507.289	87.31
507.506	91.31
507.722	74.31
507.939	82.31
508.155	73.31
508.372	69.31
508.588	94.31
508.805	89.31
509.021	74.31
509.238	79.31
509.454	88.31
509.67	87.31
509.887	67.31
510.103	82.31
510.319	79.31
510.536	86.31
510.752	90.31
510.968	104.31
511.184	92.31
511.401	87.31
511.617	93.31
511.833	77.31
512.049	85.31
512.265	77.31
512.481	91.31
512.698	79.31
512.914	80.31
513.13	78.31
513.346	78.31
513.562	66.31
513.778	93.31
513.994	81.31
514.21	76.31
514.426	75.31
514.642	85.31
514.858	90.31
515.074	90.31
515.29	90.31
515.506	83.31
515.721	79.31
515.937	85.31
516.153	90.31
516.369	78.31
516.585	79.31
516.801	79.31
517.016	80.31
517.232	93.31
517.448	88.31
517.664	100.31
517.879	82.31
518.095	85.31
518.311	87.31
518.527	88.31
518.742	87.31
518.958	88.31
519.173	85.31
519.389	83.31
519.605	81.31
519.82	85.31
520.036	87.31
