Data from BG_HRD10591_099.txt Node
Date: Fri May 16 15:21:43 EDT 2025
User: Yrep
Spectrometer: HR+D1059
Trigger mode: 1
Integration Time (sec): 1.000000E-1
Scans to average: 1
Electric dark correction enabled: true
Nonlinearity correction enabled: false
Boxcar width: 0
XAxis mode: Wavelengths
Number of Pixels in Spectrum: 2048
>>>>>Begin Spectral Data<<<<<
223.165	-7.94
223.4	-7.94
223.635	-7.94
223.869	-22.94
224.104	-29.94
224.338	-24.94
224.573	-16.94
224.808	-16.94
225.042	-8.94
225.277	1.06
225.511	-1.94
225.746	0.06
225.98	5.06
226.215	3.06
226.449	19.06
226.683	23.06
226.918	32.06
227.152	47.06
227.387	48.06
227.621	46.06
227.856	44.06
228.09	40.06
228.324	49.06
228.559	62.06
228.793	55.06
229.027	68.06
229.262	69.06
229.496	75.06
229.73	75.06
229.964	81.06
230.199	71.06
230.433	72.06
230.667	82.06
230.901	70.06
231.136	83.06
231.37	82.06
231.604	78.06
231.838	95.06
232.072	75.06
232.306	97.06
232.541	73.06
232.775	91.06
233.009	87.06
233.243	79.06
233.477	77.06
233.711	86.06
233.945	73.06
234.179	96.06
234.413	83.06
234.647	73.06
234.881	83.06
235.115	74.06
235.349	73.06
235.583	80.06
235.817	89.06
236.051	75.06
236.285	74.06
236.519	74.06
236.753	79.06
236.987	72.06
237.221	73.06
237.455	73.06
237.689	79.06
237.922	82.06
238.156	77.06
238.39	63.06
238.624	85.06
238.858	71.06
239.091	89.06
239.325	82.06
239.559	75.06
239.793	75.06
240.027	82.06
240.26	89.06
240.494	72.06
240.728	74.06
240.961	70.06
241.195	80.06
241.429	73.06
241.662	90.06
241.896	73.06
242.13	68.06
242.363	83.06
242.597	93.06
242.83	77.06
243.064	88.06
243.298	85.06
243.531	93.06
243.765	71.06
243.998	90.06
244.232	73.06
244.465	70.06
244.699	70.06
244.932	88.06
245.166	73.06
245.399	78.06
245.633	81.06
245.866	87.06
246.099	90.06
246.333	86.06
246.566	70.06
246.8	70.06
247.033	74.06
247.266	80.06
247.5	70.06
247.733	79.06
247.966	87.06
248.2	82.06
248.433	67.06
248.666	67.06
248.899	84.06
249.133	89.06
249.366	77.06
249.599	85.06
249.832	83.06
250.066	95.06
250.299	89.06
250.532	92.06
250.765	88.06
250.998	74.06
251.231	76.06
251.465	83.06
251.698	89.06
251.931	88.06
252.164	78.06
252.397	75.06
252.63	87.06
252.863	90.06
253.096	76.06
253.329	97.06
253.562	80.06
253.795	85.06
254.028	91.06
254.261	93.06
254.494	88.06
254.727	92.06
254.96	77.06
255.193	88.06
255.426	72.06
255.659	92.06
255.892	88.06
256.124	77.06
256.357	77.06
256.59	88.06
256.823	96.06
257.056	95.06
257.289	77.06
257.521	95.06
257.754	79.06
257.987	70.06
258.22	81.06
258.452	72.06
258.685	76.06
258.918	87.06
259.151	82.06
259.383	87.06
259.616	91.06
259.849	67.06
260.081	77.06
260.314	83.06
260.547	73.06
260.779	89.06
261.012	87.06
261.244	77.06
261.477	74.06
261.71	90.06
261.942	70.06
262.175	71.06
262.407	89.06
262.64	85.06
262.872	86.06
263.105	85.06
263.337	79.06
263.57	90.06
263.802	90.06
264.035	75.06
264.267	88.06
264.499	93.06
264.732	78.06
264.964	88.06
265.197	73.06
265.429	80.06
265.661	80.06
265.894	75.06
266.126	90.06
266.358	79.06
266.591	89.06
266.823	67.06
267.055	77.06
267.287	82.06
267.52	99.06
267.752	90.06
267.984	77.06
268.216	81.06
268.448	101.06
268.681	85.06
268.913	87.06
269.145	83.06
269.377	93.06
269.609	81.06
269.841	89.06
270.073	91.06
270.306	92.06
270.538	89.06
270.77	88.06
271.002	86.06
271.234	99.06
271.466	78.06
271.698	85.06
271.93	93.06
272.162	81.06
272.394	96.06
272.626	97.06
272.858	90.06
273.09	86.06
273.322	82.06
273.553	86.06
273.785	90.06
274.017	79.06
274.249	86.06
274.481	81.06
274.713	106.06
274.945	81.06
275.176	89.06
275.408	91.06
275.64	75.06
275.872	73.06
276.104	90.06
276.335	85.06
276.567	92.06
276.799	87.06
277.031	85.06
277.262	83.06
277.494	81.06
277.726	79.06
277.957	87.06
278.189	79.06
278.421	79.06
278.652	89.06
278.884	98.06
279.115	99.06
279.347	81.06
279.579	95.06
279.81	74.06
280.042	87.06
280.273	74.06
280.505	76.06
280.736	74.06
280.968	92.06
281.199	92.06
281.431	98.06
281.662	71.06
281.894	93.06
282.125	73.06
282.356	85.06
282.588	81.06
282.819	85.06
283.051	88.06
283.282	104.06
283.513	93.06
283.745	85.06
283.976	90.06
284.207	81.06
284.439	62.06
284.67	89.06
284.901	85.06
285.132	79.06
285.364	97.06
285.595	86.06
285.826	81.06
286.057	88.06
286.288	91.06
286.52	91.06
286.751	108.06
286.982	103.06
287.213	85.06
287.444	83.06
287.675	93.06
287.906	85.06
288.138	72.06
288.369	89.06
288.6	88.06
288.831	98.06
289.062	91.06
289.293	93.06
289.524	84.06
289.755	88.06
289.986	91.06
290.217	80.06
290.448	83.06
290.679	86.06
290.91	87.06
291.141	79.06
291.371	97.06
291.602	105.06
291.833	88.06
292.064	79.06
292.295	91.06
292.526	80.06
292.757	83.06
292.987	102.06
293.218	90.06
293.449	98.06
293.68	85.06
293.91	83.06
294.141	75.06
294.372	90.06
294.603	85.06
294.833	88.06
295.064	77.06
295.295	94.06
295.525	87.06
295.756	79.06
295.987	88.06
296.217	83.06
296.448	72.06
296.679	86.06
296.909	94.06
297.14	94.06
297.37	103.06
297.601	87.06
297.831	101.06
298.062	92.06
298.292	68.06
298.523	80.06
298.753	86.06
298.984	85.06
299.214	85.06
299.445	88.06
299.675	92.06
299.905	86.06
300.136	73.06
300.366	95.06
300.597	90.06
300.827	75.06
301.057	75.06
301.288	88.06
301.518	92.06
301.748	95.06
301.979	112.06
302.209	73.06
302.439	92.06
302.669	79.06
302.9	87.06
303.13	94.06
303.36	101.06
303.59	94.06
303.82	96.06
304.051	89.06
304.281	99.06
304.511	89.06
304.741	86.06
304.971	89.06
305.201	73.06
305.431	91.06
305.661	82.06
305.891	82.06
306.121	88.06
306.352	99.06
306.582	83.06
306.812	96.06
307.042	76.06
307.272	84.06
307.502	88.06
307.731	91.06
307.961	87.06
308.191	102.06
308.421	79.06
308.651	75.06
308.881	90.06
309.111	83.06
309.341	73.06
309.571	86.06
309.8	97.06
310.03	77.06
310.26	88.06
310.49	91.06
310.72	84.06
310.949	85.06
311.179	74.06
311.409	92.06
311.639	86.06
311.868	97.06
312.098	88.06
312.328	99.06
312.557	81.06
312.787	91.06
313.017	98.06
313.246	105.06
313.476	81.06
313.706	101.06
313.935	96.06
314.165	94.06
314.394	87.06
314.624	92.06
314.853	71.06
315.083	87.06
315.312	91.06
315.542	79.06
315.771	90.06
316.001	81.06
316.23	87.06
316.46	83.06
316.689	78.06
316.919	80.06
317.148	81.06
317.377	86.06
317.607	94.06
317.836	82.06
318.065	90.06
318.295	98.06
318.524	91.06
318.753	98.06
318.983	92.06
319.212	81.06
319.441	82.06
319.67	87.06
319.9	96.06
320.129	82.06
320.358	102.06
320.587	105.06
320.816	102.06
321.046	80.06
321.275	90.06
321.504	93.06
321.733	77.06
321.962	91.06
322.191	75.06
322.42	88.06
322.649	82.06
322.878	71.06
323.108	94.06
323.337	75.06
323.566	81.06
323.795	84.06
324.024	72.06
324.253	79.06
324.482	88.06
324.71	92.06
324.939	81.06
325.168	64.06
325.397	80.06
325.626	75.06
325.855	93.06
326.084	93.06
326.313	101.06
326.542	97.06
326.77	85.06
326.999	91.06
327.228	76.06
327.457	77.06
327.686	98.06
327.914	76.06
328.143	95.06
328.372	98.06
328.6	97.06
328.829	89.06
329.058	89.06
329.287	78.06
329.515	95.06
329.744	86.06
329.972	86.06
330.201	79.06
330.43	91.06
330.658	98.06
330.887	80.06
331.115	94.06
331.344	95.06
331.572	95.06
331.801	98.06
332.03	89.06
332.258	86.06
332.486	100.06
332.715	80.06
332.943	91.06
333.172	78.06
333.4	89.06
333.629	82.06
333.857	92.06
334.085	91.06
334.314	96.06
334.542	85.06
334.771	90.06
334.999	90.06
335.227	89.06
335.455	97.06
335.684	89.06
335.912	90.06
336.14	85.06
336.369	87.06
336.597	104.06
336.825	98.06
337.053	95.06
337.281	88.06
337.51	81.06
337.738	98.06
337.966	86.06
338.194	91.06
338.422	86.06
338.65	97.06
338.878	92.06
339.106	79.06
339.334	84.06
339.562	96.06
339.79	85.06
340.018	85.06
340.246	88.06
340.474	84.06
340.702	94.06
340.93	96.06
341.158	81.06
341.386	87.06
341.614	70.06
341.842	87.06
342.07	91.06
342.298	98.06
342.526	90.06
342.754	94.06
342.981	97.06
343.209	88.06
343.437	109.06
343.665	87.06
343.893	88.06
344.12	88.06
344.348	96.06
344.576	78.06
344.804	87.06
345.031	84.06
345.259	103.06
345.487	82.06
345.714	90.06
345.942	90.06
346.17	85.06
346.397	88.06
346.625	74.06
346.853	86.06
347.08	86.06
347.308	88.06
347.535	94.06
347.763	82.06
347.99	86.06
348.218	101.06
348.445	78.06
348.673	94.06
348.9	78.06
349.128	103.06
349.355	83.06
349.583	81.06
349.81	86.06
350.037	109.06
350.265	90.06
350.492	82.06
350.72	95.06
350.947	79.06
351.174	94.06
351.402	102.06
351.629	86.06
351.856	80.06
352.083	85.06
352.311	95.06
352.538	83.06
352.765	84.06
352.992	90.06
353.22	84.06
353.447	83.06
353.674	103.06
353.901	94.06
354.128	103.06
354.355	66.06
354.583	87.06
354.81	87.06
355.037	95.06
355.264	90.06
355.491	88.06
355.718	83.06
355.945	95.06
356.172	89.06
356.399	70.06
356.626	66.06
356.853	87.06
357.08	83.06
357.307	97.06
357.534	90.06
357.761	85.06
357.988	91.06
358.215	88.06
358.441	96.06
358.668	87.06
358.895	79.06
359.122	93.06
359.349	89.06
359.576	83.06
359.802	89.06
360.029	89.06
360.256	89.06
360.483	76.06
360.709	81.06
360.936	86.06
361.163	86.06
361.39	94.06
361.616	80.06
361.843	86.06
362.07	83.06
362.296	85.06
362.523	83.06
362.749	87.06
362.976	94.06
363.203	85.06
363.429	99.06
363.656	81.06
363.882	89.06
364.109	86.06
364.335	97.06
364.562	74.06
364.788	90.06
365.015	88.06
365.241	81.06
365.468	83.06
365.694	84.06
365.92	85.06
366.147	77.06
366.373	89.06
366.599	97.06
366.826	82.06
367.052	73.06
367.278	93.06
367.505	88.06
367.731	88.06
367.957	74.06
368.184	81.06
368.41	88.06
368.636	98.06
368.862	105.06
369.089	79.06
369.315	83.06
369.541	86.06
369.767	93.06
369.993	81.06
370.219	86.06
370.445	83.06
370.672	90.06
370.898	85.06
371.124	97.06
371.35	73.06
371.576	86.06
371.802	90.06
372.028	88.06
372.254	88.06
372.48	87.06
372.706	77.06
372.932	92.06
373.158	81.06
373.384	78.06
373.61	93.06
373.835	77.06
374.061	94.06
374.287	91.06
374.513	92.06
374.739	67.06
374.965	94.06
375.191	71.06
375.416	62.06
375.642	79.06
375.868	92.06
376.094	94.06
376.319	90.06
376.545	80.06
376.771	88.06
376.997	80.06
377.222	82.06
377.448	96.06
377.674	93.06
377.899	91.06
378.125	80.06
378.35	82.06
378.576	89.06
378.802	89.06
379.027	83.06
379.253	104.06
379.478	84.06
379.704	90.06
379.929	77.06
380.155	95.06
380.38	101.06
380.606	100.06
380.831	96.06
381.057	84.06
381.282	83.06
381.507	88.06
381.733	89.06
381.958	85.06
382.184	79.06
382.409	71.06
382.634	102.06
382.86	91.06
383.085	114.06
383.31	82.06
383.535	80.06
383.761	76.06
383.986	85.06
384.211	96.06
384.436	85.06
384.662	95.06
384.887	85.06
385.112	70.06
385.337	86.06
385.562	90.06
385.787	96.06
386.013	90.06
386.238	83.06
386.463	87.06
386.688	103.06
386.913	81.06
387.138	85.06
387.363	90.06
387.588	92.06
387.813	98.06
388.038	82.06
388.263	84.06
388.488	87.06
388.713	84.06
388.938	86.06
389.163	89.06
389.387	80.06
389.612	92.06
389.837	83.06
390.062	75.06
390.287	76.06
390.512	81.06
390.736	80.06
390.961	93.06
391.186	83.06
391.411	91.06
391.636	90.06
391.86	77.06
392.085	90.06
392.31	101.06
392.534	89.06
392.759	98.06
392.984	80.06
393.208	89.06
393.433	86.06
393.658	78.06
393.882	87.06
394.107	81.06
394.331	89.06
394.556	84.06
394.78	86.06
395.005	74.06
395.229	89.06
395.454	85.06
395.678	93.06
395.903	104.06
396.127	91.06
396.352	90.06
396.576	89.06
396.801	101.06
397.025	95.06
397.249	83.06
397.474	88.06
397.698	96.06
397.922	83.06
398.147	77.06
398.371	85.06
398.595	78.06
398.82	83.06
399.044	93.06
399.268	70.06
399.492	86.06
399.717	91.06
399.941	95.06
400.165	108.06
400.389	103.06
400.613	89.06
400.837	102.06
401.062	89.06
401.286	90.06
401.51	87.06
401.734	89.06
401.958	101.06
402.182	90.06
402.406	92.06
402.63	89.06
402.854	89.06
403.078	88.06
403.302	77.06
403.526	88.06
403.75	86.06
403.974	88.06
404.198	86.06
404.422	86.06
404.645	97.06
404.869	89.06
405.093	70.06
405.317	89.06
405.541	110.06
405.765	105.06
405.988	75.06
406.212	86.06
406.436	86.06
406.66	83.06
406.883	90.06
407.107	82.06
407.331	84.06
407.555	91.06
407.778	79.06
408.002	96.06
408.226	86.06
408.449	88.06
408.673	89.06
408.896	82.06
409.12	89.06
409.344	85.06
409.567	96.06
409.791	95.06
410.014	81.06
410.238	94.06
410.461	85.06
410.685	95.06
410.908	92.06
411.132	94.06
411.355	72.06
411.578	76.06
411.802	80.06
412.025	81.06
412.249	100.06
412.472	86.06
412.695	105.06
412.919	95.06
413.142	82.06
413.365	89.06
413.589	76.06
413.812	83.06
414.035	102.06
414.258	87.06
414.482	82.06
414.705	70.06
414.928	94.06
415.151	91.06
415.374	79.06
415.597	88.06
415.821	91.06
416.044	82.06
416.267	87.06
416.49	85.06
416.713	98.06
416.936	86.06
417.159	87.06
417.382	96.06
417.605	84.06
417.828	93.06
418.051	91.06
418.274	81.06
418.497	96.06
418.72	94.06
418.943	89.06
419.166	104.06
419.389	88.06
419.611	102.06
419.834	84.06
420.057	87.06
420.28	81.06
420.503	85.06
420.726	84.06
420.948	92.06
421.171	95.06
421.394	76.06
421.617	86.06
421.839	79.06
422.062	67.06
422.285	95.06
422.507	103.06
422.73	90.06
422.953	101.06
423.175	87.06
423.398	76.06
423.621	75.06
423.843	73.06
424.066	92.06
424.288	91.06
424.511	89.06
424.733	85.06
424.956	83.06
425.178	79.06
425.401	93.06
425.623	99.06
425.846	98.06
426.068	76.06
426.291	81.06
426.513	76.06
426.735	76.06
426.958	77.06
427.18	97.06
427.402	94.06
427.625	75.06
427.847	85.06
428.069	81.06
428.292	76.06
428.514	89.06
428.736	91.06
428.958	81.06
429.181	92.06
429.403	87.06
429.625	77.06
429.847	79.06
430.069	82.06
430.292	94.06
430.514	103.06
430.736	90.06
430.958	83.06
431.18	97.06
431.402	82.06
431.624	93.06
431.846	101.06
432.068	97.06
432.29	88.06
432.512	91.06
432.734	78.06
432.956	90.06
433.178	84.06
433.4	103.06
433.622	83.06
433.844	80.06
434.066	89.06
434.287	90.06
434.509	87.06
434.731	86.06
434.953	77.06
435.175	94.06
435.397	74.06
435.618	91.06
435.84	105.06
436.062	78.06
436.284	91.06
436.505	86.06
436.727	92.06
436.949	91.06
437.17	95.06
437.392	81.06
437.614	89.06
437.835	83.06
438.057	102.06
438.278	96.06
438.5	99.06
438.721	90.06
438.943	74.06
439.165	79.06
439.386	81.06
439.608	93.06
439.829	106.06
440.05	93.06
440.272	84.06
440.493	70.06
440.715	83.06
440.936	82.06
441.158	96.06
441.379	84.06
441.6	88.06
441.822	86.06
442.043	91.06
442.264	76.06
442.486	93.06
442.707	71.06
442.928	76.06
443.149	95.06
443.371	79.06
443.592	85.06
443.813	89.06
444.034	94.06
444.255	93.06
444.476	90.06
444.698	93.06
444.919	89.06
445.14	170.06
445.361	129.06
445.582	89.06
445.803	85.06
446.024	88.06
446.245	90.06
446.466	101.06
446.687	91.06
446.908	107.06
447.129	72.06
447.35	92.06
447.571	80.06
447.792	78.06
448.013	86.06
448.234	101.06
448.455	87.06
448.675	90.06
448.896	83.06
449.117	88.06
449.338	101.06
449.559	85.06
449.779	90.06
450	91.06
450.221	95.06
450.442	91.06
450.662	78.06
450.883	63.06
451.104	76.06
451.324	87.06
451.545	82.06
451.766	81.06
451.986	84.06
452.207	97.06
452.428	88.06
452.648	101.06
452.869	97.06
453.089	82.06
453.31	89.06
453.53	78.06
453.751	93.06
453.971	99.06
454.192	95.06
454.412	89.06
454.633	89.06
454.853	78.06
455.073	90.06
455.294	81.06
455.514	78.06
455.734	81.06
455.955	90.06
456.175	77.06
456.395	96.06
456.616	87.06
456.836	79.06
457.056	85.06
457.276	89.06
457.497	86.06
457.717	88.06
457.937	102.06
458.157	79.06
458.377	85.06
458.598	92.06
458.818	67.06
459.038	86.06
459.258	86.06
459.478	75.06
459.698	107.06
459.918	86.06
460.138	83.06
460.358	99.06
460.578	110.06
460.798	99.06
461.018	101.06
461.238	92.06
461.458	87.06
461.678	89.06
461.898	93.06
462.118	96.06
462.338	92.06
462.558	80.06
462.777	83.06
462.997	86.06
463.217	101.06
463.437	108.06
463.657	94.06
463.876	91.06
464.096	82.06
464.316	77.06
464.536	94.06
464.755	92.06
464.975	97.06
465.195	98.06
465.414	94.06
465.634	91.06
465.854	94.06
466.073	79.06
466.293	89.06
466.512	87.06
466.732	97.06
466.951	74.06
467.171	83.06
467.391	101.06
467.61	77.06
467.829	77.06
468.049	78.06
468.268	90.06
468.488	88.06
468.707	81.06
468.927	99.06
469.146	89.06
469.365	86.06
469.585	90.06
469.804	102.06
470.023	87.06
470.243	95.06
470.462	94.06
470.681	87.06
470.901	96.06
471.12	90.06
471.339	82.06
471.558	88.06
471.777	104.06
471.997	82.06
472.216	86.06
472.435	93.06
472.654	101.06
472.873	106.06
473.092	83.06
473.311	94.06
473.53	96.06
473.749	79.06
473.968	92.06
474.187	81.06
474.406	81.06
474.625	64.06
474.844	94.06
475.063	78.06
475.282	87.06
475.501	80.06
475.72	91.06
475.939	92.06
476.158	81.06
476.377	101.06
476.596	87.06
476.814	87.06
477.033	91.06
477.252	97.06
477.471	78.06
477.69	87.06
477.908	104.06
478.127	98.06
478.346	95.06
478.564	93.06
478.783	98.06
479.002	91.06
479.22	94.06
479.439	93.06
479.658	87.06
479.876	85.06
480.095	86.06
480.313	91.06
480.532	82.06
480.751	111.06
480.969	96.06
481.188	89.06
481.406	94.06
481.624	93.06
481.843	81.06
482.061	95.06
482.28	82.06
482.498	91.06
482.717	102.06
482.935	93.06
483.153	87.06
483.372	90.06
483.59	105.06
483.808	101.06
484.027	91.06
484.245	87.06
484.463	67.06
484.681	92.06
484.9	92.06
485.118	83.06
485.336	86.06
485.554	86.06
485.772	82.06
485.99	92.06
486.209	97.06
486.427	90.06
486.645	86.06
486.863	98.06
487.081	88.06
487.299	81.06
487.517	87.06
487.735	86.06
487.953	84.06
488.171	92.06
488.389	79.06
488.607	89.06
488.825	91.06
489.043	94.06
489.261	98.06
489.479	102.06
489.696	89.06
489.914	91.06
490.132	80.06
490.35	86.06
490.568	90.06
490.786	83.06
491.003	83.06
491.221	88.06
491.439	84.06
491.657	93.06
491.874	85.06
492.092	80.06
492.31	95.06
492.527	89.06
492.745	93.06
492.963	91.06
493.18	94.06
493.398	104.06
493.615	81.06
493.833	82.06
494.05	99.06
494.268	111.06
494.485	96.06
494.703	82.06
494.92	92.06
495.138	93.06
495.355	84.06
495.573	84.06
495.79	89.06
496.008	88.06
496.225	101.06
496.442	91.06
496.66	87.06
496.877	92.06
497.094	96.06
497.312	84.06
497.529	81.06
497.746	93.06
497.963	97.06
498.181	94.06
498.398	80.06
498.615	90.06
498.832	89.06
499.049	102.06
499.267	90.06
499.484	99.06
499.701	99.06
499.918	106.06
500.135	98.06
500.352	106.06
500.569	117.06
500.786	124.06
501.003	106.06
501.22	95.06
501.437	93.06
501.654	93.06
501.871	81.06
502.088	88.06
502.305	91.06
502.522	81.06
502.739	98.06
502.956	95.06
503.172	91.06
503.389	98.06
503.606	95.06
503.823	105.06
504.04	98.06
504.256	98.06
504.473	90.06
504.69	90.06
504.907	101.06
505.123	87.06
505.34	83.06
505.557	86.06
505.773	83.06
505.99	84.06
506.207	83.06
506.423	87.06
506.64	90.06
506.856	94.06
507.073	81.06
507.289	82.06
507.506	86.06
507.722	94.06
507.939	81.06
508.155	87.06
508.372	91.06
508.588	91.06
508.805	104.06
509.021	78.06
509.238	90.06
509.454	89.06
509.67	93.06
509.887	99.06
510.103	85.06
510.319	86.06
510.536	96.06
510.752	91.06
510.968	81.06
511.184	95.06
511.401	103.06
511.617	95.06
511.833	89.06
512.049	101.06
512.265	90.06
512.481	97.06
512.698	86.06
512.914	107.06
513.13	93.06
513.346	79.06
513.562	86.06
513.778	103.06
513.994	102.06
514.21	98.06
514.426	103.06
514.642	91.06
514.858	91.06
515.074	102.06
515.29	85.06
515.506	92.06
515.721	101.06
515.937	82.06
516.153	107.06
516.369	94.06
516.585	87.06
516.801	83.06
517.016	91.06
517.232	86.06
517.448	94.06
517.664	105.06
517.879	88.06
518.095	84.06
518.311	83.06
518.527	96.06
518.742	99.06
518.958	85.06
