Data from BG_HRD10591_080.txt Node
Date: Fri May 16 15:21:33 EDT 2025
User: Yrep
Spectrometer: HR+D1059
Trigger mode: 1
Integration Time (sec): 1.000000E-1
Scans to average: 1
Electric dark correction enabled: true
Nonlinearity correction enabled: false
Boxcar width: 0
XAxis mode: Wavelengths
Number of Pixels in Spectrum: 2048
>>>>>Begin Spectral Data<<<<<
223.165	-16.31
223.4	-16.31
223.635	-16.31
223.869	-20.31
224.104	-20.31
224.338	-10.31
224.573	-18.31
224.808	-17.31
225.042	-9.31
225.277	-6.31
225.511	2.69
225.746	-10.31
225.98	3.69
226.215	7.69
226.449	27.69
226.683	20.69
226.918	33.69
227.152	32.69
227.387	41.69
227.621	42.69
227.856	47.69
228.09	46.69
228.324	63.69
228.559	60.69
228.793	53.69
229.027	59.69
229.262	59.69
229.496	73.69
229.73	67.69
229.964	78.69
230.199	76.69
230.433	91.69
230.667	70.69
230.901	85.69
231.136	68.69
231.37	73.69
231.604	76.69
231.838	71.69
232.072	81.69
232.306	76.69
232.541	71.69
232.775	93.69
233.009	84.69
233.243	69.69
233.477	83.69
233.711	89.69
233.945	89.69
234.179	71.69
234.413	80.69
234.647	88.69
234.881	77.69
235.115	87.69
235.349	79.69
235.583	77.69
235.817	73.69
236.051	85.69
236.285	81.69
236.519	79.69
236.753	78.69
236.987	75.69
237.221	90.69
237.455	69.69
237.689	95.69
237.922	77.69
238.156	81.69
238.39	75.69
238.624	75.69
238.858	56.69
239.091	90.69
239.325	85.69
239.559	78.69
239.793	73.69
240.027	88.69
240.26	86.69
240.494	75.69
240.728	82.69
240.961	86.69
241.195	86.69
241.429	91.69
241.662	82.69
241.896	74.69
242.13	74.69
242.363	65.69
242.597	71.69
242.83	87.69
243.064	89.69
243.298	74.69
243.531	63.69
243.765	80.69
243.998	89.69
244.232	73.69
244.465	60.69
244.699	82.69
244.932	86.69
245.166	98.69
245.399	78.69
245.633	75.69
245.866	72.69
246.099	82.69
246.333	87.69
246.566	82.69
246.8	85.69
247.033	81.69
247.266	73.69
247.5	97.69
247.733	91.69
247.966	93.69
248.2	79.69
248.433	80.69
248.666	72.69
248.899	72.69
249.133	80.69
249.366	71.69
249.599	67.69
249.832	90.69
250.066	74.69
250.299	81.69
250.532	68.69
250.765	81.69
250.998	71.69
251.231	75.69
251.465	68.69
251.698	73.69
251.931	72.69
252.164	87.69
252.397	73.69
252.63	86.69
252.863	82.69
253.096	85.69
253.329	79.69
253.562	85.69
253.795	75.69
254.028	101.69
254.261	83.69
254.494	79.69
254.727	86.69
254.96	98.69
255.193	70.69
255.426	74.69
255.659	85.69
255.892	60.69
256.124	62.69
256.357	77.69
256.59	87.69
256.823	83.69
257.056	86.69
257.289	76.69
257.521	90.69
257.754	93.69
257.987	75.69
258.22	96.69
258.452	87.69
258.685	73.69
258.918	79.69
259.151	85.69
259.383	82.69
259.616	81.69
259.849	74.69
260.081	87.69
260.314	80.69
260.547	80.69
260.779	79.69
261.012	84.69
261.244	73.69
261.477	72.69
261.71	77.69
261.942	86.69
262.175	73.69
262.407	73.69
262.64	81.69
262.872	77.69
263.105	85.69
263.337	82.69
263.57	77.69
263.802	68.69
264.035	91.69
264.267	73.69
264.499	83.69
264.732	70.69
264.964	91.69
265.197	91.69
265.429	81.69
265.661	67.69
265.894	81.69
266.126	94.69
266.358	76.69
266.591	77.69
266.823	85.69
267.055	83.69
267.287	78.69
267.52	89.69
267.752	83.69
267.984	95.69
268.216	98.69
268.448	73.69
268.681	82.69
268.913	78.69
269.145	76.69
269.377	78.69
269.609	85.69
269.841	91.69
270.073	87.69
270.306	77.69
270.538	85.69
270.77	77.69
271.002	83.69
271.234	85.69
271.466	77.69
271.698	87.69
271.93	78.69
272.162	79.69
272.394	85.69
272.626	73.69
272.858	75.69
273.09	90.69
273.322	81.69
273.553	81.69
273.785	88.69
274.017	68.69
274.249	86.69
274.481	81.69
274.713	93.69
274.945	89.69
275.176	71.69
275.408	85.69
275.64	89.69
275.872	73.69
276.104	93.69
276.335	80.69
276.567	85.69
276.799	78.69
277.031	74.69
277.262	75.69
277.494	90.69
277.726	92.69
277.957	86.69
278.189	89.69
278.421	93.69
278.652	76.69
278.884	78.69
279.115	80.69
279.347	82.69
279.579	83.69
279.81	90.69
280.042	85.69
280.273	79.69
280.505	81.69
280.736	86.69
280.968	68.69
281.199	88.69
281.431	82.69
281.662	81.69
281.894	83.69
282.125	79.69
282.356	71.69
282.588	81.69
282.819	86.69
283.051	94.69
283.282	79.69
283.513	82.69
283.745	74.69
283.976	79.69
284.207	82.69
284.439	85.69
284.67	85.69
284.901	90.69
285.132	90.69
285.364	87.69
285.595	79.69
285.826	78.69
286.057	98.69
286.288	76.69
286.52	83.69
286.751	80.69
286.982	87.69
287.213	80.69
287.444	97.69
287.675	92.69
287.906	63.69
288.138	79.69
288.369	101.69
288.6	84.69
288.831	83.69
289.062	75.69
289.293	90.69
289.524	86.69
289.755	76.69
289.986	81.69
290.217	93.69
290.448	87.69
290.679	86.69
290.91	85.69
291.141	73.69
291.371	84.69
291.602	81.69
291.833	67.69
292.064	74.69
292.295	82.69
292.526	90.69
292.757	82.69
292.987	77.69
293.218	87.69
293.449	83.69
293.68	91.69
293.91	103.69
294.141	85.69
294.372	90.69
294.603	88.69
294.833	85.69
295.064	82.69
295.295	88.69
295.525	85.69
295.756	79.69
295.987	86.69
296.217	97.69
296.448	99.69
296.679	85.69
296.909	90.69
297.14	92.69
297.37	86.69
297.601	93.69
297.831	82.69
298.062	75.69
298.292	87.69
298.523	83.69
298.753	87.69
298.984	91.69
299.214	78.69
299.445	72.69
299.675	91.69
299.905	82.69
300.136	81.69
300.366	79.69
300.597	77.69
300.827	80.69
301.057	86.69
301.288	103.69
301.518	95.69
301.748	84.69
301.979	93.69
302.209	83.69
302.439	88.69
302.669	87.69
302.9	103.69
303.13	77.69
303.36	80.69
303.59	83.69
303.82	86.69
304.051	86.69
304.281	96.69
304.511	73.69
304.741	81.69
304.971	78.69
305.201	85.69
305.431	94.69
305.661	82.69
305.891	85.69
306.121	73.69
306.352	97.69
306.582	79.69
306.812	78.69
307.042	95.69
307.272	96.69
307.502	78.69
307.731	89.69
307.961	79.69
308.191	78.69
308.421	105.69
308.651	80.69
308.881	85.69
309.111	88.69
309.341	81.69
309.571	79.69
309.8	96.69
310.03	83.69
310.26	81.69
310.49	95.69
310.72	80.69
310.949	90.69
311.179	86.69
311.409	90.69
311.639	71.69
311.868	80.69
312.098	77.69
312.328	85.69
312.557	83.69
312.787	83.69
313.017	89.69
313.246	87.69
313.476	78.69
313.706	72.69
313.935	79.69
314.165	85.69
314.394	61.69
314.624	86.69
314.853	101.69
315.083	85.69
315.312	79.69
315.542	76.69
315.771	53.69
316.001	81.69
316.23	87.69
316.46	87.69
316.689	97.69
316.919	87.69
317.148	82.69
317.377	92.69
317.607	98.69
317.836	102.69
318.065	94.69
318.295	84.69
318.524	90.69
318.753	89.69
318.983	77.69
319.212	92.69
319.441	84.69
319.67	78.69
319.9	68.69
320.129	87.69
320.358	82.69
320.587	94.69
320.816	73.69
321.046	79.69
321.275	88.69
321.504	78.69
321.733	87.69
321.962	85.69
322.191	93.69
322.42	75.69
322.649	81.69
322.878	90.69
323.108	94.69
323.337	76.69
323.566	82.69
323.795	75.69
324.024	75.69
324.253	89.69
324.482	78.69
324.71	89.69
324.939	98.69
325.168	94.69
325.397	80.69
325.626	97.69
325.855	93.69
326.084	68.69
326.313	93.69
326.542	77.69
326.77	87.69
326.999	95.69
327.228	88.69
327.457	81.69
327.686	87.69
327.914	89.69
328.143	78.69
328.372	89.69
328.6	93.69
328.829	88.69
329.058	82.69
329.287	83.69
329.515	59.69
329.744	90.69
329.972	85.69
330.201	71.69
330.43	86.69
330.658	81.69
330.887	90.69
331.115	85.69
331.344	87.69
331.572	92.69
331.801	86.69
332.03	83.69
332.258	69.69
332.486	80.69
332.715	75.69
332.943	81.69
333.172	87.69
333.4	96.69
333.629	82.69
333.857	86.69
334.085	76.69
334.314	83.69
334.542	78.69
334.771	83.69
334.999	95.69
335.227	87.69
335.455	85.69
335.684	90.69
335.912	96.69
336.14	93.69
336.369	102.69
336.597	89.69
336.825	84.69
337.053	84.69
337.281	91.69
337.51	87.69
337.738	85.69
337.966	82.69
338.194	79.69
338.422	78.69
338.65	89.69
338.878	90.69
339.106	94.69
339.334	70.69
339.562	88.69
339.79	89.69
340.018	81.69
340.246	75.69
340.474	75.69
340.702	73.69
340.93	85.69
341.158	82.69
341.386	93.69
341.614	81.69
341.842	77.69
342.07	82.69
342.298	89.69
342.526	71.69
342.754	78.69
342.981	69.69
343.209	92.69
343.437	102.69
343.665	85.69
343.893	73.69
344.12	81.69
344.348	90.69
344.576	85.69
344.804	74.69
345.031	80.69
345.259	75.69
345.487	83.69
345.714	82.69
345.942	76.69
346.17	94.69
346.397	88.69
346.625	89.69
346.853	81.69
347.08	83.69
347.308	79.69
347.535	91.69
347.763	87.69
347.99	88.69
348.218	91.69
348.445	82.69
348.673	87.69
348.9	93.69
349.128	84.69
349.355	78.69
349.583	80.69
349.81	90.69
350.037	79.69
350.265	85.69
350.492	80.69
350.72	83.69
350.947	86.69
351.174	93.69
351.402	98.69
351.629	89.69
351.856	102.69
352.083	88.69
352.311	74.69
352.538	92.69
352.765	85.69
352.992	87.69
353.22	89.69
353.447	92.69
353.674	95.69
353.901	98.69
354.128	91.69
354.355	83.69
354.583	91.69
354.81	85.69
355.037	93.69
355.264	69.69
355.491	89.69
355.718	84.69
355.945	96.69
356.172	81.69
356.399	96.69
356.626	80.69
356.853	79.69
357.08	91.69
357.307	90.69
357.534	83.69
357.761	80.69
357.988	95.69
358.215	83.69
358.441	90.69
358.668	73.69
358.895	77.69
359.122	89.69
359.349	81.69
359.576	83.69
359.802	80.69
360.029	92.69
360.256	77.69
360.483	85.69
360.709	88.69
360.936	85.69
361.163	90.69
361.39	79.69
361.616	85.69
361.843	84.69
362.07	86.69
362.296	81.69
362.523	84.69
362.749	91.69
362.976	78.69
363.203	83.69
363.429	85.69
363.656	87.69
363.882	75.69
364.109	92.69
364.335	86.69
364.562	94.69
364.788	77.69
365.015	81.69
365.241	77.69
365.468	99.69
365.694	82.69
365.92	92.69
366.147	93.69
366.373	78.69
366.599	72.69
366.826	85.69
367.052	83.69
367.278	79.69
367.505	89.69
367.731	91.69
367.957	89.69
368.184	90.69
368.41	81.69
368.636	88.69
368.862	92.69
369.089	78.69
369.315	79.69
369.541	77.69
369.767	78.69
369.993	85.69
370.219	88.69
370.445	81.69
370.672	65.69
370.898	72.69
371.124	73.69
371.35	80.69
371.576	71.69
371.802	85.69
372.028	90.69
372.254	92.69
372.48	93.69
372.706	82.69
372.932	80.69
373.158	72.69
373.384	88.69
373.61	79.69
373.835	94.69
374.061	81.69
374.287	96.69
374.513	83.69
374.739	92.69
374.965	81.69
375.191	78.69
375.416	92.69
375.642	77.69
375.868	80.69
376.094	77.69
376.319	89.69
376.545	77.69
376.771	83.69
376.997	86.69
377.222	83.69
377.448	88.69
377.674	74.69
377.899	90.69
378.125	89.69
378.35	93.69
378.576	79.69
378.802	85.69
379.027	89.69
379.253	91.69
379.478	90.69
379.704	93.69
379.929	84.69
380.155	78.69
380.38	81.69
380.606	98.69
380.831	77.69
381.057	87.69
381.282	82.69
381.507	91.69
381.733	69.69
381.958	78.69
382.184	83.69
382.409	73.69
382.634	85.69
382.86	81.69
383.085	84.69
383.31	83.69
383.535	85.69
383.761	73.69
383.986	93.69
384.211	81.69
384.436	89.69
384.662	81.69
384.887	67.69
385.112	76.69
385.337	82.69
385.562	91.69
385.787	87.69
386.013	86.69
386.238	86.69
386.463	82.69
386.688	83.69
386.913	88.69
387.138	71.69
387.363	97.69
387.588	99.69
387.813	84.69
388.038	66.69
388.263	75.69
388.488	85.69
388.713	78.69
388.938	90.69
389.163	87.69
389.387	78.69
389.612	88.69
389.837	85.69
390.062	99.69
390.287	82.69
390.512	80.69
390.736	72.69
390.961	83.69
391.186	79.69
391.411	89.69
391.636	74.69
391.86	77.69
392.085	86.69
392.31	78.69
392.534	74.69
392.759	87.69
392.984	73.69
393.208	91.69
393.433	93.69
393.658	90.69
393.882	71.69
394.107	95.69
394.331	79.69
394.556	69.69
394.78	85.69
395.005	86.69
395.229	83.69
395.454	102.69
395.678	85.69
395.903	88.69
396.127	76.69
396.352	89.69
396.576	82.69
396.801	86.69
397.025	69.69
397.249	79.69
397.474	83.69
397.698	85.69
397.922	83.69
398.147	79.69
398.371	81.69
398.595	77.69
398.82	85.69
399.044	93.69
399.268	86.69
399.492	72.69
399.717	72.69
399.941	105.69
400.165	63.69
400.389	77.69
400.613	87.69
400.837	91.69
401.062	76.69
401.286	89.69
401.51	91.69
401.734	75.69
401.958	88.69
402.182	91.69
402.406	89.69
402.63	76.69
402.854	77.69
403.078	73.69
403.302	76.69
403.526	95.69
403.75	86.69
403.974	72.69
404.198	95.69
404.422	80.69
404.645	69.69
404.869	70.69
405.093	75.69
405.317	69.69
405.541	87.69
405.765	83.69
405.988	70.69
406.212	94.69
406.436	81.69
406.66	80.69
406.883	85.69
407.107	79.69
407.331	69.69
407.555	79.69
407.778	82.69
408.002	79.69
408.226	79.69
408.449	82.69
408.673	73.69
408.896	93.69
409.12	83.69
409.344	92.69
409.567	88.69
409.791	82.69
410.014	79.69
410.238	83.69
410.461	84.69
410.685	94.69
410.908	90.69
411.132	93.69
411.355	75.69
411.578	90.69
411.802	82.69
412.025	64.69
412.249	86.69
412.472	85.69
412.695	82.69
412.919	89.69
413.142	80.69
413.365	81.69
413.589	80.69
413.812	80.69
414.035	66.69
414.258	75.69
414.482	78.69
414.705	87.69
414.928	76.69
415.151	80.69
415.374	77.69
415.597	83.69
415.821	77.69
416.044	94.69
416.267	65.69
416.49	82.69
416.713	71.69
416.936	69.69
417.159	77.69
417.382	77.69
417.605	83.69
417.828	85.69
418.051	89.69
418.274	95.69
418.497	76.69
418.72	70.69
418.943	82.69
419.166	91.69
419.389	79.69
419.611	90.69
419.834	66.69
420.057	89.69
420.28	95.69
420.503	71.69
420.726	81.69
420.948	61.69
421.171	84.69
421.394	80.69
421.617	78.69
421.839	77.69
422.062	85.69
422.285	72.69
422.507	75.69
422.73	74.69
422.953	77.69
423.175	75.69
423.398	87.69
423.621	81.69
423.843	77.69
424.066	81.69
424.288	79.69
424.511	75.69
424.733	85.69
424.956	84.69
425.178	74.69
425.401	84.69
425.623	89.69
425.846	90.69
426.068	82.69
426.291	74.69
426.513	70.69
426.735	83.69
426.958	91.69
427.18	74.69
427.402	94.69
427.625	70.69
427.847	89.69
428.069	79.69
428.292	92.69
428.514	95.69
428.736	77.69
428.958	73.69
429.181	81.69
429.403	84.69
429.625	84.69
429.847	87.69
430.069	79.69
430.292	78.69
430.514	83.69
430.736	93.69
430.958	98.69
431.18	88.69
431.402	91.69
431.624	90.69
431.846	95.69
432.068	89.69
432.29	73.69
432.512	101.69
432.734	83.69
432.956	91.69
433.178	86.69
433.4	75.69
433.622	97.69
433.844	92.69
434.066	83.69
434.287	77.69
434.509	68.69
434.731	78.69
434.953	79.69
435.175	85.69
435.397	81.69
435.618	78.69
435.84	82.69
436.062	87.69
436.284	87.69
436.505	87.69
436.727	93.69
436.949	82.69
437.17	86.69
437.392	83.69
437.614	82.69
437.835	83.69
438.057	64.69
438.278	102.69
438.5	75.69
438.721	89.69
438.943	74.69
439.165	80.69
439.386	83.69
439.608	81.69
439.829	83.69
440.05	83.69
440.272	93.69
440.493	79.69
440.715	74.69
440.936	81.69
441.158	83.69
441.379	89.69
441.6	85.69
441.822	83.69
442.043	85.69
442.264	86.69
442.486	85.69
442.707	75.69
442.928	82.69
443.149	86.69
443.371	87.69
443.592	95.69
443.813	90.69
444.034	71.69
444.255	73.69
444.476	87.69
444.698	94.69
444.919	67.69
445.14	162.69
445.361	119.69
445.582	106.69
445.803	94.69
446.024	75.69
446.245	83.69
446.466	77.69
446.687	73.69
446.908	96.69
447.129	93.69
447.35	77.69
447.571	78.69
447.792	67.69
448.013	68.69
448.234	72.69
448.455	75.69
448.675	79.69
448.896	86.69
449.117	93.69
449.338	95.69
449.559	82.69
449.779	103.69
450	95.69
450.221	79.69
450.442	64.69
450.662	80.69
450.883	83.69
451.104	61.69
451.324	94.69
451.545	91.69
451.766	90.69
451.986	85.69
452.207	77.69
452.428	72.69
452.648	87.69
452.869	77.69
453.089	83.69
453.31	92.69
453.53	89.69
453.751	69.69
453.971	96.69
454.192	81.69
454.412	82.69
454.633	84.69
454.853	81.69
455.073	74.69
455.294	78.69
455.514	76.69
455.734	91.69
455.955	94.69
456.175	91.69
456.395	85.69
456.616	84.69
456.836	87.69
457.056	85.69
457.276	82.69
457.497	76.69
457.717	101.69
457.937	93.69
458.157	65.69
458.377	87.69
458.598	89.69
458.818	84.69
459.038	89.69
459.258	90.69
459.478	78.69
459.698	70.69
459.918	92.69
460.138	80.69
460.358	83.69
460.578	90.69
460.798	69.69
461.018	70.69
461.238	91.69
461.458	78.69
461.678	78.69
461.898	89.69
462.118	75.69
462.338	79.69
462.558	79.69
462.777	86.69
462.997	84.69
463.217	93.69
463.437	89.69
463.657	90.69
463.876	94.69
464.096	89.69
464.316	89.69
464.536	82.69
464.755	83.69
464.975	86.69
465.195	86.69
465.414	77.69
465.634	78.69
465.854	79.69
466.073	76.69
466.293	77.69
466.512	93.69
466.732	79.69
466.951	89.69
467.171	107.69
467.391	78.69
467.61	72.69
467.829	77.69
468.049	85.69
468.268	71.69
468.488	65.69
468.707	90.69
468.927	91.69
469.146	80.69
469.365	78.69
469.585	91.69
469.804	85.69
470.023	74.69
470.243	90.69
470.462	86.69
470.681	92.69
470.901	85.69
471.12	78.69
471.339	85.69
471.558	74.69
471.777	77.69
471.997	79.69
472.216	81.69
472.435	83.69
472.654	77.69
472.873	90.69
473.092	93.69
473.311	85.69
473.53	78.69
473.749	81.69
473.968	82.69
474.187	88.69
474.406	82.69
474.625	78.69
474.844	89.69
475.063	87.69
475.282	86.69
475.501	83.69
475.72	92.69
475.939	76.69
476.158	85.69
476.377	94.69
476.596	68.69
476.814	96.69
477.033	93.69
477.252	96.69
477.471	82.69
477.69	87.69
477.908	89.69
478.127	89.69
478.346	94.69
478.564	85.69
478.783	88.69
479.002	73.69
479.22	95.69
479.439	94.69
479.658	88.69
479.876	85.69
480.095	78.69
480.313	85.69
480.532	74.69
480.751	91.69
480.969	77.69
481.188	84.69
481.406	76.69
481.624	81.69
481.843	85.69
482.061	78.69
482.28	99.69
482.498	79.69
482.717	85.69
482.935	67.69
483.153	102.69
483.372	79.69
483.59	89.69
483.808	81.69
484.027	82.69
484.245	92.69
484.463	89.69
484.681	89.69
484.9	92.69
485.118	90.69
485.336	95.69
485.554	91.69
485.772	89.69
485.99	85.69
486.209	83.69
486.427	77.69
486.645	89.69
486.863	93.69
487.081	79.69
487.299	92.69
487.517	89.69
487.735	74.69
487.953	78.69
488.171	73.69
488.389	81.69
488.607	81.69
488.825	76.69
489.043	85.69
489.261	95.69
489.479	89.69
489.696	93.69
489.914	78.69
490.132	69.69
490.35	90.69
490.568	78.69
490.786	95.69
491.003	91.69
491.221	83.69
491.439	87.69
491.657	77.69
491.874	76.69
492.092	72.69
492.31	93.69
492.527	87.69
492.745	81.69
492.963	87.69
493.18	79.69
493.398	82.69
493.615	64.69
493.833	96.69
494.05	82.69
494.268	89.69
494.485	91.69
494.703	86.69
494.92	80.69
495.138	77.69
495.355	91.69
495.573	85.69
495.79	89.69
496.008	98.69
496.225	78.69
496.442	73.69
496.66	87.69
496.877	94.69
497.094	79.69
497.312	87.69
497.529	76.69
497.746	86.69
497.963	82.69
498.181	82.69
498.398	90.69
498.615	81.69
498.832	84.69
499.049	81.69
499.267	70.69
499.484	82.69
499.701	88.69
499.918	71.69
500.135	79.69
500.352	78.69
500.569	86.69
500.786	79.69
501.003	99.69
501.22	98.69
501.437	74.69
501.654	78.69
501.871	75.69
502.088	71.69
502.305	83.69
502.522	76.69
502.739	88.69
502.956	90.69
503.172	90.69
503.389	77.69
503.606	89.69
503.823	77.69
504.04	100.69
504.256	79.69
504.473	85.69
504.69	88.69
504.907	87.69
505.123	74.69
505.34	84.69
505.557	96.69
505.773	76.69
505.99	96.69
506.207	88.69
506.423	79.69
506.64	72.69
506.856	73.69
507.073	73.69
507.289	75.69
507.506	92.69
507.722	79.69
507.939	77.69
508.155	105.69
508.372	78.69
508.588	101.69
508.805	79.69
509.021	94.69
509.238	90.69
509.454	92.69
509.67	82.69
509.887	87.69
510.103	89.69
510.319	84.69
510.536	80.69
510.752	72.69
510.968	83.69
511.184	87.69
511.401	79.69
511.617	80.69
511.833	79.69
512.049	85.69
512.265	90.69
512.481	89.69
512.698	84.69
512.914	89.69
513.13	77.69
513.346	74.69
513.562	74.69
513.778	90.69
513.994	87.69
514.21	87.69
514.426	88.69
514.642	79.69
514.858	93.69
515.074	73.69
515.29	81.69
515.506	90.69
515.721	77.69
515.937	79.69
516.153	61.69
516.369	89.69
516.585	82.69
516.801	81.69
517.016	85.69
517.232	87.69
517.448	84.69
517.664	83.69
517.879	73.69
518.095	89.69
518.311	81.69
518.527	86.69
518.742	74.69
518.958	78.69
519.173	92.69
519.389	103.69
519.605	86.69
519.82	85.69
520.036	77.69
