Data from BG_HRD10591_045.txt Node
Date: Fri May 16 15:21:16 EDT 2025
User: Yrep
Spectrometer: HR+D1059
Trigger mode: 1
Integration Time (sec): 1.000000E-1
Scans to average: 1
Electric dark correction enabled: true
Nonlinearity correction enabled: false
Boxcar width: 0
XAxis mode: Wavelengths
Number of Pixels in Spectrum: 2048
>>>>>Begin Spectral Data<<<<<
223.165	-16.75
223.4	-16.75
223.635	-16.75
223.869	-2.75
224.104	-29.75
224.338	-12.75
224.573	-14.75
224.808	-22.75
225.042	3.25
225.277	-4.75
225.511	1.25
225.746	-0.75
225.98	7.25
226.215	6.25
226.449	17.25
226.683	18.25
226.918	22.25
227.152	29.25
227.387	41.25
227.621	48.25
227.856	42.25
228.09	46.25
228.324	45.25
228.559	57.25
228.793	50.25
229.027	67.25
229.262	78.25
229.496	64.25
229.73	76.25
229.964	65.25
230.199	80.25
230.433	83.25
230.667	81.25
230.901	80.25
231.136	84.25
231.37	77.25
231.604	80.25
231.838	85.25
232.072	79.25
232.306	81.25
232.541	66.25
232.775	68.25
233.009	71.25
233.243	77.25
233.477	80.25
233.711	89.25
233.945	87.25
234.179	89.25
234.413	80.25
234.647	70.25
234.881	87.25
235.115	88.25
235.349	99.25
235.583	78.25
235.817	71.25
236.051	65.25
236.285	81.25
236.519	74.25
236.753	80.25
236.987	87.25
237.221	83.25
237.455	67.25
237.689	58.25
237.922	80.25
238.156	66.25
238.39	85.25
238.624	85.25
238.858	85.25
239.091	80.25
239.325	74.25
239.559	73.25
239.793	69.25
240.027	83.25
240.26	93.25
240.494	82.25
240.728	76.25
240.961	88.25
241.195	91.25
241.429	98.25
241.662	65.25
241.896	81.25
242.13	64.25
242.363	82.25
242.597	62.25
242.83	81.25
243.064	90.25
243.298	82.25
243.531	77.25
243.765	85.25
243.998	84.25
244.232	76.25
244.465	73.25
244.699	85.25
244.932	80.25
245.166	78.25
245.399	78.25
245.633	85.25
245.866	82.25
246.099	73.25
246.333	76.25
246.566	83.25
246.8	77.25
247.033	65.25
247.266	78.25
247.5	86.25
247.733	72.25
247.966	91.25
248.2	69.25
248.433	69.25
248.666	71.25
248.899	72.25
249.133	61.25
249.366	66.25
249.599	83.25
249.832	82.25
250.066	79.25
250.299	98.25
250.532	86.25
250.765	82.25
250.998	89.25
251.231	89.25
251.465	88.25
251.698	82.25
251.931	77.25
252.164	90.25
252.397	88.25
252.63	78.25
252.863	86.25
253.096	79.25
253.329	86.25
253.562	79.25
253.795	91.25
254.028	78.25
254.261	85.25
254.494	79.25
254.727	69.25
254.96	61.25
255.193	59.25
255.426	80.25
255.659	82.25
255.892	88.25
256.124	89.25
256.357	62.25
256.59	74.25
256.823	83.25
257.056	83.25
257.289	97.25
257.521	76.25
257.754	94.25
257.987	88.25
258.22	85.25
258.452	85.25
258.685	75.25
258.918	86.25
259.151	88.25
259.383	76.25
259.616	84.25
259.849	73.25
260.081	86.25
260.314	75.25
260.547	80.25
260.779	78.25
261.012	81.25
261.244	85.25
261.477	75.25
261.71	90.25
261.942	85.25
262.175	67.25
262.407	74.25
262.64	77.25
262.872	74.25
263.105	73.25
263.337	96.25
263.57	76.25
263.802	81.25
264.035	79.25
264.267	82.25
264.499	68.25
264.732	80.25
264.964	81.25
265.197	74.25
265.429	75.25
265.661	91.25
265.894	81.25
266.126	81.25
266.358	86.25
266.591	74.25
266.823	88.25
267.055	82.25
267.287	94.25
267.52	89.25
267.752	71.25
267.984	82.25
268.216	93.25
268.448	81.25
268.681	89.25
268.913	87.25
269.145	89.25
269.377	72.25
269.609	82.25
269.841	86.25
270.073	75.25
270.306	75.25
270.538	82.25
270.77	78.25
271.002	65.25
271.234	88.25
271.466	79.25
271.698	103.25
271.93	87.25
272.162	96.25
272.394	93.25
272.626	87.25
272.858	75.25
273.09	61.25
273.322	84.25
273.553	82.25
273.785	90.25
274.017	89.25
274.249	94.25
274.481	85.25
274.713	83.25
274.945	86.25
275.176	82.25
275.408	81.25
275.64	74.25
275.872	89.25
276.104	91.25
276.335	77.25
276.567	75.25
276.799	68.25
277.031	85.25
277.262	98.25
277.494	103.25
277.726	97.25
277.957	81.25
278.189	84.25
278.421	77.25
278.652	76.25
278.884	85.25
279.115	97.25
279.347	83.25
279.579	90.25
279.81	67.25
280.042	80.25
280.273	78.25
280.505	93.25
280.736	85.25
280.968	84.25
281.199	98.25
281.431	95.25
281.662	91.25
281.894	82.25
282.125	95.25
282.356	86.25
282.588	69.25
282.819	85.25
283.051	87.25
283.282	85.25
283.513	89.25
283.745	94.25
283.976	70.25
284.207	89.25
284.439	86.25
284.67	72.25
284.901	89.25
285.132	98.25
285.364	89.25
285.595	89.25
285.826	86.25
286.057	94.25
286.288	81.25
286.52	102.25
286.751	86.25
286.982	94.25
287.213	88.25
287.444	87.25
287.675	73.25
287.906	87.25
288.138	87.25
288.369	83.25
288.6	107.25
288.831	103.25
289.062	84.25
289.293	89.25
289.524	105.25
289.755	87.25
289.986	79.25
290.217	75.25
290.448	88.25
290.679	80.25
290.91	86.25
291.141	85.25
291.371	80.25
291.602	88.25
291.833	81.25
292.064	89.25
292.295	73.25
292.526	99.25
292.757	99.25
292.987	74.25
293.218	70.25
293.449	80.25
293.68	92.25
293.91	86.25
294.141	94.25
294.372	85.25
294.603	85.25
294.833	92.25
295.064	98.25
295.295	103.25
295.525	77.25
295.756	91.25
295.987	68.25
296.217	88.25
296.448	70.25
296.679	78.25
296.909	89.25
297.14	89.25
297.37	91.25
297.601	95.25
297.831	97.25
298.062	80.25
298.292	93.25
298.523	99.25
298.753	72.25
298.984	91.25
299.214	99.25
299.445	87.25
299.675	92.25
299.905	86.25
300.136	88.25
300.366	102.25
300.597	89.25
300.827	77.25
301.057	81.25
301.288	91.25
301.518	92.25
301.748	77.25
301.979	112.25
302.209	74.25
302.439	75.25
302.669	81.25
302.9	96.25
303.13	79.25
303.36	89.25
303.59	84.25
303.82	82.25
304.051	77.25
304.281	90.25
304.511	81.25
304.741	82.25
304.971	75.25
305.201	80.25
305.431	101.25
305.661	92.25
305.891	105.25
306.121	88.25
306.352	81.25
306.582	77.25
306.812	89.25
307.042	85.25
307.272	88.25
307.502	83.25
307.731	96.25
307.961	89.25
308.191	80.25
308.421	111.25
308.651	91.25
308.881	98.25
309.111	72.25
309.341	71.25
309.571	98.25
309.8	82.25
310.03	88.25
310.26	88.25
310.49	87.25
310.72	89.25
310.949	103.25
311.179	86.25
311.409	92.25
311.639	90.25
311.868	103.25
312.098	82.25
312.328	99.25
312.557	95.25
312.787	85.25
313.017	88.25
313.246	70.25
313.476	85.25
313.706	88.25
313.935	73.25
314.165	82.25
314.394	92.25
314.624	83.25
314.853	77.25
315.083	98.25
315.312	94.25
315.542	85.25
315.771	86.25
316.001	85.25
316.23	79.25
316.46	73.25
316.689	82.25
316.919	99.25
317.148	96.25
317.377	95.25
317.607	96.25
317.836	90.25
318.065	88.25
318.295	94.25
318.524	87.25
318.753	89.25
318.983	88.25
319.212	92.25
319.441	92.25
319.67	84.25
319.9	70.25
320.129	85.25
320.358	81.25
320.587	86.25
320.816	72.25
321.046	91.25
321.275	94.25
321.504	80.25
321.733	100.25
321.962	82.25
322.191	91.25
322.42	79.25
322.649	83.25
322.878	82.25
323.108	92.25
323.337	91.25
323.566	94.25
323.795	74.25
324.024	80.25
324.253	81.25
324.482	90.25
324.71	81.25
324.939	85.25
325.168	91.25
325.397	94.25
325.626	86.25
325.855	85.25
326.084	90.25
326.313	74.25
326.542	73.25
326.77	90.25
326.999	86.25
327.228	94.25
327.457	95.25
327.686	97.25
327.914	81.25
328.143	81.25
328.372	89.25
328.6	96.25
328.829	84.25
329.058	94.25
329.287	80.25
329.515	97.25
329.744	104.25
329.972	90.25
330.201	93.25
330.43	88.25
330.658	75.25
330.887	90.25
331.115	88.25
331.344	94.25
331.572	88.25
331.801	93.25
332.03	73.25
332.258	80.25
332.486	82.25
332.715	73.25
332.943	87.25
333.172	93.25
333.4	94.25
333.629	80.25
333.857	82.25
334.085	73.25
334.314	88.25
334.542	91.25
334.771	81.25
334.999	79.25
335.227	88.25
335.455	92.25
335.684	94.25
335.912	86.25
336.14	82.25
336.369	88.25
336.597	98.25
336.825	82.25
337.053	87.25
337.281	88.25
337.51	79.25
337.738	96.25
337.966	81.25
338.194	78.25
338.422	79.25
338.65	83.25
338.878	75.25
339.106	96.25
339.334	94.25
339.562	90.25
339.79	83.25
340.018	90.25
340.246	77.25
340.474	80.25
340.702	102.25
340.93	93.25
341.158	81.25
341.386	77.25
341.614	98.25
341.842	72.25
342.07	87.25
342.298	91.25
342.526	86.25
342.754	73.25
342.981	74.25
343.209	81.25
343.437	88.25
343.665	82.25
343.893	91.25
344.12	85.25
344.348	83.25
344.576	97.25
344.804	93.25
345.031	89.25
345.259	88.25
345.487	80.25
345.714	82.25
345.942	83.25
346.17	93.25
346.397	92.25
346.625	73.25
346.853	77.25
347.08	73.25
347.308	83.25
347.535	93.25
347.763	97.25
347.99	80.25
348.218	88.25
348.445	89.25
348.673	84.25
348.9	102.25
349.128	87.25
349.355	78.25
349.583	82.25
349.81	93.25
350.037	94.25
350.265	91.25
350.492	84.25
350.72	81.25
350.947	82.25
351.174	87.25
351.402	94.25
351.629	79.25
351.856	83.25
352.083	85.25
352.311	81.25
352.538	79.25
352.765	89.25
352.992	77.25
353.22	77.25
353.447	79.25
353.674	82.25
353.901	82.25
354.128	94.25
354.355	83.25
354.583	97.25
354.81	70.25
355.037	87.25
355.264	90.25
355.491	89.25
355.718	87.25
355.945	83.25
356.172	95.25
356.399	82.25
356.626	81.25
356.853	83.25
357.08	77.25
357.307	81.25
357.534	93.25
357.761	94.25
357.988	80.25
358.215	103.25
358.441	76.25
358.668	77.25
358.895	75.25
359.122	86.25
359.349	89.25
359.576	83.25
359.802	97.25
360.029	89.25
360.256	88.25
360.483	95.25
360.709	82.25
360.936	86.25
361.163	76.25
361.39	92.25
361.616	80.25
361.843	89.25
362.07	91.25
362.296	87.25
362.523	82.25
362.749	81.25
362.976	101.25
363.203	93.25
363.429	100.25
363.656	88.25
363.882	95.25
364.109	80.25
364.335	82.25
364.562	82.25
364.788	77.25
365.015	85.25
365.241	83.25
365.468	82.25
365.694	87.25
365.92	92.25
366.147	86.25
366.373	88.25
366.599	95.25
366.826	73.25
367.052	75.25
367.278	88.25
367.505	87.25
367.731	85.25
367.957	79.25
368.184	65.25
368.41	88.25
368.636	99.25
368.862	104.25
369.089	77.25
369.315	79.25
369.541	87.25
369.767	85.25
369.993	91.25
370.219	95.25
370.445	75.25
370.672	91.25
370.898	75.25
371.124	83.25
371.35	91.25
371.576	89.25
371.802	82.25
372.028	79.25
372.254	96.25
372.48	87.25
372.706	79.25
372.932	81.25
373.158	81.25
373.384	79.25
373.61	91.25
373.835	83.25
374.061	79.25
374.287	75.25
374.513	87.25
374.739	93.25
374.965	81.25
375.191	82.25
375.416	76.25
375.642	83.25
375.868	88.25
376.094	94.25
376.319	83.25
376.545	75.25
376.771	89.25
376.997	88.25
377.222	74.25
377.448	80.25
377.674	77.25
377.899	83.25
378.125	80.25
378.35	87.25
378.576	80.25
378.802	84.25
379.027	93.25
379.253	81.25
379.478	91.25
379.704	90.25
379.929	82.25
380.155	85.25
380.38	83.25
380.606	97.25
380.831	74.25
381.057	83.25
381.282	83.25
381.507	89.25
381.733	83.25
381.958	72.25
382.184	77.25
382.409	81.25
382.634	87.25
382.86	83.25
383.085	90.25
383.31	84.25
383.535	94.25
383.761	73.25
383.986	77.25
384.211	85.25
384.436	98.25
384.662	85.25
384.887	96.25
385.112	81.25
385.337	80.25
385.562	80.25
385.787	84.25
386.013	84.25
386.238	84.25
386.463	77.25
386.688	93.25
386.913	87.25
387.138	86.25
387.363	66.25
387.588	83.25
387.813	93.25
388.038	73.25
388.263	105.25
388.488	89.25
388.713	91.25
388.938	83.25
389.163	89.25
389.387	78.25
389.612	91.25
389.837	81.25
390.062	96.25
390.287	81.25
390.512	87.25
390.736	78.25
390.961	78.25
391.186	88.25
391.411	81.25
391.636	87.25
391.86	90.25
392.085	98.25
392.31	80.25
392.534	88.25
392.759	73.25
392.984	77.25
393.208	79.25
393.433	81.25
393.658	75.25
393.882	68.25
394.107	84.25
394.331	97.25
394.556	92.25
394.78	97.25
395.005	69.25
395.229	76.25
395.454	87.25
395.678	87.25
395.903	93.25
396.127	74.25
396.352	85.25
396.576	89.25
396.801	84.25
397.025	85.25
397.249	79.25
397.474	81.25
397.698	83.25
397.922	94.25
398.147	82.25
398.371	80.25
398.595	83.25
398.82	74.25
399.044	88.25
399.268	85.25
399.492	99.25
399.717	72.25
399.941	89.25
400.165	86.25
400.389	87.25
400.613	99.25
400.837	80.25
401.062	86.25
401.286	84.25
401.51	77.25
401.734	95.25
401.958	86.25
402.182	87.25
402.406	73.25
402.63	93.25
402.854	73.25
403.078	77.25
403.302	84.25
403.526	82.25
403.75	97.25
403.974	77.25
404.198	85.25
404.422	79.25
404.645	83.25
404.869	77.25
405.093	77.25
405.317	74.25
405.541	67.25
405.765	79.25
405.988	101.25
406.212	85.25
406.436	72.25
406.66	89.25
406.883	75.25
407.107	84.25
407.331	99.25
407.555	75.25
407.778	71.25
408.002	77.25
408.226	94.25
408.449	94.25
408.673	78.25
408.896	75.25
409.12	79.25
409.344	83.25
409.567	93.25
409.791	80.25
410.014	87.25
410.238	83.25
410.461	87.25
410.685	85.25
410.908	89.25
411.132	92.25
411.355	71.25
411.578	90.25
411.802	92.25
412.025	72.25
412.249	92.25
412.472	67.25
412.695	90.25
412.919	81.25
413.142	78.25
413.365	80.25
413.589	93.25
413.812	81.25
414.035	86.25
414.258	86.25
414.482	82.25
414.705	91.25
414.928	91.25
415.151	85.25
415.374	80.25
415.597	77.25
415.821	75.25
416.044	82.25
416.267	90.25
416.49	91.25
416.713	74.25
416.936	83.25
417.159	86.25
417.382	65.25
417.605	82.25
417.828	96.25
418.051	79.25
418.274	92.25
418.497	81.25
418.72	66.25
418.943	103.25
419.166	73.25
419.389	90.25
419.611	85.25
419.834	93.25
420.057	82.25
420.28	77.25
420.503	84.25
420.726	83.25
420.948	83.25
421.171	87.25
421.394	83.25
421.617	76.25
421.839	99.25
422.062	96.25
422.285	89.25
422.507	86.25
422.73	83.25
422.953	94.25
423.175	83.25
423.398	84.25
423.621	82.25
423.843	80.25
424.066	79.25
424.288	75.25
424.511	80.25
424.733	79.25
424.956	86.25
425.178	105.25
425.401	95.25
425.623	89.25
425.846	73.25
426.068	83.25
426.291	78.25
426.513	89.25
426.735	71.25
426.958	82.25
427.18	87.25
427.402	81.25
427.625	78.25
427.847	78.25
428.069	97.25
428.292	85.25
428.514	85.25
428.736	86.25
428.958	82.25
429.181	89.25
429.403	86.25
429.625	70.25
429.847	87.25
430.069	93.25
430.292	88.25
430.514	90.25
430.736	67.25
430.958	83.25
431.18	78.25
431.402	84.25
431.624	82.25
431.846	85.25
432.068	80.25
432.29	81.25
432.512	87.25
432.734	87.25
432.956	81.25
433.178	90.25
433.4	85.25
433.622	86.25
433.844	83.25
434.066	87.25
434.287	87.25
434.509	94.25
434.731	90.25
434.953	76.25
435.175	75.25
435.397	87.25
435.618	86.25
435.84	75.25
436.062	91.25
436.284	91.25
436.505	89.25
436.727	73.25
436.949	81.25
437.17	95.25
437.392	84.25
437.614	85.25
437.835	82.25
438.057	76.25
438.278	97.25
438.5	95.25
438.721	85.25
438.943	88.25
439.165	87.25
439.386	90.25
439.608	87.25
439.829	95.25
440.05	74.25
440.272	71.25
440.493	93.25
440.715	83.25
440.936	83.25
441.158	77.25
441.379	80.25
441.6	93.25
441.822	71.25
442.043	88.25
442.264	86.25
442.486	86.25
442.707	65.25
442.928	88.25
443.149	78.25
443.371	83.25
443.592	64.25
443.813	80.25
444.034	63.25
444.255	89.25
444.476	94.25
444.698	85.25
444.919	64.25
445.14	167.25
445.361	109.25
445.582	83.25
445.803	89.25
446.024	83.25
446.245	80.25
446.466	78.25
446.687	73.25
446.908	76.25
447.129	81.25
447.35	79.25
447.571	93.25
447.792	91.25
448.013	84.25
448.234	87.25
448.455	71.25
448.675	69.25
448.896	83.25
449.117	98.25
449.338	87.25
449.559	76.25
449.779	71.25
450	78.25
450.221	78.25
450.442	76.25
450.662	96.25
450.883	85.25
451.104	90.25
451.324	68.25
451.545	84.25
451.766	81.25
451.986	83.25
452.207	83.25
452.428	82.25
452.648	95.25
452.869	85.25
453.089	79.25
453.31	93.25
453.53	105.25
453.751	83.25
453.971	74.25
454.192	86.25
454.412	90.25
454.633	85.25
454.853	87.25
455.073	66.25
455.294	71.25
455.514	81.25
455.734	86.25
455.955	87.25
456.175	77.25
456.395	86.25
456.616	106.25
456.836	95.25
457.056	84.25
457.276	90.25
457.497	71.25
457.717	94.25
457.937	75.25
458.157	98.25
458.377	89.25
458.598	90.25
458.818	72.25
459.038	83.25
459.258	79.25
459.478	88.25
459.698	89.25
459.918	87.25
460.138	81.25
460.358	77.25
460.578	73.25
460.798	106.25
461.018	87.25
461.238	77.25
461.458	82.25
461.678	95.25
461.898	79.25
462.118	82.25
462.338	87.25
462.558	95.25
462.777	81.25
462.997	71.25
463.217	82.25
463.437	79.25
463.657	86.25
463.876	76.25
464.096	83.25
464.316	88.25
464.536	66.25
464.755	103.25
464.975	77.25
465.195	94.25
465.414	92.25
465.634	77.25
465.854	75.25
466.073	75.25
466.293	77.25
466.512	85.25
466.732	85.25
466.951	77.25
467.171	62.25
467.391	74.25
467.61	87.25
467.829	85.25
468.049	90.25
468.268	82.25
468.488	93.25
468.707	67.25
468.927	80.25
469.146	79.25
469.365	79.25
469.585	95.25
469.804	79.25
470.023	83.25
470.243	67.25
470.462	81.25
470.681	77.25
470.901	68.25
471.12	84.25
471.339	74.25
471.558	87.25
471.777	90.25
471.997	78.25
472.216	91.25
472.435	73.25
472.654	81.25
472.873	76.25
473.092	72.25
473.311	94.25
473.53	87.25
473.749	98.25
473.968	85.25
474.187	81.25
474.406	81.25
474.625	87.25
474.844	73.25
475.063	83.25
475.282	87.25
475.501	93.25
475.72	88.25
475.939	77.25
476.158	75.25
476.377	83.25
476.596	95.25
476.814	84.25
477.033	62.25
477.252	62.25
477.471	86.25
477.69	82.25
477.908	77.25
478.127	98.25
478.346	69.25
478.564	71.25
478.783	85.25
479.002	86.25
479.22	62.25
479.439	77.25
479.658	83.25
479.876	75.25
480.095	75.25
480.313	75.25
480.532	79.25
480.751	70.25
480.969	94.25
481.188	84.25
481.406	92.25
481.624	91.25
481.843	84.25
482.061	76.25
482.28	77.25
482.498	83.25
482.717	85.25
482.935	108.25
483.153	75.25
483.372	98.25
483.59	88.25
483.808	90.25
484.027	93.25
484.245	90.25
484.463	85.25
484.681	80.25
484.9	89.25
485.118	74.25
485.336	91.25
485.554	81.25
485.772	75.25
485.99	85.25
486.209	75.25
486.427	65.25
486.645	68.25
486.863	67.25
487.081	77.25
487.299	83.25
487.517	88.25
487.735	73.25
487.953	74.25
488.171	95.25
488.389	81.25
488.607	84.25
488.825	79.25
489.043	89.25
489.261	91.25
489.479	88.25
489.696	83.25
489.914	77.25
490.132	80.25
490.35	91.25
490.568	93.25
490.786	92.25
491.003	80.25
491.221	82.25
491.439	92.25
491.657	82.25
491.874	87.25
492.092	84.25
492.31	95.25
492.527	93.25
492.745	74.25
492.963	96.25
493.18	91.25
493.398	85.25
493.615	74.25
493.833	85.25
494.05	75.25
494.268	85.25
494.485	82.25
494.703	81.25
494.92	86.25
495.138	87.25
495.355	84.25
495.573	88.25
495.79	79.25
496.008	96.25
496.225	92.25
496.442	90.25
496.66	94.25
496.877	86.25
497.094	106.25
497.312	81.25
497.529	71.25
497.746	107.25
497.963	68.25
498.181	82.25
498.398	93.25
498.615	89.25
498.832	76.25
499.049	91.25
499.267	75.25
499.484	81.25
499.701	71.25
499.918	87.25
500.135	75.25
500.352	93.25
500.569	83.25
500.786	73.25
501.003	89.25
501.22	75.25
501.437	92.25
501.654	69.25
501.871	89.25
502.088	72.25
502.305	61.25
502.522	75.25
502.739	73.25
502.956	88.25
503.172	97.25
503.389	80.25
503.606	90.25
503.823	90.25
504.04	89.25
504.256	83.25
504.473	103.25
504.69	79.25
504.907	81.25
505.123	79.25
505.34	66.25
505.557	82.25
505.773	87.25
505.99	74.25
506.207	85.25
506.423	87.25
506.64	85.25
506.856	86.25
507.073	83.25
507.289	87.25
507.506	67.25
507.722	92.25
507.939	76.25
508.155	80.25
508.372	86.25
508.588	98.25
508.805	82.25
509.021	97.25
509.238	78.25
509.454	77.25
509.67	90.25
509.887	85.25
510.103	75.25
510.319	99.25
510.536	89.25
510.752	86.25
510.968	85.25
511.184	91.25
511.401	95.25
511.617	79.25
511.833	79.25
512.049	87.25
512.265	85.25
512.481	89.25
512.698	81.25
512.914	83.25
513.13	78.25
513.346	93.25
513.562	81.25
513.778	89.25
513.994	81.25
514.21	106.25
514.426	84.25
514.642	66.25
514.858	81.25
515.074	89.25
515.29	77.25
515.506	73.25
515.721	80.25
515.937	90.25
516.153	77.25
516.369	83.25
516.585	82.25
516.801	87.25
517.016	77.25
517.232	79.25
517.448	96.25
517.664	87.25
517.879	102.25
518.095	92.25
518.311	81.25
518.527	82.25
518.742	94.25
518.958	79.25
519.173	79.25
519.389	79.25
519.605	84.25
519.82	79.25
