Data from BG_HRD10591_005.txt Node
Date: Fri May 16 15:20:56 EDT 2025
User: Yrep
Spectrometer: HR+D1059
Trigger mode: 1
Integration Time (sec): 1.000000E-1
Scans to average: 1
Electric dark correction enabled: true
Nonlinearity correction enabled: false
Boxcar width: 0
XAxis mode: Wavelengths
Number of Pixels in Spectrum: 2048
>>>>>Begin Spectral Data<<<<<
223.165	-14.38
223.4	-14.38
223.635	-14.38
223.869	-15.38
224.104	-24.38
224.338	-18.38
224.573	-17.38
224.808	-9.38
225.042	-12.38
225.277	-7.38
225.511	-9.38
225.746	7.62
225.98	16.62
226.215	18.62
226.449	17.62
226.683	11.62
226.918	24.62
227.152	31.62
227.387	31.62
227.621	33.62
227.856	54.62
228.09	67.62
228.324	51.62
228.559	58.62
228.793	49.62
229.027	50.62
229.262	66.62
229.496	75.62
229.73	75.62
229.964	72.62
230.199	78.62
230.433	77.62
230.667	67.62
230.901	71.62
231.136	73.62
231.37	76.62
231.604	79.62
231.838	73.62
232.072	75.62
232.306	78.62
232.541	81.62
232.775	79.62
233.009	86.62
233.243	71.62
233.477	81.62
233.711	73.62
233.945	69.62
234.179	82.62
234.413	91.62
234.647	76.62
234.881	74.62
235.115	85.62
235.349	80.62
235.583	76.62
235.817	87.62
236.051	74.62
236.285	73.62
236.519	94.62
236.753	71.62
236.987	84.62
237.221	70.62
237.455	60.62
237.689	86.62
237.922	72.62
238.156	74.62
238.39	82.62
238.624	82.62
238.858	74.62
239.091	89.62
239.325	70.62
239.559	77.62
239.793	78.62
240.027	83.62
240.26	61.62
240.494	84.62
240.728	74.62
240.961	87.62
241.195	80.62
241.429	71.62
241.662	60.62
241.896	77.62
242.13	71.62
242.363	84.62
242.597	71.62
242.83	75.62
243.064	67.62
243.298	71.62
243.531	76.62
243.765	85.62
243.998	79.62
244.232	74.62
244.465	82.62
244.699	76.62
244.932	85.62
245.166	75.62
245.399	96.62
245.633	77.62
245.866	80.62
246.099	79.62
246.333	83.62
246.566	81.62
246.8	78.62
247.033	84.62
247.266	79.62
247.5	59.62
247.733	73.62
247.966	78.62
248.2	80.62
248.433	80.62
248.666	68.62
248.899	85.62
249.133	89.62
249.366	75.62
249.599	87.62
249.832	69.62
250.066	77.62
250.299	82.62
250.532	75.62
250.765	91.62
250.998	81.62
251.231	79.62
251.465	74.62
251.698	81.62
251.931	73.62
252.164	75.62
252.397	75.62
252.63	83.62
252.863	56.62
253.096	65.62
253.329	86.62
253.562	72.62
253.795	77.62
254.028	77.62
254.261	72.62
254.494	85.62
254.727	78.62
254.96	67.62
255.193	85.62
255.426	80.62
255.659	86.62
255.892	86.62
256.124	82.62
256.357	74.62
256.59	83.62
256.823	86.62
257.056	72.62
257.289	95.62
257.521	94.62
257.754	78.62
257.987	86.62
258.22	70.62
258.452	88.62
258.685	86.62
258.918	91.62
259.151	85.62
259.383	98.62
259.616	80.62
259.849	82.62
260.081	83.62
260.314	81.62
260.547	75.62
260.779	82.62
261.012	87.62
261.244	84.62
261.477	82.62
261.71	92.62
261.942	81.62
262.175	85.62
262.407	99.62
262.64	90.62
262.872	74.62
263.105	89.62
263.337	106.62
263.57	79.62
263.802	79.62
264.035	82.62
264.267	77.62
264.499	81.62
264.732	78.62
264.964	93.62
265.197	58.62
265.429	79.62
265.661	91.62
265.894	90.62
266.126	77.62
266.358	81.62
266.591	79.62
266.823	89.62
267.055	76.62
267.287	91.62
267.52	82.62
267.752	82.62
267.984	67.62
268.216	85.62
268.448	82.62
268.681	97.62
268.913	79.62
269.145	80.62
269.377	74.62
269.609	70.62
269.841	80.62
270.073	84.62
270.306	88.62
270.538	82.62
270.77	84.62
271.002	93.62
271.234	87.62
271.466	88.62
271.698	88.62
271.93	75.62
272.162	83.62
272.394	83.62
272.626	79.62
272.858	82.62
273.09	67.62
273.322	90.62
273.553	87.62
273.785	91.62
274.017	101.62
274.249	77.62
274.481	85.62
274.713	75.62
274.945	92.62
275.176	84.62
275.408	82.62
275.64	80.62
275.872	94.62
276.104	88.62
276.335	91.62
276.567	87.62
276.799	89.62
277.031	83.62
277.262	82.62
277.494	90.62
277.726	78.62
277.957	80.62
278.189	95.62
278.421	84.62
278.652	87.62
278.884	86.62
279.115	98.62
279.347	93.62
279.579	82.62
279.81	73.62
280.042	88.62
280.273	87.62
280.505	90.62
280.736	89.62
280.968	78.62
281.199	77.62
281.431	88.62
281.662	80.62
281.894	96.62
282.125	92.62
282.356	88.62
282.588	81.62
282.819	79.62
283.051	92.62
283.282	79.62
283.513	90.62
283.745	75.62
283.976	83.62
284.207	89.62
284.439	87.62
284.67	75.62
284.901	85.62
285.132	88.62
285.364	93.62
285.595	73.62
285.826	91.62
286.057	84.62
286.288	88.62
286.52	81.62
286.751	92.62
286.982	85.62
287.213	101.62
287.444	84.62
287.675	87.62
287.906	88.62
288.138	95.62
288.369	89.62
288.6	80.62
288.831	81.62
289.062	94.62
289.293	87.62
289.524	90.62
289.755	86.62
289.986	90.62
290.217	82.62
290.448	85.62
290.679	82.62
290.91	85.62
291.141	88.62
291.371	89.62
291.602	81.62
291.833	86.62
292.064	84.62
292.295	78.62
292.526	94.62
292.757	77.62
292.987	82.62
293.218	74.62
293.449	81.62
293.68	88.62
293.91	71.62
294.141	86.62
294.372	85.62
294.603	94.62
294.833	79.62
295.064	80.62
295.295	96.62
295.525	94.62
295.756	97.62
295.987	80.62
296.217	81.62
296.448	79.62
296.679	74.62
296.909	85.62
297.14	87.62
297.37	93.62
297.601	88.62
297.831	87.62
298.062	96.62
298.292	88.62
298.523	98.62
298.753	75.62
298.984	88.62
299.214	64.62
299.445	88.62
299.675	104.62
299.905	88.62
300.136	92.62
300.366	87.62
300.597	94.62
300.827	81.62
301.057	82.62
301.288	79.62
301.518	76.62
301.748	85.62
301.979	107.62
302.209	89.62
302.439	90.62
302.669	85.62
302.9	80.62
303.13	75.62
303.36	91.62
303.59	85.62
303.82	92.62
304.051	109.62
304.281	80.62
304.511	87.62
304.741	86.62
304.971	78.62
305.201	81.62
305.431	90.62
305.661	80.62
305.891	83.62
306.121	75.62
306.352	93.62
306.582	83.62
306.812	76.62
307.042	86.62
307.272	76.62
307.502	87.62
307.731	72.62
307.961	77.62
308.191	69.62
308.421	95.62
308.651	73.62
308.881	71.62
309.111	88.62
309.341	75.62
309.571	78.62
309.8	66.62
310.03	93.62
310.26	91.62
310.49	94.62
310.72	95.62
310.949	78.62
311.179	89.62
311.409	79.62
311.639	87.62
311.868	88.62
312.098	74.62
312.328	88.62
312.557	92.62
312.787	80.62
313.017	86.62
313.246	87.62
313.476	79.62
313.706	85.62
313.935	89.62
314.165	74.62
314.394	76.62
314.624	85.62
314.853	85.62
315.083	91.62
315.312	85.62
315.542	79.62
315.771	85.62
316.001	89.62
316.23	89.62
316.46	82.62
316.689	82.62
316.919	71.62
317.148	99.62
317.377	83.62
317.607	68.62
317.836	87.62
318.065	99.62
318.295	77.62
318.524	89.62
318.753	93.62
318.983	76.62
319.212	86.62
319.441	100.62
319.67	77.62
319.9	77.62
320.129	91.62
320.358	83.62
320.587	89.62
320.816	91.62
321.046	104.62
321.275	91.62
321.504	83.62
321.733	88.62
321.962	87.62
322.191	83.62
322.42	80.62
322.649	95.62
322.878	84.62
323.108	84.62
323.337	73.62
323.566	89.62
323.795	66.62
324.024	73.62
324.253	85.62
324.482	99.62
324.71	81.62
324.939	82.62
325.168	85.62
325.397	66.62
325.626	81.62
325.855	85.62
326.084	75.62
326.313	84.62
326.542	88.62
326.77	84.62
326.999	98.62
327.228	90.62
327.457	60.62
327.686	89.62
327.914	90.62
328.143	79.62
328.372	90.62
328.6	75.62
328.829	86.62
329.058	87.62
329.287	87.62
329.515	79.62
329.744	81.62
329.972	86.62
330.201	93.62
330.43	87.62
330.658	83.62
330.887	82.62
331.115	88.62
331.344	79.62
331.572	90.62
331.801	87.62
332.03	78.62
332.258	91.62
332.486	71.62
332.715	93.62
332.943	87.62
333.172	86.62
333.4	104.62
333.629	85.62
333.857	83.62
334.085	83.62
334.314	78.62
334.542	83.62
334.771	81.62
334.999	88.62
335.227	90.62
335.455	104.62
335.684	97.62
335.912	90.62
336.14	95.62
336.369	96.62
336.597	90.62
336.825	88.62
337.053	72.62
337.281	85.62
337.51	91.62
337.738	94.62
337.966	84.62
338.194	78.62
338.422	94.62
338.65	81.62
338.878	87.62
339.106	78.62
339.334	89.62
339.562	88.62
339.79	94.62
340.018	80.62
340.246	88.62
340.474	89.62
340.702	82.62
340.93	82.62
341.158	83.62
341.386	74.62
341.614	84.62
341.842	89.62
342.07	86.62
342.298	92.62
342.526	85.62
342.754	81.62
342.981	71.62
343.209	82.62
343.437	98.62
343.665	99.62
343.893	88.62
344.12	75.62
344.348	87.62
344.576	82.62
344.804	66.62
345.031	78.62
345.259	73.62
345.487	83.62
345.714	87.62
345.942	87.62
346.17	62.62
346.397	73.62
346.625	80.62
346.853	73.62
347.08	85.62
347.308	85.62
347.535	81.62
347.763	81.62
347.99	83.62
348.218	82.62
348.445	78.62
348.673	86.62
348.9	82.62
349.128	94.62
349.355	89.62
349.583	75.62
349.81	84.62
350.037	87.62
350.265	86.62
350.492	87.62
350.72	80.62
350.947	86.62
351.174	87.62
351.402	104.62
351.629	68.62
351.856	89.62
352.083	79.62
352.311	97.62
352.538	94.62
352.765	86.62
352.992	81.62
353.22	79.62
353.447	72.62
353.674	82.62
353.901	86.62
354.128	87.62
354.355	88.62
354.583	97.62
354.81	85.62
355.037	82.62
355.264	81.62
355.491	85.62
355.718	85.62
355.945	80.62
356.172	80.62
356.399	84.62
356.626	89.62
356.853	90.62
357.08	92.62
357.307	85.62
357.534	79.62
357.761	78.62
357.988	81.62
358.215	73.62
358.441	77.62
358.668	86.62
358.895	82.62
359.122	90.62
359.349	93.62
359.576	94.62
359.802	75.62
360.029	86.62
360.256	75.62
360.483	85.62
360.709	86.62
360.936	88.62
361.163	91.62
361.39	96.62
361.616	80.62
361.843	73.62
362.07	79.62
362.296	85.62
362.523	61.62
362.749	93.62
362.976	93.62
363.203	93.62
363.429	95.62
363.656	74.62
363.882	84.62
364.109	97.62
364.335	86.62
364.562	82.62
364.788	83.62
365.015	86.62
365.241	93.62
365.468	94.62
365.694	69.62
365.92	86.62
366.147	84.62
366.373	85.62
366.599	77.62
366.826	99.62
367.052	90.62
367.278	88.62
367.505	69.62
367.731	78.62
367.957	71.62
368.184	76.62
368.41	88.62
368.636	80.62
368.862	75.62
369.089	82.62
369.315	79.62
369.541	89.62
369.767	88.62
369.993	77.62
370.219	88.62
370.445	75.62
370.672	85.62
370.898	89.62
371.124	79.62
371.35	90.62
371.576	87.62
371.802	77.62
372.028	56.62
372.254	77.62
372.48	63.62
372.706	85.62
372.932	90.62
373.158	75.62
373.384	77.62
373.61	87.62
373.835	73.62
374.061	82.62
374.287	83.62
374.513	86.62
374.739	78.62
374.965	77.62
375.191	84.62
375.416	82.62
375.642	84.62
375.868	101.62
376.094	80.62
376.319	89.62
376.545	84.62
376.771	75.62
376.997	85.62
377.222	90.62
377.448	97.62
377.674	76.62
377.899	93.62
378.125	86.62
378.35	89.62
378.576	66.62
378.802	74.62
379.027	75.62
379.253	88.62
379.478	92.62
379.704	94.62
379.929	90.62
380.155	83.62
380.38	81.62
380.606	86.62
380.831	102.62
381.057	89.62
381.282	84.62
381.507	103.62
381.733	91.62
381.958	95.62
382.184	80.62
382.409	79.62
382.634	65.62
382.86	86.62
383.085	82.62
383.31	105.62
383.535	92.62
383.761	80.62
383.986	94.62
384.211	85.62
384.436	79.62
384.662	86.62
384.887	87.62
385.112	93.62
385.337	85.62
385.562	86.62
385.787	85.62
386.013	75.62
386.238	99.62
386.463	103.62
386.688	85.62
386.913	81.62
387.138	81.62
387.363	91.62
387.588	79.62
387.813	76.62
388.038	80.62
388.263	77.62
388.488	97.62
388.713	81.62
388.938	76.62
389.163	84.62
389.387	93.62
389.612	76.62
389.837	78.62
390.062	88.62
390.287	63.62
390.512	81.62
390.736	86.62
390.961	85.62
391.186	74.62
391.411	77.62
391.636	84.62
391.86	74.62
392.085	90.62
392.31	82.62
392.534	71.62
392.759	90.62
392.984	93.62
393.208	85.62
393.433	84.62
393.658	81.62
393.882	58.62
394.107	80.62
394.331	85.62
394.556	92.62
394.78	81.62
395.005	78.62
395.229	81.62
395.454	83.62
395.678	84.62
395.903	85.62
396.127	79.62
396.352	96.62
396.576	71.62
396.801	68.62
397.025	72.62
397.249	79.62
397.474	80.62
397.698	69.62
397.922	81.62
398.147	81.62
398.371	78.62
398.595	84.62
398.82	83.62
399.044	68.62
399.268	82.62
399.492	96.62
399.717	80.62
399.941	76.62
400.165	74.62
400.389	87.62
400.613	82.62
400.837	93.62
401.062	78.62
401.286	88.62
401.51	98.62
401.734	76.62
401.958	85.62
402.182	86.62
402.406	82.62
402.63	73.62
402.854	82.62
403.078	95.62
403.302	80.62
403.526	91.62
403.75	89.62
403.974	81.62
404.198	81.62
404.422	87.62
404.645	65.62
404.869	87.62
405.093	86.62
405.317	76.62
405.541	75.62
405.765	76.62
405.988	76.62
406.212	83.62
406.436	71.62
406.66	77.62
406.883	81.62
407.107	95.62
407.331	79.62
407.555	85.62
407.778	84.62
408.002	81.62
408.226	83.62
408.449	93.62
408.673	77.62
408.896	81.62
409.12	67.62
409.344	77.62
409.567	71.62
409.791	81.62
410.014	89.62
410.238	91.62
410.461	77.62
410.685	78.62
410.908	72.62
411.132	89.62
411.355	88.62
411.578	77.62
411.802	81.62
412.025	74.62
412.249	86.62
412.472	81.62
412.695	92.62
412.919	80.62
413.142	97.62
413.365	84.62
413.589	83.62
413.812	81.62
414.035	69.62
414.258	72.62
414.482	85.62
414.705	92.62
414.928	72.62
415.151	82.62
415.374	70.62
415.597	86.62
415.821	75.62
416.044	81.62
416.267	91.62
416.49	81.62
416.713	94.62
416.936	78.62
417.159	83.62
417.382	84.62
417.605	82.62
417.828	90.62
418.051	74.62
418.274	81.62
418.497	92.62
418.72	78.62
418.943	88.62
419.166	78.62
419.389	90.62
419.611	74.62
419.834	56.62
420.057	74.62
420.28	77.62
420.503	82.62
420.726	79.62
420.948	72.62
421.171	92.62
421.394	82.62
421.617	75.62
421.839	84.62
422.062	75.62
422.285	86.62
422.507	83.62
422.73	68.62
422.953	85.62
423.175	98.62
423.398	103.62
423.621	96.62
423.843	83.62
424.066	90.62
424.288	74.62
424.511	75.62
424.733	77.62
424.956	95.62
425.178	68.62
425.401	82.62
425.623	76.62
425.846	81.62
426.068	98.62
426.291	85.62
426.513	92.62
426.735	95.62
426.958	80.62
427.18	67.62
427.402	82.62
427.625	98.62
427.847	90.62
428.069	101.62
428.292	87.62
428.514	86.62
428.736	88.62
428.958	73.62
429.181	83.62
429.403	95.62
429.625	83.62
429.847	78.62
430.069	93.62
430.292	89.62
430.514	72.62
430.736	85.62
430.958	82.62
431.18	80.62
431.402	79.62
431.624	77.62
431.846	98.62
432.068	89.62
432.29	71.62
432.512	80.62
432.734	84.62
432.956	96.62
433.178	83.62
433.4	86.62
433.622	71.62
433.844	82.62
434.066	82.62
434.287	80.62
434.509	71.62
434.731	91.62
434.953	79.62
435.175	88.62
435.397	78.62
435.618	75.62
435.84	81.62
436.062	83.62
436.284	76.62
436.505	80.62
436.727	81.62
436.949	68.62
437.17	81.62
437.392	86.62
437.614	76.62
437.835	89.62
438.057	92.62
438.278	74.62
438.5	93.62
438.721	70.62
438.943	77.62
439.165	86.62
439.386	87.62
439.608	83.62
439.829	74.62
440.05	83.62
440.272	92.62
440.493	93.62
440.715	93.62
440.936	82.62
441.158	77.62
441.379	85.62
441.6	74.62
441.822	91.62
442.043	82.62
442.264	70.62
442.486	81.62
442.707	71.62
442.928	80.62
443.149	90.62
443.371	87.62
443.592	79.62
443.813	80.62
444.034	78.62
444.255	79.62
444.476	79.62
444.698	70.62
444.919	88.62
445.14	169.62
445.361	126.62
445.582	85.62
445.803	82.62
446.024	79.62
446.245	98.62
446.466	96.62
446.687	102.62
446.908	88.62
447.129	79.62
447.35	88.62
447.571	76.62
447.792	85.62
448.013	76.62
448.234	82.62
448.455	84.62
448.675	80.62
448.896	74.62
449.117	88.62
449.338	74.62
449.559	84.62
449.779	81.62
450	79.62
450.221	86.62
450.442	72.62
450.662	81.62
450.883	72.62
451.104	84.62
451.324	79.62
451.545	77.62
451.766	76.62
451.986	66.62
452.207	79.62
452.428	84.62
452.648	86.62
452.869	88.62
453.089	94.62
453.31	92.62
453.53	80.62
453.751	62.62
453.971	87.62
454.192	75.62
454.412	87.62
454.633	85.62
454.853	72.62
455.073	78.62
455.294	87.62
455.514	69.62
455.734	96.62
455.955	79.62
456.175	84.62
456.395	91.62
456.616	79.62
456.836	82.62
457.056	72.62
457.276	92.62
457.497	71.62
457.717	74.62
457.937	81.62
458.157	71.62
458.377	79.62
458.598	79.62
458.818	65.62
459.038	86.62
459.258	73.62
459.478	96.62
459.698	73.62
459.918	93.62
460.138	65.62
460.358	86.62
460.578	82.62
460.798	81.62
461.018	92.62
461.238	73.62
461.458	79.62
461.678	72.62
461.898	82.62
462.118	82.62
462.338	90.62
462.558	101.62
462.777	79.62
462.997	88.62
463.217	69.62
463.437	67.62
463.657	86.62
463.876	78.62
464.096	75.62
464.316	83.62
464.536	83.62
464.755	83.62
464.975	85.62
465.195	88.62
465.414	89.62
465.634	77.62
465.854	85.62
466.073	77.62
466.293	68.62
466.512	103.62
466.732	88.62
466.951	61.62
467.171	83.62
467.391	80.62
467.61	84.62
467.829	79.62
468.049	83.62
468.268	97.62
468.488	106.62
468.707	78.62
468.927	74.62
469.146	75.62
469.365	81.62
469.585	68.62
469.804	69.62
470.023	66.62
470.243	83.62
470.462	93.62
470.681	78.62
470.901	69.62
471.12	81.62
471.339	93.62
471.558	86.62
471.777	84.62
471.997	78.62
472.216	83.62
472.435	75.62
472.654	80.62
472.873	91.62
473.092	86.62
473.311	86.62
473.53	82.62
473.749	81.62
473.968	77.62
474.187	74.62
474.406	71.62
474.625	72.62
474.844	70.62
475.063	86.62
475.282	95.62
475.501	90.62
475.72	85.62
475.939	81.62
476.158	77.62
476.377	87.62
476.596	77.62
476.814	78.62
477.033	89.62
477.252	76.62
477.471	85.62
477.69	91.62
477.908	85.62
478.127	77.62
478.346	79.62
478.564	87.62
478.783	86.62
479.002	87.62
479.22	69.62
479.439	65.62
479.658	72.62
479.876	71.62
480.095	89.62
480.313	91.62
480.532	88.62
480.751	74.62
480.969	80.62
481.188	79.62
481.406	83.62
481.624	80.62
481.843	65.62
482.061	73.62
482.28	95.62
482.498	83.62
482.717	82.62
482.935	73.62
483.153	71.62
483.372	81.62
483.59	87.62
483.808	94.62
484.027	72.62
484.245	94.62
484.463	77.62
484.681	86.62
484.9	90.62
485.118	75.62
485.336	85.62
485.554	95.62
485.772	86.62
485.99	86.62
486.209	93.62
486.427	84.62
486.645	76.62
486.863	92.62
487.081	92.62
487.299	82.62
487.517	93.62
487.735	63.62
487.953	74.62
488.171	86.62
488.389	71.62
488.607	53.62
488.825	76.62
489.043	91.62
489.261	88.62
489.479	75.62
489.696	85.62
489.914	87.62
490.132	88.62
490.35	87.62
490.568	73.62
490.786	84.62
491.003	82.62
491.221	95.62
491.439	78.62
491.657	84.62
491.874	70.62
492.092	82.62
492.31	82.62
492.527	66.62
492.745	78.62
492.963	89.62
493.18	81.62
493.398	80.62
493.615	99.62
493.833	69.62
494.05	78.62
494.268	79.62
494.485	98.62
494.703	81.62
494.92	78.62
495.138	87.62
495.355	64.62
495.573	87.62
495.79	80.62
496.008	94.62
496.225	73.62
496.442	71.62
496.66	87.62
496.877	96.62
497.094	90.62
497.312	79.62
497.529	95.62
497.746	77.62
497.963	87.62
498.181	85.62
498.398	73.62
498.615	82.62
498.832	84.62
499.049	87.62
499.267	85.62
499.484	85.62
499.701	75.62
499.918	83.62
500.135	91.62
500.352	82.62
500.569	80.62
500.786	80.62
501.003	90.62
501.22	90.62
501.437	87.62
501.654	74.62
501.871	77.62
502.088	80.62
502.305	80.62
502.522	78.62
502.739	82.62
502.956	91.62
503.172	80.62
503.389	86.62
503.606	90.62
503.823	95.62
504.04	95.62
504.256	86.62
504.473	80.62
504.69	95.62
504.907	97.62
505.123	90.62
505.34	80.62
505.557	82.62
505.773	82.62
505.99	87.62
506.207	73.62
506.423	81.62
506.64	90.62
506.856	61.62
507.073	73.62
507.289	85.62
507.506	84.62
507.722	85.62
507.939	81.62
508.155	76.62
508.372	90.62
508.588	80.62
508.805	85.62
509.021	91.62
509.238	86.62
509.454	88.62
509.67	86.62
509.887	83.62
510.103	79.62
510.319	82.62
510.536	82.62
510.752	79.62
510.968	88.62
511.184	92.62
511.401	95.62
511.617	87.62
511.833	78.62
512.049	83.62
512.265	79.62
512.481	92.62
512.698	82.62
512.914	87.62
513.13	87.62
513.346	82.62
513.562	71.62
513.778	85.62
513.994	85.62
514.21	93.62
514.426	84.62
514.642	87.62
514.858	92.62
515.074	89.62
515.29	94.62
515.506	82.62
515.721	80.62
515.937	86.62
516.153	76.62
516.369	87.62
516.585	80.62
516.801	76.62
517.016	93.62
517.232	81.62
517.448	90.62
517.664	82.62
517.879	83.62
518.095	83.62
518.311	102.62
518.527	93.62
518.742	71.62
518.958	79.62
519.173	79.62
519.389	89.62
519.605	76.62
519.82	90.62
520.036	77.62
