Data from BG_HRD10591_042.txt Node
Date: Fri May 16 15:21:15 EDT 2025
User: Yrep
Spectrometer: HR+D1059
Trigger mode: 1
Integration Time (sec): 1.000000E-1
Scans to average: 1
Electric dark correction enabled: true
Nonlinearity correction enabled: false
Boxcar width: 0
XAxis mode: Wavelengths
Number of Pixels in Spectrum: 2048
>>>>>Begin Spectral Data<<<<<
223.165	-36.06
223.4	-36.06
223.635	-36.06
223.869	-15.06
224.104	-31.06
224.338	-25.06
224.573	-13.06
224.808	-7.06
225.042	-10.06
225.277	6.94
225.511	-8.06
225.746	3.94
225.98	14.94
226.215	18.94
226.449	13.94
226.683	28.94
226.918	19.94
227.152	37.94
227.387	48.94
227.621	37.94
227.856	54.94
228.09	43.94
228.324	44.94
228.559	58.94
228.793	53.94
229.027	68.94
229.262	75.94
229.496	59.94
229.73	60.94
229.964	79.94
230.199	70.94
230.433	85.94
230.667	79.94
230.901	78.94
231.136	72.94
231.37	74.94
231.604	91.94
231.838	81.94
232.072	82.94
232.306	86.94
232.541	78.94
232.775	77.94
233.009	75.94
233.243	76.94
233.477	107.94
233.711	84.94
233.945	68.94
234.179	72.94
234.413	76.94
234.647	79.94
234.881	90.94
235.115	82.94
235.349	80.94
235.583	80.94
235.817	77.94
236.051	88.94
236.285	68.94
236.519	83.94
236.753	67.94
236.987	74.94
237.221	67.94
237.455	72.94
237.689	87.94
237.922	82.94
238.156	86.94
238.39	72.94
238.624	87.94
238.858	71.94
239.091	88.94
239.325	76.94
239.559	78.94
239.793	58.94
240.027	68.94
240.26	55.94
240.494	78.94
240.728	64.94
240.961	75.94
241.195	68.94
241.429	74.94
241.662	72.94
241.896	76.94
242.13	71.94
242.363	87.94
242.597	59.94
242.83	65.94
243.064	72.94
243.298	80.94
243.531	72.94
243.765	80.94
243.998	78.94
244.232	89.94
244.465	88.94
244.699	81.94
244.932	93.94
245.166	79.94
245.399	71.94
245.633	74.94
245.866	87.94
246.099	84.94
246.333	71.94
246.566	82.94
246.8	68.94
247.033	58.94
247.266	68.94
247.5	84.94
247.733	76.94
247.966	76.94
248.2	75.94
248.433	79.94
248.666	82.94
248.899	89.94
249.133	79.94
249.366	75.94
249.599	69.94
249.832	68.94
250.066	89.94
250.299	86.94
250.532	81.94
250.765	76.94
250.998	75.94
251.231	85.94
251.465	70.94
251.698	79.94
251.931	84.94
252.164	90.94
252.397	69.94
252.63	80.94
252.863	75.94
253.096	80.94
253.329	87.94
253.562	80.94
253.795	78.94
254.028	77.94
254.261	64.94
254.494	80.94
254.727	80.94
254.96	71.94
255.193	94.94
255.426	78.94
255.659	89.94
255.892	85.94
256.124	95.94
256.357	93.94
256.59	88.94
256.823	72.94
257.056	77.94
257.289	74.94
257.521	70.94
257.754	86.94
257.987	70.94
258.22	82.94
258.452	84.94
258.685	78.94
258.918	82.94
259.151	78.94
259.383	87.94
259.616	78.94
259.849	90.94
260.081	94.94
260.314	81.94
260.547	79.94
260.779	64.94
261.012	86.94
261.244	78.94
261.477	96.94
261.71	78.94
261.942	73.94
262.175	77.94
262.407	79.94
262.64	81.94
262.872	87.94
263.105	88.94
263.337	95.94
263.57	69.94
263.802	90.94
264.035	75.94
264.267	76.94
264.499	99.94
264.732	88.94
264.964	79.94
265.197	87.94
265.429	68.94
265.661	81.94
265.894	86.94
266.126	87.94
266.358	76.94
266.591	86.94
266.823	76.94
267.055	98.94
267.287	80.94
267.52	68.94
267.752	68.94
267.984	74.94
268.216	87.94
268.448	83.94
268.681	88.94
268.913	84.94
269.145	83.94
269.377	82.94
269.609	77.94
269.841	79.94
270.073	79.94
270.306	82.94
270.538	67.94
270.77	65.94
271.002	95.94
271.234	87.94
271.466	80.94
271.698	79.94
271.93	84.94
272.162	86.94
272.394	79.94
272.626	73.94
272.858	89.94
273.09	80.94
273.322	90.94
273.553	86.94
273.785	73.94
274.017	79.94
274.249	103.94
274.481	93.94
274.713	70.94
274.945	79.94
275.176	80.94
275.408	93.94
275.64	78.94
275.872	85.94
276.104	82.94
276.335	84.94
276.567	72.94
276.799	58.94
277.031	89.94
277.262	86.94
277.494	77.94
277.726	79.94
277.957	82.94
278.189	88.94
278.421	87.94
278.652	81.94
278.884	82.94
279.115	89.94
279.347	92.94
279.579	75.94
279.81	72.94
280.042	81.94
280.273	84.94
280.505	84.94
280.736	74.94
280.968	84.94
281.199	79.94
281.431	83.94
281.662	79.94
281.894	89.94
282.125	85.94
282.356	98.94
282.588	82.94
282.819	88.94
283.051	71.94
283.282	89.94
283.513	71.94
283.745	86.94
283.976	90.94
284.207	77.94
284.439	78.94
284.67	77.94
284.901	88.94
285.132	66.94
285.364	76.94
285.595	83.94
285.826	90.94
286.057	79.94
286.288	87.94
286.52	87.94
286.751	76.94
286.982	93.94
287.213	83.94
287.444	92.94
287.675	102.94
287.906	96.94
288.138	84.94
288.369	86.94
288.6	62.94
288.831	77.94
289.062	81.94
289.293	88.94
289.524	78.94
289.755	93.94
289.986	90.94
290.217	80.94
290.448	87.94
290.679	87.94
290.91	70.94
291.141	102.94
291.371	86.94
291.602	69.94
291.833	84.94
292.064	80.94
292.295	88.94
292.526	73.94
292.757	86.94
292.987	74.94
293.218	78.94
293.449	77.94
293.68	74.94
293.91	93.94
294.141	93.94
294.372	80.94
294.603	79.94
294.833	79.94
295.064	76.94
295.295	69.94
295.525	74.94
295.756	80.94
295.987	74.94
296.217	96.94
296.448	82.94
296.679	79.94
296.909	74.94
297.14	77.94
297.37	95.94
297.601	85.94
297.831	82.94
298.062	86.94
298.292	87.94
298.523	70.94
298.753	76.94
298.984	84.94
299.214	81.94
299.445	81.94
299.675	77.94
299.905	99.94
300.136	81.94
300.366	66.94
300.597	80.94
300.827	77.94
301.057	91.94
301.288	91.94
301.518	89.94
301.748	78.94
301.979	100.94
302.209	88.94
302.439	74.94
302.669	65.94
302.9	83.94
303.13	76.94
303.36	88.94
303.59	87.94
303.82	91.94
304.051	84.94
304.281	101.94
304.511	85.94
304.741	82.94
304.971	79.94
305.201	76.94
305.431	82.94
305.661	85.94
305.891	77.94
306.121	86.94
306.352	74.94
306.582	68.94
306.812	81.94
307.042	72.94
307.272	84.94
307.502	90.94
307.731	79.94
307.961	78.94
308.191	90.94
308.421	89.94
308.651	102.94
308.881	82.94
309.111	77.94
309.341	87.94
309.571	82.94
309.8	80.94
310.03	70.94
310.26	90.94
310.49	89.94
310.72	99.94
310.949	70.94
311.179	74.94
311.409	68.94
311.639	74.94
311.868	89.94
312.098	67.94
312.328	90.94
312.557	74.94
312.787	104.94
313.017	88.94
313.246	81.94
313.476	83.94
313.706	87.94
313.935	78.94
314.165	84.94
314.394	78.94
314.624	78.94
314.853	91.94
315.083	73.94
315.312	93.94
315.542	80.94
315.771	90.94
316.001	76.94
316.23	94.94
316.46	81.94
316.689	92.94
316.919	73.94
317.148	79.94
317.377	88.94
317.607	88.94
317.836	73.94
318.065	93.94
318.295	86.94
318.524	91.94
318.753	79.94
318.983	93.94
319.212	85.94
319.441	79.94
319.67	64.94
319.9	91.94
320.129	90.94
320.358	81.94
320.587	87.94
320.816	83.94
321.046	91.94
321.275	79.94
321.504	87.94
321.733	78.94
321.962	75.94
322.191	86.94
322.42	77.94
322.649	73.94
322.878	83.94
323.108	77.94
323.337	64.94
323.566	76.94
323.795	79.94
324.024	92.94
324.253	102.94
324.482	91.94
324.71	77.94
324.939	79.94
325.168	82.94
325.397	84.94
325.626	84.94
325.855	78.94
326.084	78.94
326.313	95.94
326.542	88.94
326.77	77.94
326.999	77.94
327.228	74.94
327.457	85.94
327.686	79.94
327.914	84.94
328.143	86.94
328.372	85.94
328.6	71.94
328.829	87.94
329.058	75.94
329.287	76.94
329.515	74.94
329.744	78.94
329.972	94.94
330.201	92.94
330.43	73.94
330.658	78.94
330.887	82.94
331.115	70.94
331.344	72.94
331.572	70.94
331.801	80.94
332.03	90.94
332.258	93.94
332.486	77.94
332.715	84.94
332.943	82.94
333.172	78.94
333.4	79.94
333.629	91.94
333.857	78.94
334.085	76.94
334.314	84.94
334.542	76.94
334.771	86.94
334.999	82.94
335.227	73.94
335.455	85.94
335.684	83.94
335.912	87.94
336.14	76.94
336.369	95.94
336.597	75.94
336.825	72.94
337.053	79.94
337.281	77.94
337.51	80.94
337.738	86.94
337.966	82.94
338.194	94.94
338.422	70.94
338.65	74.94
338.878	87.94
339.106	91.94
339.334	94.94
339.562	78.94
339.79	68.94
340.018	79.94
340.246	88.94
340.474	84.94
340.702	90.94
340.93	80.94
341.158	74.94
341.386	85.94
341.614	90.94
341.842	101.94
342.07	83.94
342.298	82.94
342.526	68.94
342.754	85.94
342.981	86.94
343.209	84.94
343.437	87.94
343.665	88.94
343.893	78.94
344.12	64.94
344.348	79.94
344.576	74.94
344.804	82.94
345.031	85.94
345.259	86.94
345.487	87.94
345.714	99.94
345.942	71.94
346.17	75.94
346.397	82.94
346.625	96.94
346.853	102.94
347.08	81.94
347.308	78.94
347.535	79.94
347.763	79.94
347.99	96.94
348.218	88.94
348.445	80.94
348.673	87.94
348.9	82.94
349.128	98.94
349.355	80.94
349.583	91.94
349.81	78.94
350.037	87.94
350.265	70.94
350.492	80.94
350.72	70.94
350.947	83.94
351.174	90.94
351.402	87.94
351.629	81.94
351.856	86.94
352.083	88.94
352.311	84.94
352.538	90.94
352.765	94.94
352.992	92.94
353.22	87.94
353.447	63.94
353.674	74.94
353.901	75.94
354.128	87.94
354.355	80.94
354.583	83.94
354.81	79.94
355.037	62.94
355.264	75.94
355.491	80.94
355.718	92.94
355.945	84.94
356.172	79.94
356.399	76.94
356.626	84.94
356.853	86.94
357.08	88.94
357.307	92.94
357.534	82.94
357.761	80.94
357.988	82.94
358.215	84.94
358.441	87.94
358.668	84.94
358.895	67.94
359.122	77.94
359.349	88.94
359.576	81.94
359.802	76.94
360.029	77.94
360.256	85.94
360.483	82.94
360.709	80.94
360.936	88.94
361.163	79.94
361.39	62.94
361.616	70.94
361.843	89.94
362.07	83.94
362.296	75.94
362.523	83.94
362.749	77.94
362.976	81.94
363.203	72.94
363.429	86.94
363.656	82.94
363.882	80.94
364.109	85.94
364.335	82.94
364.562	77.94
364.788	88.94
365.015	82.94
365.241	86.94
365.468	82.94
365.694	82.94
365.92	87.94
366.147	94.94
366.373	85.94
366.599	84.94
366.826	72.94
367.052	90.94
367.278	73.94
367.505	88.94
367.731	90.94
367.957	76.94
368.184	77.94
368.41	84.94
368.636	82.94
368.862	70.94
369.089	79.94
369.315	79.94
369.541	74.94
369.767	95.94
369.993	89.94
370.219	76.94
370.445	73.94
370.672	75.94
370.898	78.94
371.124	86.94
371.35	88.94
371.576	78.94
371.802	85.94
372.028	82.94
372.254	84.94
372.48	78.94
372.706	74.94
372.932	75.94
373.158	77.94
373.384	72.94
373.61	72.94
373.835	80.94
374.061	74.94
374.287	80.94
374.513	77.94
374.739	86.94
374.965	76.94
375.191	85.94
375.416	80.94
375.642	83.94
375.868	91.94
376.094	85.94
376.319	75.94
376.545	86.94
376.771	90.94
376.997	77.94
377.222	95.94
377.448	78.94
377.674	84.94
377.899	87.94
378.125	103.94
378.35	88.94
378.576	77.94
378.802	74.94
379.027	85.94
379.253	75.94
379.478	84.94
379.704	85.94
379.929	80.94
380.155	79.94
380.38	79.94
380.606	86.94
380.831	85.94
381.057	89.94
381.282	66.94
381.507	88.94
381.733	73.94
381.958	67.94
382.184	68.94
382.409	78.94
382.634	77.94
382.86	65.94
383.085	86.94
383.31	86.94
383.535	92.94
383.761	81.94
383.986	80.94
384.211	73.94
384.436	76.94
384.662	81.94
384.887	72.94
385.112	88.94
385.337	92.94
385.562	69.94
385.787	75.94
386.013	79.94
386.238	89.94
386.463	78.94
386.688	83.94
386.913	88.94
387.138	82.94
387.363	72.94
387.588	84.94
387.813	71.94
388.038	86.94
388.263	86.94
388.488	81.94
388.713	79.94
388.938	78.94
389.163	79.94
389.387	93.94
389.612	78.94
389.837	82.94
390.062	84.94
390.287	67.94
390.512	82.94
390.736	84.94
390.961	75.94
391.186	87.94
391.411	85.94
391.636	83.94
391.86	53.94
392.085	76.94
392.31	70.94
392.534	98.94
392.759	87.94
392.984	91.94
393.208	79.94
393.433	78.94
393.658	69.94
393.882	71.94
394.107	77.94
394.331	83.94
394.556	82.94
394.78	80.94
395.005	81.94
395.229	78.94
395.454	84.94
395.678	70.94
395.903	58.94
396.127	86.94
396.352	74.94
396.576	79.94
396.801	77.94
397.025	90.94
397.249	77.94
397.474	84.94
397.698	90.94
397.922	84.94
398.147	82.94
398.371	70.94
398.595	75.94
398.82	70.94
399.044	75.94
399.268	81.94
399.492	75.94
399.717	74.94
399.941	56.94
400.165	84.94
400.389	78.94
400.613	68.94
400.837	73.94
401.062	74.94
401.286	89.94
401.51	79.94
401.734	81.94
401.958	70.94
402.182	80.94
402.406	78.94
402.63	71.94
402.854	75.94
403.078	82.94
403.302	63.94
403.526	76.94
403.75	64.94
403.974	72.94
404.198	87.94
404.422	97.94
404.645	71.94
404.869	92.94
405.093	73.94
405.317	61.94
405.541	71.94
405.765	66.94
405.988	82.94
406.212	86.94
406.436	84.94
406.66	72.94
406.883	87.94
407.107	72.94
407.331	81.94
407.555	91.94
407.778	72.94
408.002	78.94
408.226	76.94
408.449	76.94
408.673	83.94
408.896	82.94
409.12	91.94
409.344	73.94
409.567	77.94
409.791	64.94
410.014	75.94
410.238	82.94
410.461	86.94
410.685	93.94
410.908	70.94
411.132	86.94
411.355	76.94
411.578	78.94
411.802	96.94
412.025	69.94
412.249	83.94
412.472	78.94
412.695	78.94
412.919	81.94
413.142	81.94
413.365	86.94
413.589	61.94
413.812	76.94
414.035	92.94
414.258	75.94
414.482	88.94
414.705	85.94
414.928	69.94
415.151	95.94
415.374	79.94
415.597	77.94
415.821	87.94
416.044	86.94
416.267	69.94
416.49	82.94
416.713	96.94
416.936	100.94
417.159	90.94
417.382	87.94
417.605	86.94
417.828	84.94
418.051	69.94
418.274	83.94
418.497	75.94
418.72	70.94
418.943	76.94
419.166	70.94
419.389	72.94
419.611	74.94
419.834	69.94
420.057	63.94
420.28	70.94
420.503	72.94
420.726	82.94
420.948	74.94
421.171	82.94
421.394	72.94
421.617	78.94
421.839	73.94
422.062	78.94
422.285	69.94
422.507	83.94
422.73	76.94
422.953	62.94
423.175	77.94
423.398	75.94
423.621	80.94
423.843	81.94
424.066	78.94
424.288	84.94
424.511	83.94
424.733	82.94
424.956	71.94
425.178	72.94
425.401	80.94
425.623	64.94
425.846	69.94
426.068	82.94
426.291	82.94
426.513	80.94
426.735	84.94
426.958	80.94
427.18	86.94
427.402	92.94
427.625	86.94
427.847	78.94
428.069	86.94
428.292	79.94
428.514	86.94
428.736	61.94
428.958	78.94
429.181	85.94
429.403	88.94
429.625	89.94
429.847	83.94
430.069	77.94
430.292	78.94
430.514	90.94
430.736	74.94
430.958	99.94
431.18	83.94
431.402	82.94
431.624	77.94
431.846	83.94
432.068	66.94
432.29	71.94
432.512	61.94
432.734	87.94
432.956	82.94
433.178	75.94
433.4	85.94
433.622	92.94
433.844	92.94
434.066	78.94
434.287	70.94
434.509	77.94
434.731	75.94
434.953	69.94
435.175	72.94
435.397	87.94
435.618	76.94
435.84	85.94
436.062	62.94
436.284	85.94
436.505	79.94
436.727	80.94
436.949	78.94
437.17	86.94
437.392	65.94
437.614	62.94
437.835	72.94
438.057	77.94
438.278	80.94
438.5	72.94
438.721	78.94
438.943	75.94
439.165	80.94
439.386	68.94
439.608	87.94
439.829	76.94
440.05	71.94
440.272	78.94
440.493	73.94
440.715	78.94
440.936	68.94
441.158	78.94
441.379	77.94
441.6	83.94
441.822	92.94
442.043	82.94
442.264	76.94
442.486	82.94
442.707	80.94
442.928	87.94
443.149	92.94
443.371	88.94
443.592	80.94
443.813	64.94
444.034	93.94
444.255	87.94
444.476	88.94
444.698	68.94
444.919	89.94
445.14	155.94
445.361	94.94
445.582	65.94
445.803	65.94
446.024	85.94
446.245	91.94
446.466	79.94
446.687	85.94
446.908	78.94
447.129	86.94
447.35	77.94
447.571	74.94
447.792	80.94
448.013	74.94
448.234	91.94
448.455	67.94
448.675	76.94
448.896	77.94
449.117	86.94
449.338	67.94
449.559	79.94
449.779	94.94
450	78.94
450.221	80.94
450.442	77.94
450.662	83.94
450.883	73.94
451.104	85.94
451.324	74.94
451.545	68.94
451.766	79.94
451.986	80.94
452.207	86.94
452.428	86.94
452.648	82.94
452.869	84.94
453.089	82.94
453.31	91.94
453.53	72.94
453.751	80.94
453.971	86.94
454.192	86.94
454.412	75.94
454.633	90.94
454.853	80.94
455.073	80.94
455.294	75.94
455.514	72.94
455.734	79.94
455.955	85.94
456.175	84.94
456.395	67.94
456.616	80.94
456.836	73.94
457.056	80.94
457.276	79.94
457.497	76.94
457.717	76.94
457.937	77.94
458.157	76.94
458.377	83.94
458.598	92.94
458.818	73.94
459.038	86.94
459.258	76.94
459.478	93.94
459.698	68.94
459.918	68.94
460.138	71.94
460.358	79.94
460.578	81.94
460.798	83.94
461.018	76.94
461.238	82.94
461.458	82.94
461.678	71.94
461.898	84.94
462.118	83.94
462.338	78.94
462.558	95.94
462.777	78.94
462.997	83.94
463.217	79.94
463.437	79.94
463.657	84.94
463.876	85.94
464.096	89.94
464.316	75.94
464.536	75.94
464.755	76.94
464.975	85.94
465.195	85.94
465.414	72.94
465.634	82.94
465.854	88.94
466.073	86.94
466.293	87.94
466.512	85.94
466.732	76.94
466.951	82.94
467.171	79.94
467.391	74.94
467.61	76.94
467.829	91.94
468.049	73.94
468.268	77.94
468.488	87.94
468.707	68.94
468.927	78.94
469.146	80.94
469.365	71.94
469.585	90.94
469.804	72.94
470.023	78.94
470.243	84.94
470.462	95.94
470.681	79.94
470.901	68.94
471.12	75.94
471.339	77.94
471.558	82.94
471.777	78.94
471.997	92.94
472.216	76.94
472.435	82.94
472.654	76.94
472.873	90.94
473.092	72.94
473.311	70.94
473.53	76.94
473.749	87.94
473.968	83.94
474.187	79.94
474.406	80.94
474.625	84.94
474.844	95.94
475.063	76.94
475.282	69.94
475.501	65.94
475.72	86.94
475.939	76.94
476.158	80.94
476.377	83.94
476.596	90.94
476.814	67.94
477.033	72.94
477.252	86.94
477.471	88.94
477.69	86.94
477.908	77.94
478.127	79.94
478.346	69.94
478.564	83.94
478.783	66.94
479.002	87.94
479.22	84.94
479.439	72.94
479.658	88.94
479.876	97.94
480.095	74.94
480.313	82.94
480.532	86.94
480.751	95.94
480.969	87.94
481.188	95.94
481.406	72.94
481.624	83.94
481.843	73.94
482.061	86.94
482.28	74.94
482.498	75.94
482.717	78.94
482.935	91.94
483.153	74.94
483.372	84.94
483.59	83.94
483.808	87.94
484.027	86.94
484.245	78.94
484.463	74.94
484.681	81.94
484.9	79.94
485.118	94.94
485.336	72.94
485.554	69.94
485.772	76.94
485.99	98.94
486.209	94.94
486.427	70.94
486.645	71.94
486.863	71.94
487.081	80.94
487.299	87.94
487.517	78.94
487.735	95.94
487.953	86.94
488.171	87.94
488.389	84.94
488.607	75.94
488.825	80.94
489.043	98.94
489.261	79.94
489.479	80.94
489.696	85.94
489.914	87.94
490.132	82.94
490.35	63.94
490.568	71.94
490.786	92.94
491.003	77.94
491.221	79.94
491.439	77.94
491.657	90.94
491.874	82.94
492.092	83.94
492.31	71.94
492.527	84.94
492.745	91.94
492.963	81.94
493.18	72.94
493.398	91.94
493.615	86.94
493.833	84.94
494.05	91.94
494.268	93.94
494.485	88.94
494.703	87.94
494.92	84.94
495.138	71.94
495.355	86.94
495.573	70.94
495.79	82.94
496.008	82.94
496.225	82.94
496.442	73.94
496.66	86.94
496.877	72.94
497.094	90.94
497.312	74.94
497.529	85.94
497.746	86.94
497.963	68.94
498.181	98.94
498.398	76.94
498.615	79.94
498.832	72.94
499.049	88.94
499.267	95.94
499.484	85.94
499.701	74.94
499.918	92.94
500.135	86.94
500.352	73.94
500.569	86.94
500.786	79.94
501.003	71.94
501.22	69.94
501.437	91.94
501.654	87.94
501.871	76.94
502.088	74.94
502.305	95.94
502.522	72.94
502.739	86.94
502.956	76.94
503.172	75.94
503.389	88.94
503.606	85.94
503.823	90.94
504.04	87.94
504.256	87.94
504.473	79.94
504.69	89.94
504.907	88.94
505.123	78.94
505.34	83.94
505.557	85.94
505.773	81.94
505.99	82.94
506.207	82.94
506.423	86.94
506.64	77.94
506.856	88.94
507.073	78.94
507.289	88.94
507.506	84.94
507.722	92.94
507.939	93.94
508.155	80.94
508.372	75.94
508.588	86.94
508.805	76.94
509.021	90.94
509.238	100.94
509.454	79.94
509.67	89.94
509.887	85.94
510.103	78.94
510.319	80.94
510.536	72.94
510.752	80.94
510.968	71.94
511.184	84.94
511.401	80.94
511.617	68.94
511.833	79.94
512.049	91.94
512.265	79.94
512.481	82.94
512.698	69.94
512.914	95.94
513.13	88.94
513.346	77.94
513.562	89.94
513.778	84.94
513.994	80.94
514.21	89.94
514.426	71.94
514.642	82.94
514.858	100.94
515.074	83.94
515.29	100.94
515.506	78.94
515.721	85.94
515.937	81.94
516.153	77.94
516.369	77.94
516.585	65.94
516.801	78.94
517.016	79.94
517.232	83.94
517.448	87.94
517.664	78.94
517.879	74.94
518.095	76.94
518.311	78.94
518.527	87.94
518.742	95.94
518.958	91.94
519.173	86.94
519.389	78.94
519.605	89.94
519.82	78.94
520.036	88.94
520.251	80.94
