Data from BG_HRD10591_066.txt Node
Date: Fri May 16 15:21:26 EDT 2025
User: Yrep
Spectrometer: HR+D1059
Trigger mode: 1
Integration Time (sec): 1.000000E-1
Scans to average: 1
Electric dark correction enabled: true
Nonlinearity correction enabled: false
Boxcar width: 0
XAxis mode: Wavelengths
Number of Pixels in Spectrum: 2048
>>>>>Begin Spectral Data<<<<<
223.165	-11.94
223.4	-11.94
223.635	-11.94
223.869	-13.94
224.104	-36.94
224.338	-11.94
224.573	-25.94
224.808	-12.94
225.042	-5.94
225.277	-2.94
225.511	-6.94
225.746	1.06
225.98	16.06
226.215	5.06
226.449	12.06
226.683	28.06
226.918	35.06
227.152	32.06
227.387	29.06
227.621	30.06
227.856	45.06
228.09	40.06
228.324	45.06
228.559	52.06
228.793	60.06
229.027	62.06
229.262	67.06
229.496	70.06
229.73	69.06
229.964	70.06
230.199	60.06
230.433	72.06
230.667	78.06
230.901	74.06
231.136	79.06
231.37	83.06
231.604	72.06
231.838	74.06
232.072	88.06
232.306	75.06
232.541	98.06
232.775	87.06
233.009	77.06
233.243	79.06
233.477	84.06
233.711	82.06
233.945	85.06
234.179	68.06
234.413	84.06
234.647	69.06
234.881	78.06
235.115	74.06
235.349	63.06
235.583	93.06
235.817	69.06
236.051	77.06
236.285	80.06
236.519	95.06
236.753	88.06
236.987	71.06
237.221	61.06
237.455	60.06
237.689	62.06
237.922	71.06
238.156	79.06
238.39	81.06
238.624	75.06
238.858	76.06
239.091	70.06
239.325	72.06
239.559	72.06
239.793	79.06
240.027	62.06
240.26	80.06
240.494	82.06
240.728	72.06
240.961	93.06
241.195	75.06
241.429	79.06
241.662	96.06
241.896	80.06
242.13	68.06
242.363	72.06
242.597	74.06
242.83	78.06
243.064	68.06
243.298	89.06
243.531	68.06
243.765	64.06
243.998	79.06
244.232	84.06
244.465	88.06
244.699	75.06
244.932	72.06
245.166	87.06
245.399	75.06
245.633	79.06
245.866	71.06
246.099	79.06
246.333	74.06
246.566	70.06
246.8	77.06
247.033	70.06
247.266	64.06
247.5	86.06
247.733	72.06
247.966	73.06
248.2	70.06
248.433	64.06
248.666	76.06
248.899	68.06
249.133	68.06
249.366	70.06
249.599	78.06
249.832	82.06
250.066	87.06
250.299	65.06
250.532	74.06
250.765	75.06
250.998	73.06
251.231	67.06
251.465	70.06
251.698	81.06
251.931	68.06
252.164	76.06
252.397	71.06
252.63	82.06
252.863	72.06
253.096	74.06
253.329	68.06
253.562	93.06
253.795	90.06
254.028	84.06
254.261	73.06
254.494	84.06
254.727	83.06
254.96	69.06
255.193	81.06
255.426	71.06
255.659	74.06
255.892	68.06
256.124	74.06
256.357	84.06
256.59	80.06
256.823	75.06
257.056	90.06
257.289	84.06
257.521	89.06
257.754	78.06
257.987	82.06
258.22	85.06
258.452	77.06
258.685	66.06
258.918	69.06
259.151	79.06
259.383	82.06
259.616	88.06
259.849	87.06
260.081	89.06
260.314	84.06
260.547	66.06
260.779	75.06
261.012	79.06
261.244	62.06
261.477	83.06
261.71	78.06
261.942	78.06
262.175	77.06
262.407	77.06
262.64	67.06
262.872	76.06
263.105	75.06
263.337	78.06
263.57	69.06
263.802	71.06
264.035	79.06
264.267	81.06
264.499	72.06
264.732	73.06
264.964	75.06
265.197	76.06
265.429	74.06
265.661	79.06
265.894	82.06
266.126	77.06
266.358	81.06
266.591	69.06
266.823	78.06
267.055	75.06
267.287	82.06
267.52	76.06
267.752	66.06
267.984	76.06
268.216	85.06
268.448	80.06
268.681	92.06
268.913	73.06
269.145	75.06
269.377	58.06
269.609	63.06
269.841	77.06
270.073	75.06
270.306	75.06
270.538	64.06
270.77	70.06
271.002	80.06
271.234	74.06
271.466	67.06
271.698	77.06
271.93	54.06
272.162	87.06
272.394	75.06
272.626	83.06
272.858	84.06
273.09	96.06
273.322	86.06
273.553	78.06
273.785	81.06
274.017	78.06
274.249	91.06
274.481	72.06
274.713	83.06
274.945	80.06
275.176	83.06
275.408	81.06
275.64	80.06
275.872	66.06
276.104	87.06
276.335	78.06
276.567	86.06
276.799	86.06
277.031	75.06
277.262	68.06
277.494	71.06
277.726	79.06
277.957	82.06
278.189	78.06
278.421	84.06
278.652	70.06
278.884	84.06
279.115	78.06
279.347	68.06
279.579	89.06
279.81	95.06
280.042	82.06
280.273	76.06
280.505	85.06
280.736	93.06
280.968	80.06
281.199	77.06
281.431	66.06
281.662	86.06
281.894	86.06
282.125	76.06
282.356	74.06
282.588	87.06
282.819	84.06
283.051	98.06
283.282	80.06
283.513	84.06
283.745	96.06
283.976	96.06
284.207	75.06
284.439	84.06
284.67	95.06
284.901	76.06
285.132	77.06
285.364	81.06
285.595	69.06
285.826	92.06
286.057	71.06
286.288	61.06
286.52	88.06
286.751	76.06
286.982	79.06
287.213	80.06
287.444	90.06
287.675	90.06
287.906	76.06
288.138	75.06
288.369	72.06
288.6	85.06
288.831	78.06
289.062	76.06
289.293	86.06
289.524	68.06
289.755	58.06
289.986	76.06
290.217	71.06
290.448	75.06
290.679	86.06
290.91	78.06
291.141	72.06
291.371	83.06
291.602	69.06
291.833	88.06
292.064	77.06
292.295	80.06
292.526	87.06
292.757	84.06
292.987	77.06
293.218	78.06
293.449	96.06
293.68	76.06
293.91	67.06
294.141	81.06
294.372	83.06
294.603	71.06
294.833	72.06
295.064	80.06
295.295	79.06
295.525	74.06
295.756	93.06
295.987	78.06
296.217	80.06
296.448	99.06
296.679	84.06
296.909	87.06
297.14	82.06
297.37	78.06
297.601	75.06
297.831	71.06
298.062	76.06
298.292	79.06
298.523	99.06
298.753	80.06
298.984	80.06
299.214	83.06
299.445	83.06
299.675	82.06
299.905	92.06
300.136	72.06
300.366	79.06
300.597	91.06
300.827	77.06
301.057	92.06
301.288	83.06
301.518	70.06
301.748	78.06
301.979	92.06
302.209	80.06
302.439	82.06
302.669	74.06
302.9	68.06
303.13	87.06
303.36	81.06
303.59	91.06
303.82	77.06
304.051	76.06
304.281	75.06
304.511	95.06
304.741	73.06
304.971	69.06
305.201	79.06
305.431	89.06
305.661	83.06
305.891	100.06
306.121	83.06
306.352	83.06
306.582	80.06
306.812	94.06
307.042	76.06
307.272	87.06
307.502	89.06
307.731	80.06
307.961	79.06
308.191	69.06
308.421	86.06
308.651	74.06
308.881	90.06
309.111	75.06
309.341	88.06
309.571	83.06
309.8	86.06
310.03	87.06
310.26	64.06
310.49	78.06
310.72	82.06
310.949	82.06
311.179	71.06
311.409	95.06
311.639	86.06
311.868	84.06
312.098	67.06
312.328	80.06
312.557	80.06
312.787	79.06
313.017	86.06
313.246	82.06
313.476	77.06
313.706	85.06
313.935	77.06
314.165	63.06
314.394	87.06
314.624	79.06
314.853	90.06
315.083	67.06
315.312	66.06
315.542	87.06
315.771	85.06
316.001	78.06
316.23	79.06
316.46	79.06
316.689	71.06
316.919	86.06
317.148	81.06
317.377	94.06
317.607	86.06
317.836	89.06
318.065	84.06
318.295	82.06
318.524	85.06
318.753	76.06
318.983	64.06
319.212	97.06
319.441	84.06
319.67	75.06
319.9	76.06
320.129	95.06
320.358	83.06
320.587	76.06
320.816	72.06
321.046	76.06
321.275	82.06
321.504	80.06
321.733	77.06
321.962	78.06
322.191	70.06
322.42	73.06
322.649	98.06
322.878	82.06
323.108	86.06
323.337	91.06
323.566	84.06
323.795	78.06
324.024	70.06
324.253	88.06
324.482	84.06
324.71	74.06
324.939	84.06
325.168	86.06
325.397	84.06
325.626	87.06
325.855	82.06
326.084	77.06
326.313	74.06
326.542	74.06
326.77	82.06
326.999	65.06
327.228	95.06
327.457	87.06
327.686	79.06
327.914	78.06
328.143	85.06
328.372	77.06
328.6	81.06
328.829	74.06
329.058	75.06
329.287	79.06
329.515	80.06
329.744	87.06
329.972	71.06
330.201	85.06
330.43	75.06
330.658	75.06
330.887	67.06
331.115	78.06
331.344	77.06
331.572	79.06
331.801	100.06
332.03	88.06
332.258	89.06
332.486	80.06
332.715	70.06
332.943	76.06
333.172	82.06
333.4	78.06
333.629	86.06
333.857	90.06
334.085	79.06
334.314	83.06
334.542	76.06
334.771	88.06
334.999	78.06
335.227	82.06
335.455	87.06
335.684	80.06
335.912	85.06
336.14	77.06
336.369	84.06
336.597	74.06
336.825	62.06
337.053	83.06
337.281	84.06
337.51	87.06
337.738	89.06
337.966	77.06
338.194	76.06
338.422	82.06
338.65	74.06
338.878	72.06
339.106	70.06
339.334	87.06
339.562	78.06
339.79	86.06
340.018	91.06
340.246	92.06
340.474	71.06
340.702	75.06
340.93	74.06
341.158	78.06
341.386	85.06
341.614	75.06
341.842	78.06
342.07	88.06
342.298	86.06
342.526	79.06
342.754	77.06
342.981	70.06
343.209	65.06
343.437	94.06
343.665	75.06
343.893	66.06
344.12	85.06
344.348	79.06
344.576	89.06
344.804	86.06
345.031	83.06
345.259	77.06
345.487	75.06
345.714	79.06
345.942	79.06
346.17	69.06
346.397	76.06
346.625	75.06
346.853	84.06
347.08	64.06
347.308	67.06
347.535	70.06
347.763	81.06
347.99	70.06
348.218	72.06
348.445	66.06
348.673	77.06
348.9	79.06
349.128	80.06
349.355	68.06
349.583	74.06
349.81	63.06
350.037	76.06
350.265	64.06
350.492	79.06
350.72	64.06
350.947	92.06
351.174	77.06
351.402	82.06
351.629	72.06
351.856	83.06
352.083	71.06
352.311	78.06
352.538	84.06
352.765	91.06
352.992	86.06
353.22	74.06
353.447	84.06
353.674	83.06
353.901	88.06
354.128	76.06
354.355	82.06
354.583	84.06
354.81	86.06
355.037	84.06
355.264	77.06
355.491	80.06
355.718	94.06
355.945	66.06
356.172	89.06
356.399	90.06
356.626	84.06
356.853	82.06
357.08	83.06
357.307	76.06
357.534	81.06
357.761	78.06
357.988	91.06
358.215	79.06
358.441	70.06
358.668	82.06
358.895	70.06
359.122	65.06
359.349	72.06
359.576	87.06
359.802	77.06
360.029	87.06
360.256	80.06
360.483	79.06
360.709	79.06
360.936	95.06
361.163	75.06
361.39	71.06
361.616	66.06
361.843	68.06
362.07	78.06
362.296	82.06
362.523	90.06
362.749	83.06
362.976	76.06
363.203	80.06
363.429	77.06
363.656	83.06
363.882	75.06
364.109	83.06
364.335	87.06
364.562	75.06
364.788	87.06
365.015	94.06
365.241	86.06
365.468	81.06
365.694	89.06
365.92	84.06
366.147	82.06
366.373	86.06
366.599	81.06
366.826	74.06
367.052	73.06
367.278	78.06
367.505	72.06
367.731	88.06
367.957	88.06
368.184	72.06
368.41	73.06
368.636	79.06
368.862	82.06
369.089	72.06
369.315	85.06
369.541	86.06
369.767	75.06
369.993	90.06
370.219	80.06
370.445	84.06
370.672	70.06
370.898	83.06
371.124	70.06
371.35	87.06
371.576	89.06
371.802	86.06
372.028	86.06
372.254	94.06
372.48	69.06
372.706	84.06
372.932	72.06
373.158	71.06
373.384	90.06
373.61	94.06
373.835	75.06
374.061	83.06
374.287	86.06
374.513	76.06
374.739	84.06
374.965	102.06
375.191	68.06
375.416	83.06
375.642	86.06
375.868	74.06
376.094	81.06
376.319	84.06
376.545	76.06
376.771	78.06
376.997	92.06
377.222	68.06
377.448	88.06
377.674	78.06
377.899	85.06
378.125	74.06
378.35	87.06
378.576	83.06
378.802	75.06
379.027	82.06
379.253	74.06
379.478	96.06
379.704	65.06
379.929	102.06
380.155	85.06
380.38	84.06
380.606	77.06
380.831	82.06
381.057	81.06
381.282	71.06
381.507	82.06
381.733	75.06
381.958	76.06
382.184	80.06
382.409	78.06
382.634	83.06
382.86	72.06
383.085	74.06
383.31	69.06
383.535	76.06
383.761	85.06
383.986	84.06
384.211	69.06
384.436	74.06
384.662	77.06
384.887	84.06
385.112	90.06
385.337	75.06
385.562	71.06
385.787	79.06
386.013	70.06
386.238	92.06
386.463	87.06
386.688	82.06
386.913	75.06
387.138	74.06
387.363	86.06
387.588	92.06
387.813	80.06
388.038	83.06
388.263	94.06
388.488	88.06
388.713	83.06
388.938	80.06
389.163	80.06
389.387	71.06
389.612	73.06
389.837	76.06
390.062	83.06
390.287	77.06
390.512	79.06
390.736	79.06
390.961	80.06
391.186	75.06
391.411	88.06
391.636	65.06
391.86	82.06
392.085	79.06
392.31	88.06
392.534	84.06
392.759	87.06
392.984	72.06
393.208	70.06
393.433	69.06
393.658	80.06
393.882	84.06
394.107	75.06
394.331	73.06
394.556	85.06
394.78	91.06
395.005	73.06
395.229	75.06
395.454	71.06
395.678	96.06
395.903	66.06
396.127	73.06
396.352	90.06
396.576	87.06
396.801	78.06
397.025	78.06
397.249	79.06
397.474	70.06
397.698	81.06
397.922	93.06
398.147	84.06
398.371	78.06
398.595	83.06
398.82	82.06
399.044	85.06
399.268	79.06
399.492	76.06
399.717	94.06
399.941	80.06
400.165	84.06
400.389	77.06
400.613	78.06
400.837	85.06
401.062	71.06
401.286	94.06
401.51	78.06
401.734	83.06
401.958	79.06
402.182	86.06
402.406	82.06
402.63	94.06
402.854	80.06
403.078	82.06
403.302	96.06
403.526	92.06
403.75	91.06
403.974	81.06
404.198	79.06
404.422	93.06
404.645	84.06
404.869	73.06
405.093	80.06
405.317	70.06
405.541	69.06
405.765	79.06
405.988	86.06
406.212	78.06
406.436	79.06
406.66	76.06
406.883	85.06
407.107	84.06
407.331	86.06
407.555	83.06
407.778	78.06
408.002	86.06
408.226	82.06
408.449	79.06
408.673	80.06
408.896	79.06
409.12	75.06
409.344	85.06
409.567	81.06
409.791	76.06
410.014	64.06
410.238	84.06
410.461	82.06
410.685	95.06
410.908	82.06
411.132	87.06
411.355	99.06
411.578	78.06
411.802	70.06
412.025	71.06
412.249	66.06
412.472	78.06
412.695	91.06
412.919	79.06
413.142	76.06
413.365	77.06
413.589	73.06
413.812	83.06
414.035	90.06
414.258	80.06
414.482	82.06
414.705	87.06
414.928	85.06
415.151	86.06
415.374	72.06
415.597	88.06
415.821	82.06
416.044	89.06
416.267	80.06
416.49	78.06
416.713	81.06
416.936	72.06
417.159	72.06
417.382	81.06
417.605	72.06
417.828	71.06
418.051	84.06
418.274	77.06
418.497	72.06
418.72	76.06
418.943	90.06
419.166	78.06
419.389	87.06
419.611	70.06
419.834	87.06
420.057	80.06
420.28	86.06
420.503	79.06
420.726	78.06
420.948	84.06
421.171	61.06
421.394	62.06
421.617	82.06
421.839	64.06
422.062	74.06
422.285	64.06
422.507	76.06
422.73	93.06
422.953	74.06
423.175	69.06
423.398	71.06
423.621	77.06
423.843	75.06
424.066	102.06
424.288	81.06
424.511	72.06
424.733	87.06
424.956	94.06
425.178	62.06
425.401	82.06
425.623	77.06
425.846	90.06
426.068	72.06
426.291	74.06
426.513	80.06
426.735	70.06
426.958	78.06
427.18	85.06
427.402	101.06
427.625	80.06
427.847	77.06
428.069	71.06
428.292	81.06
428.514	98.06
428.736	78.06
428.958	84.06
429.181	89.06
429.403	74.06
429.625	71.06
429.847	92.06
430.069	84.06
430.292	85.06
430.514	78.06
430.736	71.06
430.958	80.06
431.18	76.06
431.402	67.06
431.624	93.06
431.846	74.06
432.068	96.06
432.29	81.06
432.512	81.06
432.734	84.06
432.956	75.06
433.178	95.06
433.4	82.06
433.622	78.06
433.844	67.06
434.066	88.06
434.287	76.06
434.509	73.06
434.731	88.06
434.953	93.06
435.175	79.06
435.397	95.06
435.618	79.06
435.84	77.06
436.062	81.06
436.284	74.06
436.505	95.06
436.727	73.06
436.949	83.06
437.17	93.06
437.392	92.06
437.614	80.06
437.835	80.06
438.057	83.06
438.278	94.06
438.5	75.06
438.721	68.06
438.943	95.06
439.165	78.06
439.386	79.06
439.608	84.06
439.829	74.06
440.05	70.06
440.272	86.06
440.493	82.06
440.715	77.06
440.936	82.06
441.158	72.06
441.379	82.06
441.6	75.06
441.822	68.06
442.043	75.06
442.264	84.06
442.486	66.06
442.707	90.06
442.928	90.06
443.149	81.06
443.371	87.06
443.592	78.06
443.813	90.06
444.034	80.06
444.255	87.06
444.476	81.06
444.698	76.06
444.919	86.06
445.14	166.06
445.361	116.06
445.582	85.06
445.803	78.06
446.024	80.06
446.245	87.06
446.466	70.06
446.687	74.06
446.908	65.06
447.129	76.06
447.35	88.06
447.571	71.06
447.792	85.06
448.013	63.06
448.234	92.06
448.455	88.06
448.675	71.06
448.896	73.06
449.117	75.06
449.338	71.06
449.559	94.06
449.779	76.06
450	89.06
450.221	71.06
450.442	82.06
450.662	83.06
450.883	69.06
451.104	81.06
451.324	72.06
451.545	80.06
451.766	93.06
451.986	87.06
452.207	91.06
452.428	89.06
452.648	80.06
452.869	90.06
453.089	73.06
453.31	92.06
453.53	85.06
453.751	75.06
453.971	86.06
454.192	89.06
454.412	78.06
454.633	82.06
454.853	85.06
455.073	77.06
455.294	82.06
455.514	95.06
455.734	79.06
455.955	88.06
456.175	98.06
456.395	82.06
456.616	82.06
456.836	75.06
457.056	76.06
457.276	80.06
457.497	89.06
457.717	72.06
457.937	82.06
458.157	87.06
458.377	78.06
458.598	80.06
458.818	83.06
459.038	83.06
459.258	89.06
459.478	71.06
459.698	96.06
459.918	80.06
460.138	74.06
460.358	78.06
460.578	86.06
460.798	81.06
461.018	88.06
461.238	72.06
461.458	90.06
461.678	92.06
461.898	91.06
462.118	82.06
462.338	89.06
462.558	73.06
462.777	75.06
462.997	88.06
463.217	75.06
463.437	93.06
463.657	74.06
463.876	88.06
464.096	83.06
464.316	74.06
464.536	73.06
464.755	82.06
464.975	71.06
465.195	88.06
465.414	69.06
465.634	65.06
465.854	80.06
466.073	88.06
466.293	90.06
466.512	78.06
466.732	84.06
466.951	72.06
467.171	83.06
467.391	88.06
467.61	86.06
467.829	88.06
468.049	76.06
468.268	84.06
468.488	75.06
468.707	82.06
468.927	84.06
469.146	93.06
469.365	91.06
469.585	78.06
469.804	75.06
470.023	86.06
470.243	85.06
470.462	76.06
470.681	65.06
470.901	85.06
471.12	91.06
471.339	68.06
471.558	101.06
471.777	86.06
471.997	78.06
472.216	79.06
472.435	91.06
472.654	80.06
472.873	90.06
473.092	86.06
473.311	90.06
473.53	88.06
473.749	78.06
473.968	88.06
474.187	94.06
474.406	74.06
474.625	71.06
474.844	82.06
475.063	76.06
475.282	77.06
475.501	74.06
475.72	82.06
475.939	91.06
476.158	96.06
476.377	76.06
476.596	83.06
476.814	86.06
477.033	79.06
477.252	87.06
477.471	84.06
477.69	85.06
477.908	84.06
478.127	65.06
478.346	90.06
478.564	80.06
478.783	86.06
479.002	84.06
479.22	79.06
479.439	98.06
479.658	82.06
479.876	87.06
480.095	82.06
480.313	82.06
480.532	86.06
480.751	76.06
480.969	78.06
481.188	85.06
481.406	92.06
481.624	72.06
481.843	77.06
482.061	75.06
482.28	79.06
482.498	78.06
482.717	91.06
482.935	85.06
483.153	76.06
483.372	82.06
483.59	94.06
483.808	82.06
484.027	69.06
484.245	71.06
484.463	69.06
484.681	77.06
484.9	84.06
485.118	80.06
485.336	80.06
485.554	90.06
485.772	82.06
485.99	92.06
486.209	78.06
486.427	70.06
486.645	77.06
486.863	74.06
487.081	80.06
487.299	82.06
487.517	87.06
487.735	76.06
487.953	74.06
488.171	90.06
488.389	89.06
488.607	74.06
488.825	71.06
489.043	75.06
489.261	82.06
489.479	95.06
489.696	92.06
489.914	75.06
490.132	88.06
490.35	86.06
490.568	88.06
490.786	82.06
491.003	91.06
491.221	88.06
491.439	72.06
491.657	82.06
491.874	83.06
492.092	88.06
492.31	88.06
492.527	93.06
492.745	71.06
492.963	96.06
493.18	95.06
493.398	93.06
493.615	74.06
493.833	72.06
494.05	89.06
494.268	78.06
494.485	82.06
494.703	88.06
494.92	82.06
495.138	80.06
495.355	88.06
495.573	78.06
495.79	76.06
496.008	70.06
496.225	85.06
496.442	90.06
496.66	101.06
496.877	91.06
497.094	79.06
497.312	84.06
497.529	90.06
497.746	92.06
497.963	87.06
498.181	89.06
498.398	91.06
498.615	104.06
498.832	90.06
499.049	89.06
499.267	84.06
499.484	79.06
499.701	70.06
499.918	95.06
500.135	80.06
500.352	88.06
500.569	74.06
500.786	87.06
501.003	76.06
501.22	74.06
501.437	82.06
501.654	83.06
501.871	83.06
502.088	73.06
502.305	84.06
502.522	81.06
502.739	84.06
502.956	86.06
503.172	98.06
503.389	79.06
503.606	84.06
503.823	77.06
504.04	93.06
504.256	88.06
504.473	81.06
504.69	68.06
504.907	90.06
505.123	84.06
505.34	75.06
505.557	73.06
505.773	81.06
505.99	82.06
506.207	77.06
506.423	76.06
506.64	83.06
506.856	82.06
507.073	76.06
507.289	78.06
507.506	78.06
507.722	76.06
507.939	86.06
508.155	81.06
508.372	77.06
508.588	88.06
508.805	84.06
509.021	78.06
509.238	80.06
509.454	84.06
509.67	93.06
509.887	68.06
510.103	68.06
510.319	86.06
510.536	92.06
510.752	79.06
510.968	79.06
511.184	70.06
511.401	86.06
511.617	107.06
511.833	95.06
512.049	87.06
512.265	76.06
512.481	80.06
512.698	74.06
512.914	86.06
513.13	84.06
513.346	78.06
513.562	92.06
513.778	90.06
513.994	80.06
514.21	75.06
514.426	91.06
514.642	94.06
514.858	77.06
515.074	79.06
515.29	84.06
515.506	84.06
515.721	75.06
515.937	85.06
516.153	98.06
516.369	72.06
516.585	71.06
516.801	87.06
517.016	84.06
517.232	78.06
517.448	84.06
517.664	83.06
517.879	79.06
518.095	75.06
518.311	89.06
518.527	79.06
518.742	99.06
518.958	77.06
519.173	72.06
519.389	83.06
519.605	79.06
519.82	95.06
520.036	90.06
520.251	99.06
