Data from BG_HRD10591_003.txt Node
Date: Fri May 16 15:20:55 EDT 2025
User: Yrep
Spectrometer: HR+D1059
Trigger mode: 1
Integration Time (sec): 1.000000E-1
Scans to average: 1
Electric dark correction enabled: true
Nonlinearity correction enabled: false
Boxcar width: 0
XAxis mode: Wavelengths
Number of Pixels in Spectrum: 2048
>>>>>Begin Spectral Data<<<<<
223.165	-31.81
223.4	-31.81
223.635	-31.81
223.869	-17.81
224.104	-19.81
224.338	-18.81
224.573	-5.81
224.808	-17.81
225.042	-13.81
225.277	0.19
225.511	11.19
225.746	-2.81
225.98	13.19
226.215	10.19
226.449	16.19
226.683	18.19
226.918	25.19
227.152	34.19
227.387	43.19
227.621	30.19
227.856	45.19
228.09	53.19
228.324	49.19
228.559	55.19
228.793	64.19
229.027	52.19
229.262	72.19
229.496	75.19
229.73	64.19
229.964	69.19
230.199	70.19
230.433	77.19
230.667	73.19
230.901	75.19
231.136	64.19
231.37	84.19
231.604	72.19
231.838	78.19
232.072	80.19
232.306	87.19
232.541	72.19
232.775	74.19
233.009	87.19
233.243	80.19
233.477	76.19
233.711	85.19
233.945	74.19
234.179	71.19
234.413	72.19
234.647	67.19
234.881	82.19
235.115	66.19
235.349	76.19
235.583	78.19
235.817	76.19
236.051	70.19
236.285	77.19
236.519	72.19
236.753	72.19
236.987	66.19
237.221	73.19
237.455	76.19
237.689	80.19
237.922	72.19
238.156	80.19
238.39	76.19
238.624	65.19
238.858	79.19
239.091	76.19
239.325	75.19
239.559	71.19
239.793	61.19
240.027	90.19
240.26	88.19
240.494	81.19
240.728	75.19
240.961	83.19
241.195	84.19
241.429	78.19
241.662	64.19
241.896	64.19
242.13	77.19
242.363	69.19
242.597	72.19
242.83	87.19
243.064	75.19
243.298	64.19
243.531	74.19
243.765	70.19
243.998	88.19
244.232	83.19
244.465	81.19
244.699	72.19
244.932	75.19
245.166	86.19
245.399	75.19
245.633	80.19
245.866	77.19
246.099	72.19
246.333	74.19
246.566	69.19
246.8	71.19
247.033	70.19
247.266	78.19
247.5	76.19
247.733	96.19
247.966	84.19
248.2	70.19
248.433	79.19
248.666	86.19
248.899	82.19
249.133	77.19
249.366	86.19
249.599	87.19
249.832	83.19
250.066	82.19
250.299	79.19
250.532	71.19
250.765	70.19
250.998	73.19
251.231	96.19
251.465	81.19
251.698	66.19
251.931	70.19
252.164	100.19
252.397	76.19
252.63	70.19
252.863	77.19
253.096	68.19
253.329	90.19
253.562	74.19
253.795	86.19
254.028	85.19
254.261	79.19
254.494	77.19
254.727	86.19
254.96	69.19
255.193	76.19
255.426	91.19
255.659	95.19
255.892	85.19
256.124	66.19
256.357	69.19
256.59	81.19
256.823	87.19
257.056	86.19
257.289	88.19
257.521	84.19
257.754	85.19
257.987	80.19
258.22	72.19
258.452	83.19
258.685	76.19
258.918	101.19
259.151	84.19
259.383	83.19
259.616	75.19
259.849	71.19
260.081	89.19
260.314	85.19
260.547	69.19
260.779	72.19
261.012	86.19
261.244	75.19
261.477	84.19
261.71	76.19
261.942	76.19
262.175	69.19
262.407	81.19
262.64	77.19
262.872	75.19
263.105	81.19
263.337	75.19
263.57	77.19
263.802	82.19
264.035	85.19
264.267	92.19
264.499	92.19
264.732	85.19
264.964	84.19
265.197	81.19
265.429	69.19
265.661	69.19
265.894	77.19
266.126	75.19
266.358	74.19
266.591	94.19
266.823	81.19
267.055	80.19
267.287	95.19
267.52	70.19
267.752	100.19
267.984	85.19
268.216	84.19
268.448	81.19
268.681	85.19
268.913	80.19
269.145	75.19
269.377	87.19
269.609	78.19
269.841	82.19
270.073	91.19
270.306	84.19
270.538	85.19
270.77	74.19
271.002	92.19
271.234	70.19
271.466	85.19
271.698	87.19
271.93	85.19
272.162	91.19
272.394	84.19
272.626	99.19
272.858	95.19
273.09	89.19
273.322	93.19
273.553	85.19
273.785	79.19
274.017	84.19
274.249	80.19
274.481	87.19
274.713	97.19
274.945	85.19
275.176	86.19
275.408	66.19
275.64	84.19
275.872	65.19
276.104	72.19
276.335	85.19
276.567	86.19
276.799	89.19
277.031	85.19
277.262	92.19
277.494	103.19
277.726	98.19
277.957	92.19
278.189	97.19
278.421	72.19
278.652	90.19
278.884	105.19
279.115	84.19
279.347	92.19
279.579	94.19
279.81	84.19
280.042	74.19
280.273	86.19
280.505	75.19
280.736	85.19
280.968	81.19
281.199	79.19
281.431	66.19
281.662	74.19
281.894	88.19
282.125	81.19
282.356	81.19
282.588	85.19
282.819	93.19
283.051	103.19
283.282	84.19
283.513	80.19
283.745	100.19
283.976	89.19
284.207	88.19
284.439	93.19
284.67	77.19
284.901	87.19
285.132	86.19
285.364	73.19
285.595	80.19
285.826	89.19
286.057	91.19
286.288	96.19
286.52	94.19
286.751	90.19
286.982	87.19
287.213	118.19
287.444	83.19
287.675	85.19
287.906	85.19
288.138	76.19
288.369	97.19
288.6	84.19
288.831	88.19
289.062	95.19
289.293	97.19
289.524	83.19
289.755	93.19
289.986	76.19
290.217	83.19
290.448	84.19
290.679	92.19
290.91	93.19
291.141	76.19
291.371	92.19
291.602	79.19
291.833	86.19
292.064	81.19
292.295	84.19
292.526	88.19
292.757	93.19
292.987	80.19
293.218	91.19
293.449	72.19
293.68	87.19
293.91	78.19
294.141	90.19
294.372	83.19
294.603	93.19
294.833	82.19
295.064	78.19
295.295	91.19
295.525	77.19
295.756	82.19
295.987	88.19
296.217	91.19
296.448	86.19
296.679	81.19
296.909	89.19
297.14	88.19
297.37	75.19
297.601	81.19
297.831	80.19
298.062	88.19
298.292	87.19
298.523	84.19
298.753	92.19
298.984	86.19
299.214	87.19
299.445	83.19
299.675	90.19
299.905	94.19
300.136	65.19
300.366	90.19
300.597	87.19
300.827	88.19
301.057	77.19
301.288	92.19
301.518	93.19
301.748	83.19
301.979	102.19
302.209	84.19
302.439	86.19
302.669	102.19
302.9	84.19
303.13	78.19
303.36	89.19
303.59	93.19
303.82	88.19
304.051	79.19
304.281	81.19
304.511	83.19
304.741	82.19
304.971	79.19
305.201	81.19
305.431	84.19
305.661	91.19
305.891	103.19
306.121	86.19
306.352	77.19
306.582	83.19
306.812	87.19
307.042	69.19
307.272	108.19
307.502	71.19
307.731	82.19
307.961	92.19
308.191	84.19
308.421	87.19
308.651	87.19
308.881	90.19
309.111	98.19
309.341	87.19
309.571	83.19
309.8	69.19
310.03	77.19
310.26	95.19
310.49	80.19
310.72	93.19
310.949	91.19
311.179	87.19
311.409	82.19
311.639	74.19
311.868	93.19
312.098	86.19
312.328	80.19
312.557	84.19
312.787	81.19
313.017	106.19
313.246	97.19
313.476	92.19
313.706	76.19
313.935	78.19
314.165	81.19
314.394	90.19
314.624	72.19
314.853	85.19
315.083	90.19
315.312	84.19
315.542	85.19
315.771	80.19
316.001	77.19
316.23	90.19
316.46	72.19
316.689	80.19
316.919	78.19
317.148	85.19
317.377	95.19
317.607	94.19
317.836	84.19
318.065	95.19
318.295	95.19
318.524	88.19
318.753	87.19
318.983	85.19
319.212	93.19
319.441	87.19
319.67	92.19
319.9	74.19
320.129	93.19
320.358	86.19
320.587	92.19
320.816	80.19
321.046	96.19
321.275	107.19
321.504	84.19
321.733	96.19
321.962	85.19
322.191	102.19
322.42	101.19
322.649	96.19
322.878	89.19
323.108	92.19
323.337	90.19
323.566	108.19
323.795	92.19
324.024	93.19
324.253	84.19
324.482	82.19
324.71	90.19
324.939	77.19
325.168	91.19
325.397	89.19
325.626	103.19
325.855	79.19
326.084	90.19
326.313	90.19
326.542	88.19
326.77	76.19
326.999	97.19
327.228	80.19
327.457	96.19
327.686	103.19
327.914	98.19
328.143	78.19
328.372	76.19
328.6	84.19
328.829	82.19
329.058	85.19
329.287	83.19
329.515	88.19
329.744	87.19
329.972	91.19
330.201	81.19
330.43	84.19
330.658	84.19
330.887	87.19
331.115	93.19
331.344	100.19
331.572	89.19
331.801	91.19
332.03	88.19
332.258	89.19
332.486	97.19
332.715	96.19
332.943	97.19
333.172	85.19
333.4	95.19
333.629	82.19
333.857	92.19
334.085	97.19
334.314	82.19
334.542	92.19
334.771	86.19
334.999	95.19
335.227	83.19
335.455	93.19
335.684	101.19
335.912	91.19
336.14	80.19
336.369	84.19
336.597	82.19
336.825	80.19
337.053	77.19
337.281	80.19
337.51	90.19
337.738	97.19
337.966	81.19
338.194	102.19
338.422	104.19
338.65	91.19
338.878	86.19
339.106	86.19
339.334	92.19
339.562	89.19
339.79	84.19
340.018	85.19
340.246	84.19
340.474	98.19
340.702	96.19
340.93	81.19
341.158	79.19
341.386	93.19
341.614	99.19
341.842	98.19
342.07	100.19
342.298	97.19
342.526	96.19
342.754	90.19
342.981	85.19
343.209	76.19
343.437	97.19
343.665	90.19
343.893	90.19
344.12	87.19
344.348	80.19
344.576	86.19
344.804	103.19
345.031	81.19
345.259	82.19
345.487	95.19
345.714	75.19
345.942	100.19
346.17	80.19
346.397	88.19
346.625	104.19
346.853	88.19
347.08	93.19
347.308	88.19
347.535	85.19
347.763	88.19
347.99	87.19
348.218	93.19
348.445	85.19
348.673	91.19
348.9	87.19
349.128	87.19
349.355	93.19
349.583	88.19
349.81	81.19
350.037	89.19
350.265	86.19
350.492	95.19
350.72	98.19
350.947	86.19
351.174	80.19
351.402	81.19
351.629	92.19
351.856	93.19
352.083	80.19
352.311	92.19
352.538	96.19
352.765	94.19
352.992	86.19
353.22	89.19
353.447	78.19
353.674	90.19
353.901	97.19
354.128	85.19
354.355	79.19
354.583	76.19
354.81	84.19
355.037	102.19
355.264	88.19
355.491	84.19
355.718	70.19
355.945	73.19
356.172	78.19
356.399	81.19
356.626	85.19
356.853	111.19
357.08	108.19
357.307	100.19
357.534	89.19
357.761	78.19
357.988	70.19
358.215	93.19
358.441	80.19
358.668	93.19
358.895	82.19
359.122	93.19
359.349	78.19
359.576	71.19
359.802	77.19
360.029	90.19
360.256	93.19
360.483	92.19
360.709	87.19
360.936	90.19
361.163	88.19
361.39	88.19
361.616	105.19
361.843	94.19
362.07	98.19
362.296	97.19
362.523	106.19
362.749	103.19
362.976	89.19
363.203	85.19
363.429	74.19
363.656	89.19
363.882	104.19
364.109	79.19
364.335	89.19
364.562	97.19
364.788	84.19
365.015	73.19
365.241	93.19
365.468	86.19
365.694	89.19
365.92	85.19
366.147	83.19
366.373	87.19
366.599	86.19
366.826	79.19
367.052	104.19
367.278	104.19
367.505	95.19
367.731	81.19
367.957	74.19
368.184	98.19
368.41	93.19
368.636	94.19
368.862	97.19
369.089	89.19
369.315	83.19
369.541	84.19
369.767	103.19
369.993	101.19
370.219	92.19
370.445	84.19
370.672	90.19
370.898	85.19
371.124	85.19
371.35	89.19
371.576	89.19
371.802	82.19
372.028	96.19
372.254	92.19
372.48	89.19
372.706	94.19
372.932	78.19
373.158	84.19
373.384	86.19
373.61	71.19
373.835	88.19
374.061	86.19
374.287	82.19
374.513	96.19
374.739	88.19
374.965	97.19
375.191	94.19
375.416	82.19
375.642	81.19
375.868	93.19
376.094	97.19
376.319	92.19
376.545	90.19
376.771	80.19
376.997	84.19
377.222	92.19
377.448	86.19
377.674	76.19
377.899	93.19
378.125	82.19
378.35	92.19
378.576	79.19
378.802	92.19
379.027	87.19
379.253	77.19
379.478	81.19
379.704	75.19
379.929	88.19
380.155	92.19
380.38	89.19
380.606	90.19
380.831	85.19
381.057	97.19
381.282	72.19
381.507	81.19
381.733	97.19
381.958	79.19
382.184	96.19
382.409	83.19
382.634	110.19
382.86	88.19
383.085	100.19
383.31	89.19
383.535	91.19
383.761	79.19
383.986	95.19
384.211	109.19
384.436	85.19
384.662	107.19
384.887	89.19
385.112	84.19
385.337	81.19
385.562	104.19
385.787	86.19
386.013	91.19
386.238	95.19
386.463	97.19
386.688	91.19
386.913	96.19
387.138	90.19
387.363	93.19
387.588	90.19
387.813	83.19
388.038	81.19
388.263	92.19
388.488	95.19
388.713	83.19
388.938	92.19
389.163	87.19
389.387	73.19
389.612	69.19
389.837	88.19
390.062	94.19
390.287	108.19
390.512	96.19
390.736	87.19
390.961	85.19
391.186	89.19
391.411	84.19
391.636	84.19
391.86	82.19
392.085	81.19
392.31	80.19
392.534	79.19
392.759	105.19
392.984	92.19
393.208	89.19
393.433	76.19
393.658	79.19
393.882	89.19
394.107	89.19
394.331	80.19
394.556	80.19
394.78	85.19
395.005	92.19
395.229	93.19
395.454	76.19
395.678	96.19
395.903	100.19
396.127	81.19
396.352	93.19
396.576	93.19
396.801	86.19
397.025	81.19
397.249	86.19
397.474	78.19
397.698	94.19
397.922	81.19
398.147	89.19
398.371	92.19
398.595	97.19
398.82	100.19
399.044	94.19
399.268	90.19
399.492	91.19
399.717	94.19
399.941	94.19
400.165	97.19
400.389	92.19
400.613	97.19
400.837	90.19
401.062	72.19
401.286	88.19
401.51	93.19
401.734	89.19
401.958	85.19
402.182	93.19
402.406	85.19
402.63	97.19
402.854	89.19
403.078	83.19
403.302	90.19
403.526	92.19
403.75	96.19
403.974	87.19
404.198	102.19
404.422	91.19
404.645	92.19
404.869	98.19
405.093	91.19
405.317	97.19
405.541	105.19
405.765	91.19
405.988	95.19
406.212	92.19
406.436	84.19
406.66	99.19
406.883	91.19
407.107	84.19
407.331	102.19
407.555	103.19
407.778	109.19
408.002	83.19
408.226	79.19
408.449	95.19
408.673	87.19
408.896	84.19
409.12	78.19
409.344	93.19
409.567	102.19
409.791	71.19
410.014	84.19
410.238	95.19
410.461	87.19
410.685	79.19
410.908	86.19
411.132	82.19
411.355	81.19
411.578	95.19
411.802	100.19
412.025	98.19
412.249	79.19
412.472	92.19
412.695	74.19
412.919	93.19
413.142	89.19
413.365	82.19
413.589	85.19
413.812	87.19
414.035	94.19
414.258	94.19
414.482	85.19
414.705	97.19
414.928	88.19
415.151	74.19
415.374	77.19
415.597	93.19
415.821	105.19
416.044	88.19
416.267	70.19
416.49	100.19
416.713	98.19
416.936	98.19
417.159	86.19
417.382	92.19
417.605	80.19
417.828	95.19
418.051	80.19
418.274	85.19
418.497	79.19
418.72	84.19
418.943	94.19
419.166	82.19
419.389	89.19
419.611	86.19
419.834	90.19
420.057	92.19
420.28	72.19
420.503	83.19
420.726	81.19
420.948	84.19
421.171	92.19
421.394	90.19
421.617	93.19
421.839	85.19
422.062	90.19
422.285	80.19
422.507	86.19
422.73	96.19
422.953	72.19
423.175	95.19
423.398	89.19
423.621	98.19
423.843	89.19
424.066	85.19
424.288	95.19
424.511	84.19
424.733	84.19
424.956	79.19
425.178	87.19
425.401	98.19
425.623	85.19
425.846	88.19
426.068	86.19
426.291	92.19
426.513	98.19
426.735	104.19
426.958	86.19
427.18	90.19
427.402	88.19
427.625	85.19
427.847	85.19
428.069	87.19
428.292	87.19
428.514	83.19
428.736	84.19
428.958	78.19
429.181	87.19
429.403	72.19
429.625	106.19
429.847	91.19
430.069	93.19
430.292	88.19
430.514	88.19
430.736	109.19
430.958	99.19
431.18	81.19
431.402	87.19
431.624	101.19
431.846	96.19
432.068	101.19
432.29	86.19
432.512	84.19
432.734	87.19
432.956	98.19
433.178	109.19
433.4	97.19
433.622	92.19
433.844	84.19
434.066	84.19
434.287	81.19
434.509	89.19
434.731	89.19
434.953	84.19
435.175	77.19
435.397	90.19
435.618	88.19
435.84	89.19
436.062	90.19
436.284	92.19
436.505	97.19
436.727	103.19
436.949	101.19
437.17	96.19
437.392	81.19
437.614	73.19
437.835	69.19
438.057	88.19
438.278	73.19
438.5	76.19
438.721	84.19
438.943	86.19
439.165	84.19
439.386	86.19
439.608	89.19
439.829	91.19
440.05	93.19
440.272	93.19
440.493	100.19
440.715	99.19
440.936	91.19
441.158	95.19
441.379	88.19
441.6	93.19
441.822	88.19
442.043	82.19
442.264	103.19
442.486	94.19
442.707	86.19
442.928	73.19
443.149	92.19
443.371	98.19
443.592	91.19
443.813	92.19
444.034	87.19
444.255	91.19
444.476	84.19
444.698	94.19
444.919	95.19
445.14	160.19
445.361	111.19
445.582	91.19
445.803	74.19
446.024	86.19
446.245	96.19
446.466	91.19
446.687	90.19
446.908	88.19
447.129	79.19
447.35	91.19
447.571	82.19
447.792	81.19
448.013	97.19
448.234	72.19
448.455	78.19
448.675	92.19
448.896	80.19
449.117	87.19
449.338	101.19
449.559	92.19
449.779	89.19
450	95.19
450.221	95.19
450.442	94.19
450.662	85.19
450.883	85.19
451.104	95.19
451.324	89.19
451.545	84.19
451.766	82.19
451.986	85.19
452.207	94.19
452.428	91.19
452.648	86.19
452.869	95.19
453.089	98.19
453.31	77.19
453.53	92.19
453.751	81.19
453.971	78.19
454.192	88.19
454.412	105.19
454.633	74.19
454.853	94.19
455.073	94.19
455.294	93.19
455.514	89.19
455.734	86.19
455.955	85.19
456.175	86.19
456.395	87.19
456.616	94.19
456.836	90.19
457.056	98.19
457.276	76.19
457.497	85.19
457.717	86.19
457.937	81.19
458.157	89.19
458.377	90.19
458.598	89.19
458.818	95.19
459.038	92.19
459.258	94.19
459.478	81.19
459.698	82.19
459.918	95.19
460.138	92.19
460.358	97.19
460.578	86.19
460.798	94.19
461.018	94.19
461.238	91.19
461.458	87.19
461.678	96.19
461.898	90.19
462.118	98.19
462.338	88.19
462.558	87.19
462.777	84.19
462.997	97.19
463.217	95.19
463.437	88.19
463.657	79.19
463.876	92.19
464.096	89.19
464.316	88.19
464.536	90.19
464.755	94.19
464.975	82.19
465.195	92.19
465.414	97.19
465.634	82.19
465.854	92.19
466.073	92.19
466.293	88.19
466.512	92.19
466.732	90.19
466.951	86.19
467.171	74.19
467.391	89.19
467.61	82.19
467.829	78.19
468.049	85.19
468.268	84.19
468.488	88.19
468.707	104.19
468.927	90.19
469.146	90.19
469.365	89.19
469.585	83.19
469.804	83.19
470.023	79.19
470.243	89.19
470.462	74.19
470.681	92.19
470.901	80.19
471.12	86.19
471.339	98.19
471.558	86.19
471.777	86.19
471.997	83.19
472.216	97.19
472.435	79.19
472.654	92.19
472.873	80.19
473.092	92.19
473.311	98.19
473.53	82.19
473.749	87.19
473.968	101.19
474.187	86.19
474.406	97.19
474.625	77.19
474.844	89.19
475.063	97.19
475.282	79.19
475.501	75.19
475.72	93.19
475.939	89.19
476.158	81.19
476.377	81.19
476.596	89.19
476.814	80.19
477.033	87.19
477.252	89.19
477.471	90.19
477.69	93.19
477.908	102.19
478.127	82.19
478.346	84.19
478.564	95.19
478.783	88.19
479.002	92.19
479.22	82.19
479.439	100.19
479.658	84.19
479.876	77.19
480.095	100.19
480.313	66.19
480.532	87.19
480.751	91.19
480.969	85.19
481.188	103.19
481.406	101.19
481.624	80.19
481.843	110.19
482.061	88.19
482.28	82.19
482.498	90.19
482.717	84.19
482.935	75.19
483.153	87.19
483.372	93.19
483.59	92.19
483.808	95.19
484.027	97.19
484.245	90.19
484.463	78.19
484.681	80.19
484.9	90.19
485.118	97.19
485.336	85.19
485.554	85.19
485.772	81.19
485.99	84.19
486.209	97.19
486.427	78.19
486.645	93.19
486.863	75.19
487.081	80.19
487.299	88.19
487.517	93.19
487.735	87.19
487.953	97.19
488.171	87.19
488.389	91.19
488.607	94.19
488.825	81.19
489.043	88.19
489.261	88.19
489.479	91.19
489.696	94.19
489.914	89.19
490.132	76.19
490.35	86.19
490.568	84.19
490.786	85.19
491.003	87.19
491.221	88.19
491.439	91.19
491.657	94.19
491.874	81.19
492.092	93.19
492.31	78.19
492.527	74.19
492.745	91.19
492.963	96.19
493.18	92.19
493.398	96.19
493.615	91.19
493.833	87.19
494.05	83.19
494.268	79.19
494.485	82.19
494.703	81.19
494.92	97.19
495.138	87.19
495.355	90.19
495.573	100.19
495.79	105.19
496.008	79.19
496.225	84.19
496.442	100.19
496.66	88.19
496.877	90.19
497.094	92.19
497.312	94.19
497.529	85.19
497.746	96.19
497.963	84.19
498.181	89.19
498.398	92.19
498.615	102.19
498.832	105.19
499.049	104.19
499.267	95.19
499.484	102.19
499.701	102.19
499.918	106.19
500.135	117.19
500.352	127.19
500.569	113.19
500.786	101.19
501.003	106.19
501.22	100.19
501.437	105.19
501.654	97.19
501.871	94.19
502.088	103.19
502.305	84.19
502.522	86.19
502.739	92.19
502.956	95.19
503.172	91.19
503.389	91.19
503.606	93.19
503.823	108.19
504.04	87.19
504.256	103.19
504.473	84.19
504.69	94.19
504.907	86.19
505.123	97.19
505.34	105.19
505.557	85.19
505.773	82.19
505.99	88.19
506.207	82.19
506.423	102.19
506.64	100.19
506.856	102.19
507.073	98.19
507.289	86.19
507.506	83.19
507.722	80.19
507.939	92.19
508.155	91.19
508.372	84.19
508.588	90.19
508.805	90.19
509.021	96.19
509.238	93.19
509.454	88.19
509.67	88.19
509.887	91.19
510.103	92.19
510.319	92.19
510.536	81.19
510.752	85.19
510.968	101.19
511.184	78.19
511.401	78.19
511.617	91.19
511.833	92.19
512.049	86.19
512.265	88.19
512.481	89.19
512.698	86.19
512.914	70.19
513.13	87.19
513.346	84.19
513.562	108.19
513.778	93.19
513.994	91.19
514.21	95.19
514.426	84.19
514.642	78.19
514.858	93.19
515.074	97.19
515.29	100.19
515.506	107.19
515.721	84.19
515.937	92.19
516.153	94.19
516.369	87.19
516.585	93.19
516.801	92.19
517.016	97.19
517.232	103.19
517.448	93.19
517.664	104.19
517.879	95.19
518.095	94.19
518.311	92.19
518.527	91.19
518.742	97.19
