Data from BG_HRD10591_025.txt Node
Date: Fri May 16 15:21:06 EDT 2025
User: Yrep
Spectrometer: HR+D1059
Trigger mode: 1
Integration Time (sec): 1.000000E-1
Scans to average: 1
Electric dark correction enabled: true
Nonlinearity correction enabled: false
Boxcar width: 0
XAxis mode: Wavelengths
Number of Pixels in Spectrum: 2048
>>>>>Begin Spectral Data<<<<<
223.165	-7.5
223.4	-7.5
223.635	-7.5
223.869	-18.5
224.104	-17.5
224.338	-20.5
224.573	-21.5
224.808	-6.5
225.042	-3.5
225.277	-10.5
225.511	1.5
225.746	3.5
225.98	9.5
226.215	5.5
226.449	20.5
226.683	17.5
226.918	24.5
227.152	23.5
227.387	41.5
227.621	38.5
227.856	44.5
228.09	47.5
228.324	59.5
228.559	54.5
228.793	66.5
229.027	54.5
229.262	57.5
229.496	69.5
229.73	63.5
229.964	62.5
230.199	66.5
230.433	83.5
230.667	64.5
230.901	70.5
231.136	72.5
231.37	76.5
231.604	73.5
231.838	75.5
232.072	85.5
232.306	79.5
232.541	78.5
232.775	81.5
233.009	104.5
233.243	85.5
233.477	79.5
233.711	83.5
233.945	80.5
234.179	85.5
234.413	78.5
234.647	81.5
234.881	82.5
235.115	75.5
235.349	73.5
235.583	85.5
235.817	77.5
236.051	76.5
236.285	87.5
236.519	85.5
236.753	69.5
236.987	83.5
237.221	76.5
237.455	74.5
237.689	68.5
237.922	79.5
238.156	86.5
238.39	69.5
238.624	75.5
238.858	77.5
239.091	84.5
239.325	77.5
239.559	75.5
239.793	81.5
240.027	68.5
240.26	79.5
240.494	83.5
240.728	63.5
240.961	70.5
241.195	73.5
241.429	64.5
241.662	72.5
241.896	84.5
242.13	80.5
242.363	83.5
242.597	77.5
242.83	74.5
243.064	71.5
243.298	69.5
243.531	75.5
243.765	75.5
243.998	73.5
244.232	83.5
244.465	76.5
244.699	85.5
244.932	68.5
245.166	85.5
245.399	89.5
245.633	82.5
245.866	75.5
246.099	92.5
246.333	70.5
246.566	62.5
246.8	79.5
247.033	66.5
247.266	71.5
247.5	75.5
247.733	77.5
247.966	69.5
248.2	79.5
248.433	91.5
248.666	69.5
248.899	71.5
249.133	68.5
249.366	76.5
249.599	76.5
249.832	81.5
250.066	80.5
250.299	73.5
250.532	80.5
250.765	70.5
250.998	76.5
251.231	75.5
251.465	85.5
251.698	65.5
251.931	66.5
252.164	60.5
252.397	88.5
252.63	75.5
252.863	71.5
253.096	85.5
253.329	77.5
253.562	64.5
253.795	85.5
254.028	80.5
254.261	72.5
254.494	63.5
254.727	81.5
254.96	77.5
255.193	75.5
255.426	70.5
255.659	81.5
255.892	75.5
256.124	75.5
256.357	76.5
256.59	79.5
256.823	70.5
257.056	79.5
257.289	79.5
257.521	79.5
257.754	86.5
257.987	79.5
258.22	89.5
258.452	95.5
258.685	79.5
258.918	70.5
259.151	77.5
259.383	82.5
259.616	91.5
259.849	77.5
260.081	100.5
260.314	96.5
260.547	75.5
260.779	75.5
261.012	77.5
261.244	65.5
261.477	80.5
261.71	88.5
261.942	72.5
262.175	80.5
262.407	87.5
262.64	77.5
262.872	85.5
263.105	86.5
263.337	77.5
263.57	79.5
263.802	87.5
264.035	74.5
264.267	61.5
264.499	86.5
264.732	73.5
264.964	74.5
265.197	75.5
265.429	75.5
265.661	79.5
265.894	89.5
266.126	89.5
266.358	77.5
266.591	76.5
266.823	90.5
267.055	66.5
267.287	80.5
267.52	76.5
267.752	80.5
267.984	74.5
268.216	83.5
268.448	83.5
268.681	93.5
268.913	85.5
269.145	94.5
269.377	77.5
269.609	75.5
269.841	75.5
270.073	82.5
270.306	79.5
270.538	77.5
270.77	64.5
271.002	89.5
271.234	90.5
271.466	92.5
271.698	83.5
271.93	72.5
272.162	82.5
272.394	68.5
272.626	76.5
272.858	86.5
273.09	90.5
273.322	79.5
273.553	70.5
273.785	80.5
274.017	81.5
274.249	81.5
274.481	78.5
274.713	73.5
274.945	99.5
275.176	89.5
275.408	93.5
275.64	78.5
275.872	85.5
276.104	93.5
276.335	80.5
276.567	88.5
276.799	89.5
277.031	84.5
277.262	74.5
277.494	83.5
277.726	69.5
277.957	88.5
278.189	80.5
278.421	93.5
278.652	79.5
278.884	88.5
279.115	80.5
279.347	73.5
279.579	84.5
279.81	81.5
280.042	75.5
280.273	84.5
280.505	81.5
280.736	80.5
280.968	73.5
281.199	64.5
281.431	87.5
281.662	78.5
281.894	78.5
282.125	61.5
282.356	91.5
282.588	89.5
282.819	68.5
283.051	76.5
283.282	75.5
283.513	76.5
283.745	84.5
283.976	85.5
284.207	89.5
284.439	80.5
284.67	96.5
284.901	86.5
285.132	84.5
285.364	73.5
285.595	83.5
285.826	73.5
286.057	80.5
286.288	76.5
286.52	79.5
286.751	98.5
286.982	65.5
287.213	72.5
287.444	84.5
287.675	92.5
287.906	81.5
288.138	84.5
288.369	86.5
288.6	76.5
288.831	71.5
289.062	95.5
289.293	100.5
289.524	95.5
289.755	91.5
289.986	72.5
290.217	87.5
290.448	74.5
290.679	70.5
290.91	91.5
291.141	79.5
291.371	88.5
291.602	93.5
291.833	72.5
292.064	71.5
292.295	93.5
292.526	85.5
292.757	86.5
292.987	74.5
293.218	73.5
293.449	84.5
293.68	91.5
293.91	75.5
294.141	77.5
294.372	81.5
294.603	65.5
294.833	85.5
295.064	87.5
295.295	70.5
295.525	85.5
295.756	84.5
295.987	87.5
296.217	94.5
296.448	87.5
296.679	105.5
296.909	77.5
297.14	90.5
297.37	72.5
297.601	76.5
297.831	77.5
298.062	89.5
298.292	72.5
298.523	79.5
298.753	84.5
298.984	82.5
299.214	91.5
299.445	81.5
299.675	100.5
299.905	87.5
300.136	76.5
300.366	76.5
300.597	73.5
300.827	85.5
301.057	103.5
301.288	93.5
301.518	97.5
301.748	94.5
301.979	83.5
302.209	83.5
302.439	91.5
302.669	83.5
302.9	86.5
303.13	87.5
303.36	80.5
303.59	77.5
303.82	78.5
304.051	87.5
304.281	84.5
304.511	86.5
304.741	90.5
304.971	84.5
305.201	74.5
305.431	71.5
305.661	78.5
305.891	65.5
306.121	73.5
306.352	84.5
306.582	70.5
306.812	80.5
307.042	93.5
307.272	78.5
307.502	81.5
307.731	105.5
307.961	93.5
308.191	84.5
308.421	91.5
308.651	87.5
308.881	95.5
309.111	93.5
309.341	88.5
309.571	76.5
309.8	102.5
310.03	107.5
310.26	71.5
310.49	76.5
310.72	71.5
310.949	84.5
311.179	87.5
311.409	85.5
311.639	99.5
311.868	80.5
312.098	90.5
312.328	87.5
312.557	84.5
312.787	73.5
313.017	75.5
313.246	95.5
313.476	77.5
313.706	67.5
313.935	88.5
314.165	76.5
314.394	89.5
314.624	77.5
314.853	87.5
315.083	77.5
315.312	88.5
315.542	89.5
315.771	62.5
316.001	75.5
316.23	85.5
316.46	69.5
316.689	88.5
316.919	85.5
317.148	84.5
317.377	94.5
317.607	77.5
317.836	86.5
318.065	92.5
318.295	103.5
318.524	83.5
318.753	83.5
318.983	75.5
319.212	85.5
319.441	82.5
319.67	85.5
319.9	97.5
320.129	94.5
320.358	72.5
320.587	79.5
320.816	72.5
321.046	89.5
321.275	86.5
321.504	90.5
321.733	88.5
321.962	78.5
322.191	81.5
322.42	104.5
322.649	91.5
322.878	76.5
323.108	99.5
323.337	82.5
323.566	83.5
323.795	91.5
324.024	87.5
324.253	81.5
324.482	70.5
324.71	89.5
324.939	86.5
325.168	85.5
325.397	75.5
325.626	80.5
325.855	89.5
326.084	75.5
326.313	80.5
326.542	82.5
326.77	89.5
326.999	74.5
327.228	77.5
327.457	83.5
327.686	88.5
327.914	90.5
328.143	90.5
328.372	104.5
328.6	78.5
328.829	70.5
329.058	88.5
329.287	66.5
329.515	86.5
329.744	77.5
329.972	87.5
330.201	73.5
330.43	93.5
330.658	91.5
330.887	85.5
331.115	83.5
331.344	90.5
331.572	80.5
331.801	85.5
332.03	89.5
332.258	95.5
332.486	82.5
332.715	70.5
332.943	87.5
333.172	95.5
333.4	84.5
333.629	85.5
333.857	84.5
334.085	80.5
334.314	87.5
334.542	71.5
334.771	80.5
334.999	78.5
335.227	96.5
335.455	91.5
335.684	83.5
335.912	83.5
336.14	84.5
336.369	91.5
336.597	74.5
336.825	83.5
337.053	87.5
337.281	88.5
337.51	90.5
337.738	110.5
337.966	84.5
338.194	94.5
338.422	86.5
338.65	93.5
338.878	101.5
339.106	79.5
339.334	95.5
339.562	83.5
339.79	82.5
340.018	78.5
340.246	78.5
340.474	80.5
340.702	81.5
340.93	81.5
341.158	82.5
341.386	73.5
341.614	83.5
341.842	86.5
342.07	89.5
342.298	87.5
342.526	88.5
342.754	85.5
342.981	85.5
343.209	87.5
343.437	96.5
343.665	78.5
343.893	85.5
344.12	76.5
344.348	95.5
344.576	69.5
344.804	76.5
345.031	67.5
345.259	80.5
345.487	79.5
345.714	75.5
345.942	85.5
346.17	76.5
346.397	73.5
346.625	80.5
346.853	86.5
347.08	78.5
347.308	74.5
347.535	75.5
347.763	78.5
347.99	93.5
348.218	82.5
348.445	88.5
348.673	90.5
348.9	87.5
349.128	76.5
349.355	69.5
349.583	81.5
349.81	75.5
350.037	67.5
350.265	91.5
350.492	76.5
350.72	83.5
350.947	83.5
351.174	87.5
351.402	92.5
351.629	96.5
351.856	66.5
352.083	87.5
352.311	82.5
352.538	87.5
352.765	86.5
352.992	92.5
353.22	92.5
353.447	90.5
353.674	93.5
353.901	97.5
354.128	84.5
354.355	71.5
354.583	88.5
354.81	84.5
355.037	84.5
355.264	93.5
355.491	97.5
355.718	89.5
355.945	78.5
356.172	65.5
356.399	79.5
356.626	92.5
356.853	78.5
357.08	71.5
357.307	79.5
357.534	76.5
357.761	83.5
357.988	87.5
358.215	82.5
358.441	88.5
358.668	87.5
358.895	76.5
359.122	81.5
359.349	76.5
359.576	93.5
359.802	86.5
360.029	85.5
360.256	85.5
360.483	76.5
360.709	89.5
360.936	85.5
361.163	81.5
361.39	72.5
361.616	81.5
361.843	89.5
362.07	60.5
362.296	90.5
362.523	84.5
362.749	84.5
362.976	78.5
363.203	85.5
363.429	91.5
363.656	89.5
363.882	88.5
364.109	87.5
364.335	78.5
364.562	69.5
364.788	85.5
365.015	87.5
365.241	78.5
365.468	84.5
365.694	75.5
365.92	63.5
366.147	71.5
366.373	91.5
366.599	77.5
366.826	76.5
367.052	83.5
367.278	75.5
367.505	81.5
367.731	88.5
367.957	89.5
368.184	89.5
368.41	83.5
368.636	81.5
368.862	90.5
369.089	80.5
369.315	85.5
369.541	85.5
369.767	77.5
369.993	80.5
370.219	86.5
370.445	83.5
370.672	99.5
370.898	69.5
371.124	83.5
371.35	78.5
371.576	96.5
371.802	65.5
372.028	84.5
372.254	83.5
372.48	92.5
372.706	80.5
372.932	87.5
373.158	69.5
373.384	79.5
373.61	83.5
373.835	80.5
374.061	62.5
374.287	76.5
374.513	85.5
374.739	88.5
374.965	81.5
375.191	86.5
375.416	93.5
375.642	88.5
375.868	82.5
376.094	87.5
376.319	83.5
376.545	77.5
376.771	75.5
376.997	80.5
377.222	86.5
377.448	89.5
377.674	91.5
377.899	68.5
378.125	81.5
378.35	77.5
378.576	79.5
378.802	75.5
379.027	84.5
379.253	76.5
379.478	91.5
379.704	95.5
379.929	91.5
380.155	75.5
380.38	82.5
380.606	85.5
380.831	94.5
381.057	76.5
381.282	75.5
381.507	83.5
381.733	88.5
381.958	82.5
382.184	85.5
382.409	90.5
382.634	74.5
382.86	73.5
383.085	65.5
383.31	76.5
383.535	77.5
383.761	75.5
383.986	81.5
384.211	90.5
384.436	83.5
384.662	79.5
384.887	74.5
385.112	78.5
385.337	73.5
385.562	75.5
385.787	83.5
386.013	81.5
386.238	84.5
386.463	89.5
386.688	101.5
386.913	87.5
387.138	88.5
387.363	78.5
387.588	91.5
387.813	77.5
388.038	88.5
388.263	98.5
388.488	95.5
388.713	78.5
388.938	77.5
389.163	84.5
389.387	75.5
389.612	76.5
389.837	85.5
390.062	88.5
390.287	83.5
390.512	73.5
390.736	85.5
390.961	78.5
391.186	73.5
391.411	76.5
391.636	79.5
391.86	85.5
392.085	86.5
392.31	80.5
392.534	93.5
392.759	87.5
392.984	76.5
393.208	74.5
393.433	87.5
393.658	74.5
393.882	65.5
394.107	85.5
394.331	90.5
394.556	77.5
394.78	90.5
395.005	87.5
395.229	78.5
395.454	75.5
395.678	67.5
395.903	74.5
396.127	94.5
396.352	95.5
396.576	78.5
396.801	90.5
397.025	69.5
397.249	65.5
397.474	92.5
397.698	81.5
397.922	83.5
398.147	85.5
398.371	85.5
398.595	74.5
398.82	79.5
399.044	78.5
399.268	84.5
399.492	75.5
399.717	79.5
399.941	84.5
400.165	87.5
400.389	87.5
400.613	93.5
400.837	85.5
401.062	76.5
401.286	81.5
401.51	73.5
401.734	71.5
401.958	88.5
402.182	80.5
402.406	83.5
402.63	70.5
402.854	81.5
403.078	91.5
403.302	85.5
403.526	95.5
403.75	82.5
403.974	75.5
404.198	71.5
404.422	85.5
404.645	82.5
404.869	88.5
405.093	91.5
405.317	89.5
405.541	80.5
405.765	70.5
405.988	75.5
406.212	83.5
406.436	81.5
406.66	77.5
406.883	81.5
407.107	70.5
407.331	83.5
407.555	71.5
407.778	77.5
408.002	89.5
408.226	74.5
408.449	84.5
408.673	80.5
408.896	84.5
409.12	92.5
409.344	74.5
409.567	83.5
409.791	89.5
410.014	77.5
410.238	74.5
410.461	84.5
410.685	70.5
410.908	61.5
411.132	70.5
411.355	75.5
411.578	90.5
411.802	81.5
412.025	79.5
412.249	85.5
412.472	89.5
412.695	75.5
412.919	86.5
413.142	78.5
413.365	77.5
413.589	78.5
413.812	73.5
414.035	82.5
414.258	89.5
414.482	84.5
414.705	80.5
414.928	91.5
415.151	63.5
415.374	85.5
415.597	80.5
415.821	75.5
416.044	79.5
416.267	83.5
416.49	82.5
416.713	84.5
416.936	81.5
417.159	71.5
417.382	73.5
417.605	61.5
417.828	72.5
418.051	86.5
418.274	80.5
418.497	69.5
418.72	77.5
418.943	74.5
419.166	76.5
419.389	72.5
419.611	74.5
419.834	83.5
420.057	71.5
420.28	87.5
420.503	99.5
420.726	93.5
420.948	71.5
421.171	78.5
421.394	69.5
421.617	85.5
421.839	80.5
422.062	72.5
422.285	80.5
422.507	97.5
422.73	63.5
422.953	72.5
423.175	85.5
423.398	79.5
423.621	89.5
423.843	72.5
424.066	71.5
424.288	80.5
424.511	86.5
424.733	75.5
424.956	68.5
425.178	73.5
425.401	87.5
425.623	79.5
425.846	79.5
426.068	79.5
426.291	76.5
426.513	87.5
426.735	70.5
426.958	72.5
427.18	76.5
427.402	81.5
427.625	83.5
427.847	76.5
428.069	80.5
428.292	80.5
428.514	81.5
428.736	72.5
428.958	94.5
429.181	87.5
429.403	77.5
429.625	86.5
429.847	76.5
430.069	80.5
430.292	85.5
430.514	80.5
430.736	83.5
430.958	68.5
431.18	72.5
431.402	83.5
431.624	84.5
431.846	86.5
432.068	81.5
432.29	81.5
432.512	86.5
432.734	84.5
432.956	86.5
433.178	83.5
433.4	57.5
433.622	73.5
433.844	66.5
434.066	80.5
434.287	86.5
434.509	83.5
434.731	71.5
434.953	86.5
435.175	77.5
435.397	80.5
435.618	84.5
435.84	85.5
436.062	93.5
436.284	70.5
436.505	85.5
436.727	77.5
436.949	89.5
437.17	88.5
437.392	71.5
437.614	74.5
437.835	85.5
438.057	89.5
438.278	81.5
438.5	84.5
438.721	85.5
438.943	75.5
439.165	72.5
439.386	73.5
439.608	73.5
439.829	77.5
440.05	71.5
440.272	83.5
440.493	78.5
440.715	78.5
440.936	76.5
441.158	82.5
441.379	67.5
441.6	78.5
441.822	76.5
442.043	95.5
442.264	63.5
442.486	80.5
442.707	75.5
442.928	80.5
443.149	79.5
443.371	83.5
443.592	72.5
443.813	101.5
444.034	80.5
444.255	80.5
444.476	80.5
444.698	92.5
444.919	86.5
445.14	163.5
445.361	100.5
445.582	74.5
445.803	80.5
446.024	77.5
446.245	87.5
446.466	88.5
446.687	77.5
446.908	70.5
447.129	78.5
447.35	64.5
447.571	83.5
447.792	78.5
448.013	83.5
448.234	71.5
448.455	75.5
448.675	84.5
448.896	92.5
449.117	84.5
449.338	87.5
449.559	82.5
449.779	69.5
450	92.5
450.221	68.5
450.442	77.5
450.662	80.5
450.883	71.5
451.104	83.5
451.324	73.5
451.545	74.5
451.766	74.5
451.986	87.5
452.207	80.5
452.428	77.5
452.648	79.5
452.869	76.5
453.089	93.5
453.31	89.5
453.53	75.5
453.751	70.5
453.971	80.5
454.192	74.5
454.412	88.5
454.633	80.5
454.853	68.5
455.073	65.5
455.294	79.5
455.514	74.5
455.734	63.5
455.955	83.5
456.175	82.5
456.395	71.5
456.616	74.5
456.836	77.5
457.056	73.5
457.276	66.5
457.497	86.5
457.717	87.5
457.937	82.5
458.157	79.5
458.377	77.5
458.598	74.5
458.818	72.5
459.038	79.5
459.258	81.5
459.478	93.5
459.698	72.5
459.918	86.5
460.138	64.5
460.358	79.5
460.578	73.5
460.798	76.5
461.018	99.5
461.238	78.5
461.458	85.5
461.678	92.5
461.898	76.5
462.118	75.5
462.338	82.5
462.558	84.5
462.777	65.5
462.997	87.5
463.217	88.5
463.437	73.5
463.657	63.5
463.876	74.5
464.096	73.5
464.316	74.5
464.536	72.5
464.755	73.5
464.975	75.5
465.195	86.5
465.414	82.5
465.634	73.5
465.854	74.5
466.073	76.5
466.293	71.5
466.512	71.5
466.732	80.5
466.951	86.5
467.171	72.5
467.391	82.5
467.61	83.5
467.829	85.5
468.049	71.5
468.268	80.5
468.488	87.5
468.707	81.5
468.927	85.5
469.146	88.5
469.365	74.5
469.585	77.5
469.804	84.5
470.023	69.5
470.243	91.5
470.462	77.5
470.681	71.5
470.901	79.5
471.12	84.5
471.339	78.5
471.558	79.5
471.777	79.5
471.997	60.5
472.216	79.5
472.435	79.5
472.654	79.5
472.873	83.5
473.092	86.5
473.311	74.5
473.53	95.5
473.749	79.5
473.968	90.5
474.187	76.5
474.406	106.5
474.625	76.5
474.844	88.5
475.063	81.5
475.282	88.5
475.501	66.5
475.72	85.5
475.939	87.5
476.158	75.5
476.377	84.5
476.596	77.5
476.814	83.5
477.033	77.5
477.252	73.5
477.471	77.5
477.69	75.5
477.908	72.5
478.127	91.5
478.346	87.5
478.564	75.5
478.783	71.5
479.002	67.5
479.22	80.5
479.439	71.5
479.658	87.5
479.876	77.5
480.095	78.5
480.313	79.5
480.532	81.5
480.751	69.5
480.969	67.5
481.188	81.5
481.406	80.5
481.624	87.5
481.843	82.5
482.061	81.5
482.28	76.5
482.498	81.5
482.717	67.5
482.935	85.5
483.153	81.5
483.372	73.5
483.59	72.5
483.808	77.5
484.027	86.5
484.245	82.5
484.463	78.5
484.681	83.5
484.9	83.5
485.118	77.5
485.336	73.5
485.554	65.5
485.772	88.5
485.99	84.5
486.209	76.5
486.427	92.5
486.645	83.5
486.863	84.5
487.081	76.5
487.299	87.5
487.517	74.5
487.735	72.5
487.953	76.5
488.171	85.5
488.389	86.5
488.607	78.5
488.825	91.5
489.043	61.5
489.261	68.5
489.479	87.5
489.696	86.5
489.914	79.5
490.132	91.5
490.35	79.5
490.568	95.5
490.786	87.5
491.003	78.5
491.221	89.5
491.439	84.5
491.657	68.5
491.874	84.5
492.092	87.5
492.31	69.5
492.527	75.5
492.745	76.5
492.963	71.5
493.18	83.5
493.398	98.5
493.615	71.5
493.833	85.5
494.05	84.5
494.268	70.5
494.485	88.5
494.703	84.5
494.92	88.5
495.138	76.5
495.355	80.5
495.573	74.5
495.79	69.5
496.008	88.5
496.225	81.5
496.442	75.5
496.66	87.5
496.877	86.5
497.094	78.5
497.312	76.5
497.529	89.5
497.746	79.5
497.963	88.5
498.181	85.5
498.398	93.5
498.615	89.5
498.832	91.5
499.049	77.5
499.267	78.5
499.484	84.5
499.701	81.5
499.918	92.5
500.135	75.5
500.352	81.5
500.569	79.5
500.786	100.5
501.003	74.5
501.22	73.5
501.437	83.5
501.654	84.5
501.871	72.5
502.088	84.5
502.305	85.5
502.522	84.5
502.739	84.5
502.956	85.5
503.172	81.5
503.389	77.5
503.606	77.5
503.823	83.5
504.04	91.5
504.256	80.5
504.473	70.5
504.69	76.5
504.907	77.5
505.123	79.5
505.34	87.5
505.557	87.5
505.773	83.5
505.99	71.5
506.207	84.5
506.423	87.5
506.64	89.5
506.856	67.5
507.073	84.5
507.289	84.5
507.506	77.5
507.722	75.5
507.939	77.5
508.155	72.5
508.372	83.5
508.588	69.5
508.805	78.5
509.021	83.5
509.238	91.5
509.454	74.5
509.67	68.5
509.887	80.5
510.103	87.5
510.319	76.5
510.536	94.5
510.752	82.5
510.968	87.5
511.184	72.5
511.401	75.5
511.617	87.5
511.833	77.5
512.049	89.5
512.265	88.5
512.481	89.5
512.698	78.5
512.914	87.5
513.13	94.5
513.346	84.5
513.562	84.5
513.778	72.5
513.994	64.5
514.21	87.5
514.426	76.5
514.642	74.5
514.858	87.5
515.074	79.5
515.29	74.5
515.506	86.5
515.721	68.5
515.937	81.5
516.153	85.5
516.369	87.5
516.585	79.5
516.801	79.5
517.016	78.5
517.232	75.5
517.448	79.5
517.664	70.5
517.879	79.5
518.095	76.5
518.311	79.5
518.527	87.5
518.742	99.5
518.958	76.5
519.173	81.5
519.389	88.5
519.605	75.5
519.82	80.5
520.036	85.5
520.251	86.5
520.467	89.5
520.682	92.5
520.898	80.5
521.113	74.5
521.329	81.5
521.544	80.5
521.76	78.5
521.975	76.5
522.19	90.5
522.406	80.5
522.621	74.5
522.836	88.5
523.052	79.5
523.267	83.5
523.482	81.5
523.698	84.5
523.913	88.5
524.128	75.5
524.343	77.5
524.559	81.5
524.774	81.5
524.989	89.5
525.204	93.5
525.419	84.5
525.634	86.5
525.849	78.5
526.064	76.5
526.28	78.5
526.495	68.5
526.71	85.5
526.925	68.5
527.14	78.5
527.355	86.5
527.57	85.5
527.785	79.5
527.999	97.5
528.214	89.5
528.429	90.5
528.644	75.5
528.859	80.5
529.074	83.5
529.289	80.5
529.503	76.5
529.718	86.5
529.933	88.5
530.148	83.5
530.363	93.5
530.577	93.5
530.792	82.5
531.007	85.5
531.221	92.5
531.436	79.5
531.651	88.5
531.865	79.5
532.08	89.5
532.295	78.5
532.509	93.5
532.724	86.5
532.938	99.5
533.153	77.5
533.367	76.5
533.582	72.5
533.796	91.5
534.011	97.5
534.225	81.5
534.44	97.5
534.654	87.5
534.868	89.5
535.083	85.5
535.297	88.5
535.511	87.5
535.726	81.5
535.94	78.5
536.154	73.5
536.369	100.5
536.583	96.5
536.797	81.5
537.011	76.5
537.225	92.5
537.44	83.5
537.654	88.5
537.868	84.5
538.082	87.5
538.296	77.5
538.51	83.5
538.724	83.5
538.938	75.5
539.153	65.5
539.367	69.5
539.581	78.5
539.795	72.5
540.009	76.5
540.222	80.5
540.436	73.5
540.65	71.5
