Data from BG_HRD10591_098.txt Node
Date: Fri May 16 15:21:42 EDT 2025
User: Yrep
Spectrometer: HR+D1059
Trigger mode: 1
Integration Time (sec): 1.000000E-1
Scans to average: 1
Electric dark correction enabled: true
Nonlinearity correction enabled: false
Boxcar width: 0
XAxis mode: Wavelengths
Number of Pixels in Spectrum: 2048
>>>>>Begin Spectral Data<<<<<
223.165	-16.88
223.4	-16.88
223.635	-16.88
223.869	-18.88
224.104	-21.88
224.338	-2.88
224.573	-21.88
224.808	-25.88
225.042	-4.88
225.277	-0.88
225.511	-4.88
225.746	-2.88
225.98	11.12
226.215	12.12
226.449	20.12
226.683	8.12
226.918	46.12
227.152	24.12
227.387	22.12
227.621	38.12
227.856	41.12
228.09	40.12
228.324	50.12
228.559	47.12
228.793	47.12
229.027	54.12
229.262	73.12
229.496	51.12
229.73	74.12
229.964	77.12
230.199	83.12
230.433	79.12
230.667	75.12
230.901	67.12
231.136	66.12
231.37	73.12
231.604	76.12
231.838	63.12
232.072	72.12
232.306	78.12
232.541	85.12
232.775	77.12
233.009	87.12
233.243	82.12
233.477	74.12
233.711	69.12
233.945	68.12
234.179	70.12
234.413	73.12
234.647	86.12
234.881	71.12
235.115	66.12
235.349	81.12
235.583	86.12
235.817	72.12
236.051	68.12
236.285	78.12
236.519	79.12
236.753	75.12
236.987	61.12
237.221	82.12
237.455	63.12
237.689	72.12
237.922	82.12
238.156	65.12
238.39	79.12
238.624	84.12
238.858	74.12
239.091	74.12
239.325	81.12
239.559	80.12
239.793	71.12
240.027	79.12
240.26	67.12
240.494	69.12
240.728	78.12
240.961	79.12
241.195	68.12
241.429	78.12
241.662	76.12
241.896	78.12
242.13	73.12
242.363	78.12
242.597	87.12
242.83	76.12
243.064	82.12
243.298	83.12
243.531	82.12
243.765	81.12
243.998	76.12
244.232	75.12
244.465	90.12
244.699	78.12
244.932	56.12
245.166	78.12
245.399	78.12
245.633	79.12
245.866	71.12
246.099	80.12
246.333	84.12
246.566	84.12
246.8	91.12
247.033	81.12
247.266	77.12
247.5	84.12
247.733	73.12
247.966	70.12
248.2	72.12
248.433	93.12
248.666	76.12
248.899	77.12
249.133	77.12
249.366	104.12
249.599	75.12
249.832	80.12
250.066	79.12
250.299	79.12
250.532	72.12
250.765	79.12
250.998	79.12
251.231	80.12
251.465	85.12
251.698	78.12
251.931	82.12
252.164	94.12
252.397	74.12
252.63	72.12
252.863	74.12
253.096	68.12
253.329	78.12
253.562	71.12
253.795	83.12
254.028	76.12
254.261	80.12
254.494	84.12
254.727	71.12
254.96	84.12
255.193	87.12
255.426	70.12
255.659	72.12
255.892	82.12
256.124	77.12
256.357	68.12
256.59	80.12
256.823	78.12
257.056	72.12
257.289	76.12
257.521	87.12
257.754	92.12
257.987	86.12
258.22	74.12
258.452	63.12
258.685	65.12
258.918	85.12
259.151	77.12
259.383	101.12
259.616	99.12
259.849	77.12
260.081	84.12
260.314	83.12
260.547	93.12
260.779	76.12
261.012	102.12
261.244	79.12
261.477	84.12
261.71	62.12
261.942	79.12
262.175	79.12
262.407	83.12
262.64	83.12
262.872	77.12
263.105	78.12
263.337	89.12
263.57	77.12
263.802	92.12
264.035	76.12
264.267	81.12
264.499	85.12
264.732	74.12
264.964	82.12
265.197	79.12
265.429	84.12
265.661	91.12
265.894	80.12
266.126	78.12
266.358	93.12
266.591	86.12
266.823	78.12
267.055	91.12
267.287	80.12
267.52	83.12
267.752	79.12
267.984	82.12
268.216	84.12
268.448	80.12
268.681	83.12
268.913	89.12
269.145	65.12
269.377	89.12
269.609	79.12
269.841	84.12
270.073	95.12
270.306	75.12
270.538	76.12
270.77	86.12
271.002	69.12
271.234	75.12
271.466	76.12
271.698	72.12
271.93	83.12
272.162	70.12
272.394	77.12
272.626	82.12
272.858	76.12
273.09	85.12
273.322	82.12
273.553	77.12
273.785	84.12
274.017	81.12
274.249	77.12
274.481	92.12
274.713	77.12
274.945	79.12
275.176	86.12
275.408	85.12
275.64	90.12
275.872	79.12
276.104	88.12
276.335	75.12
276.567	77.12
276.799	76.12
277.031	67.12
277.262	83.12
277.494	95.12
277.726	78.12
277.957	80.12
278.189	77.12
278.421	78.12
278.652	91.12
278.884	101.12
279.115	78.12
279.347	83.12
279.579	78.12
279.81	97.12
280.042	78.12
280.273	92.12
280.505	89.12
280.736	89.12
280.968	96.12
281.199	75.12
281.431	90.12
281.662	83.12
281.894	79.12
282.125	82.12
282.356	90.12
282.588	92.12
282.819	83.12
283.051	77.12
283.282	82.12
283.513	85.12
283.745	86.12
283.976	90.12
284.207	80.12
284.439	83.12
284.67	91.12
284.901	95.12
285.132	76.12
285.364	100.12
285.595	88.12
285.826	74.12
286.057	90.12
286.288	82.12
286.52	79.12
286.751	79.12
286.982	90.12
287.213	84.12
287.444	82.12
287.675	78.12
287.906	87.12
288.138	88.12
288.369	86.12
288.6	86.12
288.831	88.12
289.062	98.12
289.293	75.12
289.524	90.12
289.755	84.12
289.986	100.12
290.217	84.12
290.448	95.12
290.679	85.12
290.91	80.12
291.141	89.12
291.371	80.12
291.602	83.12
291.833	82.12
292.064	89.12
292.295	82.12
292.526	79.12
292.757	90.12
292.987	90.12
293.218	87.12
293.449	81.12
293.68	94.12
293.91	87.12
294.141	77.12
294.372	70.12
294.603	100.12
294.833	92.12
295.064	78.12
295.295	80.12
295.525	85.12
295.756	86.12
295.987	95.12
296.217	72.12
296.448	76.12
296.679	76.12
296.909	102.12
297.14	81.12
297.37	66.12
297.601	73.12
297.831	87.12
298.062	92.12
298.292	91.12
298.523	76.12
298.753	86.12
298.984	87.12
299.214	84.12
299.445	94.12
299.675	98.12
299.905	85.12
300.136	84.12
300.366	83.12
300.597	75.12
300.827	80.12
301.057	69.12
301.288	91.12
301.518	76.12
301.748	76.12
301.979	91.12
302.209	93.12
302.439	84.12
302.669	99.12
302.9	89.12
303.13	77.12
303.36	84.12
303.59	81.12
303.82	78.12
304.051	86.12
304.281	88.12
304.511	98.12
304.741	93.12
304.971	83.12
305.201	76.12
305.431	104.12
305.661	81.12
305.891	78.12
306.121	85.12
306.352	71.12
306.582	98.12
306.812	98.12
307.042	96.12
307.272	86.12
307.502	87.12
307.731	72.12
307.961	87.12
308.191	95.12
308.421	74.12
308.651	89.12
308.881	87.12
309.111	86.12
309.341	96.12
309.571	93.12
309.8	93.12
310.03	95.12
310.26	93.12
310.49	79.12
310.72	91.12
310.949	85.12
311.179	83.12
311.409	74.12
311.639	80.12
311.868	78.12
312.098	91.12
312.328	90.12
312.557	100.12
312.787	100.12
313.017	88.12
313.246	75.12
313.476	92.12
313.706	78.12
313.935	93.12
314.165	73.12
314.394	88.12
314.624	80.12
314.853	82.12
315.083	69.12
315.312	86.12
315.542	88.12
315.771	89.12
316.001	93.12
316.23	92.12
316.46	87.12
316.689	94.12
316.919	88.12
317.148	76.12
317.377	92.12
317.607	82.12
317.836	68.12
318.065	85.12
318.295	102.12
318.524	67.12
318.753	82.12
318.983	74.12
319.212	99.12
319.441	92.12
319.67	85.12
319.9	87.12
320.129	100.12
320.358	84.12
320.587	82.12
320.816	93.12
321.046	81.12
321.275	86.12
321.504	78.12
321.733	79.12
321.962	82.12
322.191	78.12
322.42	87.12
322.649	86.12
322.878	101.12
323.108	85.12
323.337	90.12
323.566	81.12
323.795	82.12
324.024	87.12
324.253	84.12
324.482	72.12
324.71	91.12
324.939	87.12
325.168	89.12
325.397	102.12
325.626	90.12
325.855	74.12
326.084	81.12
326.313	106.12
326.542	89.12
326.77	82.12
326.999	82.12
327.228	73.12
327.457	79.12
327.686	82.12
327.914	87.12
328.143	92.12
328.372	83.12
328.6	78.12
328.829	100.12
329.058	74.12
329.287	87.12
329.515	82.12
329.744	92.12
329.972	78.12
330.201	78.12
330.43	86.12
330.658	83.12
330.887	80.12
331.115	76.12
331.344	91.12
331.572	84.12
331.801	88.12
332.03	83.12
332.258	103.12
332.486	99.12
332.715	86.12
332.943	83.12
333.172	82.12
333.4	82.12
333.629	89.12
333.857	93.12
334.085	81.12
334.314	97.12
334.542	104.12
334.771	88.12
334.999	102.12
335.227	89.12
335.455	90.12
335.684	90.12
335.912	95.12
336.14	92.12
336.369	84.12
336.597	86.12
336.825	91.12
337.053	82.12
337.281	76.12
337.51	87.12
337.738	83.12
337.966	90.12
338.194	101.12
338.422	79.12
338.65	87.12
338.878	92.12
339.106	70.12
339.334	85.12
339.562	83.12
339.79	93.12
340.018	85.12
340.246	77.12
340.474	92.12
340.702	81.12
340.93	83.12
341.158	90.12
341.386	85.12
341.614	79.12
341.842	86.12
342.07	84.12
342.298	90.12
342.526	86.12
342.754	91.12
342.981	87.12
343.209	80.12
343.437	102.12
343.665	93.12
343.893	78.12
344.12	108.12
344.348	85.12
344.576	92.12
344.804	95.12
345.031	84.12
345.259	86.12
345.487	106.12
345.714	82.12
345.942	87.12
346.17	89.12
346.397	79.12
346.625	88.12
346.853	108.12
347.08	86.12
347.308	74.12
347.535	100.12
347.763	85.12
347.99	103.12
348.218	86.12
348.445	82.12
348.673	86.12
348.9	83.12
349.128	87.12
349.355	73.12
349.583	104.12
349.81	78.12
350.037	80.12
350.265	83.12
350.492	93.12
350.72	93.12
350.947	91.12
351.174	91.12
351.402	88.12
351.629	80.12
351.856	99.12
352.083	94.12
352.311	83.12
352.538	76.12
352.765	83.12
352.992	92.12
353.22	81.12
353.447	79.12
353.674	103.12
353.901	95.12
354.128	74.12
354.355	85.12
354.583	84.12
354.81	80.12
355.037	83.12
355.264	100.12
355.491	84.12
355.718	99.12
355.945	92.12
356.172	83.12
356.399	91.12
356.626	85.12
356.853	81.12
357.08	91.12
357.307	85.12
357.534	89.12
357.761	86.12
357.988	93.12
358.215	91.12
358.441	80.12
358.668	90.12
358.895	90.12
359.122	93.12
359.349	91.12
359.576	75.12
359.802	83.12
360.029	88.12
360.256	82.12
360.483	78.12
360.709	64.12
360.936	83.12
361.163	83.12
361.39	92.12
361.616	71.12
361.843	97.12
362.07	93.12
362.296	87.12
362.523	87.12
362.749	88.12
362.976	85.12
363.203	79.12
363.429	77.12
363.656	84.12
363.882	95.12
364.109	95.12
364.335	78.12
364.562	95.12
364.788	98.12
365.015	75.12
365.241	90.12
365.468	81.12
365.694	86.12
365.92	78.12
366.147	75.12
366.373	76.12
366.599	70.12
366.826	106.12
367.052	82.12
367.278	85.12
367.505	99.12
367.731	98.12
367.957	78.12
368.184	97.12
368.41	84.12
368.636	87.12
368.862	103.12
369.089	84.12
369.315	78.12
369.541	83.12
369.767	87.12
369.993	94.12
370.219	76.12
370.445	91.12
370.672	84.12
370.898	77.12
371.124	63.12
371.35	76.12
371.576	100.12
371.802	90.12
372.028	80.12
372.254	82.12
372.48	87.12
372.706	84.12
372.932	85.12
373.158	87.12
373.384	87.12
373.61	82.12
373.835	93.12
374.061	80.12
374.287	83.12
374.513	83.12
374.739	85.12
374.965	82.12
375.191	79.12
375.416	89.12
375.642	99.12
375.868	93.12
376.094	75.12
376.319	94.12
376.545	85.12
376.771	99.12
376.997	76.12
377.222	97.12
377.448	95.12
377.674	83.12
377.899	79.12
378.125	95.12
378.35	94.12
378.576	83.12
378.802	92.12
379.027	86.12
379.253	84.12
379.478	82.12
379.704	70.12
379.929	87.12
380.155	86.12
380.38	90.12
380.606	80.12
380.831	82.12
381.057	97.12
381.282	86.12
381.507	70.12
381.733	82.12
381.958	83.12
382.184	80.12
382.409	88.12
382.634	86.12
382.86	73.12
383.085	72.12
383.31	105.12
383.535	95.12
383.761	92.12
383.986	87.12
384.211	82.12
384.436	83.12
384.662	93.12
384.887	86.12
385.112	85.12
385.337	92.12
385.562	84.12
385.787	89.12
386.013	85.12
386.238	81.12
386.463	98.12
386.688	109.12
386.913	84.12
387.138	76.12
387.363	80.12
387.588	87.12
387.813	87.12
388.038	78.12
388.263	80.12
388.488	89.12
388.713	97.12
388.938	72.12
389.163	87.12
389.387	76.12
389.612	94.12
389.837	89.12
390.062	88.12
390.287	82.12
390.512	104.12
390.736	102.12
390.961	83.12
391.186	87.12
391.411	91.12
391.636	76.12
391.86	71.12
392.085	81.12
392.31	82.12
392.534	87.12
392.759	82.12
392.984	76.12
393.208	84.12
393.433	82.12
393.658	68.12
393.882	86.12
394.107	99.12
394.331	84.12
394.556	101.12
394.78	95.12
395.005	80.12
395.229	91.12
395.454	83.12
395.678	78.12
395.903	81.12
396.127	98.12
396.352	83.12
396.576	86.12
396.801	88.12
397.025	81.12
397.249	84.12
397.474	99.12
397.698	97.12
397.922	86.12
398.147	102.12
398.371	82.12
398.595	85.12
398.82	74.12
399.044	86.12
399.268	81.12
399.492	95.12
399.717	82.12
399.941	95.12
400.165	92.12
400.389	90.12
400.613	86.12
400.837	87.12
401.062	99.12
401.286	85.12
401.51	82.12
401.734	88.12
401.958	83.12
402.182	85.12
402.406	83.12
402.63	92.12
402.854	101.12
403.078	100.12
403.302	95.12
403.526	92.12
403.75	91.12
403.974	86.12
404.198	91.12
404.422	93.12
404.645	73.12
404.869	92.12
405.093	80.12
405.317	82.12
405.541	88.12
405.765	98.12
405.988	87.12
406.212	93.12
406.436	75.12
406.66	84.12
406.883	95.12
407.107	78.12
407.331	83.12
407.555	84.12
407.778	87.12
408.002	77.12
408.226	95.12
408.449	102.12
408.673	86.12
408.896	88.12
409.12	78.12
409.344	76.12
409.567	85.12
409.791	90.12
410.014	82.12
410.238	95.12
410.461	78.12
410.685	95.12
410.908	89.12
411.132	93.12
411.355	100.12
411.578	94.12
411.802	82.12
412.025	83.12
412.249	98.12
412.472	75.12
412.695	92.12
412.919	87.12
413.142	82.12
413.365	87.12
413.589	100.12
413.812	96.12
414.035	85.12
414.258	75.12
414.482	83.12
414.705	98.12
414.928	90.12
415.151	79.12
415.374	85.12
415.597	80.12
415.821	81.12
416.044	78.12
416.267	91.12
416.49	86.12
416.713	76.12
416.936	82.12
417.159	78.12
417.382	96.12
417.605	75.12
417.828	91.12
418.051	79.12
418.274	89.12
418.497	86.12
418.72	77.12
418.943	76.12
419.166	83.12
419.389	83.12
419.611	90.12
419.834	87.12
420.057	84.12
420.28	98.12
420.503	94.12
420.726	93.12
420.948	82.12
421.171	94.12
421.394	82.12
421.617	69.12
421.839	82.12
422.062	80.12
422.285	72.12
422.507	86.12
422.73	84.12
422.953	70.12
423.175	89.12
423.398	76.12
423.621	83.12
423.843	88.12
424.066	78.12
424.288	96.12
424.511	77.12
424.733	70.12
424.956	91.12
425.178	77.12
425.401	98.12
425.623	80.12
425.846	82.12
426.068	84.12
426.291	85.12
426.513	87.12
426.735	85.12
426.958	92.12
427.18	83.12
427.402	82.12
427.625	80.12
427.847	74.12
428.069	70.12
428.292	90.12
428.514	93.12
428.736	81.12
428.958	92.12
429.181	83.12
429.403	98.12
429.625	83.12
429.847	72.12
430.069	76.12
430.292	95.12
430.514	86.12
430.736	94.12
430.958	91.12
431.18	94.12
431.402	72.12
431.624	88.12
431.846	71.12
432.068	97.12
432.29	85.12
432.512	89.12
432.734	79.12
432.956	91.12
433.178	88.12
433.4	74.12
433.622	84.12
433.844	89.12
434.066	87.12
434.287	89.12
434.509	85.12
434.731	88.12
434.953	84.12
435.175	94.12
435.397	85.12
435.618	85.12
435.84	104.12
436.062	90.12
436.284	88.12
436.505	86.12
436.727	73.12
436.949	71.12
437.17	80.12
437.392	88.12
437.614	93.12
437.835	88.12
438.057	83.12
438.278	85.12
438.5	94.12
438.721	82.12
438.943	76.12
439.165	102.12
439.386	86.12
439.608	84.12
439.829	88.12
440.05	79.12
440.272	81.12
440.493	82.12
440.715	68.12
440.936	72.12
441.158	65.12
441.379	87.12
441.6	78.12
441.822	84.12
442.043	78.12
442.264	82.12
442.486	86.12
442.707	69.12
442.928	79.12
443.149	91.12
443.371	77.12
443.592	68.12
443.813	93.12
444.034	82.12
444.255	86.12
444.476	83.12
444.698	79.12
444.919	84.12
445.14	160.12
445.361	119.12
445.582	93.12
445.803	81.12
446.024	96.12
446.245	94.12
446.466	90.12
446.687	79.12
446.908	88.12
447.129	80.12
447.35	99.12
447.571	89.12
447.792	92.12
448.013	90.12
448.234	86.12
448.455	95.12
448.675	76.12
448.896	82.12
449.117	74.12
449.338	79.12
449.559	103.12
449.779	75.12
450	77.12
450.221	87.12
450.442	86.12
450.662	77.12
450.883	84.12
451.104	88.12
451.324	79.12
451.545	76.12
451.766	82.12
451.986	72.12
452.207	90.12
452.428	87.12
452.648	89.12
452.869	77.12
453.089	82.12
453.31	72.12
453.53	92.12
453.751	100.12
453.971	79.12
454.192	70.12
454.412	86.12
454.633	82.12
454.853	78.12
455.073	80.12
455.294	86.12
455.514	88.12
455.734	82.12
455.955	91.12
456.175	76.12
456.395	86.12
456.616	82.12
456.836	76.12
457.056	86.12
457.276	79.12
457.497	86.12
457.717	83.12
457.937	77.12
458.157	71.12
458.377	75.12
458.598	89.12
458.818	87.12
459.038	87.12
459.258	75.12
459.478	85.12
459.698	91.12
459.918	81.12
460.138	75.12
460.358	82.12
460.578	73.12
460.798	78.12
461.018	88.12
461.238	107.12
461.458	89.12
461.678	74.12
461.898	76.12
462.118	84.12
462.338	79.12
462.558	86.12
462.777	78.12
462.997	91.12
463.217	83.12
463.437	90.12
463.657	87.12
463.876	84.12
464.096	92.12
464.316	102.12
464.536	92.12
464.755	75.12
464.975	87.12
465.195	89.12
465.414	96.12
465.634	84.12
465.854	83.12
466.073	84.12
466.293	77.12
466.512	85.12
466.732	82.12
466.951	75.12
467.171	95.12
467.391	90.12
467.61	94.12
467.829	86.12
468.049	79.12
468.268	71.12
468.488	78.12
468.707	85.12
468.927	87.12
469.146	71.12
469.365	79.12
469.585	96.12
469.804	99.12
470.023	79.12
470.243	80.12
470.462	90.12
470.681	86.12
470.901	102.12
471.12	86.12
471.339	80.12
471.558	84.12
471.777	90.12
471.997	75.12
472.216	83.12
472.435	76.12
472.654	76.12
472.873	103.12
473.092	83.12
473.311	91.12
473.53	79.12
473.749	90.12
473.968	93.12
474.187	86.12
474.406	74.12
474.625	87.12
474.844	92.12
475.063	75.12
475.282	83.12
475.501	93.12
475.72	89.12
475.939	80.12
476.158	85.12
476.377	94.12
476.596	82.12
476.814	92.12
477.033	90.12
477.252	82.12
477.471	79.12
477.69	86.12
477.908	81.12
478.127	87.12
478.346	82.12
478.564	74.12
478.783	82.12
479.002	95.12
479.22	83.12
479.439	86.12
479.658	92.12
479.876	91.12
480.095	97.12
480.313	78.12
480.532	79.12
480.751	80.12
480.969	94.12
481.188	81.12
481.406	83.12
481.624	91.12
481.843	81.12
482.061	80.12
482.28	90.12
482.498	82.12
482.717	84.12
482.935	85.12
483.153	86.12
483.372	86.12
483.59	75.12
483.808	94.12
484.027	86.12
484.245	86.12
484.463	88.12
484.681	86.12
484.9	89.12
485.118	96.12
485.336	78.12
485.554	95.12
485.772	80.12
485.99	85.12
486.209	86.12
486.427	92.12
486.645	89.12
486.863	98.12
487.081	94.12
487.299	96.12
487.517	92.12
487.735	90.12
487.953	86.12
488.171	89.12
488.389	82.12
488.607	81.12
488.825	95.12
489.043	78.12
489.261	86.12
489.479	85.12
489.696	82.12
489.914	80.12
490.132	93.12
490.35	88.12
490.568	82.12
490.786	70.12
491.003	95.12
491.221	93.12
491.439	76.12
491.657	84.12
491.874	85.12
492.092	92.12
492.31	85.12
492.527	78.12
492.745	86.12
492.963	75.12
493.18	92.12
493.398	85.12
493.615	91.12
493.833	94.12
494.05	87.12
494.268	82.12
494.485	78.12
494.703	100.12
494.92	98.12
495.138	89.12
495.355	90.12
495.573	102.12
495.79	95.12
496.008	106.12
496.225	91.12
496.442	84.12
496.66	101.12
496.877	85.12
497.094	99.12
497.312	85.12
497.529	93.12
497.746	95.12
497.963	86.12
498.181	75.12
498.398	86.12
498.615	94.12
498.832	99.12
499.049	90.12
499.267	102.12
499.484	86.12
499.701	100.12
499.918	109.12
500.135	105.12
500.352	114.12
500.569	108.12
500.786	103.12
501.003	105.12
501.22	95.12
501.437	87.12
501.654	114.12
501.871	100.12
502.088	88.12
502.305	96.12
502.522	101.12
502.739	92.12
502.956	85.12
503.172	82.12
503.389	97.12
503.606	98.12
503.823	91.12
504.04	88.12
504.256	82.12
504.473	83.12
504.69	92.12
504.907	75.12
505.123	84.12
505.34	99.12
505.557	98.12
505.773	81.12
505.99	89.12
506.207	85.12
506.423	91.12
506.64	87.12
506.856	79.12
507.073	102.12
507.289	82.12
507.506	87.12
507.722	79.12
507.939	73.12
508.155	82.12
508.372	84.12
508.588	86.12
508.805	99.12
509.021	93.12
509.238	98.12
509.454	85.12
509.67	85.12
509.887	98.12
510.103	74.12
510.319	89.12
510.536	83.12
510.752	73.12
510.968	74.12
511.184	91.12
511.401	82.12
511.617	78.12
511.833	82.12
512.049	86.12
512.265	80.12
512.481	82.12
512.698	80.12
512.914	90.12
513.13	88.12
513.346	84.12
513.562	94.12
513.778	102.12
513.994	92.12
514.21	86.12
514.426	87.12
514.642	74.12
514.858	87.12
515.074	94.12
515.29	87.12
515.506	86.12
515.721	84.12
515.937	89.12
516.153	83.12
516.369	84.12
516.585	84.12
516.801	83.12
517.016	87.12
517.232	91.12
517.448	101.12
517.664	94.12
517.879	93.12
518.095	104.12
518.311	106.12
518.527	75.12
518.742	76.12
518.958	81.12
519.173	86.12
519.389	107.12
