Data from BG_HRD10591_011.txt Node
Date: Fri May 16 15:20:59 EDT 2025
User: Yrep
Spectrometer: HR+D1059
Trigger mode: 1
Integration Time (sec): 1.000000E-1
Scans to average: 1
Electric dark correction enabled: true
Nonlinearity correction enabled: false
Boxcar width: 0
XAxis mode: Wavelengths
Number of Pixels in Spectrum: 2048
>>>>>Begin Spectral Data<<<<<
223.165	-13.25
223.4	-13.25
223.635	-13.25
223.869	-19.25
224.104	-24.25
224.338	-17.25
224.573	-7.25
224.808	-13.25
225.042	-20.25
225.277	-1.25
225.511	-0.25
225.746	1.75
225.98	3.75
226.215	8.75
226.449	14.75
226.683	27.75
226.918	24.75
227.152	34.75
227.387	45.75
227.621	23.75
227.856	44.75
228.09	43.75
228.324	47.75
228.559	45.75
228.793	54.75
229.027	63.75
229.262	70.75
229.496	60.75
229.73	60.75
229.964	71.75
230.199	56.75
230.433	61.75
230.667	66.75
230.901	79.75
231.136	80.75
231.37	69.75
231.604	93.75
231.838	68.75
232.072	95.75
232.306	74.75
232.541	78.75
232.775	85.75
233.009	86.75
233.243	72.75
233.477	70.75
233.711	74.75
233.945	90.75
234.179	70.75
234.413	92.75
234.647	78.75
234.881	74.75
235.115	60.75
235.349	81.75
235.583	84.75
235.817	74.75
236.051	82.75
236.285	74.75
236.519	78.75
236.753	69.75
236.987	64.75
237.221	84.75
237.455	79.75
237.689	84.75
237.922	94.75
238.156	75.75
238.39	87.75
238.624	82.75
238.858	77.75
239.091	77.75
239.325	60.75
239.559	80.75
239.793	70.75
240.027	73.75
240.26	75.75
240.494	81.75
240.728	98.75
240.961	79.75
241.195	84.75
241.429	66.75
241.662	64.75
241.896	87.75
242.13	88.75
242.363	90.75
242.597	66.75
242.83	75.75
243.064	87.75
243.298	68.75
243.531	91.75
243.765	72.75
243.998	80.75
244.232	82.75
244.465	91.75
244.699	72.75
244.932	68.75
245.166	68.75
245.399	84.75
245.633	69.75
245.866	71.75
246.099	86.75
246.333	89.75
246.566	67.75
246.8	82.75
247.033	72.75
247.266	77.75
247.5	76.75
247.733	78.75
247.966	68.75
248.2	79.75
248.433	80.75
248.666	66.75
248.899	75.75
249.133	70.75
249.366	77.75
249.599	75.75
249.832	91.75
250.066	86.75
250.299	74.75
250.532	82.75
250.765	76.75
250.998	74.75
251.231	75.75
251.465	70.75
251.698	84.75
251.931	77.75
252.164	89.75
252.397	92.75
252.63	80.75
252.863	70.75
253.096	67.75
253.329	63.75
253.562	71.75
253.795	83.75
254.028	79.75
254.261	81.75
254.494	84.75
254.727	73.75
254.96	90.75
255.193	90.75
255.426	71.75
255.659	86.75
255.892	72.75
256.124	57.75
256.357	73.75
256.59	85.75
256.823	72.75
257.056	84.75
257.289	83.75
257.521	75.75
257.754	77.75
257.987	74.75
258.22	69.75
258.452	83.75
258.685	93.75
258.918	83.75
259.151	86.75
259.383	88.75
259.616	70.75
259.849	74.75
260.081	79.75
260.314	86.75
260.547	91.75
260.779	85.75
261.012	77.75
261.244	74.75
261.477	82.75
261.71	84.75
261.942	88.75
262.175	90.75
262.407	78.75
262.64	90.75
262.872	72.75
263.105	72.75
263.337	65.75
263.57	78.75
263.802	84.75
264.035	91.75
264.267	88.75
264.499	79.75
264.732	86.75
264.964	71.75
265.197	90.75
265.429	82.75
265.661	93.75
265.894	68.75
266.126	82.75
266.358	86.75
266.591	82.75
266.823	80.75
267.055	80.75
267.287	70.75
267.52	90.75
267.752	72.75
267.984	80.75
268.216	92.75
268.448	92.75
268.681	81.75
268.913	89.75
269.145	85.75
269.377	78.75
269.609	70.75
269.841	88.75
270.073	71.75
270.306	75.75
270.538	62.75
270.77	82.75
271.002	90.75
271.234	80.75
271.466	84.75
271.698	87.75
271.93	95.75
272.162	81.75
272.394	90.75
272.626	92.75
272.858	88.75
273.09	83.75
273.322	75.75
273.553	78.75
273.785	92.75
274.017	70.75
274.249	67.75
274.481	86.75
274.713	84.75
274.945	87.75
275.176	77.75
275.408	90.75
275.64	90.75
275.872	75.75
276.104	72.75
276.335	76.75
276.567	83.75
276.799	78.75
277.031	103.75
277.262	88.75
277.494	74.75
277.726	82.75
277.957	89.75
278.189	71.75
278.421	76.75
278.652	72.75
278.884	83.75
279.115	84.75
279.347	79.75
279.579	92.75
279.81	90.75
280.042	86.75
280.273	82.75
280.505	83.75
280.736	85.75
280.968	84.75
281.199	77.75
281.431	84.75
281.662	77.75
281.894	89.75
282.125	85.75
282.356	80.75
282.588	72.75
282.819	92.75
283.051	76.75
283.282	71.75
283.513	70.75
283.745	67.75
283.976	79.75
284.207	92.75
284.439	78.75
284.67	68.75
284.901	90.75
285.132	87.75
285.364	82.75
285.595	95.75
285.826	87.75
286.057	87.75
286.288	93.75
286.52	86.75
286.751	81.75
286.982	92.75
287.213	82.75
287.444	88.75
287.675	67.75
287.906	71.75
288.138	72.75
288.369	78.75
288.6	84.75
288.831	89.75
289.062	93.75
289.293	79.75
289.524	82.75
289.755	87.75
289.986	74.75
290.217	80.75
290.448	77.75
290.679	86.75
290.91	76.75
291.141	74.75
291.371	86.75
291.602	80.75
291.833	80.75
292.064	85.75
292.295	75.75
292.526	79.75
292.757	77.75
292.987	96.75
293.218	90.75
293.449	82.75
293.68	75.75
293.91	84.75
294.141	82.75
294.372	89.75
294.603	86.75
294.833	87.75
295.064	73.75
295.295	86.75
295.525	84.75
295.756	83.75
295.987	87.75
296.217	89.75
296.448	72.75
296.679	83.75
296.909	63.75
297.14	91.75
297.37	98.75
297.601	93.75
297.831	79.75
298.062	93.75
298.292	82.75
298.523	90.75
298.753	83.75
298.984	95.75
299.214	86.75
299.445	75.75
299.675	92.75
299.905	78.75
300.136	85.75
300.366	95.75
300.597	68.75
300.827	93.75
301.057	78.75
301.288	88.75
301.518	85.75
301.748	93.75
301.979	94.75
302.209	82.75
302.439	75.75
302.669	83.75
302.9	84.75
303.13	89.75
303.36	78.75
303.59	84.75
303.82	86.75
304.051	82.75
304.281	86.75
304.511	89.75
304.741	71.75
304.971	74.75
305.201	79.75
305.431	83.75
305.661	95.75
305.891	90.75
306.121	82.75
306.352	78.75
306.582	82.75
306.812	81.75
307.042	76.75
307.272	95.75
307.502	87.75
307.731	75.75
307.961	90.75
308.191	76.75
308.421	94.75
308.651	90.75
308.881	83.75
309.111	80.75
309.341	75.75
309.571	90.75
309.8	95.75
310.03	99.75
310.26	76.75
310.49	84.75
310.72	75.75
310.949	87.75
311.179	93.75
311.409	83.75
311.639	89.75
311.868	78.75
312.098	100.75
312.328	70.75
312.557	84.75
312.787	80.75
313.017	91.75
313.246	92.75
313.476	83.75
313.706	99.75
313.935	92.75
314.165	72.75
314.394	68.75
314.624	76.75
314.853	97.75
315.083	72.75
315.312	85.75
315.542	71.75
315.771	88.75
316.001	84.75
316.23	86.75
316.46	92.75
316.689	74.75
316.919	85.75
317.148	87.75
317.377	89.75
317.607	91.75
317.836	83.75
318.065	86.75
318.295	88.75
318.524	79.75
318.753	74.75
318.983	78.75
319.212	66.75
319.441	80.75
319.67	99.75
319.9	85.75
320.129	84.75
320.358	84.75
320.587	93.75
320.816	69.75
321.046	95.75
321.275	73.75
321.504	96.75
321.733	100.75
321.962	85.75
322.191	82.75
322.42	80.75
322.649	74.75
322.878	76.75
323.108	70.75
323.337	79.75
323.566	79.75
323.795	79.75
324.024	86.75
324.253	84.75
324.482	82.75
324.71	92.75
324.939	72.75
325.168	86.75
325.397	80.75
325.626	88.75
325.855	84.75
326.084	93.75
326.313	78.75
326.542	92.75
326.77	91.75
326.999	69.75
327.228	74.75
327.457	77.75
327.686	95.75
327.914	87.75
328.143	79.75
328.372	80.75
328.6	86.75
328.829	75.75
329.058	82.75
329.287	93.75
329.515	98.75
329.744	94.75
329.972	97.75
330.201	85.75
330.43	83.75
330.658	79.75
330.887	72.75
331.115	68.75
331.344	76.75
331.572	79.75
331.801	91.75
332.03	83.75
332.258	74.75
332.486	90.75
332.715	98.75
332.943	98.75
333.172	87.75
333.4	77.75
333.629	89.75
333.857	86.75
334.085	77.75
334.314	85.75
334.542	75.75
334.771	91.75
334.999	85.75
335.227	62.75
335.455	85.75
335.684	63.75
335.912	79.75
336.14	91.75
336.369	89.75
336.597	83.75
336.825	91.75
337.053	69.75
337.281	86.75
337.51	76.75
337.738	93.75
337.966	80.75
338.194	71.75
338.422	92.75
338.65	76.75
338.878	94.75
339.106	71.75
339.334	83.75
339.562	81.75
339.79	93.75
340.018	90.75
340.246	86.75
340.474	71.75
340.702	80.75
340.93	91.75
341.158	90.75
341.386	81.75
341.614	86.75
341.842	77.75
342.07	77.75
342.298	86.75
342.526	88.75
342.754	85.75
342.981	82.75
343.209	70.75
343.437	95.75
343.665	85.75
343.893	69.75
344.12	74.75
344.348	82.75
344.576	92.75
344.804	89.75
345.031	70.75
345.259	76.75
345.487	83.75
345.714	76.75
345.942	66.75
346.17	83.75
346.397	78.75
346.625	64.75
346.853	74.75
347.08	92.75
347.308	93.75
347.535	76.75
347.763	77.75
347.99	83.75
348.218	75.75
348.445	78.75
348.673	88.75
348.9	82.75
349.128	83.75
349.355	88.75
349.583	69.75
349.81	87.75
350.037	103.75
350.265	90.75
350.492	81.75
350.72	100.75
350.947	80.75
351.174	84.75
351.402	71.75
351.629	74.75
351.856	80.75
352.083	78.75
352.311	79.75
352.538	90.75
352.765	81.75
352.992	82.75
353.22	86.75
353.447	94.75
353.674	104.75
353.901	92.75
354.128	70.75
354.355	69.75
354.583	83.75
354.81	96.75
355.037	79.75
355.264	92.75
355.491	64.75
355.718	84.75
355.945	85.75
356.172	77.75
356.399	78.75
356.626	91.75
356.853	78.75
357.08	94.75
357.307	76.75
357.534	83.75
357.761	88.75
357.988	94.75
358.215	88.75
358.441	92.75
358.668	89.75
358.895	88.75
359.122	67.75
359.349	86.75
359.576	77.75
359.802	76.75
360.029	92.75
360.256	79.75
360.483	70.75
360.709	92.75
360.936	81.75
361.163	95.75
361.39	85.75
361.616	83.75
361.843	78.75
362.07	79.75
362.296	90.75
362.523	83.75
362.749	88.75
362.976	95.75
363.203	87.75
363.429	77.75
363.656	72.75
363.882	77.75
364.109	85.75
364.335	96.75
364.562	87.75
364.788	80.75
365.015	94.75
365.241	68.75
365.468	81.75
365.694	73.75
365.92	74.75
366.147	91.75
366.373	90.75
366.599	87.75
366.826	73.75
367.052	88.75
367.278	86.75
367.505	91.75
367.731	76.75
367.957	93.75
368.184	83.75
368.41	91.75
368.636	92.75
368.862	60.75
369.089	82.75
369.315	79.75
369.541	84.75
369.767	86.75
369.993	84.75
370.219	80.75
370.445	90.75
370.672	80.75
370.898	87.75
371.124	75.75
371.35	82.75
371.576	82.75
371.802	94.75
372.028	81.75
372.254	79.75
372.48	78.75
372.706	88.75
372.932	84.75
373.158	92.75
373.384	78.75
373.61	63.75
373.835	74.75
374.061	93.75
374.287	63.75
374.513	88.75
374.739	82.75
374.965	68.75
375.191	86.75
375.416	85.75
375.642	85.75
375.868	86.75
376.094	82.75
376.319	70.75
376.545	74.75
376.771	78.75
376.997	97.75
377.222	69.75
377.448	73.75
377.674	71.75
377.899	76.75
378.125	96.75
378.35	85.75
378.576	86.75
378.802	91.75
379.027	83.75
379.253	81.75
379.478	80.75
379.704	78.75
379.929	86.75
380.155	72.75
380.38	82.75
380.606	79.75
380.831	79.75
381.057	79.75
381.282	85.75
381.507	75.75
381.733	65.75
381.958	68.75
382.184	82.75
382.409	71.75
382.634	82.75
382.86	82.75
383.085	74.75
383.31	91.75
383.535	82.75
383.761	69.75
383.986	79.75
384.211	92.75
384.436	86.75
384.662	78.75
384.887	80.75
385.112	75.75
385.337	85.75
385.562	82.75
385.787	91.75
386.013	82.75
386.238	84.75
386.463	83.75
386.688	83.75
386.913	79.75
387.138	76.75
387.363	80.75
387.588	78.75
387.813	66.75
388.038	63.75
388.263	76.75
388.488	80.75
388.713	87.75
388.938	86.75
389.163	81.75
389.387	65.75
389.612	82.75
389.837	76.75
390.062	74.75
390.287	83.75
390.512	72.75
390.736	65.75
390.961	80.75
391.186	60.75
391.411	77.75
391.636	74.75
391.86	74.75
392.085	78.75
392.31	79.75
392.534	81.75
392.759	93.75
392.984	95.75
393.208	74.75
393.433	87.75
393.658	84.75
393.882	76.75
394.107	73.75
394.331	77.75
394.556	77.75
394.78	79.75
395.005	75.75
395.229	72.75
395.454	73.75
395.678	83.75
395.903	81.75
396.127	90.75
396.352	91.75
396.576	88.75
396.801	74.75
397.025	92.75
397.249	72.75
397.474	71.75
397.698	65.75
397.922	82.75
398.147	86.75
398.371	86.75
398.595	81.75
398.82	79.75
399.044	83.75
399.268	60.75
399.492	80.75
399.717	90.75
399.941	75.75
400.165	83.75
400.389	85.75
400.613	93.75
400.837	91.75
401.062	80.75
401.286	81.75
401.51	75.75
401.734	79.75
401.958	76.75
402.182	70.75
402.406	74.75
402.63	86.75
402.854	84.75
403.078	80.75
403.302	87.75
403.526	83.75
403.75	87.75
403.974	86.75
404.198	87.75
404.422	83.75
404.645	71.75
404.869	67.75
405.093	88.75
405.317	91.75
405.541	76.75
405.765	94.75
405.988	76.75
406.212	74.75
406.436	82.75
406.66	76.75
406.883	90.75
407.107	79.75
407.331	73.75
407.555	56.75
407.778	74.75
408.002	70.75
408.226	80.75
408.449	81.75
408.673	79.75
408.896	79.75
409.12	71.75
409.344	76.75
409.567	71.75
409.791	60.75
410.014	84.75
410.238	97.75
410.461	84.75
410.685	80.75
410.908	82.75
411.132	79.75
411.355	76.75
411.578	68.75
411.802	79.75
412.025	80.75
412.249	83.75
412.472	88.75
412.695	92.75
412.919	67.75
413.142	85.75
413.365	78.75
413.589	82.75
413.812	76.75
414.035	69.75
414.258	82.75
414.482	90.75
414.705	66.75
414.928	70.75
415.151	83.75
415.374	72.75
415.597	78.75
415.821	87.75
416.044	89.75
416.267	68.75
416.49	88.75
416.713	72.75
416.936	80.75
417.159	82.75
417.382	78.75
417.605	86.75
417.828	78.75
418.051	87.75
418.274	73.75
418.497	72.75
418.72	71.75
418.943	73.75
419.166	79.75
419.389	78.75
419.611	79.75
419.834	69.75
420.057	82.75
420.28	79.75
420.503	82.75
420.726	87.75
420.948	75.75
421.171	76.75
421.394	95.75
421.617	85.75
421.839	72.75
422.062	75.75
422.285	77.75
422.507	77.75
422.73	78.75
422.953	87.75
423.175	71.75
423.398	75.75
423.621	69.75
423.843	80.75
424.066	81.75
424.288	75.75
424.511	81.75
424.733	87.75
424.956	72.75
425.178	97.75
425.401	73.75
425.623	77.75
425.846	77.75
426.068	84.75
426.291	84.75
426.513	75.75
426.735	83.75
426.958	77.75
427.18	86.75
427.402	88.75
427.625	86.75
427.847	74.75
428.069	74.75
428.292	77.75
428.514	80.75
428.736	82.75
428.958	66.75
429.181	80.75
429.403	83.75
429.625	76.75
429.847	74.75
430.069	67.75
430.292	80.75
430.514	77.75
430.736	70.75
430.958	70.75
431.18	72.75
431.402	65.75
431.624	50.75
431.846	83.75
432.068	59.75
432.29	77.75
432.512	78.75
432.734	84.75
432.956	80.75
433.178	77.75
433.4	84.75
433.622	70.75
433.844	76.75
434.066	90.75
434.287	69.75
434.509	80.75
434.731	70.75
434.953	75.75
435.175	78.75
435.397	86.75
435.618	78.75
435.84	75.75
436.062	88.75
436.284	83.75
436.505	75.75
436.727	78.75
436.949	76.75
437.17	78.75
437.392	61.75
437.614	80.75
437.835	90.75
438.057	81.75
438.278	79.75
438.5	73.75
438.721	64.75
438.943	84.75
439.165	82.75
439.386	88.75
439.608	68.75
439.829	73.75
440.05	84.75
440.272	80.75
440.493	80.75
440.715	72.75
440.936	84.75
441.158	87.75
441.379	74.75
441.6	76.75
441.822	77.75
442.043	86.75
442.264	65.75
442.486	63.75
442.707	74.75
442.928	90.75
443.149	78.75
443.371	86.75
443.592	78.75
443.813	81.75
444.034	91.75
444.255	69.75
444.476	76.75
444.698	78.75
444.919	78.75
445.14	160.75
445.361	134.75
445.582	84.75
445.803	76.75
446.024	69.75
446.245	80.75
446.466	88.75
446.687	75.75
446.908	87.75
447.129	72.75
447.35	73.75
447.571	69.75
447.792	79.75
448.013	89.75
448.234	71.75
448.455	80.75
448.675	87.75
448.896	86.75
449.117	90.75
449.338	86.75
449.559	80.75
449.779	82.75
450	83.75
450.221	79.75
450.442	73.75
450.662	81.75
450.883	78.75
451.104	86.75
451.324	68.75
451.545	88.75
451.766	63.75
451.986	73.75
452.207	76.75
452.428	93.75
452.648	87.75
452.869	55.75
453.089	61.75
453.31	74.75
453.53	64.75
453.751	91.75
453.971	78.75
454.192	85.75
454.412	79.75
454.633	85.75
454.853	80.75
455.073	80.75
455.294	94.75
455.514	80.75
455.734	84.75
455.955	75.75
456.175	87.75
456.395	81.75
456.616	80.75
456.836	80.75
457.056	81.75
457.276	80.75
457.497	75.75
457.717	75.75
457.937	79.75
458.157	73.75
458.377	74.75
458.598	69.75
458.818	68.75
459.038	74.75
459.258	71.75
459.478	78.75
459.698	74.75
459.918	95.75
460.138	94.75
460.358	102.75
460.578	86.75
460.798	75.75
461.018	74.75
461.238	77.75
461.458	79.75
461.678	79.75
461.898	81.75
462.118	81.75
462.338	73.75
462.558	85.75
462.777	87.75
462.997	83.75
463.217	76.75
463.437	83.75
463.657	78.75
463.876	76.75
464.096	77.75
464.316	80.75
464.536	69.75
464.755	88.75
464.975	77.75
465.195	90.75
465.414	86.75
465.634	86.75
465.854	100.75
466.073	96.75
466.293	89.75
466.512	78.75
466.732	92.75
466.951	86.75
467.171	84.75
467.391	90.75
467.61	85.75
467.829	78.75
468.049	87.75
468.268	76.75
468.488	92.75
468.707	80.75
468.927	67.75
469.146	77.75
469.365	76.75
469.585	79.75
469.804	77.75
470.023	78.75
470.243	67.75
470.462	88.75
470.681	86.75
470.901	75.75
471.12	65.75
471.339	79.75
471.558	80.75
471.777	71.75
471.997	69.75
472.216	85.75
472.435	90.75
472.654	84.75
472.873	77.75
473.092	78.75
473.311	74.75
473.53	77.75
473.749	72.75
473.968	88.75
474.187	80.75
474.406	77.75
474.625	90.75
474.844	71.75
475.063	95.75
475.282	88.75
475.501	70.75
475.72	78.75
475.939	78.75
476.158	89.75
476.377	88.75
476.596	86.75
476.814	86.75
477.033	98.75
477.252	86.75
477.471	85.75
477.69	81.75
477.908	81.75
478.127	88.75
478.346	74.75
478.564	72.75
478.783	79.75
479.002	72.75
479.22	76.75
479.439	84.75
479.658	74.75
479.876	85.75
480.095	74.75
480.313	96.75
480.532	96.75
480.751	81.75
480.969	86.75
481.188	87.75
481.406	94.75
481.624	84.75
481.843	67.75
482.061	83.75
482.28	83.75
482.498	76.75
482.717	86.75
482.935	81.75
483.153	80.75
483.372	70.75
483.59	79.75
483.808	75.75
484.027	87.75
484.245	84.75
484.463	68.75
484.681	87.75
484.9	83.75
485.118	92.75
485.336	78.75
485.554	83.75
485.772	90.75
485.99	84.75
486.209	85.75
486.427	82.75
486.645	69.75
486.863	75.75
487.081	75.75
487.299	65.75
487.517	82.75
487.735	79.75
487.953	86.75
488.171	80.75
488.389	84.75
488.607	75.75
488.825	86.75
489.043	92.75
489.261	73.75
489.479	81.75
489.696	78.75
489.914	81.75
490.132	54.75
490.35	67.75
490.568	80.75
490.786	85.75
491.003	78.75
491.221	77.75
491.439	78.75
491.657	78.75
491.874	89.75
492.092	76.75
492.31	92.75
492.527	94.75
492.745	62.75
492.963	90.75
493.18	92.75
493.398	78.75
493.615	72.75
493.833	75.75
494.05	82.75
494.268	75.75
494.485	90.75
494.703	78.75
494.92	71.75
495.138	83.75
495.355	79.75
495.573	90.75
495.79	92.75
496.008	80.75
496.225	79.75
496.442	87.75
496.66	77.75
496.877	89.75
497.094	91.75
497.312	74.75
497.529	94.75
497.746	87.75
497.963	71.75
498.181	76.75
498.398	56.75
498.615	81.75
498.832	77.75
499.049	68.75
499.267	71.75
499.484	75.75
499.701	89.75
499.918	90.75
500.135	79.75
500.352	83.75
500.569	78.75
500.786	76.75
501.003	95.75
501.22	91.75
501.437	67.75
501.654	79.75
501.871	77.75
502.088	90.75
502.305	85.75
502.522	87.75
502.739	74.75
502.956	82.75
503.172	81.75
503.389	90.75
503.606	77.75
503.823	87.75
504.04	80.75
504.256	92.75
504.473	82.75
504.69	76.75
504.907	85.75
505.123	88.75
505.34	89.75
505.557	76.75
505.773	71.75
505.99	75.75
506.207	79.75
506.423	66.75
506.64	83.75
506.856	87.75
507.073	82.75
507.289	78.75
507.506	84.75
507.722	76.75
507.939	84.75
508.155	79.75
508.372	92.75
508.588	84.75
508.805	79.75
509.021	93.75
509.238	79.75
509.454	80.75
509.67	79.75
509.887	76.75
510.103	84.75
510.319	73.75
510.536	76.75
510.752	86.75
510.968	83.75
511.184	83.75
511.401	87.75
511.617	77.75
511.833	79.75
512.049	89.75
512.265	76.75
512.481	80.75
512.698	87.75
512.914	89.75
513.13	92.75
513.346	80.75
513.562	86.75
513.778	75.75
513.994	76.75
514.21	82.75
514.426	73.75
514.642	79.75
514.858	88.75
515.074	86.75
515.29	84.75
515.506	78.75
515.721	82.75
515.937	82.75
516.153	90.75
516.369	79.75
516.585	82.75
516.801	81.75
517.016	77.75
517.232	84.75
517.448	79.75
517.664	74.75
517.879	92.75
518.095	94.75
518.311	80.75
518.527	74.75
518.742	78.75
518.958	84.75
519.173	89.75
519.389	89.75
519.605	79.75
519.82	69.75
520.036	86.75
520.251	76.75
