Data from BG_HRD10591_086.txt Node
Date: Fri May 16 15:21:36 EDT 2025
User: Yrep
Spectrometer: HR+D1059
Trigger mode: 1
Integration Time (sec): 1.000000E-1
Scans to average: 1
Electric dark correction enabled: true
Nonlinearity correction enabled: false
Boxcar width: 0
XAxis mode: Wavelengths
Number of Pixels in Spectrum: 2048
>>>>>Begin Spectral Data<<<<<
223.165	-15.5
223.4	-15.5
223.635	-15.5
223.869	-29.5
224.104	-31.5
224.338	-16.5
224.573	-11.5
224.808	-6.5
225.042	-15.5
225.277	8.5
225.511	5.5
225.746	5.5
225.98	11.5
226.215	13.5
226.449	18.5
226.683	19.5
226.918	19.5
227.152	24.5
227.387	46.5
227.621	31.5
227.856	25.5
228.09	53.5
228.324	47.5
228.559	66.5
228.793	61.5
229.027	64.5
229.262	59.5
229.496	72.5
229.73	81.5
229.964	87.5
230.199	72.5
230.433	70.5
230.667	76.5
230.901	73.5
231.136	85.5
231.37	72.5
231.604	78.5
231.838	66.5
232.072	60.5
232.306	74.5
232.541	83.5
232.775	72.5
233.009	73.5
233.243	82.5
233.477	77.5
233.711	70.5
233.945	70.5
234.179	79.5
234.413	78.5
234.647	86.5
234.881	81.5
235.115	73.5
235.349	64.5
235.583	88.5
235.817	70.5
236.051	64.5
236.285	70.5
236.519	69.5
236.753	99.5
236.987	91.5
237.221	83.5
237.455	63.5
237.689	70.5
237.922	77.5
238.156	72.5
238.39	92.5
238.624	66.5
238.858	67.5
239.091	72.5
239.325	78.5
239.559	71.5
239.793	63.5
240.027	80.5
240.26	77.5
240.494	71.5
240.728	75.5
240.961	90.5
241.195	79.5
241.429	67.5
241.662	65.5
241.896	66.5
242.13	74.5
242.363	59.5
242.597	74.5
242.83	66.5
243.064	78.5
243.298	84.5
243.531	63.5
243.765	70.5
243.998	68.5
244.232	71.5
244.465	78.5
244.699	84.5
244.932	86.5
245.166	82.5
245.399	79.5
245.633	72.5
245.866	86.5
246.099	82.5
246.333	74.5
246.566	77.5
246.8	70.5
247.033	79.5
247.266	76.5
247.5	64.5
247.733	66.5
247.966	75.5
248.2	73.5
248.433	74.5
248.666	84.5
248.899	78.5
249.133	84.5
249.366	81.5
249.599	83.5
249.832	86.5
250.066	76.5
250.299	87.5
250.532	78.5
250.765	70.5
250.998	86.5
251.231	93.5
251.465	71.5
251.698	64.5
251.931	79.5
252.164	78.5
252.397	74.5
252.63	71.5
252.863	78.5
253.096	82.5
253.329	73.5
253.562	76.5
253.795	77.5
254.028	70.5
254.261	76.5
254.494	88.5
254.727	74.5
254.96	64.5
255.193	78.5
255.426	74.5
255.659	76.5
255.892	77.5
256.124	84.5
256.357	86.5
256.59	73.5
256.823	80.5
257.056	67.5
257.289	78.5
257.521	90.5
257.754	92.5
257.987	82.5
258.22	94.5
258.452	79.5
258.685	89.5
258.918	76.5
259.151	83.5
259.383	100.5
259.616	82.5
259.849	104.5
260.081	102.5
260.314	76.5
260.547	76.5
260.779	90.5
261.012	80.5
261.244	76.5
261.477	85.5
261.71	80.5
261.942	86.5
262.175	81.5
262.407	83.5
262.64	81.5
262.872	87.5
263.105	78.5
263.337	76.5
263.57	88.5
263.802	95.5
264.035	76.5
264.267	64.5
264.499	78.5
264.732	73.5
264.964	85.5
265.197	84.5
265.429	97.5
265.661	87.5
265.894	86.5
266.126	80.5
266.358	104.5
266.591	81.5
266.823	68.5
267.055	77.5
267.287	90.5
267.52	70.5
267.752	94.5
267.984	81.5
268.216	76.5
268.448	83.5
268.681	82.5
268.913	90.5
269.145	85.5
269.377	72.5
269.609	78.5
269.841	91.5
270.073	84.5
270.306	79.5
270.538	89.5
270.77	83.5
271.002	82.5
271.234	84.5
271.466	74.5
271.698	75.5
271.93	95.5
272.162	78.5
272.394	88.5
272.626	98.5
272.858	82.5
273.09	83.5
273.322	89.5
273.553	87.5
273.785	90.5
274.017	80.5
274.249	80.5
274.481	84.5
274.713	91.5
274.945	67.5
275.176	74.5
275.408	104.5
275.64	91.5
275.872	78.5
276.104	86.5
276.335	77.5
276.567	87.5
276.799	96.5
277.031	90.5
277.262	95.5
277.494	92.5
277.726	78.5
277.957	82.5
278.189	106.5
278.421	92.5
278.652	74.5
278.884	78.5
279.115	68.5
279.347	78.5
279.579	79.5
279.81	73.5
280.042	84.5
280.273	80.5
280.505	85.5
280.736	94.5
280.968	94.5
281.199	92.5
281.431	95.5
281.662	89.5
281.894	85.5
282.125	85.5
282.356	87.5
282.588	79.5
282.819	77.5
283.051	70.5
283.282	87.5
283.513	84.5
283.745	77.5
283.976	80.5
284.207	83.5
284.439	85.5
284.67	91.5
284.901	93.5
285.132	79.5
285.364	92.5
285.595	90.5
285.826	75.5
286.057	94.5
286.288	88.5
286.52	90.5
286.751	93.5
286.982	78.5
287.213	87.5
287.444	86.5
287.675	88.5
287.906	90.5
288.138	95.5
288.369	77.5
288.6	87.5
288.831	93.5
289.062	88.5
289.293	86.5
289.524	76.5
289.755	75.5
289.986	74.5
290.217	108.5
290.448	88.5
290.679	74.5
290.91	103.5
291.141	72.5
291.371	84.5
291.602	81.5
291.833	87.5
292.064	78.5
292.295	76.5
292.526	88.5
292.757	77.5
292.987	84.5
293.218	82.5
293.449	86.5
293.68	92.5
293.91	82.5
294.141	92.5
294.372	79.5
294.603	94.5
294.833	88.5
295.064	79.5
295.295	87.5
295.525	86.5
295.756	94.5
295.987	91.5
296.217	88.5
296.448	83.5
296.679	70.5
296.909	88.5
297.14	84.5
297.37	86.5
297.601	74.5
297.831	85.5
298.062	98.5
298.292	93.5
298.523	89.5
298.753	86.5
298.984	83.5
299.214	95.5
299.445	93.5
299.675	85.5
299.905	86.5
300.136	79.5
300.366	88.5
300.597	84.5
300.827	87.5
301.057	90.5
301.288	88.5
301.518	86.5
301.748	83.5
301.979	93.5
302.209	87.5
302.439	71.5
302.669	75.5
302.9	86.5
303.13	98.5
303.36	88.5
303.59	81.5
303.82	94.5
304.051	93.5
304.281	91.5
304.511	92.5
304.741	88.5
304.971	76.5
305.201	70.5
305.431	91.5
305.661	94.5
305.891	90.5
306.121	79.5
306.352	102.5
306.582	83.5
306.812	97.5
307.042	94.5
307.272	89.5
307.502	91.5
307.731	99.5
307.961	89.5
308.191	79.5
308.421	86.5
308.651	91.5
308.881	99.5
309.111	93.5
309.341	94.5
309.571	82.5
309.8	78.5
310.03	82.5
310.26	78.5
310.49	78.5
310.72	84.5
310.949	87.5
311.179	82.5
311.409	80.5
311.639	96.5
311.868	94.5
312.098	89.5
312.328	79.5
312.557	84.5
312.787	100.5
313.017	94.5
313.246	91.5
313.476	86.5
313.706	83.5
313.935	86.5
314.165	90.5
314.394	85.5
314.624	92.5
314.853	97.5
315.083	70.5
315.312	81.5
315.542	79.5
315.771	88.5
316.001	79.5
316.23	78.5
316.46	100.5
316.689	84.5
316.919	85.5
317.148	87.5
317.377	83.5
317.607	81.5
317.836	94.5
318.065	106.5
318.295	78.5
318.524	78.5
318.753	88.5
318.983	89.5
319.212	92.5
319.441	87.5
319.67	81.5
319.9	88.5
320.129	78.5
320.358	84.5
320.587	104.5
320.816	81.5
321.046	86.5
321.275	88.5
321.504	86.5
321.733	84.5
321.962	106.5
322.191	86.5
322.42	77.5
322.649	88.5
322.878	84.5
323.108	85.5
323.337	88.5
323.566	90.5
323.795	74.5
324.024	91.5
324.253	68.5
324.482	90.5
324.71	89.5
324.939	90.5
325.168	98.5
325.397	67.5
325.626	89.5
325.855	70.5
326.084	85.5
326.313	98.5
326.542	74.5
326.77	99.5
326.999	102.5
327.228	84.5
327.457	105.5
327.686	88.5
327.914	90.5
328.143	80.5
328.372	92.5
328.6	76.5
328.829	85.5
329.058	96.5
329.287	90.5
329.515	79.5
329.744	98.5
329.972	84.5
330.201	83.5
330.43	95.5
330.658	78.5
330.887	82.5
331.115	102.5
331.344	91.5
331.572	91.5
331.801	102.5
332.03	96.5
332.258	92.5
332.486	81.5
332.715	80.5
332.943	88.5
333.172	86.5
333.4	89.5
333.629	81.5
333.857	82.5
334.085	85.5
334.314	81.5
334.542	86.5
334.771	89.5
334.999	84.5
335.227	95.5
335.455	78.5
335.684	81.5
335.912	102.5
336.14	82.5
336.369	70.5
336.597	93.5
336.825	86.5
337.053	79.5
337.281	84.5
337.51	81.5
337.738	90.5
337.966	95.5
338.194	89.5
338.422	85.5
338.65	85.5
338.878	94.5
339.106	84.5
339.334	86.5
339.562	86.5
339.79	78.5
340.018	85.5
340.246	91.5
340.474	78.5
340.702	77.5
340.93	69.5
341.158	79.5
341.386	101.5
341.614	78.5
341.842	91.5
342.07	77.5
342.298	78.5
342.526	90.5
342.754	87.5
342.981	85.5
343.209	90.5
343.437	101.5
343.665	93.5
343.893	92.5
344.12	88.5
344.348	94.5
344.576	93.5
344.804	94.5
345.031	78.5
345.259	100.5
345.487	109.5
345.714	88.5
345.942	98.5
346.17	86.5
346.397	80.5
346.625	88.5
346.853	82.5
347.08	70.5
347.308	83.5
347.535	85.5
347.763	101.5
347.99	84.5
348.218	65.5
348.445	84.5
348.673	80.5
348.9	90.5
349.128	91.5
349.355	80.5
349.583	91.5
349.81	93.5
350.037	92.5
350.265	100.5
350.492	98.5
350.72	90.5
350.947	78.5
351.174	95.5
351.402	87.5
351.629	74.5
351.856	91.5
352.083	75.5
352.311	86.5
352.538	83.5
352.765	102.5
352.992	82.5
353.22	78.5
353.447	81.5
353.674	99.5
353.901	86.5
354.128	82.5
354.355	88.5
354.583	87.5
354.81	85.5
355.037	75.5
355.264	95.5
355.491	93.5
355.718	78.5
355.945	100.5
356.172	82.5
356.399	87.5
356.626	81.5
356.853	94.5
357.08	84.5
357.307	88.5
357.534	105.5
357.761	88.5
357.988	94.5
358.215	84.5
358.441	67.5
358.668	86.5
358.895	94.5
359.122	87.5
359.349	83.5
359.576	93.5
359.802	87.5
360.029	92.5
360.256	90.5
360.483	86.5
360.709	73.5
360.936	95.5
361.163	88.5
361.39	82.5
361.616	91.5
361.843	94.5
362.07	92.5
362.296	88.5
362.523	94.5
362.749	73.5
362.976	64.5
363.203	94.5
363.429	102.5
363.656	94.5
363.882	89.5
364.109	88.5
364.335	86.5
364.562	81.5
364.788	79.5
365.015	99.5
365.241	80.5
365.468	79.5
365.694	88.5
365.92	86.5
366.147	81.5
366.373	83.5
366.599	91.5
366.826	79.5
367.052	75.5
367.278	79.5
367.505	92.5
367.731	78.5
367.957	83.5
368.184	84.5
368.41	79.5
368.636	73.5
368.862	102.5
369.089	83.5
369.315	92.5
369.541	99.5
369.767	72.5
369.993	78.5
370.219	79.5
370.445	82.5
370.672	92.5
370.898	75.5
371.124	78.5
371.35	70.5
371.576	81.5
371.802	101.5
372.028	86.5
372.254	77.5
372.48	70.5
372.706	82.5
372.932	95.5
373.158	96.5
373.384	99.5
373.61	92.5
373.835	90.5
374.061	78.5
374.287	89.5
374.513	91.5
374.739	75.5
374.965	76.5
375.191	85.5
375.416	90.5
375.642	98.5
375.868	82.5
376.094	92.5
376.319	82.5
376.545	90.5
376.771	79.5
376.997	77.5
377.222	86.5
377.448	93.5
377.674	102.5
377.899	79.5
378.125	68.5
378.35	84.5
378.576	71.5
378.802	82.5
379.027	85.5
379.253	87.5
379.478	83.5
379.704	90.5
379.929	83.5
380.155	74.5
380.38	91.5
380.606	80.5
380.831	82.5
381.057	90.5
381.282	87.5
381.507	90.5
381.733	84.5
381.958	84.5
382.184	91.5
382.409	87.5
382.634	79.5
382.86	75.5
383.085	92.5
383.31	93.5
383.535	74.5
383.761	98.5
383.986	76.5
384.211	71.5
384.436	69.5
384.662	88.5
384.887	92.5
385.112	78.5
385.337	86.5
385.562	83.5
385.787	84.5
386.013	80.5
386.238	79.5
386.463	90.5
386.688	93.5
386.913	71.5
387.138	82.5
387.363	87.5
387.588	94.5
387.813	84.5
388.038	93.5
388.263	87.5
388.488	76.5
388.713	84.5
388.938	84.5
389.163	91.5
389.387	80.5
389.612	87.5
389.837	102.5
390.062	85.5
390.287	84.5
390.512	72.5
390.736	87.5
390.961	87.5
391.186	95.5
391.411	92.5
391.636	93.5
391.86	74.5
392.085	98.5
392.31	74.5
392.534	95.5
392.759	86.5
392.984	86.5
393.208	90.5
393.433	93.5
393.658	97.5
393.882	86.5
394.107	87.5
394.331	84.5
394.556	93.5
394.78	83.5
395.005	86.5
395.229	83.5
395.454	94.5
395.678	78.5
395.903	87.5
396.127	90.5
396.352	88.5
396.576	89.5
396.801	73.5
397.025	82.5
397.249	74.5
397.474	88.5
397.698	93.5
397.922	92.5
398.147	77.5
398.371	84.5
398.595	93.5
398.82	98.5
399.044	94.5
399.268	92.5
399.492	102.5
399.717	87.5
399.941	94.5
400.165	89.5
400.389	78.5
400.613	90.5
400.837	88.5
401.062	80.5
401.286	86.5
401.51	85.5
401.734	93.5
401.958	87.5
402.182	91.5
402.406	94.5
402.63	77.5
402.854	75.5
403.078	92.5
403.302	87.5
403.526	94.5
403.75	85.5
403.974	91.5
404.198	91.5
404.422	84.5
404.645	96.5
404.869	96.5
405.093	79.5
405.317	100.5
405.541	78.5
405.765	100.5
405.988	89.5
406.212	100.5
406.436	79.5
406.66	86.5
406.883	85.5
407.107	87.5
407.331	89.5
407.555	84.5
407.778	102.5
408.002	93.5
408.226	79.5
408.449	89.5
408.673	84.5
408.896	94.5
409.12	89.5
409.344	86.5
409.567	98.5
409.791	78.5
410.014	88.5
410.238	83.5
410.461	74.5
410.685	84.5
410.908	91.5
411.132	92.5
411.355	83.5
411.578	95.5
411.802	85.5
412.025	86.5
412.249	86.5
412.472	83.5
412.695	85.5
412.919	87.5
413.142	83.5
413.365	98.5
413.589	117.5
413.812	94.5
414.035	74.5
414.258	80.5
414.482	82.5
414.705	89.5
414.928	87.5
415.151	88.5
415.374	84.5
415.597	72.5
415.821	75.5
416.044	94.5
416.267	80.5
416.49	87.5
416.713	77.5
416.936	88.5
417.159	78.5
417.382	79.5
417.605	103.5
417.828	86.5
418.051	84.5
418.274	91.5
418.497	94.5
418.72	90.5
418.943	90.5
419.166	90.5
419.389	92.5
419.611	91.5
419.834	90.5
420.057	104.5
420.28	87.5
420.503	72.5
420.726	86.5
420.948	90.5
421.171	94.5
421.394	82.5
421.617	96.5
421.839	99.5
422.062	95.5
422.285	85.5
422.507	74.5
422.73	87.5
422.953	74.5
423.175	87.5
423.398	86.5
423.621	79.5
423.843	83.5
424.066	99.5
424.288	87.5
424.511	74.5
424.733	98.5
424.956	87.5
425.178	92.5
425.401	71.5
425.623	78.5
425.846	91.5
426.068	90.5
426.291	85.5
426.513	100.5
426.735	95.5
426.958	84.5
427.18	74.5
427.402	93.5
427.625	97.5
427.847	88.5
428.069	80.5
428.292	107.5
428.514	91.5
428.736	84.5
428.958	90.5
429.181	80.5
429.403	76.5
429.625	89.5
429.847	96.5
430.069	98.5
430.292	82.5
430.514	80.5
430.736	90.5
430.958	89.5
431.18	83.5
431.402	90.5
431.624	83.5
431.846	75.5
432.068	82.5
432.29	93.5
432.512	91.5
432.734	85.5
432.956	84.5
433.178	107.5
433.4	82.5
433.622	89.5
433.844	83.5
434.066	87.5
434.287	86.5
434.509	105.5
434.731	74.5
434.953	86.5
435.175	77.5
435.397	102.5
435.618	88.5
435.84	86.5
436.062	78.5
436.284	105.5
436.505	88.5
436.727	88.5
436.949	70.5
437.17	67.5
437.392	72.5
437.614	92.5
437.835	83.5
438.057	79.5
438.278	87.5
438.5	79.5
438.721	88.5
438.943	80.5
439.165	90.5
439.386	95.5
439.608	84.5
439.829	87.5
440.05	97.5
440.272	89.5
440.493	98.5
440.715	105.5
440.936	79.5
441.158	94.5
441.379	86.5
441.6	73.5
441.822	86.5
442.043	88.5
442.264	87.5
442.486	95.5
442.707	84.5
442.928	88.5
443.149	95.5
443.371	89.5
443.592	76.5
443.813	95.5
444.034	86.5
444.255	91.5
444.476	84.5
444.698	95.5
444.919	83.5
445.14	178.5
445.361	123.5
445.582	90.5
445.803	95.5
446.024	83.5
446.245	95.5
446.466	83.5
446.687	84.5
446.908	89.5
447.129	96.5
447.35	78.5
447.571	74.5
447.792	83.5
448.013	68.5
448.234	70.5
448.455	72.5
448.675	89.5
448.896	93.5
449.117	92.5
449.338	81.5
449.559	80.5
449.779	63.5
450	82.5
450.221	83.5
450.442	73.5
450.662	76.5
450.883	86.5
451.104	96.5
451.324	76.5
451.545	93.5
451.766	82.5
451.986	73.5
452.207	69.5
452.428	90.5
452.648	91.5
452.869	75.5
453.089	85.5
453.31	83.5
453.53	72.5
453.751	87.5
453.971	77.5
454.192	91.5
454.412	95.5
454.633	87.5
454.853	92.5
455.073	88.5
455.294	87.5
455.514	75.5
455.734	64.5
455.955	83.5
456.175	80.5
456.395	90.5
456.616	87.5
456.836	82.5
457.056	81.5
457.276	73.5
457.497	68.5
457.717	95.5
457.937	90.5
458.157	86.5
458.377	75.5
458.598	102.5
458.818	93.5
459.038	86.5
459.258	82.5
459.478	82.5
459.698	80.5
459.918	71.5
460.138	78.5
460.358	99.5
460.578	88.5
460.798	74.5
461.018	83.5
461.238	88.5
461.458	104.5
461.678	98.5
461.898	95.5
462.118	88.5
462.338	86.5
462.558	101.5
462.777	74.5
462.997	84.5
463.217	95.5
463.437	77.5
463.657	80.5
463.876	83.5
464.096	82.5
464.316	102.5
464.536	92.5
464.755	94.5
464.975	85.5
465.195	85.5
465.414	83.5
465.634	94.5
465.854	85.5
466.073	85.5
466.293	86.5
466.512	96.5
466.732	90.5
466.951	86.5
467.171	86.5
467.391	85.5
467.61	90.5
467.829	84.5
468.049	78.5
468.268	90.5
468.488	77.5
468.707	90.5
468.927	100.5
469.146	80.5
469.365	87.5
469.585	88.5
469.804	75.5
470.023	86.5
470.243	91.5
470.462	86.5
470.681	78.5
470.901	78.5
471.12	87.5
471.339	90.5
471.558	86.5
471.777	71.5
471.997	101.5
472.216	87.5
472.435	80.5
472.654	91.5
472.873	85.5
473.092	87.5
473.311	95.5
473.53	84.5
473.749	74.5
473.968	84.5
474.187	82.5
474.406	86.5
474.625	90.5
474.844	87.5
475.063	87.5
475.282	93.5
475.501	76.5
475.72	90.5
475.939	100.5
476.158	77.5
476.377	94.5
476.596	84.5
476.814	82.5
477.033	91.5
477.252	87.5
477.471	91.5
477.69	81.5
477.908	91.5
478.127	86.5
478.346	110.5
478.564	83.5
478.783	88.5
479.002	93.5
479.22	75.5
479.439	93.5
479.658	100.5
479.876	94.5
480.095	86.5
480.313	91.5
480.532	92.5
480.751	85.5
480.969	84.5
481.188	102.5
481.406	91.5
481.624	82.5
481.843	63.5
482.061	89.5
482.28	74.5
482.498	85.5
482.717	85.5
482.935	91.5
483.153	84.5
483.372	79.5
483.59	82.5
483.808	82.5
484.027	95.5
484.245	82.5
484.463	102.5
484.681	102.5
484.9	91.5
485.118	88.5
485.336	86.5
485.554	80.5
485.772	80.5
485.99	84.5
486.209	94.5
486.427	87.5
486.645	96.5
486.863	82.5
487.081	90.5
487.299	93.5
487.517	75.5
487.735	78.5
487.953	82.5
488.171	109.5
488.389	91.5
488.607	94.5
488.825	89.5
489.043	83.5
489.261	95.5
489.479	82.5
489.696	90.5
489.914	95.5
490.132	89.5
490.35	76.5
490.568	80.5
490.786	82.5
491.003	93.5
491.221	91.5
491.439	92.5
491.657	91.5
491.874	101.5
492.092	97.5
492.31	101.5
492.527	96.5
492.745	85.5
492.963	91.5
493.18	83.5
493.398	85.5
493.615	87.5
493.833	91.5
494.05	85.5
494.268	80.5
494.485	72.5
494.703	75.5
494.92	95.5
495.138	102.5
495.355	94.5
495.573	70.5
495.79	79.5
496.008	93.5
496.225	93.5
496.442	82.5
496.66	98.5
496.877	80.5
497.094	91.5
497.312	84.5
497.529	91.5
497.746	82.5
497.963	93.5
498.181	89.5
498.398	89.5
498.615	89.5
498.832	89.5
499.049	95.5
499.267	98.5
499.484	104.5
499.701	96.5
499.918	98.5
500.135	102.5
500.352	111.5
500.569	95.5
500.786	117.5
501.003	111.5
501.22	86.5
501.437	110.5
501.654	90.5
501.871	110.5
502.088	86.5
502.305	96.5
502.522	99.5
502.739	87.5
502.956	84.5
503.172	88.5
503.389	90.5
503.606	78.5
503.823	90.5
504.04	102.5
504.256	98.5
504.473	92.5
504.69	99.5
504.907	98.5
505.123	99.5
505.34	87.5
505.557	82.5
505.773	96.5
505.99	86.5
506.207	99.5
506.423	86.5
506.64	95.5
506.856	100.5
507.073	88.5
507.289	89.5
507.506	89.5
507.722	84.5
507.939	106.5
508.155	106.5
508.372	91.5
508.588	92.5
508.805	86.5
509.021	87.5
509.238	94.5
509.454	84.5
509.67	82.5
509.887	91.5
510.103	89.5
510.319	91.5
510.536	92.5
510.752	75.5
510.968	94.5
511.184	87.5
511.401	101.5
511.617	110.5
511.833	94.5
512.049	80.5
512.265	82.5
512.481	84.5
512.698	86.5
512.914	92.5
513.13	91.5
513.346	81.5
513.562	92.5
513.778	88.5
513.994	92.5
514.21	93.5
514.426	93.5
514.642	93.5
514.858	96.5
515.074	96.5
515.29	94.5
515.506	93.5
515.721	98.5
515.937	88.5
516.153	102.5
516.369	83.5
516.585	90.5
516.801	95.5
517.016	87.5
517.232	90.5
517.448	95.5
517.664	86.5
517.879	101.5
518.095	86.5
518.311	101.5
518.527	88.5
518.742	95.5
518.958	79.5
519.173	87.5
519.389	103.5
519.605	88.5
519.82	90.5
520.036	86.5
520.251	81.5
520.467	86.5
520.682	92.5
520.898	86.5
521.113	78.5
521.329	86.5
521.544	87.5
521.76	89.5
521.975	80.5
522.19	90.5
522.406	90.5
522.621	95.5
522.836	97.5
523.052	90.5
523.267	95.5
523.482	98.5
523.698	84.5
523.913	84.5
524.128	91.5
524.343	86.5
524.559	94.5
524.774	85.5
524.989	96.5
525.204	101.5
525.419	86.5
525.634	92.5
525.849	100.5
526.064	86.5
526.28	95.5
526.495	83.5
526.71	88.5
526.925	80.5
527.14	99.5
527.355	90.5
527.57	80.5
527.785	95.5
527.999	92.5
528.214	98.5
528.429	94.5
528.644	84.5
528.859	89.5
529.074	95.5
529.289	90.5
529.503	70.5
529.718	88.5
529.933	79.5
530.148	77.5
530.363	83.5
530.577	99.5
530.792	86.5
531.007	90.5
531.221	85.5
531.436	85.5
531.651	91.5
531.865	84.5
532.08	82.5
532.295	98.5
532.509	87.5
532.724	78.5
532.938	80.5
533.153	86.5
533.367	68.5
533.582	81.5
533.796	88.5
534.011	79.5
534.225	82.5
534.44	92.5
534.654	80.5
534.868	93.5
535.083	90.5
535.297	88.5
535.511	94.5
535.726	72.5
535.94	83.5
536.154	82.5
536.369	92.5
536.583	80.5
536.797	99.5
537.011	79.5
537.225	92.5
537.44	82.5
537.654	93.5
537.868	95.5
538.082	93.5
538.296	100.5
538.51	91.5
538.724	74.5
538.938	86.5
539.153	100.5
539.367	82.5
539.581	90.5
