Data from BG_HRD10591_055.txt Node
Date: Fri May 16 15:21:21 EDT 2025
User: Yrep
Spectrometer: HR+D1059
Trigger mode: 1
Integration Time (sec): 1.000000E-1
Scans to average: 1
Electric dark correction enabled: true
Nonlinearity correction enabled: false
Boxcar width: 0
XAxis mode: Wavelengths
Number of Pixels in Spectrum: 2048
>>>>>Begin Spectral Data<<<<<
223.165	-25.88
223.4	-25.88
223.635	-25.88
223.869	-16.88
224.104	-23.88
224.338	-13.88
224.573	-16.88
224.808	-19.88
225.042	-1.88
225.277	-11.88
225.511	-2.88
225.746	-8.88
225.98	18.12
226.215	-4.88
226.449	26.12
226.683	24.12
226.918	42.12
227.152	37.12
227.387	35.12
227.621	45.12
227.856	49.12
228.09	58.12
228.324	51.12
228.559	60.12
228.793	59.12
229.027	60.12
229.262	77.12
229.496	73.12
229.73	63.12
229.964	93.12
230.199	69.12
230.433	67.12
230.667	82.12
230.901	87.12
231.136	79.12
231.37	78.12
231.604	72.12
231.838	90.12
232.072	75.12
232.306	87.12
232.541	76.12
232.775	92.12
233.009	88.12
233.243	74.12
233.477	87.12
233.711	81.12
233.945	82.12
234.179	66.12
234.413	79.12
234.647	82.12
234.881	86.12
235.115	76.12
235.349	85.12
235.583	78.12
235.817	71.12
236.051	72.12
236.285	86.12
236.519	76.12
236.753	85.12
236.987	85.12
237.221	66.12
237.455	80.12
237.689	87.12
237.922	89.12
238.156	77.12
238.39	83.12
238.624	81.12
238.858	74.12
239.091	72.12
239.325	74.12
239.559	82.12
239.793	88.12
240.027	67.12
240.26	73.12
240.494	78.12
240.728	82.12
240.961	83.12
241.195	87.12
241.429	80.12
241.662	65.12
241.896	75.12
242.13	75.12
242.363	67.12
242.597	66.12
242.83	68.12
243.064	85.12
243.298	79.12
243.531	79.12
243.765	82.12
243.998	104.12
244.232	66.12
244.465	79.12
244.699	65.12
244.932	74.12
245.166	91.12
245.399	87.12
245.633	82.12
245.866	80.12
246.099	75.12
246.333	91.12
246.566	80.12
246.8	85.12
247.033	74.12
247.266	89.12
247.5	81.12
247.733	89.12
247.966	83.12
248.2	78.12
248.433	86.12
248.666	85.12
248.899	73.12
249.133	88.12
249.366	74.12
249.599	82.12
249.832	66.12
250.066	70.12
250.299	89.12
250.532	86.12
250.765	89.12
250.998	93.12
251.231	77.12
251.465	95.12
251.698	95.12
251.931	87.12
252.164	79.12
252.397	92.12
252.63	77.12
252.863	74.12
253.096	85.12
253.329	79.12
253.562	80.12
253.795	85.12
254.028	80.12
254.261	96.12
254.494	74.12
254.727	65.12
254.96	92.12
255.193	91.12
255.426	75.12
255.659	89.12
255.892	80.12
256.124	85.12
256.357	88.12
256.59	94.12
256.823	78.12
257.056	82.12
257.289	73.12
257.521	87.12
257.754	81.12
257.987	85.12
258.22	90.12
258.452	85.12
258.685	87.12
258.918	84.12
259.151	89.12
259.383	103.12
259.616	75.12
259.849	102.12
260.081	83.12
260.314	89.12
260.547	84.12
260.779	72.12
261.012	90.12
261.244	92.12
261.477	89.12
261.71	81.12
261.942	88.12
262.175	81.12
262.407	94.12
262.64	81.12
262.872	88.12
263.105	103.12
263.337	87.12
263.57	78.12
263.802	72.12
264.035	69.12
264.267	76.12
264.499	92.12
264.732	79.12
264.964	75.12
265.197	86.12
265.429	80.12
265.661	71.12
265.894	86.12
266.126	88.12
266.358	72.12
266.591	85.12
266.823	74.12
267.055	79.12
267.287	85.12
267.52	79.12
267.752	85.12
267.984	93.12
268.216	91.12
268.448	87.12
268.681	98.12
268.913	66.12
269.145	77.12
269.377	88.12
269.609	90.12
269.841	75.12
270.073	80.12
270.306	84.12
270.538	87.12
270.77	78.12
271.002	83.12
271.234	73.12
271.466	87.12
271.698	86.12
271.93	86.12
272.162	81.12
272.394	90.12
272.626	67.12
272.858	93.12
273.09	85.12
273.322	76.12
273.553	99.12
273.785	90.12
274.017	86.12
274.249	98.12
274.481	93.12
274.713	88.12
274.945	96.12
275.176	78.12
275.408	95.12
275.64	93.12
275.872	91.12
276.104	86.12
276.335	87.12
276.567	92.12
276.799	73.12
277.031	80.12
277.262	81.12
277.494	94.12
277.726	80.12
277.957	93.12
278.189	101.12
278.421	77.12
278.652	80.12
278.884	90.12
279.115	93.12
279.347	81.12
279.579	85.12
279.81	85.12
280.042	84.12
280.273	95.12
280.505	91.12
280.736	92.12
280.968	90.12
281.199	93.12
281.431	84.12
281.662	91.12
281.894	92.12
282.125	96.12
282.356	88.12
282.588	100.12
282.819	87.12
283.051	91.12
283.282	79.12
283.513	96.12
283.745	73.12
283.976	95.12
284.207	87.12
284.439	86.12
284.67	93.12
284.901	80.12
285.132	68.12
285.364	88.12
285.595	86.12
285.826	92.12
286.057	81.12
286.288	92.12
286.52	78.12
286.751	73.12
286.982	89.12
287.213	91.12
287.444	86.12
287.675	85.12
287.906	97.12
288.138	82.12
288.369	87.12
288.6	81.12
288.831	82.12
289.062	93.12
289.293	91.12
289.524	89.12
289.755	90.12
289.986	102.12
290.217	77.12
290.448	89.12
290.679	86.12
290.91	85.12
291.141	87.12
291.371	82.12
291.602	90.12
291.833	91.12
292.064	76.12
292.295	94.12
292.526	86.12
292.757	90.12
292.987	86.12
293.218	86.12
293.449	95.12
293.68	90.12
293.91	77.12
294.141	96.12
294.372	90.12
294.603	98.12
294.833	90.12
295.064	90.12
295.295	94.12
295.525	95.12
295.756	81.12
295.987	102.12
296.217	87.12
296.448	85.12
296.679	91.12
296.909	98.12
297.14	94.12
297.37	91.12
297.601	75.12
297.831	85.12
298.062	108.12
298.292	108.12
298.523	93.12
298.753	94.12
298.984	78.12
299.214	78.12
299.445	94.12
299.675	85.12
299.905	96.12
300.136	107.12
300.366	79.12
300.597	75.12
300.827	79.12
301.057	91.12
301.288	92.12
301.518	104.12
301.748	85.12
301.979	112.12
302.209	96.12
302.439	89.12
302.669	88.12
302.9	95.12
303.13	101.12
303.36	96.12
303.59	87.12
303.82	83.12
304.051	67.12
304.281	99.12
304.511	95.12
304.741	86.12
304.971	95.12
305.201	97.12
305.431	94.12
305.661	94.12
305.891	82.12
306.121	99.12
306.352	86.12
306.582	80.12
306.812	87.12
307.042	69.12
307.272	81.12
307.502	77.12
307.731	88.12
307.961	89.12
308.191	89.12
308.421	77.12
308.651	87.12
308.881	88.12
309.111	85.12
309.341	82.12
309.571	88.12
309.8	90.12
310.03	99.12
310.26	85.12
310.49	101.12
310.72	94.12
310.949	86.12
311.179	111.12
311.409	88.12
311.639	85.12
311.868	87.12
312.098	82.12
312.328	98.12
312.557	84.12
312.787	93.12
313.017	92.12
313.246	94.12
313.476	90.12
313.706	70.12
313.935	77.12
314.165	85.12
314.394	81.12
314.624	96.12
314.853	91.12
315.083	92.12
315.312	82.12
315.542	86.12
315.771	78.12
316.001	93.12
316.23	74.12
316.46	85.12
316.689	89.12
316.919	92.12
317.148	74.12
317.377	85.12
317.607	81.12
317.836	84.12
318.065	104.12
318.295	85.12
318.524	83.12
318.753	96.12
318.983	71.12
319.212	91.12
319.441	92.12
319.67	101.12
319.9	80.12
320.129	95.12
320.358	94.12
320.587	75.12
320.816	89.12
321.046	93.12
321.275	104.12
321.504	105.12
321.733	87.12
321.962	91.12
322.191	72.12
322.42	87.12
322.649	89.12
322.878	88.12
323.108	102.12
323.337	101.12
323.566	86.12
323.795	90.12
324.024	82.12
324.253	88.12
324.482	99.12
324.71	84.12
324.939	92.12
325.168	88.12
325.397	89.12
325.626	85.12
325.855	90.12
326.084	77.12
326.313	85.12
326.542	90.12
326.77	88.12
326.999	81.12
327.228	104.12
327.457	90.12
327.686	109.12
327.914	92.12
328.143	70.12
328.372	88.12
328.6	96.12
328.829	98.12
329.058	89.12
329.287	83.12
329.515	86.12
329.744	79.12
329.972	93.12
330.201	85.12
330.43	87.12
330.658	90.12
330.887	90.12
331.115	96.12
331.344	111.12
331.572	98.12
331.801	79.12
332.03	85.12
332.258	88.12
332.486	92.12
332.715	97.12
332.943	93.12
333.172	106.12
333.4	90.12
333.629	76.12
333.857	82.12
334.085	87.12
334.314	95.12
334.542	95.12
334.771	89.12
334.999	92.12
335.227	88.12
335.455	91.12
335.684	87.12
335.912	89.12
336.14	79.12
336.369	85.12
336.597	73.12
336.825	101.12
337.053	89.12
337.281	98.12
337.51	83.12
337.738	85.12
337.966	98.12
338.194	85.12
338.422	90.12
338.65	86.12
338.878	106.12
339.106	86.12
339.334	81.12
339.562	95.12
339.79	78.12
340.018	93.12
340.246	85.12
340.474	102.12
340.702	82.12
340.93	89.12
341.158	75.12
341.386	93.12
341.614	93.12
341.842	94.12
342.07	79.12
342.298	82.12
342.526	87.12
342.754	90.12
342.981	85.12
343.209	86.12
343.437	99.12
343.665	94.12
343.893	93.12
344.12	80.12
344.348	84.12
344.576	90.12
344.804	96.12
345.031	90.12
345.259	97.12
345.487	87.12
345.714	103.12
345.942	108.12
346.17	89.12
346.397	79.12
346.625	87.12
346.853	87.12
347.08	87.12
347.308	74.12
347.535	72.12
347.763	86.12
347.99	93.12
348.218	82.12
348.445	107.12
348.673	82.12
348.9	96.12
349.128	96.12
349.355	110.12
349.583	91.12
349.81	82.12
350.037	93.12
350.265	93.12
350.492	84.12
350.72	83.12
350.947	96.12
351.174	101.12
351.402	95.12
351.629	91.12
351.856	82.12
352.083	93.12
352.311	97.12
352.538	96.12
352.765	72.12
352.992	91.12
353.22	101.12
353.447	94.12
353.674	85.12
353.901	79.12
354.128	91.12
354.355	82.12
354.583	93.12
354.81	74.12
355.037	93.12
355.264	85.12
355.491	104.12
355.718	103.12
355.945	82.12
356.172	97.12
356.399	75.12
356.626	93.12
356.853	65.12
357.08	82.12
357.307	94.12
357.534	82.12
357.761	81.12
357.988	93.12
358.215	103.12
358.441	73.12
358.668	92.12
358.895	95.12
359.122	89.12
359.349	93.12
359.576	88.12
359.802	103.12
360.029	81.12
360.256	88.12
360.483	82.12
360.709	73.12
360.936	88.12
361.163	88.12
361.39	77.12
361.616	97.12
361.843	81.12
362.07	86.12
362.296	89.12
362.523	87.12
362.749	83.12
362.976	92.12
363.203	95.12
363.429	97.12
363.656	92.12
363.882	78.12
364.109	93.12
364.335	89.12
364.562	76.12
364.788	83.12
365.015	97.12
365.241	94.12
365.468	79.12
365.694	87.12
365.92	85.12
366.147	88.12
366.373	91.12
366.599	80.12
366.826	86.12
367.052	81.12
367.278	101.12
367.505	90.12
367.731	80.12
367.957	78.12
368.184	81.12
368.41	88.12
368.636	83.12
368.862	89.12
369.089	87.12
369.315	96.12
369.541	91.12
369.767	90.12
369.993	89.12
370.219	95.12
370.445	87.12
370.672	90.12
370.898	87.12
371.124	102.12
371.35	83.12
371.576	91.12
371.802	95.12
372.028	78.12
372.254	81.12
372.48	85.12
372.706	83.12
372.932	86.12
373.158	90.12
373.384	86.12
373.61	89.12
373.835	79.12
374.061	89.12
374.287	88.12
374.513	79.12
374.739	85.12
374.965	73.12
375.191	96.12
375.416	78.12
375.642	81.12
375.868	91.12
376.094	93.12
376.319	77.12
376.545	92.12
376.771	71.12
376.997	77.12
377.222	80.12
377.448	86.12
377.674	79.12
377.899	83.12
378.125	82.12
378.35	71.12
378.576	80.12
378.802	91.12
379.027	99.12
379.253	91.12
379.478	98.12
379.704	89.12
379.929	105.12
380.155	78.12
380.38	84.12
380.606	87.12
380.831	83.12
381.057	77.12
381.282	90.12
381.507	83.12
381.733	83.12
381.958	89.12
382.184	97.12
382.409	79.12
382.634	96.12
382.86	86.12
383.085	92.12
383.31	93.12
383.535	91.12
383.761	89.12
383.986	89.12
384.211	91.12
384.436	91.12
384.662	105.12
384.887	91.12
385.112	109.12
385.337	86.12
385.562	101.12
385.787	88.12
386.013	91.12
386.238	88.12
386.463	90.12
386.688	99.12
386.913	104.12
387.138	91.12
387.363	85.12
387.588	76.12
387.813	85.12
388.038	81.12
388.263	90.12
388.488	94.12
388.713	88.12
388.938	79.12
389.163	81.12
389.387	82.12
389.612	96.12
389.837	87.12
390.062	95.12
390.287	95.12
390.512	91.12
390.736	90.12
390.961	90.12
391.186	102.12
391.411	95.12
391.636	73.12
391.86	90.12
392.085	97.12
392.31	86.12
392.534	80.12
392.759	97.12
392.984	91.12
393.208	82.12
393.433	78.12
393.658	83.12
393.882	95.12
394.107	83.12
394.331	93.12
394.556	79.12
394.78	92.12
395.005	90.12
395.229	86.12
395.454	81.12
395.678	101.12
395.903	93.12
396.127	94.12
396.352	90.12
396.576	80.12
396.801	85.12
397.025	90.12
397.249	89.12
397.474	78.12
397.698	96.12
397.922	86.12
398.147	100.12
398.371	94.12
398.595	97.12
398.82	84.12
399.044	101.12
399.268	89.12
399.492	102.12
399.717	90.12
399.941	96.12
400.165	73.12
400.389	82.12
400.613	80.12
400.837	88.12
401.062	89.12
401.286	88.12
401.51	90.12
401.734	75.12
401.958	86.12
402.182	76.12
402.406	89.12
402.63	80.12
402.854	86.12
403.078	95.12
403.302	77.12
403.526	96.12
403.75	81.12
403.974	82.12
404.198	96.12
404.422	85.12
404.645	86.12
404.869	94.12
405.093	73.12
405.317	89.12
405.541	84.12
405.765	94.12
405.988	87.12
406.212	105.12
406.436	98.12
406.66	88.12
406.883	94.12
407.107	93.12
407.331	89.12
407.555	83.12
407.778	94.12
408.002	87.12
408.226	91.12
408.449	78.12
408.673	84.12
408.896	89.12
409.12	80.12
409.344	106.12
409.567	101.12
409.791	87.12
410.014	75.12
410.238	94.12
410.461	96.12
410.685	76.12
410.908	87.12
411.132	89.12
411.355	95.12
411.578	97.12
411.802	101.12
412.025	77.12
412.249	80.12
412.472	87.12
412.695	97.12
412.919	90.12
413.142	101.12
413.365	94.12
413.589	87.12
413.812	88.12
414.035	83.12
414.258	99.12
414.482	81.12
414.705	105.12
414.928	95.12
415.151	79.12
415.374	93.12
415.597	98.12
415.821	85.12
416.044	83.12
416.267	93.12
416.49	79.12
416.713	87.12
416.936	93.12
417.159	91.12
417.382	92.12
417.605	98.12
417.828	94.12
418.051	103.12
418.274	85.12
418.497	86.12
418.72	91.12
418.943	101.12
419.166	89.12
419.389	80.12
419.611	73.12
419.834	83.12
420.057	83.12
420.28	82.12
420.503	91.12
420.726	84.12
420.948	92.12
421.171	89.12
421.394	95.12
421.617	87.12
421.839	90.12
422.062	89.12
422.285	88.12
422.507	86.12
422.73	79.12
422.953	80.12
423.175	93.12
423.398	96.12
423.621	79.12
423.843	98.12
424.066	88.12
424.288	84.12
424.511	95.12
424.733	94.12
424.956	95.12
425.178	85.12
425.401	89.12
425.623	90.12
425.846	101.12
426.068	77.12
426.291	83.12
426.513	87.12
426.735	76.12
426.958	99.12
427.18	89.12
427.402	89.12
427.625	83.12
427.847	85.12
428.069	89.12
428.292	90.12
428.514	100.12
428.736	93.12
428.958	89.12
429.181	84.12
429.403	89.12
429.625	83.12
429.847	102.12
430.069	87.12
430.292	87.12
430.514	80.12
430.736	73.12
430.958	96.12
431.18	92.12
431.402	97.12
431.624	91.12
431.846	95.12
432.068	96.12
432.29	88.12
432.512	91.12
432.734	84.12
432.956	89.12
433.178	84.12
433.4	80.12
433.622	90.12
433.844	87.12
434.066	86.12
434.287	66.12
434.509	77.12
434.731	83.12
434.953	92.12
435.175	101.12
435.397	98.12
435.618	78.12
435.84	70.12
436.062	93.12
436.284	79.12
436.505	84.12
436.727	79.12
436.949	96.12
437.17	96.12
437.392	80.12
437.614	85.12
437.835	102.12
438.057	81.12
438.278	79.12
438.5	82.12
438.721	91.12
438.943	89.12
439.165	90.12
439.386	80.12
439.608	93.12
439.829	85.12
440.05	93.12
440.272	89.12
440.493	90.12
440.715	88.12
440.936	85.12
441.158	105.12
441.379	82.12
441.6	89.12
441.822	84.12
442.043	76.12
442.264	91.12
442.486	86.12
442.707	92.12
442.928	96.12
443.149	90.12
443.371	93.12
443.592	81.12
443.813	90.12
444.034	88.12
444.255	81.12
444.476	87.12
444.698	81.12
444.919	93.12
445.14	146.12
445.361	126.12
445.582	106.12
445.803	87.12
446.024	95.12
446.245	82.12
446.466	90.12
446.687	90.12
446.908	96.12
447.129	89.12
447.35	96.12
447.571	70.12
447.792	89.12
448.013	76.12
448.234	87.12
448.455	85.12
448.675	96.12
448.896	95.12
449.117	90.12
449.338	86.12
449.559	87.12
449.779	82.12
450	89.12
450.221	78.12
450.442	89.12
450.662	75.12
450.883	74.12
451.104	93.12
451.324	88.12
451.545	88.12
451.766	98.12
451.986	92.12
452.207	83.12
452.428	81.12
452.648	89.12
452.869	78.12
453.089	83.12
453.31	93.12
453.53	105.12
453.751	88.12
453.971	89.12
454.192	88.12
454.412	77.12
454.633	80.12
454.853	86.12
455.073	82.12
455.294	96.12
455.514	79.12
455.734	77.12
455.955	101.12
456.175	79.12
456.395	87.12
456.616	77.12
456.836	89.12
457.056	91.12
457.276	86.12
457.497	98.12
457.717	96.12
457.937	82.12
458.157	91.12
458.377	95.12
458.598	97.12
458.818	108.12
459.038	98.12
459.258	79.12
459.478	70.12
459.698	84.12
459.918	99.12
460.138	94.12
460.358	103.12
460.578	93.12
460.798	71.12
461.018	85.12
461.238	95.12
461.458	100.12
461.678	93.12
461.898	78.12
462.118	97.12
462.338	85.12
462.558	93.12
462.777	94.12
462.997	94.12
463.217	103.12
463.437	91.12
463.657	90.12
463.876	94.12
464.096	83.12
464.316	89.12
464.536	83.12
464.755	90.12
464.975	76.12
465.195	76.12
465.414	98.12
465.634	91.12
465.854	103.12
466.073	85.12
466.293	90.12
466.512	107.12
466.732	93.12
466.951	90.12
467.171	84.12
467.391	83.12
467.61	86.12
467.829	91.12
468.049	90.12
468.268	89.12
468.488	90.12
468.707	81.12
468.927	93.12
469.146	92.12
469.365	93.12
469.585	103.12
469.804	91.12
470.023	88.12
470.243	83.12
470.462	82.12
470.681	101.12
470.901	81.12
471.12	105.12
471.339	88.12
471.558	76.12
471.777	101.12
471.997	91.12
472.216	84.12
472.435	91.12
472.654	79.12
472.873	92.12
473.092	79.12
473.311	81.12
473.53	73.12
473.749	95.12
473.968	83.12
474.187	73.12
474.406	81.12
474.625	92.12
474.844	102.12
475.063	97.12
475.282	95.12
475.501	83.12
475.72	101.12
475.939	81.12
476.158	78.12
476.377	85.12
476.596	81.12
476.814	78.12
477.033	91.12
477.252	90.12
477.471	83.12
477.69	93.12
477.908	83.12
478.127	85.12
478.346	95.12
478.564	102.12
478.783	77.12
479.002	73.12
479.22	90.12
479.439	77.12
479.658	89.12
479.876	93.12
480.095	91.12
480.313	86.12
480.532	95.12
480.751	105.12
480.969	87.12
481.188	83.12
481.406	86.12
481.624	87.12
481.843	102.12
482.061	86.12
482.28	84.12
482.498	85.12
482.717	101.12
482.935	84.12
483.153	78.12
483.372	83.12
483.59	87.12
483.808	93.12
484.027	94.12
484.245	75.12
484.463	81.12
484.681	99.12
484.9	103.12
485.118	103.12
485.336	91.12
485.554	89.12
485.772	86.12
485.99	93.12
486.209	87.12
486.427	90.12
486.645	85.12
486.863	77.12
487.081	88.12
487.299	96.12
487.517	92.12
487.735	92.12
487.953	98.12
488.171	101.12
488.389	93.12
488.607	78.12
488.825	78.12
489.043	95.12
489.261	97.12
489.479	80.12
489.696	81.12
489.914	82.12
490.132	91.12
490.35	91.12
490.568	89.12
490.786	103.12
491.003	88.12
491.221	85.12
491.439	88.12
491.657	94.12
491.874	102.12
492.092	94.12
492.31	98.12
492.527	82.12
492.745	105.12
492.963	92.12
493.18	85.12
493.398	98.12
493.615	102.12
493.833	95.12
494.05	95.12
494.268	95.12
494.485	91.12
494.703	87.12
494.92	92.12
495.138	86.12
495.355	89.12
495.573	89.12
495.79	90.12
496.008	87.12
496.225	92.12
496.442	93.12
496.66	86.12
496.877	91.12
497.094	93.12
497.312	91.12
497.529	112.12
497.746	96.12
497.963	93.12
498.181	87.12
498.398	90.12
498.615	89.12
498.832	85.12
499.049	96.12
499.267	101.12
499.484	113.12
499.701	101.12
499.918	105.12
500.135	103.12
500.352	102.12
500.569	107.12
500.786	120.12
501.003	101.12
501.22	101.12
501.437	90.12
501.654	117.12
501.871	89.12
502.088	107.12
502.305	93.12
502.522	94.12
502.739	93.12
502.956	101.12
503.172	103.12
503.389	92.12
503.606	93.12
503.823	97.12
504.04	106.12
504.256	96.12
504.473	96.12
504.69	90.12
504.907	97.12
505.123	108.12
505.34	76.12
505.557	82.12
505.773	97.12
505.99	103.12
506.207	91.12
506.423	66.12
506.64	79.12
506.856	92.12
507.073	98.12
507.289	106.12
507.506	97.12
507.722	109.12
507.939	89.12
508.155	87.12
508.372	99.12
508.588	93.12
508.805	89.12
509.021	85.12
509.238	79.12
509.454	85.12
509.67	87.12
509.887	98.12
510.103	93.12
510.319	99.12
510.536	97.12
510.752	92.12
510.968	75.12
511.184	103.12
511.401	87.12
511.617	101.12
511.833	104.12
512.049	103.12
512.265	113.12
512.481	89.12
512.698	78.12
512.914	89.12
513.13	90.12
513.346	91.12
513.562	86.12
513.778	93.12
513.994	81.12
514.21	83.12
514.426	103.12
514.642	86.12
514.858	91.12
515.074	87.12
515.29	91.12
515.506	97.12
515.721	96.12
515.937	91.12
516.153	85.12
516.369	99.12
516.585	94.12
516.801	105.12
517.016	89.12
517.232	81.12
517.448	86.12
517.664	93.12
517.879	96.12
518.095	100.12
518.311	92.12
518.527	77.12
