Data from BG_HRD10591_100.txt Node
Date: Fri May 16 15:21:43 EDT 2025
User: Yrep
Spectrometer: HR+D1059
Trigger mode: 1
Integration Time (sec): 1.000000E-1
Scans to average: 1
Electric dark correction enabled: true
Nonlinearity correction enabled: false
Boxcar width: 0
XAxis mode: Wavelengths
Number of Pixels in Spectrum: 2048
>>>>>Begin Spectral Data<<<<<
223.165	-17.81
223.4	-17.81
223.635	-17.81
223.869	-23.81
224.104	-12.81
224.338	-11.81
224.573	-14.81
224.808	-12.81
225.042	-6.81
225.277	-2.81
225.511	-4.81
225.746	-8.81
225.98	10.19
226.215	26.19
226.449	10.19
226.683	15.19
226.918	27.19
227.152	28.19
227.387	30.19
227.621	33.19
227.856	53.19
228.09	37.19
228.324	47.19
228.559	50.19
228.793	67.19
229.027	57.19
229.262	60.19
229.496	78.19
229.73	53.19
229.964	65.19
230.199	69.19
230.433	69.19
230.667	74.19
230.901	75.19
231.136	64.19
231.37	83.19
231.604	77.19
231.838	92.19
232.072	77.19
232.306	86.19
232.541	64.19
232.775	86.19
233.009	85.19
233.243	76.19
233.477	83.19
233.711	73.19
233.945	76.19
234.179	87.19
234.413	63.19
234.647	86.19
234.881	72.19
235.115	93.19
235.349	69.19
235.583	63.19
235.817	64.19
236.051	85.19
236.285	73.19
236.519	77.19
236.753	66.19
236.987	70.19
237.221	63.19
237.455	78.19
237.689	66.19
237.922	74.19
238.156	82.19
238.39	82.19
238.624	73.19
238.858	69.19
239.091	71.19
239.325	77.19
239.559	83.19
239.793	70.19
240.027	74.19
240.26	67.19
240.494	68.19
240.728	59.19
240.961	88.19
241.195	81.19
241.429	71.19
241.662	67.19
241.896	80.19
242.13	68.19
242.363	74.19
242.597	81.19
242.83	84.19
243.064	64.19
243.298	75.19
243.531	67.19
243.765	68.19
243.998	74.19
244.232	90.19
244.465	83.19
244.699	74.19
244.932	77.19
245.166	67.19
245.399	75.19
245.633	78.19
245.866	65.19
246.099	65.19
246.333	82.19
246.566	85.19
246.8	90.19
247.033	81.19
247.266	71.19
247.5	80.19
247.733	76.19
247.966	77.19
248.2	73.19
248.433	76.19
248.666	76.19
248.899	56.19
249.133	83.19
249.366	80.19
249.599	77.19
249.832	77.19
250.066	66.19
250.299	78.19
250.532	86.19
250.765	80.19
250.998	69.19
251.231	62.19
251.465	71.19
251.698	81.19
251.931	73.19
252.164	83.19
252.397	77.19
252.63	81.19
252.863	77.19
253.096	80.19
253.329	76.19
253.562	71.19
253.795	72.19
254.028	65.19
254.261	78.19
254.494	64.19
254.727	78.19
254.96	86.19
255.193	83.19
255.426	82.19
255.659	76.19
255.892	78.19
256.124	78.19
256.357	83.19
256.59	66.19
256.823	86.19
257.056	77.19
257.289	81.19
257.521	85.19
257.754	72.19
257.987	85.19
258.22	79.19
258.452	77.19
258.685	92.19
258.918	83.19
259.151	70.19
259.383	74.19
259.616	77.19
259.849	71.19
260.081	85.19
260.314	90.19
260.547	61.19
260.779	72.19
261.012	76.19
261.244	86.19
261.477	85.19
261.71	79.19
261.942	75.19
262.175	66.19
262.407	88.19
262.64	68.19
262.872	82.19
263.105	81.19
263.337	93.19
263.57	75.19
263.802	89.19
264.035	75.19
264.267	78.19
264.499	70.19
264.732	91.19
264.964	84.19
265.197	81.19
265.429	76.19
265.661	73.19
265.894	76.19
266.126	66.19
266.358	73.19
266.591	71.19
266.823	81.19
267.055	88.19
267.287	98.19
267.52	91.19
267.752	75.19
267.984	83.19
268.216	72.19
268.448	80.19
268.681	93.19
268.913	86.19
269.145	76.19
269.377	85.19
269.609	78.19
269.841	68.19
270.073	68.19
270.306	87.19
270.538	87.19
270.77	86.19
271.002	83.19
271.234	74.19
271.466	79.19
271.698	75.19
271.93	62.19
272.162	68.19
272.394	87.19
272.626	89.19
272.858	84.19
273.09	93.19
273.322	81.19
273.553	76.19
273.785	67.19
274.017	90.19
274.249	92.19
274.481	78.19
274.713	99.19
274.945	84.19
275.176	62.19
275.408	90.19
275.64	71.19
275.872	76.19
276.104	59.19
276.335	83.19
276.567	79.19
276.799	82.19
277.031	94.19
277.262	83.19
277.494	85.19
277.726	82.19
277.957	85.19
278.189	89.19
278.421	73.19
278.652	78.19
278.884	83.19
279.115	88.19
279.347	68.19
279.579	81.19
279.81	83.19
280.042	80.19
280.273	86.19
280.505	82.19
280.736	83.19
280.968	75.19
281.199	85.19
281.431	76.19
281.662	86.19
281.894	91.19
282.125	90.19
282.356	83.19
282.588	79.19
282.819	80.19
283.051	60.19
283.282	86.19
283.513	99.19
283.745	72.19
283.976	87.19
284.207	96.19
284.439	83.19
284.67	87.19
284.901	92.19
285.132	69.19
285.364	75.19
285.595	90.19
285.826	85.19
286.057	86.19
286.288	90.19
286.52	73.19
286.751	95.19
286.982	87.19
287.213	81.19
287.444	76.19
287.675	81.19
287.906	85.19
288.138	94.19
288.369	86.19
288.6	68.19
288.831	102.19
289.062	77.19
289.293	91.19
289.524	85.19
289.755	79.19
289.986	83.19
290.217	79.19
290.448	77.19
290.679	92.19
290.91	88.19
291.141	90.19
291.371	94.19
291.602	68.19
291.833	95.19
292.064	83.19
292.295	75.19
292.526	71.19
292.757	82.19
292.987	97.19
293.218	85.19
293.449	70.19
293.68	74.19
293.91	100.19
294.141	76.19
294.372	83.19
294.603	88.19
294.833	87.19
295.064	80.19
295.295	87.19
295.525	81.19
295.756	74.19
295.987	94.19
296.217	73.19
296.448	80.19
296.679	85.19
296.909	82.19
297.14	81.19
297.37	89.19
297.601	79.19
297.831	84.19
298.062	85.19
298.292	90.19
298.523	87.19
298.753	79.19
298.984	79.19
299.214	88.19
299.445	83.19
299.675	77.19
299.905	70.19
300.136	88.19
300.366	75.19
300.597	94.19
300.827	89.19
301.057	71.19
301.288	78.19
301.518	78.19
301.748	91.19
301.979	102.19
302.209	89.19
302.439	75.19
302.669	82.19
302.9	88.19
303.13	78.19
303.36	99.19
303.59	93.19
303.82	90.19
304.051	90.19
304.281	83.19
304.511	73.19
304.741	74.19
304.971	92.19
305.201	81.19
305.431	86.19
305.661	91.19
305.891	71.19
306.121	75.19
306.352	81.19
306.582	80.19
306.812	80.19
307.042	90.19
307.272	88.19
307.502	77.19
307.731	92.19
307.961	83.19
308.191	75.19
308.421	85.19
308.651	97.19
308.881	73.19
309.111	91.19
309.341	77.19
309.571	83.19
309.8	96.19
310.03	97.19
310.26	99.19
310.49	90.19
310.72	76.19
310.949	91.19
311.179	62.19
311.409	77.19
311.639	87.19
311.868	88.19
312.098	92.19
312.328	94.19
312.557	92.19
312.787	86.19
313.017	88.19
313.246	87.19
313.476	83.19
313.706	81.19
313.935	75.19
314.165	74.19
314.394	79.19
314.624	89.19
314.853	70.19
315.083	69.19
315.312	86.19
315.542	92.19
315.771	79.19
316.001	78.19
316.23	81.19
316.46	77.19
316.689	97.19
316.919	87.19
317.148	73.19
317.377	94.19
317.607	85.19
317.836	83.19
318.065	88.19
318.295	90.19
318.524	81.19
318.753	101.19
318.983	81.19
319.212	77.19
319.441	89.19
319.67	78.19
319.9	81.19
320.129	80.19
320.358	82.19
320.587	77.19
320.816	81.19
321.046	74.19
321.275	98.19
321.504	107.19
321.733	96.19
321.962	93.19
322.191	87.19
322.42	82.19
322.649	78.19
322.878	83.19
323.108	78.19
323.337	84.19
323.566	87.19
323.795	64.19
324.024	89.19
324.253	84.19
324.482	77.19
324.71	83.19
324.939	98.19
325.168	88.19
325.397	67.19
325.626	81.19
325.855	69.19
326.084	85.19
326.313	70.19
326.542	80.19
326.77	77.19
326.999	91.19
327.228	86.19
327.457	102.19
327.686	77.19
327.914	79.19
328.143	70.19
328.372	78.19
328.6	88.19
328.829	78.19
329.058	84.19
329.287	80.19
329.515	74.19
329.744	83.19
329.972	76.19
330.201	91.19
330.43	94.19
330.658	90.19
330.887	77.19
331.115	74.19
331.344	85.19
331.572	93.19
331.801	81.19
332.03	86.19
332.258	98.19
332.486	80.19
332.715	82.19
332.943	77.19
333.172	85.19
333.4	92.19
333.629	89.19
333.857	88.19
334.085	90.19
334.314	68.19
334.542	82.19
334.771	88.19
334.999	81.19
335.227	83.19
335.455	83.19
335.684	82.19
335.912	79.19
336.14	86.19
336.369	83.19
336.597	84.19
336.825	76.19
337.053	87.19
337.281	70.19
337.51	93.19
337.738	79.19
337.966	93.19
338.194	77.19
338.422	103.19
338.65	76.19
338.878	88.19
339.106	81.19
339.334	71.19
339.562	70.19
339.79	76.19
340.018	69.19
340.246	86.19
340.474	76.19
340.702	79.19
340.93	87.19
341.158	76.19
341.386	80.19
341.614	86.19
341.842	78.19
342.07	84.19
342.298	89.19
342.526	94.19
342.754	89.19
342.981	89.19
343.209	98.19
343.437	95.19
343.665	81.19
343.893	89.19
344.12	85.19
344.348	82.19
344.576	77.19
344.804	87.19
345.031	94.19
345.259	87.19
345.487	59.19
345.714	86.19
345.942	97.19
346.17	86.19
346.397	77.19
346.625	83.19
346.853	86.19
347.08	81.19
347.308	104.19
347.535	82.19
347.763	85.19
347.99	94.19
348.218	84.19
348.445	81.19
348.673	74.19
348.9	80.19
349.128	86.19
349.355	82.19
349.583	82.19
349.81	75.19
350.037	77.19
350.265	86.19
350.492	79.19
350.72	73.19
350.947	83.19
351.174	86.19
351.402	77.19
351.629	79.19
351.856	91.19
352.083	78.19
352.311	76.19
352.538	84.19
352.765	88.19
352.992	88.19
353.22	100.19
353.447	93.19
353.674	69.19
353.901	91.19
354.128	74.19
354.355	81.19
354.583	99.19
354.81	82.19
355.037	81.19
355.264	90.19
355.491	76.19
355.718	80.19
355.945	84.19
356.172	80.19
356.399	83.19
356.626	84.19
356.853	89.19
357.08	84.19
357.307	78.19
357.534	88.19
357.761	65.19
357.988	78.19
358.215	90.19
358.441	81.19
358.668	77.19
358.895	79.19
359.122	75.19
359.349	91.19
359.576	83.19
359.802	84.19
360.029	95.19
360.256	86.19
360.483	74.19
360.709	72.19
360.936	76.19
361.163	83.19
361.39	80.19
361.616	84.19
361.843	71.19
362.07	84.19
362.296	79.19
362.523	81.19
362.749	92.19
362.976	86.19
363.203	93.19
363.429	89.19
363.656	81.19
363.882	71.19
364.109	81.19
364.335	76.19
364.562	93.19
364.788	88.19
365.015	85.19
365.241	83.19
365.468	79.19
365.694	80.19
365.92	75.19
366.147	90.19
366.373	81.19
366.599	92.19
366.826	82.19
367.052	91.19
367.278	74.19
367.505	85.19
367.731	91.19
367.957	80.19
368.184	71.19
368.41	90.19
368.636	77.19
368.862	91.19
369.089	79.19
369.315	85.19
369.541	80.19
369.767	90.19
369.993	78.19
370.219	73.19
370.445	81.19
370.672	81.19
370.898	87.19
371.124	84.19
371.35	81.19
371.576	76.19
371.802	72.19
372.028	81.19
372.254	68.19
372.48	78.19
372.706	75.19
372.932	77.19
373.158	85.19
373.384	72.19
373.61	87.19
373.835	84.19
374.061	74.19
374.287	94.19
374.513	80.19
374.739	86.19
374.965	74.19
375.191	86.19
375.416	76.19
375.642	84.19
375.868	90.19
376.094	82.19
376.319	82.19
376.545	82.19
376.771	73.19
376.997	74.19
377.222	84.19
377.448	88.19
377.674	79.19
377.899	81.19
378.125	82.19
378.35	74.19
378.576	71.19
378.802	83.19
379.027	72.19
379.253	85.19
379.478	85.19
379.704	88.19
379.929	86.19
380.155	87.19
380.38	85.19
380.606	83.19
380.831	100.19
381.057	77.19
381.282	94.19
381.507	94.19
381.733	91.19
381.958	65.19
382.184	78.19
382.409	88.19
382.634	92.19
382.86	86.19
383.085	82.19
383.31	86.19
383.535	101.19
383.761	73.19
383.986	75.19
384.211	98.19
384.436	81.19
384.662	91.19
384.887	73.19
385.112	79.19
385.337	86.19
385.562	86.19
385.787	91.19
386.013	85.19
386.238	85.19
386.463	89.19
386.688	85.19
386.913	76.19
387.138	73.19
387.363	83.19
387.588	84.19
387.813	79.19
388.038	81.19
388.263	83.19
388.488	87.19
388.713	93.19
388.938	78.19
389.163	74.19
389.387	71.19
389.612	87.19
389.837	75.19
390.062	73.19
390.287	76.19
390.512	73.19
390.736	82.19
390.961	74.19
391.186	83.19
391.411	83.19
391.636	78.19
391.86	69.19
392.085	91.19
392.31	79.19
392.534	84.19
392.759	87.19
392.984	86.19
393.208	77.19
393.433	77.19
393.658	78.19
393.882	94.19
394.107	90.19
394.331	97.19
394.556	77.19
394.78	105.19
395.005	100.19
395.229	85.19
395.454	82.19
395.678	81.19
395.903	93.19
396.127	86.19
396.352	90.19
396.576	63.19
396.801	87.19
397.025	87.19
397.249	91.19
397.474	84.19
397.698	94.19
397.922	82.19
398.147	84.19
398.371	90.19
398.595	88.19
398.82	77.19
399.044	90.19
399.268	99.19
399.492	89.19
399.717	90.19
399.941	70.19
400.165	82.19
400.389	102.19
400.613	79.19
400.837	85.19
401.062	89.19
401.286	84.19
401.51	102.19
401.734	89.19
401.958	74.19
402.182	85.19
402.406	82.19
402.63	75.19
402.854	79.19
403.078	101.19
403.302	93.19
403.526	97.19
403.75	89.19
403.974	81.19
404.198	83.19
404.422	103.19
404.645	93.19
404.869	91.19
405.093	89.19
405.317	78.19
405.541	90.19
405.765	91.19
405.988	78.19
406.212	82.19
406.436	85.19
406.66	106.19
406.883	83.19
407.107	71.19
407.331	97.19
407.555	88.19
407.778	99.19
408.002	91.19
408.226	92.19
408.449	97.19
408.673	83.19
408.896	68.19
409.12	90.19
409.344	83.19
409.567	85.19
409.791	92.19
410.014	86.19
410.238	73.19
410.461	85.19
410.685	86.19
410.908	80.19
411.132	93.19
411.355	78.19
411.578	79.19
411.802	84.19
412.025	77.19
412.249	77.19
412.472	81.19
412.695	88.19
412.919	103.19
413.142	85.19
413.365	82.19
413.589	68.19
413.812	85.19
414.035	81.19
414.258	69.19
414.482	70.19
414.705	89.19
414.928	73.19
415.151	91.19
415.374	86.19
415.597	92.19
415.821	78.19
416.044	82.19
416.267	90.19
416.49	89.19
416.713	83.19
416.936	88.19
417.159	95.19
417.382	90.19
417.605	86.19
417.828	99.19
418.051	85.19
418.274	79.19
418.497	71.19
418.72	82.19
418.943	81.19
419.166	73.19
419.389	82.19
419.611	85.19
419.834	85.19
420.057	98.19
420.28	86.19
420.503	85.19
420.726	72.19
420.948	91.19
421.171	93.19
421.394	88.19
421.617	89.19
421.839	102.19
422.062	77.19
422.285	87.19
422.507	88.19
422.73	74.19
422.953	77.19
423.175	82.19
423.398	86.19
423.621	82.19
423.843	91.19
424.066	84.19
424.288	84.19
424.511	87.19
424.733	85.19
424.956	92.19
425.178	89.19
425.401	81.19
425.623	68.19
425.846	95.19
426.068	84.19
426.291	79.19
426.513	90.19
426.735	95.19
426.958	80.19
427.18	88.19
427.402	85.19
427.625	88.19
427.847	75.19
428.069	73.19
428.292	69.19
428.514	93.19
428.736	73.19
428.958	92.19
429.181	85.19
429.403	73.19
429.625	94.19
429.847	84.19
430.069	78.19
430.292	90.19
430.514	76.19
430.736	85.19
430.958	81.19
431.18	91.19
431.402	73.19
431.624	94.19
431.846	80.19
432.068	101.19
432.29	71.19
432.512	76.19
432.734	79.19
432.956	87.19
433.178	75.19
433.4	89.19
433.622	83.19
433.844	91.19
434.066	77.19
434.287	80.19
434.509	85.19
434.731	86.19
434.953	81.19
435.175	85.19
435.397	89.19
435.618	80.19
435.84	76.19
436.062	74.19
436.284	80.19
436.505	76.19
436.727	92.19
436.949	82.19
437.17	77.19
437.392	81.19
437.614	61.19
437.835	73.19
438.057	94.19
438.278	83.19
438.5	92.19
438.721	100.19
438.943	92.19
439.165	92.19
439.386	76.19
439.608	78.19
439.829	89.19
440.05	94.19
440.272	90.19
440.493	88.19
440.715	69.19
440.936	74.19
441.158	77.19
441.379	80.19
441.6	63.19
441.822	79.19
442.043	72.19
442.264	85.19
442.486	81.19
442.707	90.19
442.928	81.19
443.149	86.19
443.371	87.19
443.592	85.19
443.813	93.19
444.034	90.19
444.255	86.19
444.476	89.19
444.698	83.19
444.919	91.19
445.14	164.19
445.361	117.19
445.582	69.19
445.803	78.19
446.024	81.19
446.245	89.19
446.466	85.19
446.687	84.19
446.908	87.19
447.129	82.19
447.35	86.19
447.571	87.19
447.792	77.19
448.013	68.19
448.234	66.19
448.455	78.19
448.675	82.19
448.896	86.19
449.117	91.19
449.338	90.19
449.559	81.19
449.779	78.19
450	69.19
450.221	81.19
450.442	85.19
450.662	74.19
450.883	81.19
451.104	86.19
451.324	92.19
451.545	88.19
451.766	86.19
451.986	79.19
452.207	74.19
452.428	88.19
452.648	93.19
452.869	98.19
453.089	102.19
453.31	72.19
453.53	85.19
453.751	90.19
453.971	82.19
454.192	79.19
454.412	88.19
454.633	72.19
454.853	90.19
455.073	82.19
455.294	78.19
455.514	59.19
455.734	82.19
455.955	85.19
456.175	82.19
456.395	79.19
456.616	72.19
456.836	81.19
457.056	90.19
457.276	93.19
457.497	75.19
457.717	82.19
457.937	78.19
458.157	100.19
458.377	103.19
458.598	79.19
458.818	83.19
459.038	94.19
459.258	85.19
459.478	94.19
459.698	86.19
459.918	83.19
460.138	89.19
460.358	78.19
460.578	108.19
460.798	85.19
461.018	77.19
461.238	88.19
461.458	80.19
461.678	88.19
461.898	93.19
462.118	85.19
462.338	82.19
462.558	84.19
462.777	78.19
462.997	91.19
463.217	93.19
463.437	86.19
463.657	99.19
463.876	89.19
464.096	82.19
464.316	93.19
464.536	85.19
464.755	89.19
464.975	75.19
465.195	80.19
465.414	90.19
465.634	77.19
465.854	81.19
466.073	88.19
466.293	74.19
466.512	89.19
466.732	95.19
466.951	99.19
467.171	78.19
467.391	81.19
467.61	87.19
467.829	79.19
468.049	84.19
468.268	76.19
468.488	86.19
468.707	82.19
468.927	79.19
469.146	87.19
469.365	82.19
469.585	83.19
469.804	81.19
470.023	85.19
470.243	77.19
470.462	79.19
470.681	87.19
470.901	77.19
471.12	89.19
471.339	87.19
471.558	79.19
471.777	87.19
471.997	93.19
472.216	73.19
472.435	90.19
472.654	75.19
472.873	92.19
473.092	77.19
473.311	99.19
473.53	89.19
473.749	87.19
473.968	77.19
474.187	87.19
474.406	86.19
474.625	82.19
474.844	81.19
475.063	81.19
475.282	92.19
475.501	85.19
475.72	102.19
475.939	77.19
476.158	90.19
476.377	81.19
476.596	87.19
476.814	75.19
477.033	77.19
477.252	74.19
477.471	88.19
477.69	105.19
477.908	91.19
478.127	90.19
478.346	97.19
478.564	92.19
478.783	88.19
479.002	88.19
479.22	85.19
479.439	90.19
479.658	95.19
479.876	89.19
480.095	82.19
480.313	91.19
480.532	78.19
480.751	83.19
480.969	82.19
481.188	99.19
481.406	79.19
481.624	77.19
481.843	81.19
482.061	90.19
482.28	88.19
482.498	95.19
482.717	65.19
482.935	82.19
483.153	85.19
483.372	87.19
483.59	63.19
483.808	81.19
484.027	94.19
484.245	88.19
484.463	79.19
484.681	103.19
484.9	79.19
485.118	92.19
485.336	94.19
485.554	94.19
485.772	68.19
485.99	86.19
486.209	88.19
486.427	90.19
486.645	77.19
486.863	88.19
487.081	86.19
487.299	83.19
487.517	87.19
487.735	84.19
487.953	90.19
488.171	81.19
488.389	94.19
488.607	79.19
488.825	73.19
489.043	81.19
489.261	69.19
489.479	69.19
489.696	76.19
489.914	87.19
490.132	88.19
490.35	84.19
490.568	74.19
490.786	90.19
491.003	91.19
491.221	83.19
491.439	90.19
491.657	84.19
491.874	99.19
492.092	74.19
492.31	89.19
492.527	82.19
492.745	74.19
492.963	86.19
493.18	76.19
493.398	99.19
493.615	91.19
493.833	83.19
494.05	71.19
494.268	87.19
494.485	80.19
494.703	86.19
494.92	96.19
495.138	90.19
495.355	93.19
495.573	82.19
495.79	77.19
496.008	86.19
496.225	89.19
496.442	77.19
496.66	84.19
496.877	79.19
497.094	85.19
497.312	91.19
497.529	86.19
497.746	84.19
497.963	86.19
498.181	79.19
498.398	101.19
498.615	81.19
498.832	94.19
499.049	81.19
499.267	99.19
499.484	110.19
499.701	90.19
499.918	116.19
500.135	94.19
500.352	109.19
500.569	111.19
500.786	105.19
501.003	103.19
501.22	99.19
501.437	92.19
501.654	98.19
501.871	81.19
502.088	95.19
502.305	93.19
502.522	86.19
502.739	65.19
502.956	91.19
503.172	81.19
503.389	80.19
503.606	87.19
503.823	86.19
504.04	83.19
504.256	92.19
504.473	91.19
504.69	89.19
504.907	89.19
505.123	71.19
505.34	91.19
505.557	93.19
505.773	75.19
505.99	86.19
506.207	89.19
506.423	86.19
506.64	94.19
506.856	91.19
507.073	81.19
507.289	78.19
507.506	86.19
507.722	85.19
507.939	80.19
508.155	94.19
508.372	92.19
508.588	83.19
508.805	81.19
509.021	77.19
509.238	91.19
509.454	85.19
509.67	83.19
509.887	70.19
510.103	92.19
510.319	89.19
510.536	75.19
510.752	87.19
510.968	98.19
511.184	89.19
511.401	76.19
511.617	72.19
511.833	70.19
512.049	72.19
512.265	76.19
512.481	76.19
512.698	91.19
512.914	90.19
513.13	95.19
513.346	93.19
513.562	77.19
513.778	90.19
513.994	80.19
514.21	76.19
514.426	94.19
514.642	88.19
514.858	85.19
515.074	89.19
515.29	90.19
515.506	80.19
515.721	94.19
515.937	86.19
516.153	86.19
516.369	106.19
516.585	87.19
516.801	92.19
517.016	83.19
517.232	103.19
517.448	83.19
517.664	100.19
517.879	89.19
518.095	90.19
518.311	86.19
518.527	90.19
518.742	93.19
518.958	91.19
519.173	92.19
519.389	79.19
519.605	90.19
519.82	79.19
