Data from BG_HRD10591_034.txt Node
Date: Fri May 16 15:21:11 EDT 2025
User: Yrep
Spectrometer: HR+D1059
Trigger mode: 1
Integration Time (sec): 1.000000E-1
Scans to average: 1
Electric dark correction enabled: true
Nonlinearity correction enabled: false
Boxcar width: 0
XAxis mode: Wavelengths
Number of Pixels in Spectrum: 2048
>>>>>Begin Spectral Data<<<<<
223.165	-20.94
223.4	-20.94
223.635	-20.94
223.869	-11.94
224.104	-21.94
224.338	-25.94
224.573	-15.94
224.808	-7.94
225.042	-5.94
225.277	-15.94
225.511	-0.94
225.746	6.06
225.98	-4.94
226.215	8.06
226.449	22.06
226.683	15.06
226.918	40.06
227.152	41.06
227.387	46.06
227.621	50.06
227.856	49.06
228.09	38.06
228.324	60.06
228.559	50.06
228.793	67.06
229.027	52.06
229.262	64.06
229.496	68.06
229.73	73.06
229.964	79.06
230.199	61.06
230.433	83.06
230.667	69.06
230.901	77.06
231.136	74.06
231.37	81.06
231.604	74.06
231.838	80.06
232.072	94.06
232.306	77.06
232.541	85.06
232.775	85.06
233.009	93.06
233.243	85.06
233.477	86.06
233.711	79.06
233.945	91.06
234.179	81.06
234.413	69.06
234.647	73.06
234.881	82.06
235.115	78.06
235.349	85.06
235.583	83.06
235.817	82.06
236.051	71.06
236.285	64.06
236.519	75.06
236.753	90.06
236.987	79.06
237.221	64.06
237.455	74.06
237.689	63.06
237.922	77.06
238.156	74.06
238.39	75.06
238.624	76.06
238.858	81.06
239.091	73.06
239.325	73.06
239.559	70.06
239.793	76.06
240.027	80.06
240.26	80.06
240.494	72.06
240.728	76.06
240.961	73.06
241.195	75.06
241.429	84.06
241.662	73.06
241.896	76.06
242.13	67.06
242.363	66.06
242.597	79.06
242.83	80.06
243.064	88.06
243.298	93.06
243.531	71.06
243.765	63.06
243.998	68.06
244.232	84.06
244.465	84.06
244.699	78.06
244.932	71.06
245.166	81.06
245.399	76.06
245.633	74.06
245.866	81.06
246.099	66.06
246.333	58.06
246.566	73.06
246.8	81.06
247.033	85.06
247.266	76.06
247.5	89.06
247.733	73.06
247.966	84.06
248.2	79.06
248.433	64.06
248.666	71.06
248.899	76.06
249.133	83.06
249.366	87.06
249.599	79.06
249.832	81.06
250.066	86.06
250.299	74.06
250.532	73.06
250.765	81.06
250.998	89.06
251.231	74.06
251.465	76.06
251.698	71.06
251.931	66.06
252.164	85.06
252.397	85.06
252.63	75.06
252.863	76.06
253.096	80.06
253.329	72.06
253.562	77.06
253.795	74.06
254.028	93.06
254.261	80.06
254.494	65.06
254.727	80.06
254.96	83.06
255.193	81.06
255.426	89.06
255.659	94.06
255.892	79.06
256.124	77.06
256.357	78.06
256.59	76.06
256.823	94.06
257.056	95.06
257.289	78.06
257.521	91.06
257.754	72.06
257.987	84.06
258.22	93.06
258.452	79.06
258.685	85.06
258.918	82.06
259.151	84.06
259.383	78.06
259.616	72.06
259.849	70.06
260.081	74.06
260.314	75.06
260.547	87.06
260.779	82.06
261.012	66.06
261.244	76.06
261.477	88.06
261.71	84.06
261.942	76.06
262.175	76.06
262.407	78.06
262.64	86.06
262.872	82.06
263.105	64.06
263.337	77.06
263.57	80.06
263.802	69.06
264.035	74.06
264.267	74.06
264.499	72.06
264.732	81.06
264.964	81.06
265.197	75.06
265.429	66.06
265.661	78.06
265.894	83.06
266.126	79.06
266.358	80.06
266.591	81.06
266.823	76.06
267.055	82.06
267.287	72.06
267.52	81.06
267.752	92.06
267.984	88.06
268.216	87.06
268.448	74.06
268.681	71.06
268.913	83.06
269.145	70.06
269.377	83.06
269.609	80.06
269.841	69.06
270.073	84.06
270.306	84.06
270.538	87.06
270.77	70.06
271.002	63.06
271.234	100.06
271.466	91.06
271.698	83.06
271.93	72.06
272.162	85.06
272.394	77.06
272.626	86.06
272.858	87.06
273.09	100.06
273.322	81.06
273.553	73.06
273.785	78.06
274.017	70.06
274.249	88.06
274.481	68.06
274.713	85.06
274.945	96.06
275.176	82.06
275.408	78.06
275.64	85.06
275.872	84.06
276.104	82.06
276.335	81.06
276.567	85.06
276.799	83.06
277.031	79.06
277.262	83.06
277.494	71.06
277.726	61.06
277.957	88.06
278.189	90.06
278.421	84.06
278.652	78.06
278.884	81.06
279.115	80.06
279.347	86.06
279.579	94.06
279.81	78.06
280.042	105.06
280.273	80.06
280.505	83.06
280.736	100.06
280.968	77.06
281.199	82.06
281.431	77.06
281.662	70.06
281.894	67.06
282.125	80.06
282.356	88.06
282.588	79.06
282.819	85.06
283.051	86.06
283.282	80.06
283.513	84.06
283.745	92.06
283.976	86.06
284.207	95.06
284.439	90.06
284.67	85.06
284.901	89.06
285.132	89.06
285.364	76.06
285.595	85.06
285.826	87.06
286.057	74.06
286.288	88.06
286.52	83.06
286.751	83.06
286.982	89.06
287.213	92.06
287.444	75.06
287.675	71.06
287.906	85.06
288.138	80.06
288.369	66.06
288.6	78.06
288.831	84.06
289.062	77.06
289.293	86.06
289.524	96.06
289.755	85.06
289.986	88.06
290.217	79.06
290.448	76.06
290.679	87.06
290.91	75.06
291.141	85.06
291.371	65.06
291.602	76.06
291.833	81.06
292.064	92.06
292.295	82.06
292.526	101.06
292.757	95.06
292.987	86.06
293.218	85.06
293.449	93.06
293.68	77.06
293.91	69.06
294.141	84.06
294.372	73.06
294.603	70.06
294.833	85.06
295.064	85.06
295.295	86.06
295.525	74.06
295.756	95.06
295.987	92.06
296.217	78.06
296.448	93.06
296.679	71.06
296.909	88.06
297.14	82.06
297.37	77.06
297.601	77.06
297.831	77.06
298.062	78.06
298.292	78.06
298.523	75.06
298.753	77.06
298.984	79.06
299.214	84.06
299.445	86.06
299.675	82.06
299.905	94.06
300.136	92.06
300.366	81.06
300.597	92.06
300.827	86.06
301.057	89.06
301.288	93.06
301.518	88.06
301.748	72.06
301.979	87.06
302.209	74.06
302.439	83.06
302.669	84.06
302.9	92.06
303.13	76.06
303.36	84.06
303.59	92.06
303.82	89.06
304.051	101.06
304.281	93.06
304.511	84.06
304.741	88.06
304.971	69.06
305.201	71.06
305.431	80.06
305.661	77.06
305.891	90.06
306.121	89.06
306.352	82.06
306.582	88.06
306.812	68.06
307.042	78.06
307.272	80.06
307.502	80.06
307.731	74.06
307.961	86.06
308.191	78.06
308.421	93.06
308.651	95.06
308.881	69.06
309.111	70.06
309.341	80.06
309.571	74.06
309.8	98.06
310.03	88.06
310.26	85.06
310.49	89.06
310.72	89.06
310.949	71.06
311.179	89.06
311.409	95.06
311.639	90.06
311.868	85.06
312.098	93.06
312.328	71.06
312.557	84.06
312.787	81.06
313.017	90.06
313.246	81.06
313.476	86.06
313.706	81.06
313.935	85.06
314.165	95.06
314.394	92.06
314.624	76.06
314.853	67.06
315.083	90.06
315.312	81.06
315.542	86.06
315.771	91.06
316.001	77.06
316.23	76.06
316.46	92.06
316.689	79.06
316.919	78.06
317.148	78.06
317.377	79.06
317.607	87.06
317.836	70.06
318.065	86.06
318.295	80.06
318.524	91.06
318.753	87.06
318.983	93.06
319.212	85.06
319.441	85.06
319.67	77.06
319.9	84.06
320.129	90.06
320.358	80.06
320.587	91.06
320.816	106.06
321.046	81.06
321.275	85.06
321.504	82.06
321.733	86.06
321.962	84.06
322.191	70.06
322.42	77.06
322.649	82.06
322.878	86.06
323.108	83.06
323.337	73.06
323.566	82.06
323.795	77.06
324.024	80.06
324.253	75.06
324.482	81.06
324.71	84.06
324.939	92.06
325.168	76.06
325.397	81.06
325.626	86.06
325.855	83.06
326.084	80.06
326.313	94.06
326.542	84.06
326.77	85.06
326.999	91.06
327.228	77.06
327.457	89.06
327.686	93.06
327.914	98.06
328.143	90.06
328.372	89.06
328.6	73.06
328.829	79.06
329.058	70.06
329.287	80.06
329.515	89.06
329.744	77.06
329.972	75.06
330.201	79.06
330.43	82.06
330.658	88.06
330.887	90.06
331.115	67.06
331.344	78.06
331.572	89.06
331.801	102.06
332.03	76.06
332.258	88.06
332.486	80.06
332.715	85.06
332.943	86.06
333.172	78.06
333.4	93.06
333.629	97.06
333.857	82.06
334.085	77.06
334.314	90.06
334.542	78.06
334.771	77.06
334.999	84.06
335.227	84.06
335.455	66.06
335.684	79.06
335.912	82.06
336.14	81.06
336.369	86.06
336.597	88.06
336.825	74.06
337.053	74.06
337.281	76.06
337.51	80.06
337.738	91.06
337.966	80.06
338.194	78.06
338.422	86.06
338.65	85.06
338.878	83.06
339.106	91.06
339.334	80.06
339.562	91.06
339.79	73.06
340.018	72.06
340.246	82.06
340.474	95.06
340.702	72.06
340.93	78.06
341.158	76.06
341.386	83.06
341.614	80.06
341.842	80.06
342.07	80.06
342.298	71.06
342.526	79.06
342.754	78.06
342.981	81.06
343.209	94.06
343.437	104.06
343.665	74.06
343.893	73.06
344.12	84.06
344.348	80.06
344.576	87.06
344.804	78.06
345.031	78.06
345.259	94.06
345.487	91.06
345.714	86.06
345.942	72.06
346.17	87.06
346.397	92.06
346.625	89.06
346.853	84.06
347.08	71.06
347.308	95.06
347.535	82.06
347.763	89.06
347.99	74.06
348.218	90.06
348.445	84.06
348.673	90.06
348.9	89.06
349.128	78.06
349.355	71.06
349.583	72.06
349.81	81.06
350.037	100.06
350.265	103.06
350.492	97.06
350.72	84.06
350.947	90.06
351.174	81.06
351.402	79.06
351.629	76.06
351.856	82.06
352.083	72.06
352.311	82.06
352.538	76.06
352.765	73.06
352.992	81.06
353.22	93.06
353.447	83.06
353.674	89.06
353.901	78.06
354.128	72.06
354.355	88.06
354.583	82.06
354.81	82.06
355.037	87.06
355.264	74.06
355.491	76.06
355.718	74.06
355.945	77.06
356.172	81.06
356.399	76.06
356.626	77.06
356.853	81.06
357.08	89.06
357.307	87.06
357.534	85.06
357.761	82.06
357.988	97.06
358.215	85.06
358.441	86.06
358.668	101.06
358.895	86.06
359.122	76.06
359.349	68.06
359.576	78.06
359.802	86.06
360.029	82.06
360.256	88.06
360.483	73.06
360.709	77.06
360.936	83.06
361.163	80.06
361.39	82.06
361.616	86.06
361.843	82.06
362.07	71.06
362.296	79.06
362.523	87.06
362.749	81.06
362.976	81.06
363.203	87.06
363.429	86.06
363.656	91.06
363.882	74.06
364.109	89.06
364.335	81.06
364.562	89.06
364.788	82.06
365.015	96.06
365.241	92.06
365.468	87.06
365.694	78.06
365.92	88.06
366.147	80.06
366.373	85.06
366.599	82.06
366.826	84.06
367.052	75.06
367.278	81.06
367.505	88.06
367.731	82.06
367.957	76.06
368.184	75.06
368.41	77.06
368.636	84.06
368.862	94.06
369.089	86.06
369.315	86.06
369.541	73.06
369.767	81.06
369.993	81.06
370.219	85.06
370.445	87.06
370.672	88.06
370.898	81.06
371.124	87.06
371.35	68.06
371.576	80.06
371.802	72.06
372.028	85.06
372.254	86.06
372.48	84.06
372.706	79.06
372.932	92.06
373.158	81.06
373.384	92.06
373.61	82.06
373.835	71.06
374.061	81.06
374.287	83.06
374.513	83.06
374.739	71.06
374.965	75.06
375.191	95.06
375.416	87.06
375.642	77.06
375.868	74.06
376.094	85.06
376.319	79.06
376.545	88.06
376.771	77.06
376.997	77.06
377.222	92.06
377.448	107.06
377.674	81.06
377.899	79.06
378.125	80.06
378.35	80.06
378.576	78.06
378.802	80.06
379.027	88.06
379.253	87.06
379.478	64.06
379.704	82.06
379.929	75.06
380.155	66.06
380.38	72.06
380.606	89.06
380.831	86.06
381.057	85.06
381.282	83.06
381.507	78.06
381.733	88.06
381.958	74.06
382.184	76.06
382.409	90.06
382.634	81.06
382.86	73.06
383.085	80.06
383.31	72.06
383.535	72.06
383.761	87.06
383.986	87.06
384.211	80.06
384.436	82.06
384.662	76.06
384.887	69.06
385.112	97.06
385.337	96.06
385.562	68.06
385.787	80.06
386.013	78.06
386.238	87.06
386.463	93.06
386.688	78.06
386.913	85.06
387.138	89.06
387.363	77.06
387.588	75.06
387.813	80.06
388.038	88.06
388.263	93.06
388.488	72.06
388.713	66.06
388.938	69.06
389.163	94.06
389.387	87.06
389.612	86.06
389.837	92.06
390.062	73.06
390.287	80.06
390.512	84.06
390.736	90.06
390.961	95.06
391.186	85.06
391.411	75.06
391.636	68.06
391.86	77.06
392.085	84.06
392.31	83.06
392.534	86.06
392.759	80.06
392.984	85.06
393.208	80.06
393.433	80.06
393.658	79.06
393.882	81.06
394.107	74.06
394.331	85.06
394.556	78.06
394.78	80.06
395.005	79.06
395.229	86.06
395.454	86.06
395.678	75.06
395.903	73.06
396.127	76.06
396.352	75.06
396.576	75.06
396.801	83.06
397.025	70.06
397.249	83.06
397.474	85.06
397.698	77.06
397.922	72.06
398.147	84.06
398.371	74.06
398.595	76.06
398.82	76.06
399.044	85.06
399.268	88.06
399.492	78.06
399.717	87.06
399.941	76.06
400.165	79.06
400.389	80.06
400.613	71.06
400.837	80.06
401.062	77.06
401.286	87.06
401.51	80.06
401.734	74.06
401.958	81.06
402.182	88.06
402.406	88.06
402.63	80.06
402.854	88.06
403.078	69.06
403.302	78.06
403.526	74.06
403.75	69.06
403.974	75.06
404.198	74.06
404.422	80.06
404.645	78.06
404.869	85.06
405.093	82.06
405.317	97.06
405.541	81.06
405.765	74.06
405.988	89.06
406.212	70.06
406.436	69.06
406.66	93.06
406.883	87.06
407.107	88.06
407.331	81.06
407.555	73.06
407.778	79.06
408.002	85.06
408.226	84.06
408.449	77.06
408.673	87.06
408.896	74.06
409.12	85.06
409.344	78.06
409.567	79.06
409.791	90.06
410.014	94.06
410.238	88.06
410.461	81.06
410.685	82.06
410.908	86.06
411.132	89.06
411.355	72.06
411.578	81.06
411.802	71.06
412.025	66.06
412.249	84.06
412.472	80.06
412.695	81.06
412.919	72.06
413.142	80.06
413.365	94.06
413.589	70.06
413.812	87.06
414.035	79.06
414.258	75.06
414.482	79.06
414.705	80.06
414.928	86.06
415.151	70.06
415.374	85.06
415.597	83.06
415.821	92.06
416.044	83.06
416.267	81.06
416.49	88.06
416.713	72.06
416.936	93.06
417.159	76.06
417.382	73.06
417.605	84.06
417.828	91.06
418.051	90.06
418.274	82.06
418.497	71.06
418.72	74.06
418.943	86.06
419.166	83.06
419.389	92.06
419.611	92.06
419.834	84.06
420.057	94.06
420.28	88.06
420.503	90.06
420.726	77.06
420.948	72.06
421.171	64.06
421.394	80.06
421.617	87.06
421.839	74.06
422.062	80.06
422.285	72.06
422.507	79.06
422.73	97.06
422.953	73.06
423.175	79.06
423.398	83.06
423.621	96.06
423.843	77.06
424.066	80.06
424.288	78.06
424.511	83.06
424.733	65.06
424.956	67.06
425.178	86.06
425.401	97.06
425.623	82.06
425.846	62.06
426.068	76.06
426.291	81.06
426.513	90.06
426.735	77.06
426.958	82.06
427.18	73.06
427.402	77.06
427.625	83.06
427.847	78.06
428.069	81.06
428.292	81.06
428.514	78.06
428.736	86.06
428.958	61.06
429.181	79.06
429.403	72.06
429.625	86.06
429.847	95.06
430.069	91.06
430.292	74.06
430.514	84.06
430.736	83.06
430.958	87.06
431.18	71.06
431.402	65.06
431.624	79.06
431.846	85.06
432.068	82.06
432.29	87.06
432.512	85.06
432.734	76.06
432.956	76.06
433.178	81.06
433.4	84.06
433.622	76.06
433.844	89.06
434.066	75.06
434.287	93.06
434.509	84.06
434.731	72.06
434.953	78.06
435.175	64.06
435.397	78.06
435.618	80.06
435.84	81.06
436.062	78.06
436.284	85.06
436.505	80.06
436.727	74.06
436.949	73.06
437.17	85.06
437.392	92.06
437.614	83.06
437.835	75.06
438.057	74.06
438.278	79.06
438.5	65.06
438.721	82.06
438.943	74.06
439.165	81.06
439.386	87.06
439.608	77.06
439.829	79.06
440.05	74.06
440.272	89.06
440.493	73.06
440.715	69.06
440.936	80.06
441.158	72.06
441.379	95.06
441.6	83.06
441.822	72.06
442.043	87.06
442.264	78.06
442.486	92.06
442.707	81.06
442.928	82.06
443.149	78.06
443.371	73.06
443.592	85.06
443.813	75.06
444.034	79.06
444.255	83.06
444.476	68.06
444.698	87.06
444.919	77.06
445.14	158.06
445.361	111.06
445.582	89.06
445.803	95.06
446.024	86.06
446.245	82.06
446.466	78.06
446.687	84.06
446.908	72.06
447.129	78.06
447.35	83.06
447.571	77.06
447.792	94.06
448.013	69.06
448.234	78.06
448.455	74.06
448.675	66.06
448.896	86.06
449.117	89.06
449.338	81.06
449.559	83.06
449.779	80.06
450	86.06
450.221	86.06
450.442	87.06
450.662	72.06
450.883	81.06
451.104	79.06
451.324	75.06
451.545	76.06
451.766	84.06
451.986	75.06
452.207	75.06
452.428	85.06
452.648	74.06
452.869	105.06
453.089	76.06
453.31	74.06
453.53	81.06
453.751	76.06
453.971	79.06
454.192	83.06
454.412	96.06
454.633	65.06
454.853	80.06
455.073	77.06
455.294	86.06
455.514	89.06
455.734	79.06
455.955	80.06
456.175	75.06
456.395	84.06
456.616	82.06
456.836	94.06
457.056	72.06
457.276	67.06
457.497	90.06
457.717	87.06
457.937	89.06
458.157	90.06
458.377	80.06
458.598	69.06
458.818	71.06
459.038	83.06
459.258	90.06
459.478	81.06
459.698	79.06
459.918	72.06
460.138	84.06
460.358	80.06
460.578	89.06
460.798	76.06
461.018	91.06
461.238	69.06
461.458	89.06
461.678	75.06
461.898	82.06
462.118	89.06
462.338	76.06
462.558	78.06
462.777	75.06
462.997	87.06
463.217	89.06
463.437	88.06
463.657	86.06
463.876	82.06
464.096	98.06
464.316	83.06
464.536	64.06
464.755	76.06
464.975	79.06
465.195	80.06
465.414	85.06
465.634	86.06
465.854	70.06
466.073	80.06
466.293	71.06
466.512	70.06
466.732	88.06
466.951	76.06
467.171	76.06
467.391	96.06
467.61	80.06
467.829	86.06
468.049	67.06
468.268	86.06
468.488	75.06
468.707	85.06
468.927	86.06
469.146	79.06
469.365	78.06
469.585	81.06
469.804	81.06
470.023	80.06
470.243	84.06
470.462	86.06
470.681	88.06
470.901	81.06
471.12	95.06
471.339	89.06
471.558	88.06
471.777	84.06
471.997	74.06
472.216	86.06
472.435	83.06
472.654	83.06
472.873	91.06
473.092	95.06
473.311	78.06
473.53	68.06
473.749	85.06
473.968	89.06
474.187	100.06
474.406	76.06
474.625	72.06
474.844	88.06
475.063	85.06
475.282	81.06
475.501	94.06
475.72	80.06
475.939	84.06
476.158	90.06
476.377	76.06
476.596	84.06
476.814	94.06
477.033	104.06
477.252	102.06
477.471	93.06
477.69	94.06
477.908	62.06
478.127	93.06
478.346	84.06
478.564	77.06
478.783	80.06
479.002	80.06
479.22	67.06
479.439	77.06
479.658	87.06
479.876	73.06
480.095	84.06
480.313	88.06
480.532	78.06
480.751	79.06
480.969	76.06
481.188	85.06
481.406	84.06
481.624	89.06
481.843	77.06
482.061	78.06
482.28	97.06
482.498	82.06
482.717	75.06
482.935	88.06
483.153	81.06
483.372	77.06
483.59	72.06
483.808	80.06
484.027	86.06
484.245	74.06
484.463	86.06
484.681	101.06
484.9	75.06
485.118	97.06
485.336	83.06
485.554	83.06
485.772	86.06
485.99	83.06
486.209	81.06
486.427	58.06
486.645	87.06
486.863	77.06
487.081	81.06
487.299	70.06
487.517	80.06
487.735	85.06
487.953	80.06
488.171	79.06
488.389	75.06
488.607	73.06
488.825	75.06
489.043	84.06
489.261	75.06
489.479	77.06
489.696	86.06
489.914	82.06
490.132	86.06
490.35	67.06
490.568	91.06
490.786	97.06
491.003	89.06
491.221	77.06
491.439	90.06
491.657	85.06
491.874	93.06
492.092	86.06
492.31	92.06
492.527	90.06
492.745	93.06
492.963	70.06
493.18	89.06
493.398	74.06
493.615	80.06
493.833	72.06
494.05	81.06
494.268	76.06
494.485	82.06
494.703	85.06
494.92	76.06
495.138	70.06
495.355	85.06
495.573	77.06
495.79	70.06
496.008	69.06
496.225	71.06
496.442	72.06
496.66	91.06
496.877	74.06
497.094	73.06
497.312	84.06
497.529	76.06
497.746	86.06
497.963	90.06
498.181	80.06
498.398	70.06
498.615	76.06
498.832	90.06
499.049	88.06
499.267	85.06
499.484	87.06
499.701	91.06
499.918	84.06
500.135	95.06
500.352	75.06
500.569	73.06
500.786	82.06
501.003	93.06
501.22	82.06
501.437	72.06
501.654	82.06
501.871	83.06
502.088	92.06
502.305	80.06
502.522	78.06
502.739	85.06
502.956	95.06
503.172	75.06
503.389	72.06
503.606	78.06
503.823	74.06
504.04	76.06
504.256	78.06
504.473	86.06
504.69	77.06
504.907	83.06
505.123	93.06
505.34	91.06
505.557	85.06
505.773	97.06
505.99	93.06
506.207	80.06
506.423	78.06
506.64	79.06
506.856	70.06
507.073	76.06
507.289	58.06
507.506	82.06
507.722	77.06
507.939	77.06
508.155	90.06
508.372	91.06
508.588	69.06
508.805	89.06
509.021	81.06
509.238	98.06
509.454	103.06
509.67	84.06
509.887	94.06
510.103	84.06
510.319	67.06
510.536	91.06
510.752	93.06
510.968	86.06
511.184	84.06
511.401	70.06
511.617	70.06
511.833	83.06
512.049	70.06
512.265	86.06
512.481	91.06
512.698	91.06
512.914	80.06
513.13	92.06
513.346	76.06
513.562	81.06
513.778	73.06
513.994	80.06
514.21	71.06
514.426	83.06
514.642	92.06
514.858	92.06
515.074	84.06
515.29	73.06
515.506	97.06
515.721	84.06
515.937	85.06
516.153	85.06
516.369	80.06
516.585	79.06
516.801	73.06
517.016	80.06
517.232	77.06
517.448	89.06
517.664	75.06
517.879	79.06
518.095	88.06
518.311	86.06
518.527	80.06
518.742	85.06
518.958	86.06
519.173	80.06
519.389	86.06
519.605	89.06
519.82	80.06
520.036	80.06
