Data from BG_HRD10591_008.txt Node
Date: Fri May 16 15:20:58 EDT 2025
User: Yrep
Spectrometer: HR+D1059
Trigger mode: 1
Integration Time (sec): 1.000000E-1
Scans to average: 1
Electric dark correction enabled: true
Nonlinearity correction enabled: false
Boxcar width: 0
XAxis mode: Wavelengths
Number of Pixels in Spectrum: 2048
>>>>>Begin Spectral Data<<<<<
223.165	-19.25
223.4	-19.25
223.635	-19.25
223.869	-11.25
224.104	-10.25
224.338	-24.25
224.573	-3.25
224.808	-15.25
225.042	-17.25
225.277	-12.25
225.511	-6.25
225.746	-5.25
225.98	6.75
226.215	6.75
226.449	11.75
226.683	16.75
226.918	30.75
227.152	51.75
227.387	38.75
227.621	25.75
227.856	35.75
228.09	38.75
228.324	48.75
228.559	61.75
228.793	51.75
229.027	60.75
229.262	54.75
229.496	60.75
229.73	68.75
229.964	76.75
230.199	62.75
230.433	75.75
230.667	88.75
230.901	68.75
231.136	95.75
231.37	92.75
231.604	74.75
231.838	82.75
232.072	80.75
232.306	90.75
232.541	88.75
232.775	79.75
233.009	83.75
233.243	95.75
233.477	75.75
233.711	82.75
233.945	58.75
234.179	74.75
234.413	92.75
234.647	76.75
234.881	78.75
235.115	80.75
235.349	74.75
235.583	61.75
235.817	79.75
236.051	87.75
236.285	80.75
236.519	68.75
236.753	77.75
236.987	67.75
237.221	60.75
237.455	74.75
237.689	65.75
237.922	84.75
238.156	59.75
238.39	77.75
238.624	76.75
238.858	70.75
239.091	70.75
239.325	72.75
239.559	71.75
239.793	75.75
240.027	77.75
240.26	81.75
240.494	83.75
240.728	84.75
240.961	86.75
241.195	64.75
241.429	73.75
241.662	90.75
241.896	76.75
242.13	83.75
242.363	83.75
242.597	64.75
242.83	67.75
243.064	74.75
243.298	76.75
243.531	69.75
243.765	61.75
243.998	87.75
244.232	68.75
244.465	78.75
244.699	80.75
244.932	74.75
245.166	76.75
245.399	65.75
245.633	72.75
245.866	78.75
246.099	75.75
246.333	72.75
246.566	62.75
246.8	75.75
247.033	70.75
247.266	80.75
247.5	71.75
247.733	79.75
247.966	69.75
248.2	76.75
248.433	75.75
248.666	68.75
248.899	74.75
249.133	82.75
249.366	99.75
249.599	75.75
249.832	82.75
250.066	74.75
250.299	80.75
250.532	68.75
250.765	75.75
250.998	68.75
251.231	74.75
251.465	67.75
251.698	77.75
251.931	67.75
252.164	87.75
252.397	83.75
252.63	83.75
252.863	78.75
253.096	82.75
253.329	74.75
253.562	83.75
253.795	102.75
254.028	68.75
254.261	74.75
254.494	84.75
254.727	65.75
254.96	91.75
255.193	100.75
255.426	83.75
255.659	76.75
255.892	80.75
256.124	72.75
256.357	75.75
256.59	80.75
256.823	74.75
257.056	71.75
257.289	78.75
257.521	73.75
257.754	75.75
257.987	83.75
258.22	84.75
258.452	83.75
258.685	95.75
258.918	72.75
259.151	73.75
259.383	91.75
259.616	64.75
259.849	68.75
260.081	84.75
260.314	73.75
260.547	88.75
260.779	84.75
261.012	81.75
261.244	79.75
261.477	90.75
261.71	70.75
261.942	86.75
262.175	61.75
262.407	79.75
262.64	84.75
262.872	88.75
263.105	83.75
263.337	86.75
263.57	77.75
263.802	71.75
264.035	81.75
264.267	79.75
264.499	78.75
264.732	95.75
264.964	92.75
265.197	75.75
265.429	80.75
265.661	95.75
265.894	82.75
266.126	72.75
266.358	68.75
266.591	81.75
266.823	84.75
267.055	77.75
267.287	82.75
267.52	67.75
267.752	67.75
267.984	73.75
268.216	93.75
268.448	87.75
268.681	87.75
268.913	94.75
269.145	82.75
269.377	68.75
269.609	88.75
269.841	88.75
270.073	84.75
270.306	65.75
270.538	75.75
270.77	77.75
271.002	75.75
271.234	94.75
271.466	85.75
271.698	90.75
271.93	82.75
272.162	92.75
272.394	100.75
272.626	74.75
272.858	88.75
273.09	88.75
273.322	76.75
273.553	63.75
273.785	78.75
274.017	88.75
274.249	85.75
274.481	92.75
274.713	90.75
274.945	82.75
275.176	86.75
275.408	90.75
275.64	95.75
275.872	72.75
276.104	79.75
276.335	80.75
276.567	86.75
276.799	82.75
277.031	82.75
277.262	76.75
277.494	78.75
277.726	78.75
277.957	85.75
278.189	67.75
278.421	72.75
278.652	68.75
278.884	96.75
279.115	93.75
279.347	80.75
279.579	71.75
279.81	76.75
280.042	88.75
280.273	80.75
280.505	85.75
280.736	91.75
280.968	88.75
281.199	84.75
281.431	72.75
281.662	92.75
281.894	77.75
282.125	78.75
282.356	77.75
282.588	78.75
282.819	79.75
283.051	90.75
283.282	83.75
283.513	90.75
283.745	78.75
283.976	63.75
284.207	71.75
284.439	88.75
284.67	91.75
284.901	87.75
285.132	84.75
285.364	72.75
285.595	89.75
285.826	79.75
286.057	78.75
286.288	85.75
286.52	84.75
286.751	87.75
286.982	86.75
287.213	85.75
287.444	85.75
287.675	78.75
287.906	81.75
288.138	75.75
288.369	84.75
288.6	102.75
288.831	74.75
289.062	83.75
289.293	90.75
289.524	83.75
289.755	85.75
289.986	81.75
290.217	80.75
290.448	85.75
290.679	80.75
290.91	91.75
291.141	86.75
291.371	78.75
291.602	87.75
291.833	78.75
292.064	94.75
292.295	90.75
292.526	73.75
292.757	99.75
292.987	90.75
293.218	86.75
293.449	82.75
293.68	102.75
293.91	74.75
294.141	92.75
294.372	83.75
294.603	98.75
294.833	94.75
295.064	80.75
295.295	82.75
295.525	78.75
295.756	79.75
295.987	82.75
296.217	78.75
296.448	84.75
296.679	74.75
296.909	84.75
297.14	62.75
297.37	88.75
297.601	87.75
297.831	81.75
298.062	75.75
298.292	85.75
298.523	80.75
298.753	91.75
298.984	85.75
299.214	74.75
299.445	91.75
299.675	94.75
299.905	80.75
300.136	82.75
300.366	95.75
300.597	89.75
300.827	86.75
301.057	89.75
301.288	89.75
301.518	85.75
301.748	84.75
301.979	86.75
302.209	78.75
302.439	83.75
302.669	78.75
302.9	79.75
303.13	78.75
303.36	80.75
303.59	80.75
303.82	79.75
304.051	75.75
304.281	79.75
304.511	91.75
304.741	86.75
304.971	94.75
305.201	89.75
305.431	94.75
305.661	90.75
305.891	79.75
306.121	88.75
306.352	79.75
306.582	80.75
306.812	82.75
307.042	82.75
307.272	78.75
307.502	98.75
307.731	92.75
307.961	75.75
308.191	92.75
308.421	89.75
308.651	91.75
308.881	88.75
309.111	92.75
309.341	86.75
309.571	86.75
309.8	76.75
310.03	82.75
310.26	75.75
310.49	92.75
310.72	80.75
310.949	77.75
311.179	88.75
311.409	77.75
311.639	98.75
311.868	84.75
312.098	88.75
312.328	82.75
312.557	82.75
312.787	79.75
313.017	92.75
313.246	99.75
313.476	72.75
313.706	94.75
313.935	82.75
314.165	100.75
314.394	92.75
314.624	101.75
314.853	95.75
315.083	70.75
315.312	79.75
315.542	89.75
315.771	85.75
316.001	72.75
316.23	91.75
316.46	87.75
316.689	85.75
316.919	89.75
317.148	86.75
317.377	100.75
317.607	79.75
317.836	86.75
318.065	93.75
318.295	80.75
318.524	76.75
318.753	78.75
318.983	75.75
319.212	88.75
319.441	80.75
319.67	85.75
319.9	88.75
320.129	78.75
320.358	75.75
320.587	83.75
320.816	88.75
321.046	94.75
321.275	90.75
321.504	77.75
321.733	87.75
321.962	80.75
322.191	88.75
322.42	73.75
322.649	95.75
322.878	99.75
323.108	76.75
323.337	86.75
323.566	88.75
323.795	83.75
324.024	96.75
324.253	104.75
324.482	94.75
324.71	86.75
324.939	88.75
325.168	83.75
325.397	98.75
325.626	84.75
325.855	70.75
326.084	81.75
326.313	84.75
326.542	78.75
326.77	91.75
326.999	87.75
327.228	94.75
327.457	93.75
327.686	88.75
327.914	91.75
328.143	81.75
328.372	99.75
328.6	82.75
328.829	89.75
329.058	85.75
329.287	84.75
329.515	91.75
329.744	98.75
329.972	83.75
330.201	85.75
330.43	96.75
330.658	89.75
330.887	79.75
331.115	84.75
331.344	81.75
331.572	85.75
331.801	89.75
332.03	84.75
332.258	86.75
332.486	68.75
332.715	95.75
332.943	82.75
333.172	83.75
333.4	88.75
333.629	93.75
333.857	75.75
334.085	80.75
334.314	93.75
334.542	82.75
334.771	93.75
334.999	76.75
335.227	83.75
335.455	91.75
335.684	77.75
335.912	79.75
336.14	78.75
336.369	75.75
336.597	86.75
336.825	91.75
337.053	88.75
337.281	94.75
337.51	91.75
337.738	89.75
337.966	76.75
338.194	79.75
338.422	83.75
338.65	89.75
338.878	92.75
339.106	76.75
339.334	84.75
339.562	89.75
339.79	82.75
340.018	94.75
340.246	81.75
340.474	79.75
340.702	77.75
340.93	90.75
341.158	87.75
341.386	83.75
341.614	101.75
341.842	78.75
342.07	95.75
342.298	78.75
342.526	79.75
342.754	74.75
342.981	89.75
343.209	76.75
343.437	95.75
343.665	87.75
343.893	91.75
344.12	95.75
344.348	104.75
344.576	85.75
344.804	66.75
345.031	71.75
345.259	75.75
345.487	82.75
345.714	74.75
345.942	89.75
346.17	85.75
346.397	86.75
346.625	92.75
346.853	90.75
347.08	87.75
347.308	86.75
347.535	90.75
347.763	73.75
347.99	79.75
348.218	87.75
348.445	79.75
348.673	78.75
348.9	72.75
349.128	102.75
349.355	84.75
349.583	74.75
349.81	86.75
350.037	90.75
350.265	91.75
350.492	90.75
350.72	94.75
350.947	97.75
351.174	87.75
351.402	82.75
351.629	90.75
351.856	94.75
352.083	75.75
352.311	94.75
352.538	80.75
352.765	96.75
352.992	99.75
353.22	86.75
353.447	83.75
353.674	85.75
353.901	84.75
354.128	92.75
354.355	95.75
354.583	70.75
354.81	84.75
355.037	99.75
355.264	80.75
355.491	78.75
355.718	84.75
355.945	74.75
356.172	78.75
356.399	90.75
356.626	91.75
356.853	89.75
357.08	93.75
357.307	93.75
357.534	63.75
357.761	84.75
357.988	82.75
358.215	83.75
358.441	95.75
358.668	83.75
358.895	80.75
359.122	84.75
359.349	84.75
359.576	81.75
359.802	84.75
360.029	83.75
360.256	85.75
360.483	77.75
360.709	68.75
360.936	98.75
361.163	92.75
361.39	90.75
361.616	88.75
361.843	77.75
362.07	77.75
362.296	89.75
362.523	91.75
362.749	95.75
362.976	65.75
363.203	71.75
363.429	78.75
363.656	85.75
363.882	91.75
364.109	91.75
364.335	86.75
364.562	86.75
364.788	88.75
365.015	70.75
365.241	89.75
365.468	84.75
365.694	91.75
365.92	86.75
366.147	88.75
366.373	83.75
366.599	83.75
366.826	63.75
367.052	74.75
367.278	89.75
367.505	79.75
367.731	106.75
367.957	76.75
368.184	79.75
368.41	89.75
368.636	94.75
368.862	86.75
369.089	89.75
369.315	83.75
369.541	85.75
369.767	89.75
369.993	79.75
370.219	88.75
370.445	79.75
370.672	80.75
370.898	90.75
371.124	78.75
371.35	90.75
371.576	84.75
371.802	86.75
372.028	104.75
372.254	79.75
372.48	86.75
372.706	92.75
372.932	86.75
373.158	94.75
373.384	95.75
373.61	74.75
373.835	96.75
374.061	100.75
374.287	82.75
374.513	79.75
374.739	88.75
374.965	95.75
375.191	71.75
375.416	70.75
375.642	74.75
375.868	99.75
376.094	91.75
376.319	85.75
376.545	74.75
376.771	87.75
376.997	83.75
377.222	73.75
377.448	75.75
377.674	90.75
377.899	75.75
378.125	79.75
378.35	91.75
378.576	84.75
378.802	82.75
379.027	90.75
379.253	70.75
379.478	85.75
379.704	81.75
379.929	73.75
380.155	82.75
380.38	82.75
380.606	89.75
380.831	102.75
381.057	90.75
381.282	77.75
381.507	77.75
381.733	90.75
381.958	85.75
382.184	80.75
382.409	79.75
382.634	99.75
382.86	95.75
383.085	91.75
383.31	87.75
383.535	94.75
383.761	100.75
383.986	93.75
384.211	82.75
384.436	88.75
384.662	83.75
384.887	74.75
385.112	82.75
385.337	81.75
385.562	77.75
385.787	87.75
386.013	83.75
386.238	75.75
386.463	77.75
386.688	80.75
386.913	88.75
387.138	84.75
387.363	79.75
387.588	81.75
387.813	83.75
388.038	82.75
388.263	87.75
388.488	86.75
388.713	84.75
388.938	71.75
389.163	85.75
389.387	86.75
389.612	80.75
389.837	96.75
390.062	87.75
390.287	85.75
390.512	83.75
390.736	94.75
390.961	84.75
391.186	79.75
391.411	86.75
391.636	83.75
391.86	79.75
392.085	88.75
392.31	85.75
392.534	85.75
392.759	78.75
392.984	72.75
393.208	83.75
393.433	87.75
393.658	75.75
393.882	79.75
394.107	85.75
394.331	70.75
394.556	89.75
394.78	87.75
395.005	91.75
395.229	90.75
395.454	91.75
395.678	90.75
395.903	102.75
396.127	86.75
396.352	98.75
396.576	92.75
396.801	87.75
397.025	78.75
397.249	88.75
397.474	110.75
397.698	102.75
397.922	90.75
398.147	79.75
398.371	82.75
398.595	93.75
398.82	94.75
399.044	88.75
399.268	97.75
399.492	82.75
399.717	81.75
399.941	99.75
400.165	92.75
400.389	94.75
400.613	91.75
400.837	80.75
401.062	97.75
401.286	76.75
401.51	81.75
401.734	80.75
401.958	84.75
402.182	86.75
402.406	85.75
402.63	79.75
402.854	80.75
403.078	87.75
403.302	94.75
403.526	92.75
403.75	94.75
403.974	91.75
404.198	88.75
404.422	92.75
404.645	83.75
404.869	91.75
405.093	90.75
405.317	88.75
405.541	90.75
405.765	90.75
405.988	99.75
406.212	76.75
406.436	74.75
406.66	81.75
406.883	95.75
407.107	80.75
407.331	95.75
407.555	72.75
407.778	85.75
408.002	94.75
408.226	83.75
408.449	73.75
408.673	91.75
408.896	95.75
409.12	82.75
409.344	94.75
409.567	89.75
409.791	78.75
410.014	79.75
410.238	77.75
410.461	74.75
410.685	74.75
410.908	71.75
411.132	85.75
411.355	73.75
411.578	103.75
411.802	82.75
412.025	94.75
412.249	80.75
412.472	93.75
412.695	88.75
412.919	83.75
413.142	92.75
413.365	88.75
413.589	86.75
413.812	91.75
414.035	85.75
414.258	86.75
414.482	83.75
414.705	95.75
414.928	70.75
415.151	86.75
415.374	71.75
415.597	84.75
415.821	85.75
416.044	83.75
416.267	88.75
416.49	91.75
416.713	56.75
416.936	76.75
417.159	77.75
417.382	87.75
417.605	80.75
417.828	68.75
418.051	75.75
418.274	78.75
418.497	79.75
418.72	86.75
418.943	95.75
419.166	110.75
419.389	92.75
419.611	84.75
419.834	87.75
420.057	73.75
420.28	84.75
420.503	95.75
420.726	91.75
420.948	86.75
421.171	80.75
421.394	85.75
421.617	71.75
421.839	79.75
422.062	100.75
422.285	90.75
422.507	78.75
422.73	88.75
422.953	92.75
423.175	87.75
423.398	82.75
423.621	90.75
423.843	67.75
424.066	69.75
424.288	73.75
424.511	76.75
424.733	90.75
424.956	75.75
425.178	63.75
425.401	85.75
425.623	82.75
425.846	64.75
426.068	70.75
426.291	82.75
426.513	76.75
426.735	80.75
426.958	73.75
427.18	80.75
427.402	82.75
427.625	78.75
427.847	82.75
428.069	83.75
428.292	86.75
428.514	66.75
428.736	95.75
428.958	74.75
429.181	78.75
429.403	84.75
429.625	106.75
429.847	90.75
430.069	82.75
430.292	81.75
430.514	83.75
430.736	85.75
430.958	90.75
431.18	81.75
431.402	95.75
431.624	87.75
431.846	78.75
432.068	76.75
432.29	90.75
432.512	96.75
432.734	86.75
432.956	72.75
433.178	83.75
433.4	86.75
433.622	82.75
433.844	79.75
434.066	90.75
434.287	93.75
434.509	87.75
434.731	93.75
434.953	82.75
435.175	88.75
435.397	96.75
435.618	89.75
435.84	98.75
436.062	76.75
436.284	80.75
436.505	79.75
436.727	78.75
436.949	93.75
437.17	75.75
437.392	78.75
437.614	82.75
437.835	78.75
438.057	86.75
438.278	82.75
438.5	88.75
438.721	84.75
438.943	80.75
439.165	78.75
439.386	93.75
439.608	83.75
439.829	93.75
440.05	85.75
440.272	83.75
440.493	80.75
440.715	76.75
440.936	76.75
441.158	93.75
441.379	86.75
441.6	83.75
441.822	76.75
442.043	82.75
442.264	91.75
442.486	76.75
442.707	89.75
442.928	92.75
443.149	89.75
443.371	103.75
443.592	84.75
443.813	68.75
444.034	87.75
444.255	91.75
444.476	87.75
444.698	85.75
444.919	79.75
445.14	149.75
445.361	101.75
445.582	84.75
445.803	86.75
446.024	81.75
446.245	91.75
446.466	87.75
446.687	70.75
446.908	84.75
447.129	91.75
447.35	97.75
447.571	89.75
447.792	90.75
448.013	68.75
448.234	78.75
448.455	64.75
448.675	86.75
448.896	70.75
449.117	72.75
449.338	92.75
449.559	100.75
449.779	93.75
450	89.75
450.221	75.75
450.442	68.75
450.662	76.75
450.883	81.75
451.104	82.75
451.324	78.75
451.545	98.75
451.766	89.75
451.986	72.75
452.207	91.75
452.428	81.75
452.648	88.75
452.869	91.75
453.089	79.75
453.31	74.75
453.53	102.75
453.751	81.75
453.971	90.75
454.192	73.75
454.412	83.75
454.633	73.75
454.853	95.75
455.073	78.75
455.294	90.75
455.514	76.75
455.734	88.75
455.955	87.75
456.175	81.75
456.395	86.75
456.616	77.75
456.836	80.75
457.056	83.75
457.276	80.75
457.497	81.75
457.717	77.75
457.937	94.75
458.157	86.75
458.377	72.75
458.598	61.75
458.818	74.75
459.038	81.75
459.258	82.75
459.478	87.75
459.698	76.75
459.918	85.75
460.138	75.75
460.358	102.75
460.578	80.75
460.798	82.75
461.018	90.75
461.238	82.75
461.458	89.75
461.678	89.75
461.898	94.75
462.118	82.75
462.338	84.75
462.558	70.75
462.777	84.75
462.997	101.75
463.217	100.75
463.437	101.75
463.657	92.75
463.876	84.75
464.096	93.75
464.316	78.75
464.536	82.75
464.755	80.75
464.975	80.75
465.195	82.75
465.414	88.75
465.634	82.75
465.854	72.75
466.073	81.75
466.293	92.75
466.512	75.75
466.732	83.75
466.951	81.75
467.171	67.75
467.391	82.75
467.61	102.75
467.829	90.75
468.049	86.75
468.268	82.75
468.488	92.75
468.707	87.75
468.927	94.75
469.146	93.75
469.365	79.75
469.585	92.75
469.804	85.75
470.023	79.75
470.243	71.75
470.462	88.75
470.681	95.75
470.901	89.75
471.12	72.75
471.339	90.75
471.558	82.75
471.777	80.75
471.997	83.75
472.216	86.75
472.435	87.75
472.654	84.75
472.873	74.75
473.092	79.75
473.311	70.75
473.53	82.75
473.749	96.75
473.968	90.75
474.187	92.75
474.406	72.75
474.625	84.75
474.844	100.75
475.063	85.75
475.282	92.75
475.501	76.75
475.72	91.75
475.939	95.75
476.158	82.75
476.377	82.75
476.596	86.75
476.814	77.75
477.033	97.75
477.252	94.75
477.471	70.75
477.69	82.75
477.908	87.75
478.127	89.75
478.346	91.75
478.564	83.75
478.783	82.75
479.002	88.75
479.22	93.75
479.439	86.75
479.658	81.75
479.876	82.75
480.095	89.75
480.313	78.75
480.532	74.75
480.751	87.75
480.969	79.75
481.188	78.75
481.406	68.75
481.624	83.75
481.843	83.75
482.061	77.75
482.28	89.75
482.498	80.75
482.717	82.75
482.935	84.75
483.153	95.75
483.372	92.75
483.59	92.75
483.808	93.75
484.027	66.75
484.245	76.75
484.463	71.75
484.681	102.75
484.9	87.75
485.118	84.75
485.336	88.75
485.554	83.75
485.772	84.75
485.99	84.75
486.209	95.75
486.427	79.75
486.645	83.75
486.863	78.75
487.081	90.75
487.299	89.75
487.517	90.75
487.735	69.75
487.953	88.75
488.171	83.75
488.389	80.75
488.607	95.75
488.825	76.75
489.043	73.75
489.261	83.75
489.479	79.75
489.696	94.75
489.914	80.75
490.132	92.75
490.35	78.75
490.568	87.75
490.786	84.75
491.003	86.75
491.221	92.75
491.439	73.75
491.657	87.75
491.874	88.75
492.092	75.75
492.31	75.75
492.527	92.75
492.745	85.75
492.963	74.75
493.18	94.75
493.398	91.75
493.615	82.75
493.833	63.75
494.05	86.75
494.268	77.75
494.485	80.75
494.703	89.75
494.92	94.75
495.138	76.75
495.355	80.75
495.573	75.75
495.79	98.75
496.008	96.75
496.225	85.75
496.442	91.75
496.66	84.75
496.877	86.75
497.094	107.75
497.312	78.75
497.529	80.75
497.746	93.75
497.963	98.75
498.181	97.75
498.398	91.75
498.615	84.75
498.832	77.75
499.049	90.75
499.267	87.75
499.484	91.75
499.701	105.75
499.918	92.75
500.135	86.75
500.352	106.75
500.569	120.75
500.786	114.75
501.003	113.75
501.22	103.75
501.437	101.75
501.654	86.75
501.871	93.75
502.088	88.75
502.305	95.75
502.522	87.75
502.739	95.75
502.956	92.75
503.172	92.75
503.389	82.75
503.606	91.75
503.823	85.75
504.04	89.75
504.256	100.75
504.473	91.75
504.69	84.75
504.907	94.75
505.123	79.75
505.34	77.75
505.557	80.75
505.773	87.75
505.99	87.75
506.207	76.75
506.423	85.75
506.64	84.75
506.856	86.75
507.073	93.75
507.289	78.75
507.506	86.75
507.722	91.75
507.939	89.75
508.155	84.75
508.372	98.75
508.588	90.75
508.805	95.75
509.021	93.75
509.238	91.75
509.454	98.75
509.67	83.75
509.887	92.75
510.103	85.75
510.319	75.75
510.536	86.75
510.752	101.75
510.968	82.75
511.184	74.75
511.401	98.75
511.617	88.75
511.833	82.75
512.049	93.75
512.265	80.75
512.481	92.75
512.698	86.75
512.914	91.75
513.13	84.75
513.346	82.75
513.562	103.75
513.778	74.75
513.994	82.75
514.21	90.75
514.426	104.75
514.642	86.75
514.858	74.75
515.074	88.75
515.29	78.75
515.506	82.75
515.721	90.75
515.937	87.75
516.153	99.75
516.369	82.75
516.585	78.75
516.801	83.75
517.016	64.75
517.232	81.75
517.448	100.75
517.664	87.75
517.879	94.75
518.095	88.75
518.311	94.75
518.527	71.75
518.742	88.75
518.958	80.75
519.173	77.75
519.389	87.75
519.605	91.75
