Data from BG_HRD10591_054.txt Node
Date: Fri May 16 15:21:20 EDT 2025
User: Yrep
Spectrometer: HR+D1059
Trigger mode: 1
Integration Time (sec): 1.000000E-1
Scans to average: 1
Electric dark correction enabled: true
Nonlinearity correction enabled: false
Boxcar width: 0
XAxis mode: Wavelengths
Number of Pixels in Spectrum: 2048
>>>>>Begin Spectral Data<<<<<
223.165	-20.94
223.4	-20.94
223.635	-20.94
223.869	-20.94
224.104	-17.94
224.338	-21.94
224.573	-14.94
224.808	-5.94
225.042	-1.94
225.277	-9.94
225.511	4.06
225.746	-11.94
225.98	13.06
226.215	27.06
226.449	14.06
226.683	12.06
226.918	33.06
227.152	23.06
227.387	40.06
227.621	37.06
227.856	44.06
228.09	61.06
228.324	60.06
228.559	64.06
228.793	48.06
229.027	49.06
229.262	68.06
229.496	72.06
229.73	63.06
229.964	76.06
230.199	58.06
230.433	75.06
230.667	76.06
230.901	88.06
231.136	88.06
231.37	77.06
231.604	86.06
231.838	95.06
232.072	83.06
232.306	74.06
232.541	85.06
232.775	76.06
233.009	72.06
233.243	80.06
233.477	74.06
233.711	79.06
233.945	74.06
234.179	70.06
234.413	81.06
234.647	71.06
234.881	80.06
235.115	83.06
235.349	78.06
235.583	72.06
235.817	77.06
236.051	92.06
236.285	72.06
236.519	76.06
236.753	89.06
236.987	93.06
237.221	85.06
237.455	77.06
237.689	67.06
237.922	73.06
238.156	74.06
238.39	76.06
238.624	65.06
238.858	86.06
239.091	89.06
239.325	63.06
239.559	67.06
239.793	84.06
240.027	62.06
240.26	78.06
240.494	74.06
240.728	82.06
240.961	87.06
241.195	83.06
241.429	61.06
241.662	60.06
241.896	70.06
242.13	81.06
242.363	74.06
242.597	85.06
242.83	77.06
243.064	84.06
243.298	68.06
243.531	70.06
243.765	75.06
243.998	82.06
244.232	90.06
244.465	86.06
244.699	76.06
244.932	77.06
245.166	70.06
245.399	81.06
245.633	74.06
245.866	68.06
246.099	92.06
246.333	92.06
246.566	74.06
246.8	69.06
247.033	77.06
247.266	76.06
247.5	84.06
247.733	80.06
247.966	80.06
248.2	80.06
248.433	84.06
248.666	78.06
248.899	81.06
249.133	75.06
249.366	75.06
249.599	72.06
249.832	74.06
250.066	67.06
250.299	66.06
250.532	72.06
250.765	82.06
250.998	84.06
251.231	78.06
251.465	68.06
251.698	79.06
251.931	86.06
252.164	73.06
252.397	81.06
252.63	75.06
252.863	63.06
253.096	68.06
253.329	78.06
253.562	86.06
253.795	62.06
254.028	70.06
254.261	70.06
254.494	76.06
254.727	80.06
254.96	74.06
255.193	75.06
255.426	62.06
255.659	76.06
255.892	81.06
256.124	83.06
256.357	97.06
256.59	92.06
256.823	80.06
257.056	65.06
257.289	76.06
257.521	90.06
257.754	73.06
257.987	84.06
258.22	76.06
258.452	78.06
258.685	74.06
258.918	73.06
259.151	85.06
259.383	84.06
259.616	74.06
259.849	85.06
260.081	87.06
260.314	73.06
260.547	74.06
260.779	89.06
261.012	84.06
261.244	78.06
261.477	75.06
261.71	73.06
261.942	79.06
262.175	85.06
262.407	77.06
262.64	83.06
262.872	84.06
263.105	84.06
263.337	80.06
263.57	85.06
263.802	74.06
264.035	79.06
264.267	77.06
264.499	79.06
264.732	81.06
264.964	74.06
265.197	77.06
265.429	83.06
265.661	94.06
265.894	88.06
266.126	69.06
266.358	96.06
266.591	86.06
266.823	78.06
267.055	103.06
267.287	89.06
267.52	102.06
267.752	91.06
267.984	83.06
268.216	75.06
268.448	96.06
268.681	81.06
268.913	80.06
269.145	81.06
269.377	72.06
269.609	88.06
269.841	86.06
270.073	84.06
270.306	77.06
270.538	77.06
270.77	73.06
271.002	84.06
271.234	82.06
271.466	72.06
271.698	81.06
271.93	79.06
272.162	79.06
272.394	88.06
272.626	84.06
272.858	90.06
273.09	84.06
273.322	94.06
273.553	84.06
273.785	86.06
274.017	82.06
274.249	88.06
274.481	95.06
274.713	81.06
274.945	81.06
275.176	67.06
275.408	76.06
275.64	72.06
275.872	82.06
276.104	91.06
276.335	84.06
276.567	82.06
276.799	68.06
277.031	76.06
277.262	84.06
277.494	78.06
277.726	70.06
277.957	77.06
278.189	81.06
278.421	87.06
278.652	74.06
278.884	92.06
279.115	95.06
279.347	84.06
279.579	91.06
279.81	80.06
280.042	85.06
280.273	91.06
280.505	72.06
280.736	82.06
280.968	75.06
281.199	82.06
281.431	103.06
281.662	78.06
281.894	92.06
282.125	101.06
282.356	88.06
282.588	79.06
282.819	78.06
283.051	80.06
283.282	93.06
283.513	82.06
283.745	90.06
283.976	85.06
284.207	85.06
284.439	75.06
284.67	83.06
284.901	77.06
285.132	89.06
285.364	87.06
285.595	82.06
285.826	102.06
286.057	82.06
286.288	64.06
286.52	77.06
286.751	84.06
286.982	86.06
287.213	75.06
287.444	84.06
287.675	79.06
287.906	91.06
288.138	93.06
288.369	75.06
288.6	93.06
288.831	83.06
289.062	80.06
289.293	92.06
289.524	87.06
289.755	75.06
289.986	94.06
290.217	84.06
290.448	88.06
290.679	83.06
290.91	76.06
291.141	79.06
291.371	83.06
291.602	90.06
291.833	78.06
292.064	88.06
292.295	88.06
292.526	74.06
292.757	88.06
292.987	86.06
293.218	63.06
293.449	84.06
293.68	88.06
293.91	74.06
294.141	82.06
294.372	76.06
294.603	91.06
294.833	93.06
295.064	92.06
295.295	79.06
295.525	67.06
295.756	80.06
295.987	89.06
296.217	83.06
296.448	83.06
296.679	86.06
296.909	82.06
297.14	96.06
297.37	88.06
297.601	74.06
297.831	82.06
298.062	83.06
298.292	87.06
298.523	84.06
298.753	72.06
298.984	92.06
299.214	94.06
299.445	73.06
299.675	86.06
299.905	74.06
300.136	84.06
300.366	89.06
300.597	91.06
300.827	84.06
301.057	75.06
301.288	87.06
301.518	91.06
301.748	87.06
301.979	89.06
302.209	76.06
302.439	78.06
302.669	97.06
302.9	84.06
303.13	82.06
303.36	78.06
303.59	79.06
303.82	83.06
304.051	79.06
304.281	76.06
304.511	84.06
304.741	73.06
304.971	85.06
305.201	96.06
305.431	86.06
305.661	81.06
305.891	81.06
306.121	80.06
306.352	81.06
306.582	76.06
306.812	80.06
307.042	80.06
307.272	86.06
307.502	97.06
307.731	77.06
307.961	91.06
308.191	89.06
308.421	83.06
308.651	71.06
308.881	86.06
309.111	87.06
309.341	77.06
309.571	82.06
309.8	96.06
310.03	73.06
310.26	80.06
310.49	74.06
310.72	81.06
310.949	86.06
311.179	89.06
311.409	74.06
311.639	97.06
311.868	91.06
312.098	79.06
312.328	90.06
312.557	89.06
312.787	94.06
313.017	88.06
313.246	88.06
313.476	80.06
313.706	86.06
313.935	92.06
314.165	83.06
314.394	80.06
314.624	84.06
314.853	84.06
315.083	83.06
315.312	90.06
315.542	72.06
315.771	92.06
316.001	80.06
316.23	93.06
316.46	91.06
316.689	96.06
316.919	83.06
317.148	84.06
317.377	105.06
317.607	102.06
317.836	98.06
318.065	82.06
318.295	84.06
318.524	91.06
318.753	86.06
318.983	80.06
319.212	86.06
319.441	83.06
319.67	70.06
319.9	87.06
320.129	76.06
320.358	69.06
320.587	95.06
320.816	80.06
321.046	88.06
321.275	79.06
321.504	86.06
321.733	88.06
321.962	88.06
322.191	82.06
322.42	80.06
322.649	85.06
322.878	73.06
323.108	80.06
323.337	74.06
323.566	65.06
323.795	83.06
324.024	87.06
324.253	87.06
324.482	80.06
324.71	81.06
324.939	81.06
325.168	91.06
325.397	84.06
325.626	88.06
325.855	84.06
326.084	100.06
326.313	91.06
326.542	76.06
326.77	95.06
326.999	94.06
327.228	93.06
327.457	101.06
327.686	103.06
327.914	79.06
328.143	85.06
328.372	79.06
328.6	93.06
328.829	95.06
329.058	74.06
329.287	79.06
329.515	85.06
329.744	92.06
329.972	89.06
330.201	86.06
330.43	74.06
330.658	86.06
330.887	86.06
331.115	94.06
331.344	93.06
331.572	89.06
331.801	92.06
332.03	61.06
332.258	100.06
332.486	79.06
332.715	98.06
332.943	101.06
333.172	94.06
333.4	76.06
333.629	84.06
333.857	89.06
334.085	87.06
334.314	82.06
334.542	97.06
334.771	80.06
334.999	77.06
335.227	86.06
335.455	80.06
335.684	93.06
335.912	90.06
336.14	83.06
336.369	81.06
336.597	84.06
336.825	102.06
337.053	86.06
337.281	90.06
337.51	83.06
337.738	101.06
337.966	88.06
338.194	86.06
338.422	76.06
338.65	84.06
338.878	80.06
339.106	75.06
339.334	89.06
339.562	94.06
339.79	80.06
340.018	91.06
340.246	85.06
340.474	79.06
340.702	86.06
340.93	76.06
341.158	88.06
341.386	89.06
341.614	92.06
341.842	84.06
342.07	85.06
342.298	82.06
342.526	79.06
342.754	79.06
342.981	89.06
343.209	65.06
343.437	101.06
343.665	82.06
343.893	78.06
344.12	80.06
344.348	92.06
344.576	84.06
344.804	102.06
345.031	89.06
345.259	92.06
345.487	82.06
345.714	96.06
345.942	86.06
346.17	76.06
346.397	81.06
346.625	102.06
346.853	80.06
347.08	62.06
347.308	80.06
347.535	87.06
347.763	100.06
347.99	84.06
348.218	100.06
348.445	80.06
348.673	78.06
348.9	87.06
349.128	84.06
349.355	94.06
349.583	80.06
349.81	84.06
350.037	88.06
350.265	84.06
350.492	87.06
350.72	83.06
350.947	89.06
351.174	76.06
351.402	82.06
351.629	81.06
351.856	86.06
352.083	72.06
352.311	95.06
352.538	85.06
352.765	105.06
352.992	82.06
353.22	81.06
353.447	81.06
353.674	103.06
353.901	73.06
354.128	79.06
354.355	89.06
354.583	76.06
354.81	84.06
355.037	83.06
355.264	82.06
355.491	92.06
355.718	82.06
355.945	89.06
356.172	73.06
356.399	101.06
356.626	85.06
356.853	73.06
357.08	73.06
357.307	83.06
357.534	98.06
357.761	98.06
357.988	77.06
358.215	85.06
358.441	75.06
358.668	86.06
358.895	79.06
359.122	88.06
359.349	92.06
359.576	86.06
359.802	92.06
360.029	85.06
360.256	88.06
360.483	79.06
360.709	80.06
360.936	80.06
361.163	86.06
361.39	93.06
361.616	89.06
361.843	82.06
362.07	81.06
362.296	100.06
362.523	78.06
362.749	94.06
362.976	74.06
363.203	96.06
363.429	74.06
363.656	85.06
363.882	94.06
364.109	87.06
364.335	79.06
364.562	86.06
364.788	91.06
365.015	79.06
365.241	90.06
365.468	96.06
365.694	80.06
365.92	85.06
366.147	92.06
366.373	50.06
366.599	78.06
366.826	73.06
367.052	77.06
367.278	92.06
367.505	82.06
367.731	85.06
367.957	99.06
368.184	80.06
368.41	76.06
368.636	89.06
368.862	82.06
369.089	67.06
369.315	81.06
369.541	83.06
369.767	99.06
369.993	81.06
370.219	80.06
370.445	91.06
370.672	84.06
370.898	69.06
371.124	69.06
371.35	93.06
371.576	86.06
371.802	83.06
372.028	82.06
372.254	76.06
372.48	90.06
372.706	98.06
372.932	88.06
373.158	81.06
373.384	77.06
373.61	85.06
373.835	81.06
374.061	96.06
374.287	76.06
374.513	62.06
374.739	75.06
374.965	90.06
375.191	85.06
375.416	83.06
375.642	91.06
375.868	76.06
376.094	81.06
376.319	75.06
376.545	80.06
376.771	92.06
376.997	89.06
377.222	83.06
377.448	71.06
377.674	72.06
377.899	93.06
378.125	74.06
378.35	89.06
378.576	86.06
378.802	88.06
379.027	78.06
379.253	93.06
379.478	91.06
379.704	76.06
379.929	63.06
380.155	82.06
380.38	97.06
380.606	78.06
380.831	69.06
381.057	89.06
381.282	90.06
381.507	74.06
381.733	92.06
381.958	81.06
382.184	84.06
382.409	105.06
382.634	72.06
382.86	89.06
383.085	79.06
383.31	82.06
383.535	90.06
383.761	91.06
383.986	78.06
384.211	88.06
384.436	89.06
384.662	79.06
384.887	83.06
385.112	90.06
385.337	75.06
385.562	70.06
385.787	91.06
386.013	82.06
386.238	84.06
386.463	102.06
386.688	89.06
386.913	74.06
387.138	79.06
387.363	88.06
387.588	82.06
387.813	98.06
388.038	76.06
388.263	95.06
388.488	81.06
388.713	73.06
388.938	78.06
389.163	89.06
389.387	71.06
389.612	76.06
389.837	68.06
390.062	83.06
390.287	76.06
390.512	86.06
390.736	80.06
390.961	75.06
391.186	74.06
391.411	76.06
391.636	76.06
391.86	85.06
392.085	84.06
392.31	77.06
392.534	75.06
392.759	79.06
392.984	85.06
393.208	80.06
393.433	90.06
393.658	82.06
393.882	82.06
394.107	86.06
394.331	86.06
394.556	86.06
394.78	78.06
395.005	70.06
395.229	88.06
395.454	100.06
395.678	82.06
395.903	84.06
396.127	83.06
396.352	88.06
396.576	84.06
396.801	98.06
397.025	74.06
397.249	76.06
397.474	78.06
397.698	87.06
397.922	76.06
398.147	78.06
398.371	81.06
398.595	86.06
398.82	77.06
399.044	80.06
399.268	76.06
399.492	78.06
399.717	86.06
399.941	83.06
400.165	83.06
400.389	58.06
400.613	77.06
400.837	86.06
401.062	86.06
401.286	78.06
401.51	72.06
401.734	84.06
401.958	83.06
402.182	93.06
402.406	82.06
402.63	84.06
402.854	84.06
403.078	71.06
403.302	79.06
403.526	91.06
403.75	102.06
403.974	79.06
404.198	88.06
404.422	72.06
404.645	77.06
404.869	80.06
405.093	77.06
405.317	95.06
405.541	93.06
405.765	64.06
405.988	77.06
406.212	82.06
406.436	80.06
406.66	78.06
406.883	81.06
407.107	81.06
407.331	80.06
407.555	78.06
407.778	85.06
408.002	87.06
408.226	85.06
408.449	80.06
408.673	79.06
408.896	77.06
409.12	86.06
409.344	84.06
409.567	72.06
409.791	71.06
410.014	84.06
410.238	71.06
410.461	72.06
410.685	73.06
410.908	70.06
411.132	82.06
411.355	89.06
411.578	85.06
411.802	88.06
412.025	66.06
412.249	92.06
412.472	75.06
412.695	74.06
412.919	90.06
413.142	74.06
413.365	82.06
413.589	87.06
413.812	76.06
414.035	95.06
414.258	78.06
414.482	75.06
414.705	77.06
414.928	73.06
415.151	82.06
415.374	67.06
415.597	81.06
415.821	89.06
416.044	78.06
416.267	76.06
416.49	80.06
416.713	72.06
416.936	78.06
417.159	88.06
417.382	71.06
417.605	93.06
417.828	86.06
418.051	76.06
418.274	75.06
418.497	82.06
418.72	73.06
418.943	74.06
419.166	69.06
419.389	86.06
419.611	87.06
419.834	76.06
420.057	75.06
420.28	84.06
420.503	82.06
420.726	85.06
420.948	88.06
421.171	73.06
421.394	76.06
421.617	90.06
421.839	65.06
422.062	75.06
422.285	84.06
422.507	82.06
422.73	67.06
422.953	64.06
423.175	68.06
423.398	77.06
423.621	70.06
423.843	79.06
424.066	75.06
424.288	75.06
424.511	88.06
424.733	73.06
424.956	77.06
425.178	75.06
425.401	81.06
425.623	85.06
425.846	92.06
426.068	73.06
426.291	75.06
426.513	83.06
426.735	66.06
426.958	67.06
427.18	76.06
427.402	83.06
427.625	72.06
427.847	74.06
428.069	79.06
428.292	79.06
428.514	81.06
428.736	81.06
428.958	88.06
429.181	78.06
429.403	70.06
429.625	91.06
429.847	76.06
430.069	81.06
430.292	94.06
430.514	90.06
430.736	79.06
430.958	89.06
431.18	90.06
431.402	73.06
431.624	81.06
431.846	85.06
432.068	83.06
432.29	79.06
432.512	102.06
432.734	88.06
432.956	79.06
433.178	74.06
433.4	87.06
433.622	71.06
433.844	83.06
434.066	80.06
434.287	90.06
434.509	79.06
434.731	73.06
434.953	72.06
435.175	74.06
435.397	82.06
435.618	78.06
435.84	87.06
436.062	74.06
436.284	85.06
436.505	85.06
436.727	76.06
436.949	83.06
437.17	78.06
437.392	74.06
437.614	76.06
437.835	80.06
438.057	75.06
438.278	71.06
438.5	99.06
438.721	86.06
438.943	61.06
439.165	78.06
439.386	88.06
439.608	80.06
439.829	59.06
440.05	78.06
440.272	88.06
440.493	78.06
440.715	69.06
440.936	67.06
441.158	96.06
441.379	89.06
441.6	80.06
441.822	68.06
442.043	86.06
442.264	67.06
442.486	71.06
442.707	84.06
442.928	102.06
443.149	79.06
443.371	74.06
443.592	71.06
443.813	78.06
444.034	73.06
444.255	65.06
444.476	66.06
444.698	65.06
444.919	68.06
445.14	149.06
445.361	131.06
445.582	77.06
445.803	74.06
446.024	82.06
446.245	88.06
446.466	92.06
446.687	91.06
446.908	77.06
447.129	79.06
447.35	74.06
447.571	86.06
447.792	91.06
448.013	73.06
448.234	96.06
448.455	76.06
448.675	75.06
448.896	82.06
449.117	77.06
449.338	85.06
449.559	88.06
449.779	87.06
450	59.06
450.221	74.06
450.442	72.06
450.662	71.06
450.883	84.06
451.104	81.06
451.324	96.06
451.545	78.06
451.766	72.06
451.986	75.06
452.207	70.06
452.428	73.06
452.648	69.06
452.869	80.06
453.089	67.06
453.31	92.06
453.53	83.06
453.751	74.06
453.971	70.06
454.192	70.06
454.412	82.06
454.633	84.06
454.853	73.06
455.073	75.06
455.294	70.06
455.514	90.06
455.734	84.06
455.955	78.06
456.175	75.06
456.395	94.06
456.616	63.06
456.836	85.06
457.056	80.06
457.276	80.06
457.497	80.06
457.717	79.06
457.937	71.06
458.157	72.06
458.377	71.06
458.598	81.06
458.818	88.06
459.038	92.06
459.258	86.06
459.478	76.06
459.698	90.06
459.918	70.06
460.138	81.06
460.358	86.06
460.578	61.06
460.798	82.06
461.018	67.06
461.238	79.06
461.458	84.06
461.678	73.06
461.898	64.06
462.118	79.06
462.338	64.06
462.558	71.06
462.777	77.06
462.997	82.06
463.217	86.06
463.437	88.06
463.657	82.06
463.876	95.06
464.096	81.06
464.316	76.06
464.536	79.06
464.755	70.06
464.975	85.06
465.195	90.06
465.414	80.06
465.634	82.06
465.854	85.06
466.073	76.06
466.293	97.06
466.512	81.06
466.732	87.06
466.951	81.06
467.171	72.06
467.391	89.06
467.61	93.06
467.829	91.06
468.049	95.06
468.268	76.06
468.488	86.06
468.707	73.06
468.927	78.06
469.146	94.06
469.365	85.06
469.585	84.06
469.804	92.06
470.023	74.06
470.243	86.06
470.462	92.06
470.681	68.06
470.901	80.06
471.12	85.06
471.339	72.06
471.558	80.06
471.777	76.06
471.997	77.06
472.216	78.06
472.435	87.06
472.654	79.06
472.873	86.06
473.092	76.06
473.311	77.06
473.53	84.06
473.749	77.06
473.968	75.06
474.187	83.06
474.406	92.06
474.625	90.06
474.844	102.06
475.063	81.06
475.282	70.06
475.501	75.06
475.72	76.06
475.939	84.06
476.158	77.06
476.377	72.06
476.596	68.06
476.814	74.06
477.033	91.06
477.252	73.06
477.471	89.06
477.69	84.06
477.908	75.06
478.127	66.06
478.346	58.06
478.564	87.06
478.783	72.06
479.002	77.06
479.22	74.06
479.439	82.06
479.658	77.06
479.876	76.06
480.095	76.06
480.313	75.06
480.532	80.06
480.751	69.06
480.969	88.06
481.188	89.06
481.406	69.06
481.624	86.06
481.843	92.06
482.061	73.06
482.28	86.06
482.498	84.06
482.717	84.06
482.935	69.06
483.153	75.06
483.372	65.06
483.59	67.06
483.808	72.06
484.027	84.06
484.245	73.06
484.463	68.06
484.681	103.06
484.9	62.06
485.118	87.06
485.336	92.06
485.554	66.06
485.772	86.06
485.99	83.06
486.209	75.06
486.427	76.06
486.645	84.06
486.863	64.06
487.081	73.06
487.299	82.06
487.517	103.06
487.735	76.06
487.953	90.06
488.171	96.06
488.389	87.06
488.607	86.06
488.825	88.06
489.043	72.06
489.261	79.06
489.479	75.06
489.696	74.06
489.914	86.06
490.132	90.06
490.35	79.06
490.568	85.06
490.786	63.06
491.003	98.06
491.221	60.06
491.439	95.06
491.657	78.06
491.874	84.06
492.092	78.06
492.31	77.06
492.527	85.06
492.745	70.06
492.963	82.06
493.18	90.06
493.398	73.06
493.615	82.06
493.833	85.06
494.05	75.06
494.268	84.06
494.485	89.06
494.703	75.06
494.92	82.06
495.138	78.06
495.355	93.06
495.573	79.06
495.79	90.06
496.008	70.06
496.225	72.06
496.442	76.06
496.66	89.06
496.877	91.06
497.094	81.06
497.312	77.06
497.529	79.06
497.746	81.06
497.963	67.06
498.181	66.06
498.398	87.06
498.615	82.06
498.832	66.06
499.049	78.06
499.267	77.06
499.484	78.06
499.701	70.06
499.918	89.06
500.135	73.06
500.352	82.06
500.569	85.06
500.786	93.06
501.003	77.06
501.22	80.06
501.437	89.06
501.654	72.06
501.871	67.06
502.088	66.06
502.305	87.06
502.522	73.06
502.739	73.06
502.956	79.06
503.172	90.06
503.389	85.06
503.606	87.06
503.823	88.06
504.04	75.06
504.256	81.06
504.473	75.06
504.69	69.06
504.907	82.06
505.123	85.06
505.34	87.06
505.557	84.06
505.773	85.06
505.99	84.06
506.207	84.06
506.423	85.06
506.64	84.06
506.856	77.06
507.073	78.06
507.289	70.06
507.506	86.06
507.722	73.06
507.939	73.06
508.155	85.06
508.372	80.06
508.588	95.06
508.805	83.06
509.021	87.06
509.238	80.06
509.454	77.06
509.67	86.06
509.887	78.06
510.103	77.06
510.319	77.06
510.536	101.06
510.752	80.06
510.968	74.06
511.184	79.06
511.401	75.06
511.617	86.06
511.833	89.06
512.049	86.06
512.265	81.06
512.481	94.06
512.698	75.06
512.914	87.06
513.13	74.06
513.346	89.06
513.562	70.06
513.778	76.06
513.994	80.06
514.21	78.06
514.426	79.06
514.642	82.06
514.858	76.06
515.074	88.06
515.29	87.06
515.506	94.06
515.721	87.06
515.937	75.06
516.153	84.06
516.369	70.06
516.585	89.06
516.801	86.06
517.016	89.06
517.232	86.06
517.448	76.06
517.664	88.06
517.879	84.06
518.095	93.06
518.311	83.06
518.527	72.06
518.742	82.06
518.958	87.06
519.173	78.06
519.389	92.06
519.605	79.06
519.82	96.06
