Data from BG_HRD10591_078.txt Node
Date: Fri May 16 15:21:32 EDT 2025
User: Yrep
Spectrometer: HR+D1059
Trigger mode: 1
Integration Time (sec): 1.000000E-1
Scans to average: 1
Electric dark correction enabled: true
Nonlinearity correction enabled: false
Boxcar width: 0
XAxis mode: Wavelengths
Number of Pixels in Spectrum: 2048
>>>>>Begin Spectral Data<<<<<
223.165	-16.31
223.4	-16.31
223.635	-16.31
223.869	-18.31
224.104	-28.31
224.338	-21.31
224.573	-7.31
224.808	-1.31
225.042	-11.31
225.277	-4.31
225.511	-11.31
225.746	4.69
225.98	12.69
226.215	11.69
226.449	19.69
226.683	10.69
226.918	26.69
227.152	33.69
227.387	43.69
227.621	37.69
227.856	39.69
228.09	43.69
228.324	41.69
228.559	63.69
228.793	59.69
229.027	77.69
229.262	71.69
229.496	62.69
229.73	57.69
229.964	78.69
230.199	79.69
230.433	69.69
230.667	76.69
230.901	69.69
231.136	93.69
231.37	78.69
231.604	77.69
231.838	81.69
232.072	86.69
232.306	84.69
232.541	81.69
232.775	77.69
233.009	78.69
233.243	78.69
233.477	74.69
233.711	99.69
233.945	86.69
234.179	87.69
234.413	91.69
234.647	77.69
234.881	88.69
235.115	85.69
235.349	77.69
235.583	90.69
235.817	96.69
236.051	71.69
236.285	86.69
236.519	80.69
236.753	75.69
236.987	72.69
237.221	67.69
237.455	80.69
237.689	71.69
237.922	78.69
238.156	79.69
238.39	80.69
238.624	75.69
238.858	70.69
239.091	76.69
239.325	68.69
239.559	84.69
239.793	69.69
240.027	66.69
240.26	68.69
240.494	74.69
240.728	79.69
240.961	63.69
241.195	82.69
241.429	63.69
241.662	74.69
241.896	69.69
242.13	70.69
242.363	79.69
242.597	75.69
242.83	72.69
243.064	75.69
243.298	84.69
243.531	84.69
243.765	75.69
243.998	73.69
244.232	77.69
244.465	70.69
244.699	66.69
244.932	67.69
245.166	86.69
245.399	73.69
245.633	77.69
245.866	72.69
246.099	71.69
246.333	75.69
246.566	71.69
246.8	79.69
247.033	78.69
247.266	70.69
247.5	71.69
247.733	88.69
247.966	85.69
248.2	84.69
248.433	86.69
248.666	78.69
248.899	88.69
249.133	90.69
249.366	78.69
249.599	85.69
249.832	91.69
250.066	75.69
250.299	82.69
250.532	78.69
250.765	72.69
250.998	81.69
251.231	76.69
251.465	72.69
251.698	85.69
251.931	85.69
252.164	65.69
252.397	76.69
252.63	89.69
252.863	76.69
253.096	78.69
253.329	82.69
253.562	69.69
253.795	66.69
254.028	83.69
254.261	76.69
254.494	74.69
254.727	73.69
254.96	78.69
255.193	95.69
255.426	78.69
255.659	73.69
255.892	95.69
256.124	92.69
256.357	75.69
256.59	96.69
256.823	61.69
257.056	86.69
257.289	80.69
257.521	77.69
257.754	73.69
257.987	79.69
258.22	92.69
258.452	89.69
258.685	83.69
258.918	86.69
259.151	84.69
259.383	70.69
259.616	81.69
259.849	74.69
260.081	92.69
260.314	87.69
260.547	89.69
260.779	86.69
261.012	77.69
261.244	89.69
261.477	104.69
261.71	85.69
261.942	84.69
262.175	84.69
262.407	79.69
262.64	79.69
262.872	81.69
263.105	76.69
263.337	94.69
263.57	91.69
263.802	75.69
264.035	74.69
264.267	96.69
264.499	85.69
264.732	91.69
264.964	71.69
265.197	81.69
265.429	82.69
265.661	77.69
265.894	79.69
266.126	104.69
266.358	77.69
266.591	76.69
266.823	88.69
267.055	86.69
267.287	97.69
267.52	96.69
267.752	74.69
267.984	77.69
268.216	84.69
268.448	89.69
268.681	78.69
268.913	97.69
269.145	95.69
269.377	87.69
269.609	78.69
269.841	86.69
270.073	81.69
270.306	84.69
270.538	93.69
270.77	75.69
271.002	75.69
271.234	75.69
271.466	83.69
271.698	72.69
271.93	80.69
272.162	74.69
272.394	76.69
272.626	80.69
272.858	86.69
273.09	90.69
273.322	96.69
273.553	90.69
273.785	80.69
274.017	84.69
274.249	74.69
274.481	71.69
274.713	72.69
274.945	96.69
275.176	87.69
275.408	80.69
275.64	94.69
275.872	92.69
276.104	88.69
276.335	84.69
276.567	97.69
276.799	85.69
277.031	80.69
277.262	78.69
277.494	93.69
277.726	95.69
277.957	84.69
278.189	96.69
278.421	78.69
278.652	78.69
278.884	92.69
279.115	86.69
279.347	92.69
279.579	88.69
279.81	70.69
280.042	71.69
280.273	88.69
280.505	80.69
280.736	92.69
280.968	88.69
281.199	84.69
281.431	95.69
281.662	75.69
281.894	84.69
282.125	92.69
282.356	88.69
282.588	93.69
282.819	83.69
283.051	94.69
283.282	80.69
283.513	88.69
283.745	82.69
283.976	88.69
284.207	81.69
284.439	99.69
284.67	87.69
284.901	75.69
285.132	79.69
285.364	74.69
285.595	90.69
285.826	88.69
286.057	88.69
286.288	78.69
286.52	93.69
286.751	79.69
286.982	83.69
287.213	93.69
287.444	80.69
287.675	79.69
287.906	85.69
288.138	80.69
288.369	69.69
288.6	77.69
288.831	66.69
289.062	90.69
289.293	92.69
289.524	74.69
289.755	75.69
289.986	88.69
290.217	86.69
290.448	80.69
290.679	77.69
290.91	93.69
291.141	97.69
291.371	85.69
291.602	85.69
291.833	94.69
292.064	93.69
292.295	88.69
292.526	78.69
292.757	86.69
292.987	91.69
293.218	74.69
293.449	87.69
293.68	102.69
293.91	104.69
294.141	88.69
294.372	85.69
294.603	81.69
294.833	74.69
295.064	95.69
295.295	81.69
295.525	94.69
295.756	88.69
295.987	88.69
296.217	86.69
296.448	94.69
296.679	100.69
296.909	100.69
297.14	75.69
297.37	89.69
297.601	82.69
297.831	104.69
298.062	99.69
298.292	92.69
298.523	70.69
298.753	77.69
298.984	76.69
299.214	96.69
299.445	67.69
299.675	88.69
299.905	93.69
300.136	103.69
300.366	90.69
300.597	83.69
300.827	79.69
301.057	87.69
301.288	76.69
301.518	92.69
301.748	84.69
301.979	105.69
302.209	85.69
302.439	85.69
302.669	64.69
302.9	75.69
303.13	90.69
303.36	90.69
303.59	89.69
303.82	79.69
304.051	103.69
304.281	77.69
304.511	83.69
304.741	89.69
304.971	68.69
305.201	63.69
305.431	95.69
305.661	92.69
305.891	75.69
306.121	85.69
306.352	95.69
306.582	89.69
306.812	84.69
307.042	83.69
307.272	81.69
307.502	94.69
307.731	98.69
307.961	90.69
308.191	87.69
308.421	100.69
308.651	83.69
308.881	80.69
309.111	85.69
309.341	79.69
309.571	76.69
309.8	78.69
310.03	87.69
310.26	92.69
310.49	103.69
310.72	92.69
310.949	79.69
311.179	88.69
311.409	67.69
311.639	82.69
311.868	88.69
312.098	78.69
312.328	105.69
312.557	101.69
312.787	81.69
313.017	87.69
313.246	82.69
313.476	79.69
313.706	101.69
313.935	91.69
314.165	105.69
314.394	90.69
314.624	79.69
314.853	87.69
315.083	78.69
315.312	100.69
315.542	89.69
315.771	80.69
316.001	85.69
316.23	98.69
316.46	91.69
316.689	88.69
316.919	84.69
317.148	97.69
317.377	75.69
317.607	93.69
317.836	96.69
318.065	90.69
318.295	86.69
318.524	73.69
318.753	72.69
318.983	87.69
319.212	95.69
319.441	87.69
319.67	89.69
319.9	89.69
320.129	91.69
320.358	86.69
320.587	106.69
320.816	87.69
321.046	96.69
321.275	87.69
321.504	94.69
321.733	93.69
321.962	76.69
322.191	80.69
322.42	80.69
322.649	84.69
322.878	101.69
323.108	92.69
323.337	75.69
323.566	73.69
323.795	89.69
324.024	86.69
324.253	87.69
324.482	76.69
324.71	80.69
324.939	73.69
325.168	77.69
325.397	88.69
325.626	87.69
325.855	79.69
326.084	95.69
326.313	92.69
326.542	80.69
326.77	87.69
326.999	80.69
327.228	89.69
327.457	86.69
327.686	84.69
327.914	78.69
328.143	105.69
328.372	107.69
328.6	88.69
328.829	75.69
329.058	75.69
329.287	73.69
329.515	91.69
329.744	94.69
329.972	90.69
330.201	88.69
330.43	87.69
330.658	86.69
330.887	86.69
331.115	81.69
331.344	95.69
331.572	80.69
331.801	76.69
332.03	87.69
332.258	93.69
332.486	94.69
332.715	80.69
332.943	81.69
333.172	77.69
333.4	86.69
333.629	83.69
333.857	107.69
334.085	78.69
334.314	91.69
334.542	92.69
334.771	85.69
334.999	103.69
335.227	89.69
335.455	86.69
335.684	83.69
335.912	93.69
336.14	88.69
336.369	73.69
336.597	73.69
336.825	102.69
337.053	87.69
337.281	80.69
337.51	84.69
337.738	87.69
337.966	97.69
338.194	85.69
338.422	107.69
338.65	90.69
338.878	87.69
339.106	82.69
339.334	106.69
339.562	88.69
339.79	92.69
340.018	105.69
340.246	102.69
340.474	88.69
340.702	75.69
340.93	93.69
341.158	75.69
341.386	88.69
341.614	79.69
341.842	92.69
342.07	95.69
342.298	87.69
342.526	80.69
342.754	89.69
342.981	80.69
343.209	80.69
343.437	92.69
343.665	95.69
343.893	106.69
344.12	105.69
344.348	79.69
344.576	87.69
344.804	86.69
345.031	78.69
345.259	84.69
345.487	85.69
345.714	85.69
345.942	80.69
346.17	75.69
346.397	83.69
346.625	91.69
346.853	85.69
347.08	92.69
347.308	87.69
347.535	91.69
347.763	95.69
347.99	96.69
348.218	78.69
348.445	100.69
348.673	95.69
348.9	97.69
349.128	101.69
349.355	86.69
349.583	83.69
349.81	89.69
350.037	88.69
350.265	85.69
350.492	90.69
350.72	90.69
350.947	84.69
351.174	81.69
351.402	95.69
351.629	86.69
351.856	81.69
352.083	77.69
352.311	86.69
352.538	85.69
352.765	80.69
352.992	100.69
353.22	98.69
353.447	88.69
353.674	90.69
353.901	82.69
354.128	94.69
354.355	73.69
354.583	82.69
354.81	92.69
355.037	99.69
355.264	83.69
355.491	81.69
355.718	84.69
355.945	81.69
356.172	104.69
356.399	83.69
356.626	82.69
356.853	86.69
357.08	74.69
357.307	78.69
357.534	85.69
357.761	83.69
357.988	86.69
358.215	84.69
358.441	79.69
358.668	91.69
358.895	92.69
359.122	81.69
359.349	89.69
359.576	71.69
359.802	74.69
360.029	84.69
360.256	67.69
360.483	99.69
360.709	94.69
360.936	93.69
361.163	75.69
361.39	87.69
361.616	83.69
361.843	84.69
362.07	87.69
362.296	85.69
362.523	78.69
362.749	75.69
362.976	83.69
363.203	84.69
363.429	79.69
363.656	83.69
363.882	73.69
364.109	88.69
364.335	80.69
364.562	88.69
364.788	77.69
365.015	85.69
365.241	104.69
365.468	95.69
365.694	87.69
365.92	91.69
366.147	70.69
366.373	89.69
366.599	79.69
366.826	85.69
367.052	89.69
367.278	87.69
367.505	82.69
367.731	103.69
367.957	91.69
368.184	79.69
368.41	78.69
368.636	91.69
368.862	87.69
369.089	77.69
369.315	79.69
369.541	78.69
369.767	96.69
369.993	83.69
370.219	87.69
370.445	102.69
370.672	75.69
370.898	79.69
371.124	82.69
371.35	91.69
371.576	67.69
371.802	78.69
372.028	72.69
372.254	90.69
372.48	91.69
372.706	79.69
372.932	87.69
373.158	88.69
373.384	86.69
373.61	86.69
373.835	76.69
374.061	78.69
374.287	83.69
374.513	94.69
374.739	82.69
374.965	84.69
375.191	92.69
375.416	84.69
375.642	76.69
375.868	87.69
376.094	76.69
376.319	99.69
376.545	81.69
376.771	94.69
376.997	94.69
377.222	84.69
377.448	90.69
377.674	80.69
377.899	99.69
378.125	80.69
378.35	82.69
378.576	87.69
378.802	85.69
379.027	86.69
379.253	87.69
379.478	85.69
379.704	75.69
379.929	92.69
380.155	91.69
380.38	93.69
380.606	81.69
380.831	78.69
381.057	80.69
381.282	90.69
381.507	77.69
381.733	80.69
381.958	94.69
382.184	76.69
382.409	83.69
382.634	92.69
382.86	83.69
383.085	91.69
383.31	82.69
383.535	87.69
383.761	84.69
383.986	100.69
384.211	87.69
384.436	81.69
384.662	85.69
384.887	84.69
385.112	92.69
385.337	99.69
385.562	88.69
385.787	103.69
386.013	105.69
386.238	85.69
386.463	84.69
386.688	104.69
386.913	91.69
387.138	83.69
387.363	75.69
387.588	80.69
387.813	83.69
388.038	80.69
388.263	71.69
388.488	89.69
388.713	84.69
388.938	87.69
389.163	71.69
389.387	80.69
389.612	92.69
389.837	101.69
390.062	96.69
390.287	92.69
390.512	92.69
390.736	89.69
390.961	91.69
391.186	92.69
391.411	87.69
391.636	104.69
391.86	86.69
392.085	104.69
392.31	84.69
392.534	84.69
392.759	92.69
392.984	92.69
393.208	84.69
393.433	76.69
393.658	83.69
393.882	85.69
394.107	69.69
394.331	80.69
394.556	104.69
394.78	83.69
395.005	84.69
395.229	87.69
395.454	79.69
395.678	80.69
395.903	87.69
396.127	86.69
396.352	87.69
396.576	80.69
396.801	91.69
397.025	96.69
397.249	96.69
397.474	94.69
397.698	79.69
397.922	75.69
398.147	84.69
398.371	89.69
398.595	86.69
398.82	95.69
399.044	102.69
399.268	89.69
399.492	100.69
399.717	87.69
399.941	73.69
400.165	78.69
400.389	92.69
400.613	90.69
400.837	89.69
401.062	88.69
401.286	81.69
401.51	84.69
401.734	97.69
401.958	96.69
402.182	90.69
402.406	93.69
402.63	79.69
402.854	87.69
403.078	80.69
403.302	105.69
403.526	83.69
403.75	85.69
403.974	91.69
404.198	102.69
404.422	96.69
404.645	93.69
404.869	101.69
405.093	97.69
405.317	96.69
405.541	83.69
405.765	75.69
405.988	80.69
406.212	92.69
406.436	78.69
406.66	84.69
406.883	90.69
407.107	81.69
407.331	100.69
407.555	91.69
407.778	94.69
408.002	96.69
408.226	80.69
408.449	84.69
408.673	80.69
408.896	113.69
409.12	95.69
409.344	92.69
409.567	82.69
409.791	85.69
410.014	94.69
410.238	107.69
410.461	83.69
410.685	87.69
410.908	91.69
411.132	86.69
411.355	80.69
411.578	86.69
411.802	73.69
412.025	86.69
412.249	92.69
412.472	91.69
412.695	106.69
412.919	85.69
413.142	87.69
413.365	92.69
413.589	81.69
413.812	87.69
414.035	97.69
414.258	85.69
414.482	96.69
414.705	88.69
414.928	83.69
415.151	90.69
415.374	84.69
415.597	92.69
415.821	94.69
416.044	76.69
416.267	96.69
416.49	81.69
416.713	84.69
416.936	73.69
417.159	96.69
417.382	85.69
417.605	88.69
417.828	93.69
418.051	87.69
418.274	85.69
418.497	94.69
418.72	90.69
418.943	75.69
419.166	82.69
419.389	87.69
419.611	84.69
419.834	87.69
420.057	91.69
420.28	74.69
420.503	83.69
420.726	78.69
420.948	96.69
421.171	91.69
421.394	92.69
421.617	79.69
421.839	83.69
422.062	83.69
422.285	80.69
422.507	92.69
422.73	86.69
422.953	62.69
423.175	92.69
423.398	102.69
423.621	98.69
423.843	95.69
424.066	96.69
424.288	80.69
424.511	90.69
424.733	75.69
424.956	83.69
425.178	82.69
425.401	90.69
425.623	86.69
425.846	71.69
426.068	88.69
426.291	88.69
426.513	99.69
426.735	81.69
426.958	73.69
427.18	87.69
427.402	89.69
427.625	91.69
427.847	80.69
428.069	94.69
428.292	85.69
428.514	87.69
428.736	81.69
428.958	91.69
429.181	80.69
429.403	85.69
429.625	101.69
429.847	106.69
430.069	76.69
430.292	95.69
430.514	85.69
430.736	91.69
430.958	67.69
431.18	74.69
431.402	91.69
431.624	104.69
431.846	92.69
432.068	93.69
432.29	95.69
432.512	101.69
432.734	75.69
432.956	81.69
433.178	94.69
433.4	92.69
433.622	75.69
433.844	104.69
434.066	78.69
434.287	76.69
434.509	85.69
434.731	100.69
434.953	93.69
435.175	97.69
435.397	79.69
435.618	83.69
435.84	86.69
436.062	83.69
436.284	93.69
436.505	87.69
436.727	96.69
436.949	89.69
437.17	82.69
437.392	77.69
437.614	83.69
437.835	80.69
438.057	75.69
438.278	81.69
438.5	80.69
438.721	83.69
438.943	85.69
439.165	101.69
439.386	95.69
439.608	95.69
439.829	93.69
440.05	91.69
440.272	95.69
440.493	90.69
440.715	93.69
440.936	92.69
441.158	87.69
441.379	88.69
441.6	82.69
441.822	77.69
442.043	84.69
442.264	92.69
442.486	77.69
442.707	79.69
442.928	87.69
443.149	86.69
443.371	81.69
443.592	92.69
443.813	95.69
444.034	101.69
444.255	87.69
444.476	87.69
444.698	92.69
444.919	85.69
445.14	164.69
445.361	111.69
445.582	83.69
445.803	91.69
446.024	96.69
446.245	83.69
446.466	85.69
446.687	77.69
446.908	92.69
447.129	82.69
447.35	88.69
447.571	83.69
447.792	91.69
448.013	92.69
448.234	95.69
448.455	84.69
448.675	102.69
448.896	85.69
449.117	92.69
449.338	82.69
449.559	88.69
449.779	84.69
450	100.69
450.221	83.69
450.442	77.69
450.662	85.69
450.883	77.69
451.104	95.69
451.324	95.69
451.545	87.69
451.766	93.69
451.986	91.69
452.207	92.69
452.428	83.69
452.648	91.69
452.869	74.69
453.089	71.69
453.31	91.69
453.53	71.69
453.751	87.69
453.971	88.69
454.192	93.69
454.412	87.69
454.633	86.69
454.853	79.69
455.073	89.69
455.294	76.69
455.514	85.69
455.734	92.69
455.955	85.69
456.175	89.69
456.395	87.69
456.616	84.69
456.836	89.69
457.056	77.69
457.276	86.69
457.497	103.69
457.717	73.69
457.937	84.69
458.157	73.69
458.377	86.69
458.598	85.69
458.818	88.69
459.038	85.69
459.258	86.69
459.478	87.69
459.698	85.69
459.918	96.69
460.138	97.69
460.358	81.69
460.578	86.69
460.798	87.69
461.018	89.69
461.238	82.69
461.458	87.69
461.678	84.69
461.898	83.69
462.118	84.69
462.338	92.69
462.558	110.69
462.777	77.69
462.997	93.69
463.217	93.69
463.437	106.69
463.657	77.69
463.876	76.69
464.096	87.69
464.316	95.69
464.536	94.69
464.755	88.69
464.975	92.69
465.195	100.69
465.414	93.69
465.634	85.69
465.854	88.69
466.073	92.69
466.293	102.69
466.512	102.69
466.732	94.69
466.951	72.69
467.171	88.69
467.391	87.69
467.61	75.69
467.829	78.69
468.049	88.69
468.268	77.69
468.488	82.69
468.707	75.69
468.927	87.69
469.146	80.69
469.365	94.69
469.585	84.69
469.804	73.69
470.023	83.69
470.243	93.69
470.462	80.69
470.681	78.69
470.901	81.69
471.12	88.69
471.339	97.69
471.558	86.69
471.777	88.69
471.997	81.69
472.216	101.69
472.435	83.69
472.654	82.69
472.873	83.69
473.092	87.69
473.311	77.69
473.53	84.69
473.749	79.69
473.968	99.69
474.187	91.69
474.406	72.69
474.625	85.69
474.844	85.69
475.063	77.69
475.282	92.69
475.501	91.69
475.72	91.69
475.939	93.69
476.158	81.69
476.377	92.69
476.596	84.69
476.814	81.69
477.033	87.69
477.252	90.69
477.471	90.69
477.69	82.69
477.908	82.69
478.127	108.69
478.346	95.69
478.564	74.69
478.783	101.69
479.002	90.69
479.22	107.69
479.439	84.69
479.658	87.69
479.876	105.69
480.095	92.69
480.313	91.69
480.532	82.69
480.751	86.69
480.969	89.69
481.188	93.69
481.406	87.69
481.624	92.69
481.843	94.69
482.061	82.69
482.28	78.69
482.498	90.69
482.717	101.69
482.935	96.69
483.153	90.69
483.372	88.69
483.59	83.69
483.808	89.69
484.027	84.69
484.245	82.69
484.463	81.69
484.681	92.69
484.9	66.69
485.118	95.69
485.336	79.69
485.554	86.69
485.772	89.69
485.99	96.69
486.209	86.69
486.427	97.69
486.645	79.69
486.863	78.69
487.081	81.69
487.299	80.69
487.517	86.69
487.735	87.69
487.953	80.69
488.171	83.69
488.389	92.69
488.607	84.69
488.825	84.69
489.043	100.69
489.261	97.69
489.479	83.69
489.696	95.69
489.914	87.69
490.132	92.69
490.35	103.69
490.568	69.69
490.786	99.69
491.003	89.69
491.221	95.69
491.439	91.69
491.657	94.69
491.874	92.69
492.092	100.69
492.31	108.69
492.527	87.69
492.745	96.69
492.963	90.69
493.18	76.69
493.398	81.69
493.615	87.69
493.833	83.69
494.05	89.69
494.268	91.69
494.485	88.69
494.703	86.69
494.92	92.69
495.138	82.69
495.355	91.69
495.573	75.69
495.79	94.69
496.008	85.69
496.225	77.69
496.442	87.69
496.66	94.69
496.877	80.69
497.094	90.69
497.312	97.69
497.529	99.69
497.746	74.69
497.963	81.69
498.181	83.69
498.398	90.69
498.615	78.69
498.832	105.69
499.049	92.69
499.267	91.69
499.484	100.69
499.701	97.69
499.918	110.69
500.135	126.69
500.352	107.69
500.569	107.69
500.786	99.69
501.003	99.69
501.22	95.69
501.437	93.69
501.654	94.69
501.871	96.69
502.088	86.69
502.305	94.69
502.522	102.69
502.739	94.69
502.956	83.69
503.172	96.69
503.389	87.69
503.606	95.69
503.823	106.69
504.04	83.69
504.256	90.69
504.473	90.69
504.69	84.69
504.907	92.69
505.123	88.69
505.34	92.69
505.557	80.69
505.773	87.69
505.99	91.69
506.207	90.69
506.423	88.69
506.64	80.69
506.856	87.69
507.073	83.69
507.289	87.69
507.506	102.69
507.722	88.69
507.939	81.69
508.155	87.69
508.372	89.69
508.588	76.69
508.805	86.69
509.021	95.69
509.238	83.69
509.454	90.69
509.67	92.69
509.887	94.69
510.103	88.69
510.319	92.69
510.536	91.69
510.752	91.69
510.968	81.69
511.184	92.69
511.401	96.69
511.617	89.69
511.833	88.69
512.049	80.69
512.265	77.69
512.481	73.69
512.698	86.69
512.914	79.69
513.13	108.69
513.346	96.69
513.562	97.69
513.778	89.69
513.994	87.69
514.21	94.69
514.426	89.69
514.642	78.69
514.858	78.69
515.074	75.69
515.29	100.69
515.506	68.69
515.721	76.69
515.937	88.69
516.153	91.69
516.369	96.69
516.585	106.69
516.801	76.69
517.016	79.69
517.232	96.69
517.448	91.69
517.664	84.69
517.879	88.69
518.095	106.69
518.311	86.69
518.527	96.69
518.742	95.69
518.958	86.69
