Data from BG_HRD10591_059.txt Node
Date: Fri May 16 15:21:23 EDT 2025
User: Yrep
Spectrometer: HR+D1059
Trigger mode: 1
Integration Time (sec): 1.000000E-1
Scans to average: 1
Electric dark correction enabled: true
Nonlinearity correction enabled: false
Boxcar width: 0
XAxis mode: Wavelengths
Number of Pixels in Spectrum: 2048
>>>>>Begin Spectral Data<<<<<
223.165	-16.69
223.4	-16.69
223.635	-16.69
223.869	-23.69
224.104	-14.69
224.338	-9.69
224.573	-17.69
224.808	-18.69
225.042	4.31
225.277	11.31
225.511	-11.69
225.746	4.31
225.98	1.31
226.215	6.31
226.449	20.31
226.683	12.31
226.918	12.31
227.152	40.31
227.387	42.31
227.621	37.31
227.856	42.31
228.09	43.31
228.324	55.31
228.559	50.31
228.793	57.31
229.027	70.31
229.262	78.31
229.496	60.31
229.73	79.31
229.964	71.31
230.199	82.31
230.433	71.31
230.667	68.31
230.901	51.31
231.136	82.31
231.37	87.31
231.604	74.31
231.838	77.31
232.072	85.31
232.306	67.31
232.541	75.31
232.775	79.31
233.009	80.31
233.243	83.31
233.477	80.31
233.711	86.31
233.945	79.31
234.179	87.31
234.413	80.31
234.647	72.31
234.881	78.31
235.115	64.31
235.349	73.31
235.583	74.31
235.817	88.31
236.051	78.31
236.285	88.31
236.519	79.31
236.753	74.31
236.987	65.31
237.221	72.31
237.455	72.31
237.689	69.31
237.922	77.31
238.156	67.31
238.39	75.31
238.624	76.31
238.858	61.31
239.091	76.31
239.325	65.31
239.559	85.31
239.793	88.31
240.027	80.31
240.26	88.31
240.494	74.31
240.728	72.31
240.961	79.31
241.195	74.31
241.429	73.31
241.662	79.31
241.896	76.31
242.13	83.31
242.363	78.31
242.597	76.31
242.83	73.31
243.064	66.31
243.298	68.31
243.531	82.31
243.765	69.31
243.998	84.31
244.232	82.31
244.465	68.31
244.699	69.31
244.932	80.31
245.166	68.31
245.399	80.31
245.633	76.31
245.866	83.31
246.099	81.31
246.333	88.31
246.566	82.31
246.8	96.31
247.033	75.31
247.266	78.31
247.5	70.31
247.733	78.31
247.966	84.31
248.2	81.31
248.433	85.31
248.666	71.31
248.899	78.31
249.133	74.31
249.366	84.31
249.599	78.31
249.832	77.31
250.066	65.31
250.299	67.31
250.532	79.31
250.765	88.31
250.998	84.31
251.231	74.31
251.465	81.31
251.698	78.31
251.931	85.31
252.164	80.31
252.397	76.31
252.63	70.31
252.863	78.31
253.096	78.31
253.329	75.31
253.562	77.31
253.795	102.31
254.028	87.31
254.261	65.31
254.494	83.31
254.727	80.31
254.96	93.31
255.193	94.31
255.426	79.31
255.659	70.31
255.892	83.31
256.124	68.31
256.357	79.31
256.59	80.31
256.823	81.31
257.056	96.31
257.289	88.31
257.521	82.31
257.754	74.31
257.987	79.31
258.22	87.31
258.452	69.31
258.685	78.31
258.918	71.31
259.151	71.31
259.383	63.31
259.616	82.31
259.849	72.31
260.081	76.31
260.314	78.31
260.547	75.31
260.779	74.31
261.012	81.31
261.244	95.31
261.477	90.31
261.71	73.31
261.942	73.31
262.175	77.31
262.407	62.31
262.64	76.31
262.872	79.31
263.105	94.31
263.337	91.31
263.57	73.31
263.802	87.31
264.035	69.31
264.267	83.31
264.499	79.31
264.732	88.31
264.964	72.31
265.197	85.31
265.429	72.31
265.661	84.31
265.894	86.31
266.126	80.31
266.358	78.31
266.591	86.31
266.823	74.31
267.055	68.31
267.287	78.31
267.52	73.31
267.752	86.31
267.984	68.31
268.216	84.31
268.448	76.31
268.681	77.31
268.913	71.31
269.145	76.31
269.377	77.31
269.609	78.31
269.841	84.31
270.073	82.31
270.306	75.31
270.538	91.31
270.77	74.31
271.002	84.31
271.234	80.31
271.466	89.31
271.698	92.31
271.93	72.31
272.162	74.31
272.394	82.31
272.626	85.31
272.858	80.31
273.09	80.31
273.322	75.31
273.553	79.31
273.785	74.31
274.017	62.31
274.249	73.31
274.481	74.31
274.713	76.31
274.945	90.31
275.176	79.31
275.408	64.31
275.64	79.31
275.872	82.31
276.104	85.31
276.335	83.31
276.567	87.31
276.799	80.31
277.031	88.31
277.262	84.31
277.494	76.31
277.726	86.31
277.957	84.31
278.189	84.31
278.421	79.31
278.652	87.31
278.884	81.31
279.115	79.31
279.347	81.31
279.579	79.31
279.81	82.31
280.042	94.31
280.273	81.31
280.505	93.31
280.736	90.31
280.968	89.31
281.199	93.31
281.431	92.31
281.662	83.31
281.894	73.31
282.125	92.31
282.356	89.31
282.588	83.31
282.819	93.31
283.051	87.31
283.282	95.31
283.513	78.31
283.745	66.31
283.976	87.31
284.207	96.31
284.439	77.31
284.67	72.31
284.901	77.31
285.132	87.31
285.364	89.31
285.595	103.31
285.826	77.31
286.057	92.31
286.288	88.31
286.52	79.31
286.751	77.31
286.982	89.31
287.213	86.31
287.444	100.31
287.675	88.31
287.906	77.31
288.138	86.31
288.369	94.31
288.6	84.31
288.831	85.31
289.062	88.31
289.293	85.31
289.524	74.31
289.755	86.31
289.986	89.31
290.217	83.31
290.448	88.31
290.679	79.31
290.91	96.31
291.141	81.31
291.371	87.31
291.602	91.31
291.833	75.31
292.064	80.31
292.295	74.31
292.526	88.31
292.757	74.31
292.987	86.31
293.218	92.31
293.449	84.31
293.68	77.31
293.91	85.31
294.141	79.31
294.372	83.31
294.603	80.31
294.833	86.31
295.064	72.31
295.295	79.31
295.525	83.31
295.756	88.31
295.987	92.31
296.217	85.31
296.448	83.31
296.679	83.31
296.909	88.31
297.14	75.31
297.37	84.31
297.601	80.31
297.831	86.31
298.062	74.31
298.292	85.31
298.523	98.31
298.753	78.31
298.984	80.31
299.214	82.31
299.445	76.31
299.675	86.31
299.905	88.31
300.136	79.31
300.366	92.31
300.597	88.31
300.827	98.31
301.057	94.31
301.288	88.31
301.518	83.31
301.748	91.31
301.979	94.31
302.209	92.31
302.439	83.31
302.669	94.31
302.9	73.31
303.13	85.31
303.36	101.31
303.59	80.31
303.82	85.31
304.051	74.31
304.281	76.31
304.511	82.31
304.741	86.31
304.971	89.31
305.201	95.31
305.431	81.31
305.661	95.31
305.891	85.31
306.121	83.31
306.352	81.31
306.582	93.31
306.812	84.31
307.042	101.31
307.272	88.31
307.502	78.31
307.731	81.31
307.961	78.31
308.191	82.31
308.421	95.31
308.651	95.31
308.881	85.31
309.111	86.31
309.341	86.31
309.571	86.31
309.8	95.31
310.03	75.31
310.26	83.31
310.49	94.31
310.72	79.31
310.949	73.31
311.179	77.31
311.409	83.31
311.639	91.31
311.868	80.31
312.098	70.31
312.328	83.31
312.557	100.31
312.787	86.31
313.017	82.31
313.246	88.31
313.476	82.31
313.706	66.31
313.935	90.31
314.165	86.31
314.394	84.31
314.624	87.31
314.853	94.31
315.083	77.31
315.312	89.31
315.542	80.31
315.771	92.31
316.001	76.31
316.23	97.31
316.46	83.31
316.689	106.31
316.919	90.31
317.148	92.31
317.377	86.31
317.607	91.31
317.836	83.31
318.065	103.31
318.295	77.31
318.524	84.31
318.753	74.31
318.983	80.31
319.212	80.31
319.441	89.31
319.67	88.31
319.9	85.31
320.129	84.31
320.358	96.31
320.587	84.31
320.816	82.31
321.046	104.31
321.275	82.31
321.504	74.31
321.733	68.31
321.962	87.31
322.191	92.31
322.42	87.31
322.649	91.31
322.878	92.31
323.108	82.31
323.337	72.31
323.566	94.31
323.795	86.31
324.024	90.31
324.253	80.31
324.482	76.31
324.71	89.31
324.939	82.31
325.168	84.31
325.397	89.31
325.626	88.31
325.855	90.31
326.084	95.31
326.313	96.31
326.542	83.31
326.77	87.31
326.999	71.31
327.228	94.31
327.457	100.31
327.686	92.31
327.914	81.31
328.143	98.31
328.372	88.31
328.6	87.31
328.829	84.31
329.058	87.31
329.287	82.31
329.515	66.31
329.744	82.31
329.972	91.31
330.201	85.31
330.43	88.31
330.658	89.31
330.887	78.31
331.115	79.31
331.344	83.31
331.572	82.31
331.801	82.31
332.03	98.31
332.258	86.31
332.486	64.31
332.715	95.31
332.943	95.31
333.172	92.31
333.4	98.31
333.629	81.31
333.857	77.31
334.085	80.31
334.314	90.31
334.542	80.31
334.771	76.31
334.999	103.31
335.227	87.31
335.455	84.31
335.684	82.31
335.912	98.31
336.14	77.31
336.369	77.31
336.597	78.31
336.825	84.31
337.053	88.31
337.281	81.31
337.51	84.31
337.738	90.31
337.966	79.31
338.194	91.31
338.422	77.31
338.65	90.31
338.878	92.31
339.106	81.31
339.334	88.31
339.562	90.31
339.79	89.31
340.018	86.31
340.246	74.31
340.474	86.31
340.702	79.31
340.93	78.31
341.158	95.31
341.386	76.31
341.614	80.31
341.842	90.31
342.07	85.31
342.298	86.31
342.526	85.31
342.754	94.31
342.981	64.31
343.209	80.31
343.437	98.31
343.665	88.31
343.893	87.31
344.12	82.31
344.348	90.31
344.576	92.31
344.804	80.31
345.031	79.31
345.259	88.31
345.487	92.31
345.714	91.31
345.942	73.31
346.17	86.31
346.397	87.31
346.625	75.31
346.853	78.31
347.08	83.31
347.308	77.31
347.535	72.31
347.763	66.31
347.99	78.31
348.218	90.31
348.445	86.31
348.673	82.31
348.9	84.31
349.128	86.31
349.355	92.31
349.583	77.31
349.81	82.31
350.037	76.31
350.265	86.31
350.492	94.31
350.72	77.31
350.947	95.31
351.174	83.31
351.402	78.31
351.629	92.31
351.856	81.31
352.083	91.31
352.311	83.31
352.538	94.31
352.765	82.31
352.992	89.31
353.22	82.31
353.447	80.31
353.674	85.31
353.901	98.31
354.128	78.31
354.355	106.31
354.583	78.31
354.81	78.31
355.037	91.31
355.264	85.31
355.491	68.31
355.718	73.31
355.945	85.31
356.172	80.31
356.399	92.31
356.626	81.31
356.853	84.31
357.08	73.31
357.307	92.31
357.534	82.31
357.761	77.31
357.988	85.31
358.215	87.31
358.441	79.31
358.668	97.31
358.895	81.31
359.122	83.31
359.349	94.31
359.576	80.31
359.802	77.31
360.029	73.31
360.256	76.31
360.483	86.31
360.709	84.31
360.936	101.31
361.163	87.31
361.39	94.31
361.616	88.31
361.843	85.31
362.07	87.31
362.296	79.31
362.523	78.31
362.749	96.31
362.976	88.31
363.203	101.31
363.429	93.31
363.656	81.31
363.882	77.31
364.109	78.31
364.335	91.31
364.562	91.31
364.788	103.31
365.015	87.31
365.241	87.31
365.468	83.31
365.694	72.31
365.92	95.31
366.147	84.31
366.373	80.31
366.599	87.31
366.826	90.31
367.052	88.31
367.278	100.31
367.505	91.31
367.731	106.31
367.957	74.31
368.184	75.31
368.41	93.31
368.636	89.31
368.862	81.31
369.089	84.31
369.315	78.31
369.541	84.31
369.767	88.31
369.993	87.31
370.219	100.31
370.445	110.31
370.672	88.31
370.898	79.31
371.124	89.31
371.35	82.31
371.576	86.31
371.802	88.31
372.028	86.31
372.254	84.31
372.48	80.31
372.706	86.31
372.932	94.31
373.158	78.31
373.384	84.31
373.61	78.31
373.835	79.31
374.061	87.31
374.287	86.31
374.513	74.31
374.739	70.31
374.965	87.31
375.191	83.31
375.416	82.31
375.642	75.31
375.868	82.31
376.094	94.31
376.319	90.31
376.545	75.31
376.771	101.31
376.997	87.31
377.222	84.31
377.448	97.31
377.674	86.31
377.899	71.31
378.125	87.31
378.35	98.31
378.576	79.31
378.802	88.31
379.027	82.31
379.253	91.31
379.478	71.31
379.704	67.31
379.929	76.31
380.155	99.31
380.38	86.31
380.606	86.31
380.831	84.31
381.057	82.31
381.282	66.31
381.507	87.31
381.733	78.31
381.958	74.31
382.184	74.31
382.409	73.31
382.634	78.31
382.86	85.31
383.085	79.31
383.31	91.31
383.535	88.31
383.761	79.31
383.986	101.31
384.211	88.31
384.436	82.31
384.662	85.31
384.887	89.31
385.112	95.31
385.337	98.31
385.562	82.31
385.787	81.31
386.013	71.31
386.238	84.31
386.463	88.31
386.688	81.31
386.913	85.31
387.138	87.31
387.363	73.31
387.588	80.31
387.813	75.31
388.038	89.31
388.263	87.31
388.488	73.31
388.713	85.31
388.938	94.31
389.163	84.31
389.387	88.31
389.612	86.31
389.837	79.31
390.062	85.31
390.287	85.31
390.512	87.31
390.736	74.31
390.961	84.31
391.186	90.31
391.411	93.31
391.636	82.31
391.86	76.31
392.085	84.31
392.31	85.31
392.534	69.31
392.759	84.31
392.984	95.31
393.208	84.31
393.433	104.31
393.658	102.31
393.882	84.31
394.107	83.31
394.331	70.31
394.556	92.31
394.78	85.31
395.005	93.31
395.229	83.31
395.454	85.31
395.678	81.31
395.903	86.31
396.127	90.31
396.352	84.31
396.576	83.31
396.801	86.31
397.025	86.31
397.249	100.31
397.474	104.31
397.698	84.31
397.922	86.31
398.147	87.31
398.371	88.31
398.595	87.31
398.82	88.31
399.044	84.31
399.268	91.31
399.492	88.31
399.717	106.31
399.941	88.31
400.165	89.31
400.389	81.31
400.613	86.31
400.837	101.31
401.062	86.31
401.286	79.31
401.51	71.31
401.734	79.31
401.958	77.31
402.182	96.31
402.406	84.31
402.63	79.31
402.854	69.31
403.078	83.31
403.302	92.31
403.526	96.31
403.75	83.31
403.974	92.31
404.198	98.31
404.422	88.31
404.645	69.31
404.869	77.31
405.093	106.31
405.317	83.31
405.541	85.31
405.765	89.31
405.988	96.31
406.212	100.31
406.436	70.31
406.66	88.31
406.883	84.31
407.107	84.31
407.331	91.31
407.555	93.31
407.778	80.31
408.002	94.31
408.226	85.31
408.449	90.31
408.673	82.31
408.896	90.31
409.12	88.31
409.344	95.31
409.567	91.31
409.791	108.31
410.014	62.31
410.238	74.31
410.461	78.31
410.685	84.31
410.908	96.31
411.132	98.31
411.355	86.31
411.578	88.31
411.802	87.31
412.025	73.31
412.249	76.31
412.472	83.31
412.695	79.31
412.919	94.31
413.142	103.31
413.365	81.31
413.589	78.31
413.812	94.31
414.035	90.31
414.258	93.31
414.482	88.31
414.705	77.31
414.928	87.31
415.151	88.31
415.374	73.31
415.597	74.31
415.821	90.31
416.044	92.31
416.267	92.31
416.49	77.31
416.713	96.31
416.936	76.31
417.159	91.31
417.382	80.31
417.605	78.31
417.828	88.31
418.051	76.31
418.274	86.31
418.497	82.31
418.72	101.31
418.943	84.31
419.166	77.31
419.389	69.31
419.611	88.31
419.834	98.31
420.057	81.31
420.28	90.31
420.503	75.31
420.726	75.31
420.948	68.31
421.171	90.31
421.394	91.31
421.617	85.31
421.839	84.31
422.062	85.31
422.285	72.31
422.507	92.31
422.73	87.31
422.953	88.31
423.175	89.31
423.398	72.31
423.621	79.31
423.843	74.31
424.066	82.31
424.288	87.31
424.511	84.31
424.733	85.31
424.956	64.31
425.178	72.31
425.401	98.31
425.623	92.31
425.846	78.31
426.068	70.31
426.291	82.31
426.513	78.31
426.735	87.31
426.958	87.31
427.18	89.31
427.402	90.31
427.625	102.31
427.847	72.31
428.069	73.31
428.292	84.31
428.514	89.31
428.736	92.31
428.958	84.31
429.181	88.31
429.403	93.31
429.625	72.31
429.847	88.31
430.069	94.31
430.292	74.31
430.514	67.31
430.736	65.31
430.958	81.31
431.18	84.31
431.402	84.31
431.624	83.31
431.846	79.31
432.068	77.31
432.29	93.31
432.512	94.31
432.734	85.31
432.956	84.31
433.178	99.31
433.4	78.31
433.622	74.31
433.844	94.31
434.066	80.31
434.287	87.31
434.509	102.31
434.731	90.31
434.953	93.31
435.175	96.31
435.397	84.31
435.618	87.31
435.84	90.31
436.062	91.31
436.284	90.31
436.505	93.31
436.727	88.31
436.949	80.31
437.17	92.31
437.392	75.31
437.614	76.31
437.835	85.31
438.057	77.31
438.278	90.31
438.5	73.31
438.721	75.31
438.943	95.31
439.165	84.31
439.386	78.31
439.608	81.31
439.829	84.31
440.05	88.31
440.272	81.31
440.493	83.31
440.715	84.31
440.936	89.31
441.158	95.31
441.379	81.31
441.6	79.31
441.822	91.31
442.043	98.31
442.264	87.31
442.486	82.31
442.707	79.31
442.928	87.31
443.149	94.31
443.371	101.31
443.592	80.31
443.813	85.31
444.034	94.31
444.255	92.31
444.476	88.31
444.698	83.31
444.919	89.31
445.14	146.31
445.361	131.31
445.582	76.31
445.803	85.31
446.024	84.31
446.245	92.31
446.466	90.31
446.687	93.31
446.908	87.31
447.129	102.31
447.35	70.31
447.571	88.31
447.792	89.31
448.013	95.31
448.234	94.31
448.455	80.31
448.675	84.31
448.896	84.31
449.117	86.31
449.338	87.31
449.559	91.31
449.779	90.31
450	100.31
450.221	75.31
450.442	84.31
450.662	86.31
450.883	92.31
451.104	88.31
451.324	93.31
451.545	82.31
451.766	98.31
451.986	84.31
452.207	87.31
452.428	82.31
452.648	87.31
452.869	94.31
453.089	77.31
453.31	88.31
453.53	78.31
453.751	83.31
453.971	84.31
454.192	77.31
454.412	79.31
454.633	79.31
454.853	81.31
455.073	77.31
455.294	77.31
455.514	103.31
455.734	81.31
455.955	78.31
456.175	83.31
456.395	88.31
456.616	78.31
456.836	83.31
457.056	81.31
457.276	90.31
457.497	74.31
457.717	85.31
457.937	86.31
458.157	76.31
458.377	77.31
458.598	78.31
458.818	94.31
459.038	83.31
459.258	81.31
459.478	75.31
459.698	102.31
459.918	91.31
460.138	91.31
460.358	102.31
460.578	88.31
460.798	95.31
461.018	87.31
461.238	86.31
461.458	84.31
461.678	91.31
461.898	77.31
462.118	81.31
462.338	82.31
462.558	82.31
462.777	92.31
462.997	99.31
463.217	98.31
463.437	67.31
463.657	92.31
463.876	85.31
464.096	96.31
464.316	89.31
464.536	78.31
464.755	89.31
464.975	72.31
465.195	82.31
465.414	88.31
465.634	77.31
465.854	77.31
466.073	79.31
466.293	87.31
466.512	100.31
466.732	79.31
466.951	85.31
467.171	92.31
467.391	87.31
467.61	97.31
467.829	72.31
468.049	79.31
468.268	92.31
468.488	94.31
468.707	84.31
468.927	77.31
469.146	85.31
469.365	84.31
469.585	72.31
469.804	94.31
470.023	85.31
470.243	77.31
470.462	99.31
470.681	80.31
470.901	98.31
471.12	80.31
471.339	90.31
471.558	75.31
471.777	77.31
471.997	77.31
472.216	88.31
472.435	80.31
472.654	86.31
472.873	93.31
473.092	95.31
473.311	83.31
473.53	82.31
473.749	84.31
473.968	96.31
474.187	73.31
474.406	98.31
474.625	101.31
474.844	94.31
475.063	84.31
475.282	91.31
475.501	87.31
475.72	97.31
475.939	89.31
476.158	84.31
476.377	93.31
476.596	74.31
476.814	69.31
477.033	79.31
477.252	78.31
477.471	87.31
477.69	88.31
477.908	94.31
478.127	84.31
478.346	86.31
478.564	87.31
478.783	72.31
479.002	76.31
479.22	84.31
479.439	88.31
479.658	77.31
479.876	102.31
480.095	87.31
480.313	82.31
480.532	91.31
480.751	84.31
480.969	75.31
481.188	81.31
481.406	92.31
481.624	79.31
481.843	89.31
482.061	82.31
482.28	85.31
482.498	76.31
482.717	87.31
482.935	81.31
483.153	87.31
483.372	102.31
483.59	86.31
483.808	84.31
484.027	86.31
484.245	67.31
484.463	80.31
484.681	82.31
484.9	74.31
485.118	84.31
485.336	77.31
485.554	91.31
485.772	82.31
485.99	70.31
486.209	80.31
486.427	74.31
486.645	89.31
486.863	84.31
487.081	92.31
487.299	96.31
487.517	85.31
487.735	83.31
487.953	83.31
488.171	88.31
488.389	84.31
488.607	75.31
488.825	76.31
489.043	93.31
489.261	83.31
489.479	94.31
489.696	103.31
489.914	86.31
490.132	74.31
490.35	75.31
490.568	86.31
490.786	98.31
491.003	80.31
491.221	91.31
491.439	71.31
491.657	79.31
491.874	95.31
492.092	93.31
492.31	93.31
492.527	78.31
492.745	76.31
492.963	87.31
493.18	80.31
493.398	95.31
493.615	98.31
493.833	81.31
494.05	82.31
494.268	83.31
494.485	85.31
494.703	73.31
494.92	88.31
495.138	90.31
495.355	92.31
495.573	99.31
495.79	85.31
496.008	88.31
496.225	98.31
496.442	84.31
496.66	87.31
496.877	79.31
497.094	84.31
497.312	82.31
497.529	112.31
497.746	83.31
497.963	87.31
498.181	94.31
498.398	75.31
498.615	103.31
498.832	94.31
499.049	83.31
499.267	95.31
499.484	89.31
499.701	99.31
499.918	91.31
500.135	91.31
500.352	110.31
500.569	117.31
500.786	111.31
501.003	105.31
501.22	91.31
501.437	93.31
501.654	88.31
501.871	94.31
502.088	104.31
502.305	86.31
502.522	84.31
502.739	99.31
502.956	80.31
503.172	87.31
503.389	99.31
503.606	76.31
503.823	85.31
504.04	93.31
504.256	80.31
504.473	80.31
504.69	90.31
504.907	103.31
505.123	94.31
505.34	95.31
505.557	101.31
505.773	100.31
505.99	87.31
506.207	69.31
506.423	92.31
506.64	87.31
506.856	82.31
507.073	98.31
507.289	103.31
507.506	82.31
507.722	85.31
507.939	101.31
508.155	86.31
508.372	94.31
508.588	71.31
508.805	88.31
509.021	88.31
509.238	89.31
509.454	80.31
509.67	80.31
509.887	78.31
510.103	91.31
510.319	81.31
510.536	93.31
510.752	104.31
510.968	83.31
511.184	85.31
511.401	83.31
511.617	104.31
511.833	87.31
512.049	91.31
512.265	64.31
512.481	85.31
512.698	70.31
512.914	85.31
513.13	83.31
513.346	84.31
513.562	89.31
513.778	101.31
513.994	87.31
514.21	95.31
514.426	86.31
514.642	86.31
514.858	87.31
515.074	86.31
515.29	87.31
515.506	88.31
515.721	95.31
515.937	92.31
516.153	77.31
516.369	90.31
516.585	86.31
516.801	82.31
517.016	84.31
517.232	81.31
517.448	91.31
517.664	94.31
517.879	85.31
518.095	90.31
518.311	84.31
518.527	89.31
518.742	84.31
518.958	80.31
519.173	79.31
519.389	90.31
519.605	84.31
