Data from BG_HRD10591_044.txt Node
Date: Fri May 16 15:21:16 EDT 2025
User: Yrep
Spectrometer: HR+D1059
Trigger mode: 1
Integration Time (sec): 1.000000E-1
Scans to average: 1
Electric dark correction enabled: true
Nonlinearity correction enabled: false
Boxcar width: 0
XAxis mode: Wavelengths
Number of Pixels in Spectrum: 2048
>>>>>Begin Spectral Data<<<<<
223.165	-33.38
223.4	-33.38
223.635	-33.38
223.869	-18.38
224.104	-25.38
224.338	-18.38
224.573	-5.38
224.808	5.62
225.042	-15.38
225.277	-14.38
225.511	-10.38
225.746	8.62
225.98	17.62
226.215	15.62
226.449	13.62
226.683	19.62
226.918	23.62
227.152	36.62
227.387	33.62
227.621	42.62
227.856	30.62
228.09	48.62
228.324	60.62
228.559	52.62
228.793	52.62
229.027	67.62
229.262	74.62
229.496	70.62
229.73	68.62
229.964	75.62
230.199	76.62
230.433	79.62
230.667	67.62
230.901	88.62
231.136	79.62
231.37	77.62
231.604	91.62
231.838	72.62
232.072	74.62
232.306	73.62
232.541	91.62
232.775	73.62
233.009	78.62
233.243	75.62
233.477	75.62
233.711	78.62
233.945	85.62
234.179	70.62
234.413	84.62
234.647	68.62
234.881	87.62
235.115	73.62
235.349	78.62
235.583	65.62
235.817	82.62
236.051	82.62
236.285	83.62
236.519	79.62
236.753	69.62
236.987	71.62
237.221	90.62
237.455	70.62
237.689	71.62
237.922	76.62
238.156	79.62
238.39	71.62
238.624	62.62
238.858	69.62
239.091	70.62
239.325	83.62
239.559	77.62
239.793	73.62
240.027	74.62
240.26	72.62
240.494	68.62
240.728	82.62
240.961	65.62
241.195	82.62
241.429	84.62
241.662	73.62
241.896	81.62
242.13	85.62
242.363	76.62
242.597	78.62
242.83	64.62
243.064	69.62
243.298	75.62
243.531	64.62
243.765	72.62
243.998	76.62
244.232	76.62
244.465	77.62
244.699	71.62
244.932	72.62
245.166	79.62
245.399	71.62
245.633	75.62
245.866	74.62
246.099	80.62
246.333	78.62
246.566	75.62
246.8	72.62
247.033	66.62
247.266	73.62
247.5	77.62
247.733	68.62
247.966	77.62
248.2	78.62
248.433	77.62
248.666	65.62
248.899	79.62
249.133	72.62
249.366	93.62
249.599	74.62
249.832	76.62
250.066	89.62
250.299	87.62
250.532	72.62
250.765	68.62
250.998	77.62
251.231	79.62
251.465	86.62
251.698	83.62
251.931	76.62
252.164	79.62
252.397	83.62
252.63	90.62
252.863	75.62
253.096	75.62
253.329	87.62
253.562	62.62
253.795	77.62
254.028	80.62
254.261	78.62
254.494	76.62
254.727	80.62
254.96	78.62
255.193	75.62
255.426	73.62
255.659	69.62
255.892	94.62
256.124	87.62
256.357	78.62
256.59	86.62
256.823	76.62
257.056	82.62
257.289	80.62
257.521	78.62
257.754	91.62
257.987	64.62
258.22	73.62
258.452	78.62
258.685	78.62
258.918	77.62
259.151	75.62
259.383	83.62
259.616	95.62
259.849	83.62
260.081	78.62
260.314	74.62
260.547	78.62
260.779	86.62
261.012	85.62
261.244	69.62
261.477	77.62
261.71	76.62
261.942	70.62
262.175	86.62
262.407	92.62
262.64	84.62
262.872	83.62
263.105	94.62
263.337	78.62
263.57	73.62
263.802	75.62
264.035	78.62
264.267	74.62
264.499	75.62
264.732	88.62
264.964	84.62
265.197	86.62
265.429	93.62
265.661	83.62
265.894	77.62
266.126	89.62
266.358	88.62
266.591	84.62
266.823	81.62
267.055	75.62
267.287	91.62
267.52	78.62
267.752	87.62
267.984	88.62
268.216	82.62
268.448	88.62
268.681	79.62
268.913	76.62
269.145	82.62
269.377	80.62
269.609	76.62
269.841	92.62
270.073	95.62
270.306	99.62
270.538	85.62
270.77	78.62
271.002	86.62
271.234	83.62
271.466	67.62
271.698	91.62
271.93	88.62
272.162	82.62
272.394	66.62
272.626	83.62
272.858	92.62
273.09	88.62
273.322	81.62
273.553	77.62
273.785	73.62
274.017	81.62
274.249	77.62
274.481	70.62
274.713	69.62
274.945	76.62
275.176	65.62
275.408	102.62
275.64	79.62
275.872	91.62
276.104	87.62
276.335	98.62
276.567	90.62
276.799	85.62
277.031	70.62
277.262	87.62
277.494	83.62
277.726	83.62
277.957	84.62
278.189	81.62
278.421	79.62
278.652	85.62
278.884	89.62
279.115	77.62
279.347	83.62
279.579	75.62
279.81	89.62
280.042	69.62
280.273	83.62
280.505	82.62
280.736	83.62
280.968	82.62
281.199	82.62
281.431	82.62
281.662	96.62
281.894	73.62
282.125	88.62
282.356	86.62
282.588	77.62
282.819	80.62
283.051	93.62
283.282	73.62
283.513	87.62
283.745	73.62
283.976	60.62
284.207	77.62
284.439	85.62
284.67	75.62
284.901	86.62
285.132	72.62
285.364	74.62
285.595	78.62
285.826	70.62
286.057	98.62
286.288	77.62
286.52	80.62
286.751	87.62
286.982	75.62
287.213	74.62
287.444	78.62
287.675	77.62
287.906	85.62
288.138	72.62
288.369	76.62
288.6	84.62
288.831	88.62
289.062	90.62
289.293	98.62
289.524	91.62
289.755	88.62
289.986	86.62
290.217	90.62
290.448	85.62
290.679	91.62
290.91	89.62
291.141	84.62
291.371	93.62
291.602	82.62
291.833	82.62
292.064	92.62
292.295	85.62
292.526	88.62
292.757	86.62
292.987	72.62
293.218	77.62
293.449	92.62
293.68	88.62
293.91	70.62
294.141	83.62
294.372	88.62
294.603	91.62
294.833	90.62
295.064	82.62
295.295	79.62
295.525	93.62
295.756	92.62
295.987	89.62
296.217	94.62
296.448	79.62
296.679	80.62
296.909	75.62
297.14	85.62
297.37	91.62
297.601	84.62
297.831	83.62
298.062	79.62
298.292	90.62
298.523	99.62
298.753	92.62
298.984	98.62
299.214	92.62
299.445	76.62
299.675	95.62
299.905	97.62
300.136	89.62
300.366	86.62
300.597	76.62
300.827	85.62
301.057	64.62
301.288	80.62
301.518	100.62
301.748	95.62
301.979	83.62
302.209	82.62
302.439	74.62
302.669	88.62
302.9	84.62
303.13	95.62
303.36	87.62
303.59	82.62
303.82	85.62
304.051	100.62
304.281	84.62
304.511	78.62
304.741	83.62
304.971	84.62
305.201	95.62
305.431	92.62
305.661	78.62
305.891	92.62
306.121	82.62
306.352	82.62
306.582	77.62
306.812	90.62
307.042	94.62
307.272	78.62
307.502	92.62
307.731	79.62
307.961	94.62
308.191	82.62
308.421	89.62
308.651	87.62
308.881	90.62
309.111	93.62
309.341	76.62
309.571	94.62
309.8	69.62
310.03	86.62
310.26	86.62
310.49	76.62
310.72	79.62
310.949	90.62
311.179	90.62
311.409	78.62
311.639	86.62
311.868	83.62
312.098	88.62
312.328	87.62
312.557	82.62
312.787	82.62
313.017	87.62
313.246	79.62
313.476	80.62
313.706	105.62
313.935	86.62
314.165	89.62
314.394	89.62
314.624	70.62
314.853	84.62
315.083	70.62
315.312	93.62
315.542	82.62
315.771	83.62
316.001	91.62
316.23	99.62
316.46	95.62
316.689	100.62
316.919	88.62
317.148	93.62
317.377	86.62
317.607	91.62
317.836	78.62
318.065	82.62
318.295	79.62
318.524	74.62
318.753	68.62
318.983	87.62
319.212	74.62
319.441	71.62
319.67	108.62
319.9	99.62
320.129	90.62
320.358	92.62
320.587	89.62
320.816	80.62
321.046	77.62
321.275	84.62
321.504	76.62
321.733	64.62
321.962	84.62
322.191	95.62
322.42	93.62
322.649	93.62
322.878	103.62
323.108	83.62
323.337	76.62
323.566	107.62
323.795	79.62
324.024	91.62
324.253	88.62
324.482	95.62
324.71	76.62
324.939	93.62
325.168	79.62
325.397	88.62
325.626	80.62
325.855	82.62
326.084	80.62
326.313	95.62
326.542	80.62
326.77	76.62
326.999	78.62
327.228	78.62
327.457	98.62
327.686	90.62
327.914	93.62
328.143	87.62
328.372	98.62
328.6	90.62
328.829	87.62
329.058	79.62
329.287	79.62
329.515	84.62
329.744	84.62
329.972	74.62
330.201	88.62
330.43	90.62
330.658	72.62
330.887	75.62
331.115	90.62
331.344	89.62
331.572	79.62
331.801	84.62
332.03	80.62
332.258	75.62
332.486	77.62
332.715	82.62
332.943	89.62
333.172	86.62
333.4	75.62
333.629	85.62
333.857	79.62
334.085	86.62
334.314	82.62
334.542	84.62
334.771	79.62
334.999	82.62
335.227	84.62
335.455	90.62
335.684	100.62
335.912	98.62
336.14	74.62
336.369	89.62
336.597	82.62
336.825	78.62
337.053	85.62
337.281	76.62
337.51	84.62
337.738	82.62
337.966	82.62
338.194	75.62
338.422	68.62
338.65	85.62
338.878	86.62
339.106	82.62
339.334	86.62
339.562	87.62
339.79	93.62
340.018	72.62
340.246	94.62
340.474	93.62
340.702	93.62
340.93	87.62
341.158	73.62
341.386	83.62
341.614	79.62
341.842	89.62
342.07	92.62
342.298	84.62
342.526	71.62
342.754	87.62
342.981	79.62
343.209	88.62
343.437	96.62
343.665	95.62
343.893	77.62
344.12	92.62
344.348	89.62
344.576	90.62
344.804	87.62
345.031	88.62
345.259	85.62
345.487	77.62
345.714	77.62
345.942	86.62
346.17	80.62
346.397	77.62
346.625	85.62
346.853	74.62
347.08	83.62
347.308	100.62
347.535	86.62
347.763	82.62
347.99	82.62
348.218	86.62
348.445	89.62
348.673	89.62
348.9	73.62
349.128	87.62
349.355	87.62
349.583	79.62
349.81	80.62
350.037	88.62
350.265	90.62
350.492	82.62
350.72	92.62
350.947	78.62
351.174	100.62
351.402	69.62
351.629	78.62
351.856	80.62
352.083	99.62
352.311	83.62
352.538	68.62
352.765	92.62
352.992	73.62
353.22	79.62
353.447	96.62
353.674	92.62
353.901	74.62
354.128	80.62
354.355	89.62
354.583	80.62
354.81	87.62
355.037	83.62
355.264	78.62
355.491	77.62
355.718	78.62
355.945	85.62
356.172	90.62
356.399	95.62
356.626	92.62
356.853	118.62
357.08	89.62
357.307	75.62
357.534	96.62
357.761	96.62
357.988	74.62
358.215	77.62
358.441	86.62
358.668	66.62
358.895	81.62
359.122	78.62
359.349	81.62
359.576	87.62
359.802	80.62
360.029	83.62
360.256	84.62
360.483	93.62
360.709	91.62
360.936	103.62
361.163	87.62
361.39	73.62
361.616	84.62
361.843	87.62
362.07	79.62
362.296	82.62
362.523	76.62
362.749	88.62
362.976	87.62
363.203	88.62
363.429	77.62
363.656	86.62
363.882	83.62
364.109	89.62
364.335	88.62
364.562	86.62
364.788	77.62
365.015	74.62
365.241	78.62
365.468	83.62
365.694	81.62
365.92	83.62
366.147	81.62
366.373	78.62
366.599	84.62
366.826	82.62
367.052	79.62
367.278	79.62
367.505	83.62
367.731	76.62
367.957	71.62
368.184	83.62
368.41	72.62
368.636	93.62
368.862	76.62
369.089	78.62
369.315	83.62
369.541	83.62
369.767	76.62
369.993	71.62
370.219	79.62
370.445	94.62
370.672	78.62
370.898	71.62
371.124	81.62
371.35	86.62
371.576	76.62
371.802	87.62
372.028	74.62
372.254	77.62
372.48	77.62
372.706	88.62
372.932	80.62
373.158	89.62
373.384	72.62
373.61	87.62
373.835	102.62
374.061	80.62
374.287	71.62
374.513	92.62
374.739	78.62
374.965	77.62
375.191	87.62
375.416	95.62
375.642	90.62
375.868	111.62
376.094	90.62
376.319	86.62
376.545	86.62
376.771	78.62
376.997	82.62
377.222	80.62
377.448	79.62
377.674	72.62
377.899	88.62
378.125	71.62
378.35	88.62
378.576	82.62
378.802	85.62
379.027	77.62
379.253	79.62
379.478	77.62
379.704	86.62
379.929	70.62
380.155	84.62
380.38	89.62
380.606	84.62
380.831	79.62
381.057	84.62
381.282	77.62
381.507	90.62
381.733	80.62
381.958	86.62
382.184	79.62
382.409	89.62
382.634	92.62
382.86	87.62
383.085	99.62
383.31	84.62
383.535	96.62
383.761	88.62
383.986	87.62
384.211	79.62
384.436	86.62
384.662	80.62
384.887	80.62
385.112	86.62
385.337	88.62
385.562	92.62
385.787	68.62
386.013	75.62
386.238	88.62
386.463	76.62
386.688	96.62
386.913	75.62
387.138	82.62
387.363	79.62
387.588	86.62
387.813	82.62
388.038	88.62
388.263	70.62
388.488	90.62
388.713	87.62
388.938	70.62
389.163	82.62
389.387	79.62
389.612	84.62
389.837	78.62
390.062	82.62
390.287	86.62
390.512	80.62
390.736	82.62
390.961	99.62
391.186	104.62
391.411	87.62
391.636	72.62
391.86	77.62
392.085	75.62
392.31	82.62
392.534	77.62
392.759	88.62
392.984	79.62
393.208	79.62
393.433	77.62
393.658	84.62
393.882	89.62
394.107	91.62
394.331	79.62
394.556	103.62
394.78	73.62
395.005	79.62
395.229	79.62
395.454	93.62
395.678	96.62
395.903	85.62
396.127	72.62
396.352	83.62
396.576	77.62
396.801	90.62
397.025	79.62
397.249	87.62
397.474	88.62
397.698	90.62
397.922	78.62
398.147	77.62
398.371	80.62
398.595	95.62
398.82	74.62
399.044	85.62
399.268	99.62
399.492	94.62
399.717	93.62
399.941	82.62
400.165	86.62
400.389	87.62
400.613	92.62
400.837	85.62
401.062	88.62
401.286	79.62
401.51	78.62
401.734	82.62
401.958	73.62
402.182	80.62
402.406	84.62
402.63	81.62
402.854	87.62
403.078	104.62
403.302	84.62
403.526	82.62
403.75	88.62
403.974	74.62
404.198	82.62
404.422	88.62
404.645	77.62
404.869	75.62
405.093	81.62
405.317	86.62
405.541	81.62
405.765	82.62
405.988	83.62
406.212	87.62
406.436	79.62
406.66	84.62
406.883	75.62
407.107	74.62
407.331	82.62
407.555	82.62
407.778	93.62
408.002	89.62
408.226	88.62
408.449	84.62
408.673	79.62
408.896	77.62
409.12	86.62
409.344	93.62
409.567	86.62
409.791	93.62
410.014	99.62
410.238	83.62
410.461	77.62
410.685	102.62
410.908	80.62
411.132	90.62
411.355	78.62
411.578	67.62
411.802	79.62
412.025	86.62
412.249	74.62
412.472	77.62
412.695	71.62
412.919	86.62
413.142	88.62
413.365	77.62
413.589	82.62
413.812	83.62
414.035	86.62
414.258	78.62
414.482	75.62
414.705	83.62
414.928	98.62
415.151	91.62
415.374	92.62
415.597	94.62
415.821	87.62
416.044	86.62
416.267	94.62
416.49	80.62
416.713	97.62
416.936	98.62
417.159	85.62
417.382	92.62
417.605	88.62
417.828	96.62
418.051	79.62
418.274	78.62
418.497	73.62
418.72	88.62
418.943	100.62
419.166	83.62
419.389	75.62
419.611	88.62
419.834	68.62
420.057	87.62
420.28	85.62
420.503	85.62
420.726	70.62
420.948	82.62
421.171	82.62
421.394	87.62
421.617	80.62
421.839	74.62
422.062	102.62
422.285	85.62
422.507	77.62
422.73	91.62
422.953	84.62
423.175	80.62
423.398	86.62
423.621	84.62
423.843	87.62
424.066	98.62
424.288	98.62
424.511	84.62
424.733	98.62
424.956	89.62
425.178	85.62
425.401	88.62
425.623	84.62
425.846	85.62
426.068	89.62
426.291	87.62
426.513	96.62
426.735	76.62
426.958	87.62
427.18	74.62
427.402	83.62
427.625	84.62
427.847	74.62
428.069	71.62
428.292	73.62
428.514	82.62
428.736	79.62
428.958	86.62
429.181	68.62
429.403	84.62
429.625	79.62
429.847	83.62
430.069	74.62
430.292	89.62
430.514	84.62
430.736	99.62
430.958	77.62
431.18	90.62
431.402	94.62
431.624	89.62
431.846	95.62
432.068	82.62
432.29	89.62
432.512	86.62
432.734	82.62
432.956	93.62
433.178	74.62
433.4	84.62
433.622	79.62
433.844	96.62
434.066	79.62
434.287	93.62
434.509	98.62
434.731	110.62
434.953	86.62
435.175	91.62
435.397	84.62
435.618	85.62
435.84	87.62
436.062	90.62
436.284	83.62
436.505	85.62
436.727	76.62
436.949	78.62
437.17	82.62
437.392	72.62
437.614	103.62
437.835	79.62
438.057	79.62
438.278	83.62
438.5	87.62
438.721	80.62
438.943	82.62
439.165	82.62
439.386	74.62
439.608	86.62
439.829	80.62
440.05	86.62
440.272	80.62
440.493	66.62
440.715	80.62
440.936	78.62
441.158	87.62
441.379	76.62
441.6	73.62
441.822	82.62
442.043	65.62
442.264	87.62
442.486	85.62
442.707	95.62
442.928	90.62
443.149	86.62
443.371	93.62
443.592	100.62
443.813	85.62
444.034	90.62
444.255	88.62
444.476	96.62
444.698	95.62
444.919	77.62
445.14	151.62
445.361	122.62
445.582	91.62
445.803	92.62
446.024	83.62
446.245	98.62
446.466	74.62
446.687	77.62
446.908	88.62
447.129	79.62
447.35	88.62
447.571	82.62
447.792	63.62
448.013	79.62
448.234	94.62
448.455	87.62
448.675	82.62
448.896	98.62
449.117	91.62
449.338	83.62
449.559	91.62
449.779	81.62
450	89.62
450.221	83.62
450.442	78.62
450.662	74.62
450.883	91.62
451.104	72.62
451.324	79.62
451.545	78.62
451.766	86.62
451.986	86.62
452.207	108.62
452.428	83.62
452.648	91.62
452.869	84.62
453.089	72.62
453.31	88.62
453.53	100.62
453.751	85.62
453.971	84.62
454.192	91.62
454.412	85.62
454.633	90.62
454.853	87.62
455.073	62.62
455.294	76.62
455.514	74.62
455.734	69.62
455.955	78.62
456.175	82.62
456.395	82.62
456.616	76.62
456.836	86.62
457.056	88.62
457.276	71.62
457.497	72.62
457.717	90.62
457.937	89.62
458.157	78.62
458.377	76.62
458.598	79.62
458.818	88.62
459.038	86.62
459.258	82.62
459.478	95.62
459.698	99.62
459.918	93.62
460.138	85.62
460.358	90.62
460.578	102.62
460.798	93.62
461.018	87.62
461.238	95.62
461.458	81.62
461.678	73.62
461.898	90.62
462.118	85.62
462.338	89.62
462.558	82.62
462.777	92.62
462.997	93.62
463.217	92.62
463.437	95.62
463.657	73.62
463.876	84.62
464.096	94.62
464.316	85.62
464.536	83.62
464.755	94.62
464.975	92.62
465.195	78.62
465.414	83.62
465.634	96.62
465.854	87.62
466.073	82.62
466.293	86.62
466.512	77.62
466.732	84.62
466.951	84.62
467.171	94.62
467.391	84.62
467.61	78.62
467.829	88.62
468.049	91.62
468.268	77.62
468.488	84.62
468.707	76.62
468.927	85.62
469.146	77.62
469.365	94.62
469.585	92.62
469.804	79.62
470.023	76.62
470.243	85.62
470.462	80.62
470.681	80.62
470.901	89.62
471.12	87.62
471.339	82.62
471.558	80.62
471.777	78.62
471.997	99.62
472.216	88.62
472.435	87.62
472.654	88.62
472.873	85.62
473.092	84.62
473.311	86.62
473.53	90.62
473.749	100.62
473.968	91.62
474.187	95.62
474.406	80.62
474.625	86.62
474.844	94.62
475.063	84.62
475.282	77.62
475.501	71.62
475.72	81.62
475.939	85.62
476.158	75.62
476.377	75.62
476.596	79.62
476.814	91.62
477.033	84.62
477.252	94.62
477.471	81.62
477.69	85.62
477.908	94.62
478.127	101.62
478.346	84.62
478.564	98.62
478.783	88.62
479.002	92.62
479.22	89.62
479.439	78.62
479.658	93.62
479.876	79.62
480.095	78.62
480.313	92.62
480.532	70.62
480.751	69.62
480.969	85.62
481.188	80.62
481.406	88.62
481.624	82.62
481.843	95.62
482.061	75.62
482.28	87.62
482.498	87.62
482.717	78.62
482.935	70.62
483.153	86.62
483.372	90.62
483.59	82.62
483.808	86.62
484.027	84.62
484.245	94.62
484.463	113.62
484.681	93.62
484.9	78.62
485.118	103.62
485.336	84.62
485.554	86.62
485.772	91.62
485.99	98.62
486.209	74.62
486.427	103.62
486.645	81.62
486.863	81.62
487.081	75.62
487.299	88.62
487.517	96.62
487.735	82.62
487.953	83.62
488.171	89.62
488.389	88.62
488.607	93.62
488.825	77.62
489.043	98.62
489.261	93.62
489.479	86.62
489.696	88.62
489.914	92.62
490.132	87.62
490.35	83.62
490.568	69.62
490.786	96.62
491.003	87.62
491.221	84.62
491.439	86.62
491.657	87.62
491.874	76.62
492.092	99.62
492.31	100.62
492.527	86.62
492.745	77.62
492.963	83.62
493.18	94.62
493.398	90.62
493.615	80.62
493.833	100.62
494.05	84.62
494.268	88.62
494.485	96.62
494.703	89.62
494.92	91.62
495.138	79.62
495.355	78.62
495.573	89.62
495.79	82.62
496.008	89.62
496.225	88.62
496.442	82.62
496.66	88.62
496.877	85.62
497.094	84.62
497.312	82.62
497.529	101.62
497.746	92.62
497.963	84.62
498.181	84.62
498.398	88.62
498.615	88.62
498.832	103.62
499.049	87.62
499.267	105.62
499.484	98.62
499.701	102.62
499.918	101.62
500.135	95.62
500.352	108.62
500.569	108.62
500.786	110.62
501.003	111.62
501.22	105.62
501.437	101.62
501.654	106.62
501.871	99.62
502.088	85.62
502.305	103.62
502.522	86.62
502.739	102.62
502.956	99.62
503.172	85.62
503.389	89.62
503.606	90.62
503.823	96.62
504.04	91.62
504.256	98.62
504.473	87.62
504.69	105.62
504.907	102.62
505.123	104.62
505.34	87.62
505.557	92.62
505.773	87.62
505.99	82.62
506.207	93.62
506.423	94.62
506.64	86.62
506.856	82.62
507.073	89.62
507.289	96.62
507.506	81.62
507.722	82.62
507.939	90.62
508.155	94.62
508.372	75.62
508.588	82.62
508.805	88.62
509.021	90.62
509.238	84.62
509.454	92.62
509.67	79.62
509.887	79.62
510.103	87.62
510.319	92.62
510.536	85.62
510.752	98.62
510.968	87.62
511.184	91.62
511.401	70.62
511.617	87.62
511.833	88.62
512.049	88.62
512.265	88.62
512.481	87.62
512.698	93.62
512.914	90.62
513.13	70.62
513.346	90.62
513.562	95.62
513.778	98.62
513.994	85.62
514.21	84.62
514.426	94.62
514.642	84.62
514.858	92.62
515.074	85.62
515.29	89.62
515.506	93.62
515.721	86.62
515.937	87.62
516.153	87.62
516.369	84.62
516.585	93.62
516.801	90.62
517.016	100.62
517.232	71.62
517.448	94.62
517.664	72.62
517.879	91.62
518.095	89.62
518.311	92.62
518.527	85.62
518.742	91.62
518.958	78.62
519.173	96.62
519.389	91.62
519.605	87.62
