Data from BG_HRD10591_087.txt Node
Date: Fri May 16 15:21:37 EDT 2025
User: Yrep
Spectrometer: HR+D1059
Trigger mode: 1
Integration Time (sec): 1.000000E-1
Scans to average: 1
Electric dark correction enabled: true
Nonlinearity correction enabled: false
Boxcar width: 0
XAxis mode: Wavelengths
Number of Pixels in Spectrum: 2048
>>>>>Begin Spectral Data<<<<<
223.165	-18.44
223.4	-18.44
223.635	-18.44
223.869	-7.44
224.104	-15.44
224.338	-20.44
224.573	-19.44
224.808	-1.44
225.042	-4.44
225.277	-21.44
225.511	-12.44
225.746	-1.44
225.98	14.56
226.215	12.56
226.449	15.56
226.683	17.56
226.918	21.56
227.152	40.56
227.387	43.56
227.621	38.56
227.856	36.56
228.09	45.56
228.324	45.56
228.559	57.56
228.793	51.56
229.027	52.56
229.262	56.56
229.496	57.56
229.73	76.56
229.964	68.56
230.199	83.56
230.433	72.56
230.667	74.56
230.901	66.56
231.136	73.56
231.37	70.56
231.604	69.56
231.838	68.56
232.072	82.56
232.306	70.56
232.541	72.56
232.775	81.56
233.009	76.56
233.243	73.56
233.477	79.56
233.711	73.56
233.945	75.56
234.179	87.56
234.413	78.56
234.647	104.56
234.881	82.56
235.115	74.56
235.349	73.56
235.583	81.56
235.817	76.56
236.051	86.56
236.285	87.56
236.519	66.56
236.753	60.56
236.987	76.56
237.221	76.56
237.455	71.56
237.689	92.56
237.922	78.56
238.156	74.56
238.39	76.56
238.624	73.56
238.858	89.56
239.091	67.56
239.325	72.56
239.559	68.56
239.793	73.56
240.027	74.56
240.26	76.56
240.494	75.56
240.728	63.56
240.961	62.56
241.195	68.56
241.429	74.56
241.662	76.56
241.896	55.56
242.13	54.56
242.363	84.56
242.597	68.56
242.83	69.56
243.064	81.56
243.298	83.56
243.531	70.56
243.765	68.56
243.998	69.56
244.232	81.56
244.465	78.56
244.699	62.56
244.932	77.56
245.166	67.56
245.399	56.56
245.633	72.56
245.866	78.56
246.099	88.56
246.333	71.56
246.566	64.56
246.8	75.56
247.033	82.56
247.266	78.56
247.5	81.56
247.733	81.56
247.966	45.56
248.2	80.56
248.433	72.56
248.666	68.56
248.899	69.56
249.133	72.56
249.366	81.56
249.599	86.56
249.832	74.56
250.066	72.56
250.299	78.56
250.532	69.56
250.765	79.56
250.998	81.56
251.231	86.56
251.465	88.56
251.698	75.56
251.931	68.56
252.164	79.56
252.397	81.56
252.63	61.56
252.863	84.56
253.096	73.56
253.329	82.56
253.562	87.56
253.795	82.56
254.028	82.56
254.261	67.56
254.494	68.56
254.727	93.56
254.96	59.56
255.193	78.56
255.426	76.56
255.659	62.56
255.892	89.56
256.124	78.56
256.357	79.56
256.59	72.56
256.823	75.56
257.056	73.56
257.289	76.56
257.521	66.56
257.754	54.56
257.987	82.56
258.22	63.56
258.452	77.56
258.685	69.56
258.918	88.56
259.151	82.56
259.383	85.56
259.616	81.56
259.849	85.56
260.081	70.56
260.314	72.56
260.547	68.56
260.779	68.56
261.012	78.56
261.244	74.56
261.477	88.56
261.71	80.56
261.942	73.56
262.175	84.56
262.407	57.56
262.64	76.56
262.872	72.56
263.105	69.56
263.337	76.56
263.57	72.56
263.802	78.56
264.035	76.56
264.267	84.56
264.499	72.56
264.732	77.56
264.964	82.56
265.197	85.56
265.429	83.56
265.661	70.56
265.894	80.56
266.126	63.56
266.358	77.56
266.591	76.56
266.823	78.56
267.055	73.56
267.287	68.56
267.52	77.56
267.752	80.56
267.984	81.56
268.216	67.56
268.448	71.56
268.681	86.56
268.913	78.56
269.145	86.56
269.377	76.56
269.609	81.56
269.841	84.56
270.073	78.56
270.306	85.56
270.538	82.56
270.77	84.56
271.002	64.56
271.234	85.56
271.466	84.56
271.698	86.56
271.93	71.56
272.162	78.56
272.394	86.56
272.626	80.56
272.858	74.56
273.09	74.56
273.322	75.56
273.553	76.56
273.785	81.56
274.017	71.56
274.249	74.56
274.481	62.56
274.713	75.56
274.945	74.56
275.176	74.56
275.408	66.56
275.64	80.56
275.872	80.56
276.104	79.56
276.335	85.56
276.567	65.56
276.799	69.56
277.031	79.56
277.262	76.56
277.494	84.56
277.726	86.56
277.957	89.56
278.189	86.56
278.421	80.56
278.652	73.56
278.884	92.56
279.115	80.56
279.347	75.56
279.579	82.56
279.81	88.56
280.042	92.56
280.273	79.56
280.505	73.56
280.736	91.56
280.968	65.56
281.199	81.56
281.431	68.56
281.662	83.56
281.894	81.56
282.125	66.56
282.356	82.56
282.588	84.56
282.819	91.56
283.051	78.56
283.282	77.56
283.513	83.56
283.745	87.56
283.976	72.56
284.207	78.56
284.439	87.56
284.67	85.56
284.901	91.56
285.132	74.56
285.364	67.56
285.595	77.56
285.826	85.56
286.057	77.56
286.288	75.56
286.52	86.56
286.751	77.56
286.982	88.56
287.213	85.56
287.444	82.56
287.675	78.56
287.906	76.56
288.138	81.56
288.369	82.56
288.6	76.56
288.831	79.56
289.062	86.56
289.293	76.56
289.524	82.56
289.755	80.56
289.986	70.56
290.217	70.56
290.448	74.56
290.679	71.56
290.91	83.56
291.141	86.56
291.371	79.56
291.602	82.56
291.833	79.56
292.064	86.56
292.295	72.56
292.526	81.56
292.757	80.56
292.987	98.56
293.218	84.56
293.449	94.56
293.68	74.56
293.91	84.56
294.141	96.56
294.372	77.56
294.603	88.56
294.833	86.56
295.064	75.56
295.295	72.56
295.525	64.56
295.756	73.56
295.987	74.56
296.217	83.56
296.448	81.56
296.679	74.56
296.909	72.56
297.14	83.56
297.37	92.56
297.601	97.56
297.831	76.56
298.062	87.56
298.292	82.56
298.523	76.56
298.753	82.56
298.984	97.56
299.214	75.56
299.445	72.56
299.675	78.56
299.905	84.56
300.136	76.56
300.366	84.56
300.597	73.56
300.827	76.56
301.057	70.56
301.288	80.56
301.518	80.56
301.748	83.56
301.979	88.56
302.209	83.56
302.439	76.56
302.669	82.56
302.9	79.56
303.13	74.56
303.36	73.56
303.59	88.56
303.82	67.56
304.051	77.56
304.281	85.56
304.511	85.56
304.741	86.56
304.971	87.56
305.201	80.56
305.431	82.56
305.661	96.56
305.891	86.56
306.121	87.56
306.352	71.56
306.582	83.56
306.812	83.56
307.042	78.56
307.272	77.56
307.502	76.56
307.731	88.56
307.961	70.56
308.191	90.56
308.421	76.56
308.651	80.56
308.881	80.56
309.111	85.56
309.341	86.56
309.571	75.56
309.8	62.56
310.03	78.56
310.26	94.56
310.49	85.56
310.72	77.56
310.949	71.56
311.179	81.56
311.409	80.56
311.639	85.56
311.868	98.56
312.098	78.56
312.328	60.56
312.557	78.56
312.787	91.56
313.017	76.56
313.246	85.56
313.476	92.56
313.706	93.56
313.935	82.56
314.165	65.56
314.394	77.56
314.624	73.56
314.853	90.56
315.083	80.56
315.312	82.56
315.542	79.56
315.771	86.56
316.001	78.56
316.23	85.56
316.46	88.56
316.689	80.56
316.919	88.56
317.148	107.56
317.377	80.56
317.607	80.56
317.836	77.56
318.065	84.56
318.295	68.56
318.524	75.56
318.753	81.56
318.983	74.56
319.212	87.56
319.441	83.56
319.67	89.56
319.9	83.56
320.129	86.56
320.358	85.56
320.587	86.56
320.816	92.56
321.046	88.56
321.275	84.56
321.504	77.56
321.733	69.56
321.962	73.56
322.191	93.56
322.42	78.56
322.649	89.56
322.878	100.56
323.108	88.56
323.337	70.56
323.566	74.56
323.795	82.56
324.024	83.56
324.253	73.56
324.482	75.56
324.71	92.56
324.939	83.56
325.168	90.56
325.397	73.56
325.626	66.56
325.855	89.56
326.084	68.56
326.313	72.56
326.542	94.56
326.77	82.56
326.999	73.56
327.228	83.56
327.457	69.56
327.686	80.56
327.914	85.56
328.143	91.56
328.372	87.56
328.6	76.56
328.829	79.56
329.058	77.56
329.287	79.56
329.515	74.56
329.744	90.56
329.972	75.56
330.201	81.56
330.43	73.56
330.658	90.56
330.887	66.56
331.115	70.56
331.344	85.56
331.572	93.56
331.801	85.56
332.03	85.56
332.258	83.56
332.486	79.56
332.715	78.56
332.943	84.56
333.172	77.56
333.4	83.56
333.629	83.56
333.857	77.56
334.085	77.56
334.314	84.56
334.542	89.56
334.771	84.56
334.999	73.56
335.227	79.56
335.455	77.56
335.684	87.56
335.912	88.56
336.14	82.56
336.369	77.56
336.597	80.56
336.825	76.56
337.053	71.56
337.281	86.56
337.51	81.56
337.738	86.56
337.966	80.56
338.194	86.56
338.422	87.56
338.65	77.56
338.878	90.56
339.106	72.56
339.334	91.56
339.562	75.56
339.79	76.56
340.018	90.56
340.246	82.56
340.474	77.56
340.702	80.56
340.93	76.56
341.158	74.56
341.386	77.56
341.614	78.56
341.842	75.56
342.07	81.56
342.298	77.56
342.526	67.56
342.754	69.56
342.981	74.56
343.209	98.56
343.437	93.56
343.665	95.56
343.893	84.56
344.12	90.56
344.348	70.56
344.576	81.56
344.804	82.56
345.031	72.56
345.259	75.56
345.487	90.56
345.714	85.56
345.942	77.56
346.17	78.56
346.397	81.56
346.625	71.56
346.853	71.56
347.08	77.56
347.308	78.56
347.535	97.56
347.763	88.56
347.99	73.56
348.218	84.56
348.445	85.56
348.673	80.56
348.9	80.56
349.128	78.56
349.355	73.56
349.583	85.56
349.81	89.56
350.037	81.56
350.265	79.56
350.492	82.56
350.72	78.56
350.947	95.56
351.174	80.56
351.402	74.56
351.629	70.56
351.856	82.56
352.083	88.56
352.311	77.56
352.538	75.56
352.765	73.56
352.992	74.56
353.22	80.56
353.447	82.56
353.674	70.56
353.901	76.56
354.128	70.56
354.355	73.56
354.583	70.56
354.81	80.56
355.037	69.56
355.264	82.56
355.491	97.56
355.718	77.56
355.945	98.56
356.172	82.56
356.399	73.56
356.626	78.56
356.853	86.56
357.08	90.56
357.307	87.56
357.534	91.56
357.761	83.56
357.988	87.56
358.215	70.56
358.441	84.56
358.668	85.56
358.895	94.56
359.122	76.56
359.349	88.56
359.576	66.56
359.802	78.56
360.029	83.56
360.256	85.56
360.483	72.56
360.709	82.56
360.936	97.56
361.163	84.56
361.39	71.56
361.616	79.56
361.843	97.56
362.07	68.56
362.296	76.56
362.523	70.56
362.749	81.56
362.976	68.56
363.203	70.56
363.429	78.56
363.656	82.56
363.882	76.56
364.109	87.56
364.335	69.56
364.562	79.56
364.788	89.56
365.015	81.56
365.241	78.56
365.468	88.56
365.694	85.56
365.92	76.56
366.147	77.56
366.373	74.56
366.599	77.56
366.826	84.56
367.052	87.56
367.278	84.56
367.505	76.56
367.731	87.56
367.957	79.56
368.184	73.56
368.41	93.56
368.636	77.56
368.862	77.56
369.089	77.56
369.315	81.56
369.541	78.56
369.767	83.56
369.993	81.56
370.219	81.56
370.445	84.56
370.672	75.56
370.898	90.56
371.124	96.56
371.35	71.56
371.576	80.56
371.802	74.56
372.028	82.56
372.254	81.56
372.48	78.56
372.706	80.56
372.932	81.56
373.158	75.56
373.384	85.56
373.61	85.56
373.835	84.56
374.061	82.56
374.287	66.56
374.513	75.56
374.739	77.56
374.965	76.56
375.191	74.56
375.416	69.56
375.642	86.56
375.868	93.56
376.094	81.56
376.319	76.56
376.545	76.56
376.771	67.56
376.997	86.56
377.222	83.56
377.448	82.56
377.674	70.56
377.899	56.56
378.125	83.56
378.35	84.56
378.576	85.56
378.802	76.56
379.027	81.56
379.253	91.56
379.478	84.56
379.704	91.56
379.929	71.56
380.155	72.56
380.38	82.56
380.606	87.56
380.831	73.56
381.057	82.56
381.282	59.56
381.507	86.56
381.733	87.56
381.958	85.56
382.184	86.56
382.409	76.56
382.634	69.56
382.86	83.56
383.085	82.56
383.31	82.56
383.535	77.56
383.761	78.56
383.986	79.56
384.211	74.56
384.436	72.56
384.662	79.56
384.887	80.56
385.112	69.56
385.337	85.56
385.562	80.56
385.787	76.56
386.013	80.56
386.238	70.56
386.463	81.56
386.688	85.56
386.913	73.56
387.138	81.56
387.363	96.56
387.588	82.56
387.813	77.56
388.038	102.56
388.263	88.56
388.488	82.56
388.713	78.56
388.938	70.56
389.163	66.56
389.387	88.56
389.612	72.56
389.837	89.56
390.062	66.56
390.287	88.56
390.512	76.56
390.736	70.56
390.961	81.56
391.186	81.56
391.411	81.56
391.636	77.56
391.86	80.56
392.085	73.56
392.31	62.56
392.534	72.56
392.759	84.56
392.984	73.56
393.208	81.56
393.433	86.56
393.658	80.56
393.882	84.56
394.107	77.56
394.331	73.56
394.556	76.56
394.78	82.56
395.005	90.56
395.229	78.56
395.454	76.56
395.678	78.56
395.903	81.56
396.127	88.56
396.352	85.56
396.576	73.56
396.801	74.56
397.025	75.56
397.249	80.56
397.474	81.56
397.698	69.56
397.922	79.56
398.147	76.56
398.371	66.56
398.595	69.56
398.82	66.56
399.044	75.56
399.268	78.56
399.492	78.56
399.717	72.56
399.941	59.56
400.165	89.56
400.389	82.56
400.613	77.56
400.837	93.56
401.062	81.56
401.286	81.56
401.51	84.56
401.734	78.56
401.958	81.56
402.182	77.56
402.406	75.56
402.63	68.56
402.854	77.56
403.078	61.56
403.302	78.56
403.526	88.56
403.75	68.56
403.974	83.56
404.198	76.56
404.422	67.56
404.645	72.56
404.869	68.56
405.093	83.56
405.317	75.56
405.541	80.56
405.765	86.56
405.988	86.56
406.212	83.56
406.436	81.56
406.66	72.56
406.883	65.56
407.107	86.56
407.331	78.56
407.555	76.56
407.778	62.56
408.002	76.56
408.226	79.56
408.449	64.56
408.673	68.56
408.896	81.56
409.12	83.56
409.344	74.56
409.567	93.56
409.791	81.56
410.014	74.56
410.238	72.56
410.461	80.56
410.685	65.56
410.908	62.56
411.132	80.56
411.355	62.56
411.578	75.56
411.802	68.56
412.025	74.56
412.249	80.56
412.472	69.56
412.695	77.56
412.919	73.56
413.142	91.56
413.365	69.56
413.589	90.56
413.812	85.56
414.035	89.56
414.258	70.56
414.482	88.56
414.705	78.56
414.928	78.56
415.151	69.56
415.374	89.56
415.597	77.56
415.821	68.56
416.044	74.56
416.267	72.56
416.49	74.56
416.713	77.56
416.936	93.56
417.159	70.56
417.382	60.56
417.605	76.56
417.828	74.56
418.051	78.56
418.274	78.56
418.497	81.56
418.72	68.56
418.943	76.56
419.166	81.56
419.389	78.56
419.611	73.56
419.834	85.56
420.057	75.56
420.28	78.56
420.503	74.56
420.726	81.56
420.948	89.56
421.171	81.56
421.394	71.56
421.617	80.56
421.839	85.56
422.062	73.56
422.285	68.56
422.507	73.56
422.73	80.56
422.953	60.56
423.175	83.56
423.398	80.56
423.621	75.56
423.843	86.56
424.066	80.56
424.288	80.56
424.511	79.56
424.733	74.56
424.956	82.56
425.178	75.56
425.401	77.56
425.623	73.56
425.846	67.56
426.068	82.56
426.291	91.56
426.513	70.56
426.735	80.56
426.958	60.56
427.18	69.56
427.402	82.56
427.625	80.56
427.847	78.56
428.069	73.56
428.292	79.56
428.514	90.56
428.736	61.56
428.958	72.56
429.181	83.56
429.403	74.56
429.625	89.56
429.847	91.56
430.069	73.56
430.292	75.56
430.514	89.56
430.736	81.56
430.958	74.56
431.18	77.56
431.402	88.56
431.624	68.56
431.846	78.56
432.068	73.56
432.29	78.56
432.512	73.56
432.734	67.56
432.956	75.56
433.178	74.56
433.4	83.56
433.622	75.56
433.844	78.56
434.066	74.56
434.287	61.56
434.509	73.56
434.731	74.56
434.953	83.56
435.175	82.56
435.397	78.56
435.618	73.56
435.84	71.56
436.062	69.56
436.284	83.56
436.505	75.56
436.727	71.56
436.949	76.56
437.17	83.56
437.392	71.56
437.614	63.56
437.835	76.56
438.057	95.56
438.278	83.56
438.5	76.56
438.721	80.56
438.943	68.56
439.165	77.56
439.386	69.56
439.608	83.56
439.829	73.56
440.05	74.56
440.272	62.56
440.493	65.56
440.715	62.56
440.936	81.56
441.158	85.56
441.379	70.56
441.6	66.56
441.822	72.56
442.043	90.56
442.264	79.56
442.486	82.56
442.707	84.56
442.928	84.56
443.149	72.56
443.371	87.56
443.592	86.56
443.813	79.56
444.034	73.56
444.255	70.56
444.476	73.56
444.698	70.56
444.919	69.56
445.14	150.56
445.361	116.56
445.582	77.56
445.803	74.56
446.024	74.56
446.245	83.56
446.466	86.56
446.687	66.56
446.908	73.56
447.129	61.56
447.35	76.56
447.571	82.56
447.792	71.56
448.013	57.56
448.234	74.56
448.455	60.56
448.675	80.56
448.896	65.56
449.117	78.56
449.338	76.56
449.559	82.56
449.779	88.56
450	81.56
450.221	72.56
450.442	86.56
450.662	69.56
450.883	86.56
451.104	76.56
451.324	69.56
451.545	73.56
451.766	77.56
451.986	84.56
452.207	82.56
452.428	87.56
452.648	74.56
452.869	88.56
453.089	81.56
453.31	72.56
453.53	63.56
453.751	86.56
453.971	81.56
454.192	83.56
454.412	81.56
454.633	74.56
454.853	68.56
455.073	78.56
455.294	67.56
455.514	68.56
455.734	81.56
455.955	75.56
456.175	78.56
456.395	90.56
456.616	80.56
456.836	82.56
457.056	78.56
457.276	74.56
457.497	68.56
457.717	66.56
457.937	74.56
458.157	91.56
458.377	82.56
458.598	81.56
458.818	83.56
459.038	86.56
459.258	72.56
459.478	80.56
459.698	91.56
459.918	79.56
460.138	82.56
460.358	88.56
460.578	69.56
460.798	88.56
461.018	80.56
461.238	88.56
461.458	80.56
461.678	85.56
461.898	86.56
462.118	83.56
462.338	83.56
462.558	77.56
462.777	75.56
462.997	73.56
463.217	86.56
463.437	60.56
463.657	82.56
463.876	64.56
464.096	80.56
464.316	82.56
464.536	67.56
464.755	83.56
464.975	73.56
465.195	91.56
465.414	81.56
465.634	70.56
465.854	79.56
466.073	74.56
466.293	76.56
466.512	86.56
466.732	77.56
466.951	83.56
467.171	69.56
467.391	69.56
467.61	92.56
467.829	69.56
468.049	80.56
468.268	74.56
468.488	66.56
468.707	82.56
468.927	72.56
469.146	78.56
469.365	82.56
469.585	80.56
469.804	68.56
470.023	72.56
470.243	85.56
470.462	78.56
470.681	79.56
470.901	80.56
471.12	85.56
471.339	83.56
471.558	68.56
471.777	70.56
471.997	68.56
472.216	72.56
472.435	74.56
472.654	88.56
472.873	71.56
473.092	72.56
473.311	72.56
473.53	87.56
473.749	87.56
473.968	83.56
474.187	69.56
474.406	66.56
474.625	60.56
474.844	72.56
475.063	75.56
475.282	87.56
475.501	62.56
475.72	70.56
475.939	74.56
476.158	72.56
476.377	84.56
476.596	75.56
476.814	90.56
477.033	91.56
477.252	75.56
477.471	78.56
477.69	83.56
477.908	80.56
478.127	80.56
478.346	81.56
478.564	69.56
478.783	65.56
479.002	90.56
479.22	96.56
479.439	81.56
479.658	72.56
479.876	88.56
480.095	82.56
480.313	76.56
480.532	86.56
480.751	99.56
480.969	78.56
481.188	74.56
481.406	70.56
481.624	76.56
481.843	60.56
482.061	70.56
482.28	74.56
482.498	89.56
482.717	75.56
482.935	73.56
483.153	71.56
483.372	83.56
483.59	71.56
483.808	78.56
484.027	72.56
484.245	73.56
484.463	74.56
484.681	67.56
484.9	61.56
485.118	70.56
485.336	72.56
485.554	77.56
485.772	83.56
485.99	84.56
486.209	74.56
486.427	68.56
486.645	70.56
486.863	78.56
487.081	73.56
487.299	73.56
487.517	88.56
487.735	72.56
487.953	75.56
488.171	80.56
488.389	82.56
488.607	71.56
488.825	71.56
489.043	81.56
489.261	88.56
489.479	83.56
489.696	75.56
489.914	89.56
490.132	85.56
490.35	82.56
490.568	100.56
490.786	81.56
491.003	76.56
491.221	73.56
491.439	67.56
491.657	82.56
491.874	68.56
492.092	88.56
492.31	73.56
492.527	80.56
492.745	83.56
492.963	83.56
493.18	78.56
493.398	84.56
493.615	91.56
493.833	66.56
494.05	81.56
494.268	92.56
494.485	84.56
494.703	76.56
494.92	74.56
495.138	81.56
495.355	82.56
495.573	66.56
495.79	72.56
496.008	80.56
496.225	84.56
496.442	84.56
496.66	83.56
496.877	73.56
497.094	78.56
497.312	69.56
497.529	71.56
497.746	77.56
497.963	75.56
498.181	67.56
498.398	73.56
498.615	78.56
498.832	85.56
499.049	83.56
499.267	71.56
499.484	81.56
499.701	80.56
499.918	85.56
500.135	71.56
500.352	76.56
500.569	80.56
500.786	89.56
501.003	75.56
501.22	82.56
501.437	76.56
501.654	76.56
501.871	78.56
502.088	81.56
502.305	76.56
502.522	82.56
502.739	99.56
502.956	76.56
503.172	82.56
503.389	65.56
503.606	61.56
503.823	102.56
504.04	101.56
504.256	84.56
504.473	86.56
504.69	83.56
504.907	66.56
505.123	93.56
505.34	70.56
505.557	75.56
505.773	76.56
505.99	69.56
506.207	65.56
506.423	73.56
506.64	66.56
506.856	86.56
507.073	70.56
507.289	89.56
507.506	70.56
507.722	88.56
507.939	69.56
508.155	83.56
508.372	89.56
508.588	78.56
508.805	64.56
509.021	85.56
509.238	80.56
509.454	89.56
509.67	60.56
509.887	72.56
510.103	86.56
510.319	74.56
510.536	73.56
510.752	80.56
510.968	79.56
511.184	91.56
511.401	77.56
511.617	89.56
511.833	76.56
512.049	82.56
512.265	69.56
512.481	80.56
512.698	75.56
512.914	80.56
513.13	75.56
513.346	79.56
513.562	66.56
513.778	78.56
513.994	91.56
514.21	74.56
514.426	78.56
514.642	68.56
514.858	84.56
515.074	83.56
515.29	76.56
515.506	82.56
515.721	69.56
515.937	77.56
516.153	79.56
516.369	64.56
516.585	65.56
516.801	80.56
517.016	101.56
517.232	75.56
517.448	85.56
517.664	76.56
517.879	72.56
518.095	76.56
518.311	90.56
518.527	73.56
518.742	98.56
518.958	85.56
519.173	76.56
519.389	75.56
519.605	77.56
519.82	70.56
520.036	75.56
520.251	102.56
