Data from BG_HRD10591_031.txt Node
Date: Fri May 16 15:21:09 EDT 2025
User: Yrep
Spectrometer: HR+D1059
Trigger mode: 1
Integration Time (sec): 1.000000E-1
Scans to average: 1
Electric dark correction enabled: true
Nonlinearity correction enabled: false
Boxcar width: 0
XAxis mode: Wavelengths
Number of Pixels in Spectrum: 2048
>>>>>Begin Spectral Data<<<<<
223.165	-18.31
223.4	-18.31
223.635	-18.31
223.869	-14.31
224.104	-21.31
224.338	-17.31
224.573	-11.31
224.808	-21.31
225.042	6.69
225.277	-16.31
225.511	-5.31
225.746	6.69
225.98	7.69
226.215	15.69
226.449	15.69
226.683	17.69
226.918	14.69
227.152	40.69
227.387	41.69
227.621	50.69
227.856	48.69
228.09	28.69
228.324	38.69
228.559	46.69
228.793	56.69
229.027	71.69
229.262	66.69
229.496	72.69
229.73	81.69
229.964	80.69
230.199	73.69
230.433	79.69
230.667	82.69
230.901	72.69
231.136	70.69
231.37	82.69
231.604	78.69
231.838	84.69
232.072	68.69
232.306	78.69
232.541	73.69
232.775	72.69
233.009	89.69
233.243	82.69
233.477	85.69
233.711	84.69
233.945	70.69
234.179	79.69
234.413	88.69
234.647	78.69
234.881	72.69
235.115	78.69
235.349	75.69
235.583	76.69
235.817	80.69
236.051	84.69
236.285	74.69
236.519	79.69
236.753	80.69
236.987	83.69
237.221	70.69
237.455	77.69
237.689	78.69
237.922	86.69
238.156	73.69
238.39	72.69
238.624	78.69
238.858	71.69
239.091	81.69
239.325	75.69
239.559	88.69
239.793	88.69
240.027	91.69
240.26	81.69
240.494	73.69
240.728	65.69
240.961	56.69
241.195	75.69
241.429	75.69
241.662	82.69
241.896	83.69
242.13	65.69
242.363	67.69
242.597	68.69
242.83	59.69
243.064	74.69
243.298	81.69
243.531	74.69
243.765	72.69
243.998	64.69
244.232	85.69
244.465	76.69
244.699	76.69
244.932	67.69
245.166	77.69
245.399	77.69
245.633	87.69
245.866	78.69
246.099	78.69
246.333	82.69
246.566	78.69
246.8	89.69
247.033	67.69
247.266	68.69
247.5	79.69
247.733	87.69
247.966	78.69
248.2	72.69
248.433	80.69
248.666	80.69
248.899	80.69
249.133	75.69
249.366	84.69
249.599	80.69
249.832	82.69
250.066	83.69
250.299	72.69
250.532	77.69
250.765	79.69
250.998	71.69
251.231	80.69
251.465	66.69
251.698	81.69
251.931	71.69
252.164	66.69
252.397	78.69
252.63	73.69
252.863	86.69
253.096	79.69
253.329	75.69
253.562	87.69
253.795	73.69
254.028	86.69
254.261	91.69
254.494	87.69
254.727	66.69
254.96	87.69
255.193	81.69
255.426	72.69
255.659	79.69
255.892	89.69
256.124	83.69
256.357	73.69
256.59	91.69
256.823	88.69
257.056	90.69
257.289	78.69
257.521	76.69
257.754	77.69
257.987	77.69
258.22	92.69
258.452	66.69
258.685	97.69
258.918	86.69
259.151	87.69
259.383	78.69
259.616	86.69
259.849	77.69
260.081	69.69
260.314	77.69
260.547	86.69
260.779	78.69
261.012	85.69
261.244	82.69
261.477	91.69
261.71	71.69
261.942	71.69
262.175	89.69
262.407	87.69
262.64	79.69
262.872	97.69
263.105	92.69
263.337	84.69
263.57	85.69
263.802	71.69
264.035	100.69
264.267	84.69
264.499	89.69
264.732	80.69
264.964	85.69
265.197	72.69
265.429	91.69
265.661	73.69
265.894	71.69
266.126	89.69
266.358	80.69
266.591	80.69
266.823	85.69
267.055	80.69
267.287	77.69
267.52	81.69
267.752	83.69
267.984	70.69
268.216	77.69
268.448	92.69
268.681	74.69
268.913	87.69
269.145	89.69
269.377	81.69
269.609	98.69
269.841	86.69
270.073	90.69
270.306	85.69
270.538	88.69
270.77	89.69
271.002	85.69
271.234	85.69
271.466	88.69
271.698	90.69
271.93	84.69
272.162	74.69
272.394	80.69
272.626	89.69
272.858	87.69
273.09	73.69
273.322	90.69
273.553	69.69
273.785	78.69
274.017	61.69
274.249	82.69
274.481	88.69
274.713	90.69
274.945	78.69
275.176	76.69
275.408	84.69
275.64	89.69
275.872	85.69
276.104	95.69
276.335	88.69
276.567	75.69
276.799	78.69
277.031	69.69
277.262	89.69
277.494	90.69
277.726	79.69
277.957	92.69
278.189	88.69
278.421	86.69
278.652	69.69
278.884	93.69
279.115	93.69
279.347	83.69
279.579	68.69
279.81	84.69
280.042	85.69
280.273	81.69
280.505	87.69
280.736	88.69
280.968	78.69
281.199	78.69
281.431	101.69
281.662	71.69
281.894	82.69
282.125	72.69
282.356	86.69
282.588	88.69
282.819	84.69
283.051	89.69
283.282	86.69
283.513	80.69
283.745	84.69
283.976	80.69
284.207	88.69
284.439	84.69
284.67	91.69
284.901	81.69
285.132	86.69
285.364	88.69
285.595	81.69
285.826	86.69
286.057	104.69
286.288	69.69
286.52	97.69
286.751	81.69
286.982	82.69
287.213	86.69
287.444	81.69
287.675	70.69
287.906	89.69
288.138	78.69
288.369	93.69
288.6	82.69
288.831	90.69
289.062	98.69
289.293	84.69
289.524	91.69
289.755	85.69
289.986	71.69
290.217	84.69
290.448	81.69
290.679	80.69
290.91	88.69
291.141	88.69
291.371	85.69
291.602	78.69
291.833	82.69
292.064	98.69
292.295	77.69
292.526	83.69
292.757	85.69
292.987	76.69
293.218	72.69
293.449	86.69
293.68	108.69
293.91	85.69
294.141	102.69
294.372	78.69
294.603	80.69
294.833	75.69
295.064	95.69
295.295	82.69
295.525	86.69
295.756	84.69
295.987	92.69
296.217	81.69
296.448	81.69
296.679	81.69
296.909	89.69
297.14	98.69
297.37	86.69
297.601	79.69
297.831	83.69
298.062	67.69
298.292	89.69
298.523	85.69
298.753	76.69
298.984	88.69
299.214	82.69
299.445	87.69
299.675	81.69
299.905	74.69
300.136	90.69
300.366	80.69
300.597	87.69
300.827	88.69
301.057	72.69
301.288	81.69
301.518	87.69
301.748	68.69
301.979	108.69
302.209	83.69
302.439	91.69
302.669	97.69
302.9	102.69
303.13	87.69
303.36	83.69
303.59	87.69
303.82	81.69
304.051	78.69
304.281	92.69
304.511	92.69
304.741	92.69
304.971	83.69
305.201	84.69
305.431	86.69
305.661	100.69
305.891	91.69
306.121	100.69
306.352	88.69
306.582	79.69
306.812	83.69
307.042	86.69
307.272	105.69
307.502	93.69
307.731	76.69
307.961	81.69
308.191	88.69
308.421	86.69
308.651	84.69
308.881	96.69
309.111	75.69
309.341	66.69
309.571	94.69
309.8	93.69
310.03	94.69
310.26	98.69
310.49	103.69
310.72	82.69
310.949	78.69
311.179	77.69
311.409	97.69
311.639	88.69
311.868	85.69
312.098	74.69
312.328	87.69
312.557	87.69
312.787	81.69
313.017	84.69
313.246	86.69
313.476	77.69
313.706	80.69
313.935	84.69
314.165	96.69
314.394	77.69
314.624	91.69
314.853	90.69
315.083	71.69
315.312	92.69
315.542	91.69
315.771	95.69
316.001	90.69
316.23	80.69
316.46	91.69
316.689	84.69
316.919	83.69
317.148	87.69
317.377	85.69
317.607	74.69
317.836	86.69
318.065	86.69
318.295	105.69
318.524	98.69
318.753	84.69
318.983	63.69
319.212	96.69
319.441	86.69
319.67	84.69
319.9	88.69
320.129	88.69
320.358	93.69
320.587	84.69
320.816	86.69
321.046	91.69
321.275	85.69
321.504	93.69
321.733	98.69
321.962	75.69
322.191	85.69
322.42	99.69
322.649	85.69
322.878	91.69
323.108	109.69
323.337	81.69
323.566	70.69
323.795	74.69
324.024	81.69
324.253	89.69
324.482	70.69
324.71	89.69
324.939	86.69
325.168	64.69
325.397	88.69
325.626	82.69
325.855	80.69
326.084	83.69
326.313	95.69
326.542	73.69
326.77	86.69
326.999	77.69
327.228	84.69
327.457	77.69
327.686	101.69
327.914	91.69
328.143	75.69
328.372	87.69
328.6	84.69
328.829	84.69
329.058	86.69
329.287	88.69
329.515	81.69
329.744	75.69
329.972	77.69
330.201	77.69
330.43	82.69
330.658	80.69
330.887	85.69
331.115	104.69
331.344	88.69
331.572	95.69
331.801	85.69
332.03	84.69
332.258	94.69
332.486	103.69
332.715	82.69
332.943	89.69
333.172	84.69
333.4	86.69
333.629	86.69
333.857	95.69
334.085	72.69
334.314	92.69
334.542	76.69
334.771	84.69
334.999	87.69
335.227	92.69
335.455	86.69
335.684	89.69
335.912	90.69
336.14	95.69
336.369	89.69
336.597	100.69
336.825	76.69
337.053	91.69
337.281	86.69
337.51	86.69
337.738	77.69
337.966	73.69
338.194	87.69
338.422	96.69
338.65	85.69
338.878	90.69
339.106	93.69
339.334	82.69
339.562	87.69
339.79	91.69
340.018	74.69
340.246	95.69
340.474	90.69
340.702	100.69
340.93	81.69
341.158	89.69
341.386	77.69
341.614	87.69
341.842	96.69
342.07	99.69
342.298	98.69
342.526	80.69
342.754	91.69
342.981	93.69
343.209	88.69
343.437	108.69
343.665	98.69
343.893	91.69
344.12	97.69
344.348	104.69
344.576	88.69
344.804	90.69
345.031	84.69
345.259	79.69
345.487	86.69
345.714	90.69
345.942	87.69
346.17	102.69
346.397	91.69
346.625	82.69
346.853	87.69
347.08	84.69
347.308	96.69
347.535	81.69
347.763	85.69
347.99	87.69
348.218	75.69
348.445	93.69
348.673	76.69
348.9	82.69
349.128	95.69
349.355	88.69
349.583	64.69
349.81	87.69
350.037	73.69
350.265	79.69
350.492	88.69
350.72	80.69
350.947	87.69
351.174	91.69
351.402	94.69
351.629	94.69
351.856	89.69
352.083	89.69
352.311	95.69
352.538	76.69
352.765	96.69
352.992	91.69
353.22	84.69
353.447	68.69
353.674	93.69
353.901	82.69
354.128	89.69
354.355	88.69
354.583	94.69
354.81	93.69
355.037	78.69
355.264	81.69
355.491	86.69
355.718	92.69
355.945	92.69
356.172	82.69
356.399	84.69
356.626	91.69
356.853	88.69
357.08	102.69
357.307	91.69
357.534	74.69
357.761	75.69
357.988	84.69
358.215	82.69
358.441	88.69
358.668	94.69
358.895	92.69
359.122	71.69
359.349	78.69
359.576	80.69
359.802	99.69
360.029	89.69
360.256	78.69
360.483	91.69
360.709	81.69
360.936	94.69
361.163	89.69
361.39	74.69
361.616	76.69
361.843	88.69
362.07	85.69
362.296	93.69
362.523	95.69
362.749	94.69
362.976	77.69
363.203	95.69
363.429	92.69
363.656	93.69
363.882	93.69
364.109	88.69
364.335	94.69
364.562	92.69
364.788	87.69
365.015	99.69
365.241	90.69
365.468	96.69
365.694	97.69
365.92	94.69
366.147	87.69
366.373	80.69
366.599	83.69
366.826	72.69
367.052	80.69
367.278	85.69
367.505	78.69
367.731	102.69
367.957	88.69
368.184	92.69
368.41	80.69
368.636	83.69
368.862	88.69
369.089	84.69
369.315	85.69
369.541	96.69
369.767	76.69
369.993	86.69
370.219	66.69
370.445	93.69
370.672	72.69
370.898	96.69
371.124	90.69
371.35	85.69
371.576	86.69
371.802	94.69
372.028	78.69
372.254	92.69
372.48	97.69
372.706	96.69
372.932	89.69
373.158	97.69
373.384	81.69
373.61	92.69
373.835	89.69
374.061	81.69
374.287	89.69
374.513	97.69
374.739	86.69
374.965	95.69
375.191	90.69
375.416	105.69
375.642	91.69
375.868	96.69
376.094	93.69
376.319	78.69
376.545	93.69
376.771	78.69
376.997	84.69
377.222	89.69
377.448	95.69
377.674	84.69
377.899	85.69
378.125	85.69
378.35	100.69
378.576	92.69
378.802	80.69
379.027	80.69
379.253	86.69
379.478	89.69
379.704	70.69
379.929	72.69
380.155	91.69
380.38	89.69
380.606	90.69
380.831	94.69
381.057	93.69
381.282	77.69
381.507	89.69
381.733	87.69
381.958	74.69
382.184	91.69
382.409	84.69
382.634	97.69
382.86	80.69
383.085	98.69
383.31	92.69
383.535	72.69
383.761	89.69
383.986	88.69
384.211	100.69
384.436	97.69
384.662	94.69
384.887	86.69
385.112	87.69
385.337	84.69
385.562	79.69
385.787	69.69
386.013	74.69
386.238	85.69
386.463	86.69
386.688	96.69
386.913	78.69
387.138	78.69
387.363	79.69
387.588	85.69
387.813	90.69
388.038	95.69
388.263	95.69
388.488	82.69
388.713	97.69
388.938	105.69
389.163	85.69
389.387	91.69
389.612	78.69
389.837	88.69
390.062	84.69
390.287	85.69
390.512	95.69
390.736	89.69
390.961	89.69
391.186	89.69
391.411	85.69
391.636	84.69
391.86	97.69
392.085	84.69
392.31	65.69
392.534	87.69
392.759	95.69
392.984	86.69
393.208	85.69
393.433	95.69
393.658	89.69
393.882	76.69
394.107	76.69
394.331	84.69
394.556	85.69
394.78	82.69
395.005	90.69
395.229	85.69
395.454	87.69
395.678	84.69
395.903	88.69
396.127	93.69
396.352	79.69
396.576	89.69
396.801	85.69
397.025	97.69
397.249	83.69
397.474	78.69
397.698	85.69
397.922	102.69
398.147	86.69
398.371	72.69
398.595	81.69
398.82	79.69
399.044	78.69
399.268	94.69
399.492	88.69
399.717	90.69
399.941	94.69
400.165	104.69
400.389	76.69
400.613	84.69
400.837	75.69
401.062	99.69
401.286	89.69
401.51	91.69
401.734	98.69
401.958	84.69
402.182	76.69
402.406	89.69
402.63	73.69
402.854	84.69
403.078	93.69
403.302	81.69
403.526	88.69
403.75	95.69
403.974	88.69
404.198	86.69
404.422	94.69
404.645	100.69
404.869	86.69
405.093	90.69
405.317	87.69
405.541	84.69
405.765	77.69
405.988	80.69
406.212	90.69
406.436	82.69
406.66	93.69
406.883	95.69
407.107	79.69
407.331	81.69
407.555	79.69
407.778	82.69
408.002	82.69
408.226	79.69
408.449	88.69
408.673	74.69
408.896	84.69
409.12	85.69
409.344	90.69
409.567	91.69
409.791	85.69
410.014	101.69
410.238	94.69
410.461	91.69
410.685	93.69
410.908	90.69
411.132	79.69
411.355	77.69
411.578	82.69
411.802	73.69
412.025	107.69
412.249	100.69
412.472	96.69
412.695	89.69
412.919	89.69
413.142	97.69
413.365	79.69
413.589	79.69
413.812	81.69
414.035	83.69
414.258	82.69
414.482	105.69
414.705	82.69
414.928	92.69
415.151	84.69
415.374	71.69
415.597	80.69
415.821	95.69
416.044	84.69
416.267	90.69
416.49	90.69
416.713	90.69
416.936	101.69
417.159	87.69
417.382	81.69
417.605	77.69
417.828	90.69
418.051	72.69
418.274	85.69
418.497	88.69
418.72	72.69
418.943	90.69
419.166	77.69
419.389	88.69
419.611	85.69
419.834	93.69
420.057	78.69
420.28	83.69
420.503	98.69
420.726	77.69
420.948	77.69
421.171	78.69
421.394	93.69
421.617	81.69
421.839	81.69
422.062	77.69
422.285	98.69
422.507	101.69
422.73	97.69
422.953	88.69
423.175	95.69
423.398	95.69
423.621	93.69
423.843	91.69
424.066	85.69
424.288	72.69
424.511	84.69
424.733	95.69
424.956	105.69
425.178	93.69
425.401	84.69
425.623	82.69
425.846	90.69
426.068	84.69
426.291	76.69
426.513	78.69
426.735	94.69
426.958	91.69
427.18	81.69
427.402	92.69
427.625	100.69
427.847	86.69
428.069	100.69
428.292	89.69
428.514	81.69
428.736	83.69
428.958	82.69
429.181	86.69
429.403	80.69
429.625	82.69
429.847	92.69
430.069	89.69
430.292	74.69
430.514	89.69
430.736	85.69
430.958	85.69
431.18	89.69
431.402	88.69
431.624	73.69
431.846	87.69
432.068	92.69
432.29	88.69
432.512	77.69
432.734	94.69
432.956	88.69
433.178	87.69
433.4	71.69
433.622	90.69
433.844	71.69
434.066	89.69
434.287	85.69
434.509	88.69
434.731	93.69
434.953	79.69
435.175	84.69
435.397	65.69
435.618	88.69
435.84	95.69
436.062	88.69
436.284	103.69
436.505	98.69
436.727	71.69
436.949	85.69
437.17	82.69
437.392	86.69
437.614	93.69
437.835	83.69
438.057	72.69
438.278	80.69
438.5	87.69
438.721	92.69
438.943	88.69
439.165	78.69
439.386	88.69
439.608	95.69
439.829	77.69
440.05	93.69
440.272	90.69
440.493	88.69
440.715	89.69
440.936	93.69
441.158	79.69
441.379	77.69
441.6	73.69
441.822	91.69
442.043	84.69
442.264	83.69
442.486	76.69
442.707	83.69
442.928	85.69
443.149	85.69
443.371	87.69
443.592	88.69
443.813	87.69
444.034	81.69
444.255	85.69
444.476	80.69
444.698	94.69
444.919	84.69
445.14	169.69
445.361	122.69
445.582	84.69
445.803	79.69
446.024	98.69
446.245	98.69
446.466	96.69
446.687	86.69
446.908	92.69
447.129	74.69
447.35	72.69
447.571	87.69
447.792	81.69
448.013	76.69
448.234	78.69
448.455	85.69
448.675	91.69
448.896	93.69
449.117	83.69
449.338	79.69
449.559	83.69
449.779	78.69
450	77.69
450.221	87.69
450.442	88.69
450.662	76.69
450.883	90.69
451.104	74.69
451.324	91.69
451.545	100.69
451.766	78.69
451.986	87.69
452.207	80.69
452.428	96.69
452.648	82.69
452.869	81.69
453.089	89.69
453.31	72.69
453.53	84.69
453.751	91.69
453.971	89.69
454.192	91.69
454.412	94.69
454.633	83.69
454.853	100.69
455.073	95.69
455.294	102.69
455.514	93.69
455.734	85.69
455.955	92.69
456.175	83.69
456.395	69.69
456.616	81.69
456.836	86.69
457.056	85.69
457.276	92.69
457.497	90.69
457.717	88.69
457.937	86.69
458.157	96.69
458.377	89.69
458.598	71.69
458.818	86.69
459.038	86.69
459.258	94.69
459.478	85.69
459.698	82.69
459.918	92.69
460.138	86.69
460.358	86.69
460.578	97.69
460.798	94.69
461.018	96.69
461.238	83.69
461.458	78.69
461.678	104.69
461.898	88.69
462.118	93.69
462.338	88.69
462.558	88.69
462.777	93.69
462.997	94.69
463.217	84.69
463.437	85.69
463.657	85.69
463.876	104.69
464.096	82.69
464.316	86.69
464.536	96.69
464.755	95.69
464.975	90.69
465.195	90.69
465.414	87.69
465.634	92.69
465.854	77.69
466.073	88.69
466.293	88.69
466.512	89.69
466.732	77.69
466.951	90.69
467.171	97.69
467.391	91.69
467.61	87.69
467.829	78.69
468.049	73.69
468.268	81.69
468.488	81.69
468.707	69.69
468.927	90.69
469.146	90.69
469.365	88.69
469.585	82.69
469.804	94.69
470.023	81.69
470.243	84.69
470.462	90.69
470.681	87.69
470.901	107.69
471.12	91.69
471.339	85.69
471.558	96.69
471.777	68.69
471.997	80.69
472.216	86.69
472.435	80.69
472.654	80.69
472.873	87.69
473.092	84.69
473.311	95.69
473.53	71.69
473.749	84.69
473.968	84.69
474.187	81.69
474.406	76.69
474.625	83.69
474.844	97.69
475.063	101.69
475.282	86.69
475.501	90.69
475.72	96.69
475.939	77.69
476.158	89.69
476.377	93.69
476.596	88.69
476.814	79.69
477.033	92.69
477.252	92.69
477.471	83.69
477.69	105.69
477.908	83.69
478.127	92.69
478.346	93.69
478.564	77.69
478.783	86.69
479.002	75.69
479.22	91.69
479.439	89.69
479.658	93.69
479.876	84.69
480.095	89.69
480.313	85.69
480.532	92.69
480.751	93.69
480.969	77.69
481.188	84.69
481.406	87.69
481.624	98.69
481.843	94.69
482.061	82.69
482.28	87.69
482.498	88.69
482.717	96.69
482.935	100.69
483.153	80.69
483.372	110.69
483.59	81.69
483.808	94.69
484.027	92.69
484.245	101.69
484.463	95.69
484.681	93.69
484.9	100.69
485.118	86.69
485.336	94.69
485.554	98.69
485.772	92.69
485.99	94.69
486.209	87.69
486.427	77.69
486.645	86.69
486.863	96.69
487.081	92.69
487.299	95.69
487.517	105.69
487.735	78.69
487.953	88.69
488.171	92.69
488.389	94.69
488.607	91.69
488.825	86.69
489.043	84.69
489.261	81.69
489.479	96.69
489.696	92.69
489.914	91.69
490.132	92.69
490.35	85.69
490.568	78.69
490.786	81.69
491.003	94.69
491.221	82.69
491.439	92.69
491.657	87.69
491.874	94.69
492.092	104.69
492.31	88.69
492.527	88.69
492.745	77.69
492.963	81.69
493.18	79.69
493.398	99.69
493.615	97.69
493.833	76.69
494.05	93.69
494.268	81.69
494.485	93.69
494.703	93.69
494.92	85.69
495.138	96.69
495.355	91.69
495.573	91.69
495.79	86.69
496.008	91.69
496.225	85.69
496.442	93.69
496.66	79.69
496.877	87.69
497.094	98.69
497.312	97.69
497.529	87.69
497.746	98.69
497.963	88.69
498.181	86.69
498.398	103.69
498.615	92.69
498.832	87.69
499.049	103.69
499.267	92.69
499.484	85.69
499.701	95.69
499.918	100.69
500.135	101.69
500.352	118.69
500.569	108.69
500.786	111.69
501.003	120.69
501.22	101.69
501.437	108.69
501.654	97.69
501.871	97.69
502.088	89.69
502.305	94.69
502.522	98.69
502.739	95.69
502.956	89.69
503.172	97.69
503.389	93.69
503.606	85.69
503.823	79.69
504.04	87.69
504.256	96.69
504.473	85.69
504.69	97.69
504.907	95.69
505.123	105.69
505.34	78.69
505.557	96.69
505.773	77.69
505.99	88.69
506.207	95.69
506.423	106.69
506.64	87.69
506.856	95.69
507.073	94.69
507.289	79.69
507.506	104.69
507.722	100.69
507.939	73.69
508.155	90.69
508.372	100.69
508.588	101.69
508.805	74.69
509.021	104.69
509.238	92.69
509.454	92.69
509.67	87.69
509.887	81.69
510.103	94.69
510.319	83.69
510.536	81.69
510.752	96.69
510.968	94.69
511.184	85.69
511.401	80.69
511.617	81.69
511.833	77.69
512.049	89.69
512.265	96.69
512.481	80.69
512.698	90.69
512.914	96.69
513.13	100.69
513.346	85.69
513.562	87.69
513.778	96.69
513.994	89.69
514.21	97.69
514.426	94.69
514.642	98.69
514.858	89.69
515.074	97.69
515.29	96.69
515.506	79.69
515.721	70.69
515.937	85.69
516.153	84.69
516.369	76.69
516.585	88.69
516.801	86.69
517.016	94.69
517.232	101.69
517.448	94.69
517.664	101.69
517.879	100.69
518.095	91.69
518.311	87.69
518.527	101.69
518.742	103.69
518.958	88.69
519.173	89.69
