Data from BG_HRD10591_065.txt Node
Date: Fri May 16 15:21:26 EDT 2025
User: Yrep
Spectrometer: HR+D1059
Trigger mode: 1
Integration Time (sec): 1.000000E-1
Scans to average: 1
Electric dark correction enabled: true
Nonlinearity correction enabled: false
Boxcar width: 0
XAxis mode: Wavelengths
Number of Pixels in Spectrum: 2048
>>>>>Begin Spectral Data<<<<<
223.165	-15.31
223.4	-15.31
223.635	-15.31
223.869	-17.31
224.104	-19.31
224.338	-17.31
224.573	-12.31
224.808	-17.31
225.042	-20.31
225.277	-1.31
225.511	-11.31
225.746	4.69
225.98	0.69
226.215	12.69
226.449	25.69
226.683	30.69
226.918	22.69
227.152	34.69
227.387	30.69
227.621	50.69
227.856	56.69
228.09	47.69
228.324	49.69
228.559	54.69
228.793	59.69
229.027	56.69
229.262	60.69
229.496	57.69
229.73	60.69
229.964	76.69
230.199	50.69
230.433	71.69
230.667	66.69
230.901	75.69
231.136	65.69
231.37	74.69
231.604	81.69
231.838	86.69
232.072	78.69
232.306	83.69
232.541	84.69
232.775	83.69
233.009	78.69
233.243	72.69
233.477	81.69
233.711	71.69
233.945	68.69
234.179	88.69
234.413	72.69
234.647	87.69
234.881	80.69
235.115	71.69
235.349	77.69
235.583	63.69
235.817	62.69
236.051	71.69
236.285	66.69
236.519	76.69
236.753	81.69
236.987	74.69
237.221	59.69
237.455	62.69
237.689	80.69
237.922	74.69
238.156	70.69
238.39	76.69
238.624	69.69
238.858	68.69
239.091	66.69
239.325	63.69
239.559	68.69
239.793	73.69
240.027	91.69
240.26	83.69
240.494	75.69
240.728	77.69
240.961	58.69
241.195	88.69
241.429	70.69
241.662	85.69
241.896	80.69
242.13	88.69
242.363	80.69
242.597	65.69
242.83	76.69
243.064	77.69
243.298	82.69
243.531	74.69
243.765	64.69
243.998	72.69
244.232	73.69
244.465	69.69
244.699	83.69
244.932	77.69
245.166	93.69
245.399	63.69
245.633	73.69
245.866	75.69
246.099	65.69
246.333	71.69
246.566	67.69
246.8	76.69
247.033	58.69
247.266	78.69
247.5	82.69
247.733	66.69
247.966	72.69
248.2	79.69
248.433	69.69
248.666	76.69
248.899	65.69
249.133	76.69
249.366	72.69
249.599	70.69
249.832	61.69
250.066	76.69
250.299	78.69
250.532	87.69
250.765	78.69
250.998	64.69
251.231	78.69
251.465	74.69
251.698	68.69
251.931	56.69
252.164	77.69
252.397	72.69
252.63	87.69
252.863	74.69
253.096	72.69
253.329	83.69
253.562	88.69
253.795	73.69
254.028	70.69
254.261	64.69
254.494	85.69
254.727	78.69
254.96	70.69
255.193	81.69
255.426	87.69
255.659	81.69
255.892	84.69
256.124	85.69
256.357	82.69
256.59	56.69
256.823	82.69
257.056	69.69
257.289	81.69
257.521	72.69
257.754	80.69
257.987	88.69
258.22	83.69
258.452	84.69
258.685	80.69
258.918	74.69
259.151	76.69
259.383	89.69
259.616	67.69
259.849	70.69
260.081	73.69
260.314	82.69
260.547	70.69
260.779	70.69
261.012	74.69
261.244	79.69
261.477	90.69
261.71	80.69
261.942	82.69
262.175	71.69
262.407	71.69
262.64	74.69
262.872	88.69
263.105	66.69
263.337	84.69
263.57	92.69
263.802	71.69
264.035	85.69
264.267	88.69
264.499	78.69
264.732	81.69
264.964	70.69
265.197	78.69
265.429	76.69
265.661	70.69
265.894	68.69
266.126	85.69
266.358	81.69
266.591	80.69
266.823	67.69
267.055	89.69
267.287	77.69
267.52	80.69
267.752	75.69
267.984	74.69
268.216	65.69
268.448	86.69
268.681	82.69
268.913	82.69
269.145	90.69
269.377	84.69
269.609	66.69
269.841	95.69
270.073	83.69
270.306	66.69
270.538	88.69
270.77	82.69
271.002	92.69
271.234	88.69
271.466	90.69
271.698	75.69
271.93	83.69
272.162	86.69
272.394	57.69
272.626	80.69
272.858	77.69
273.09	76.69
273.322	84.69
273.553	73.69
273.785	83.69
274.017	86.69
274.249	84.69
274.481	82.69
274.713	81.69
274.945	76.69
275.176	79.69
275.408	88.69
275.64	94.69
275.872	89.69
276.104	86.69
276.335	87.69
276.567	86.69
276.799	96.69
277.031	83.69
277.262	86.69
277.494	93.69
277.726	62.69
277.957	70.69
278.189	82.69
278.421	87.69
278.652	80.69
278.884	73.69
279.115	79.69
279.347	77.69
279.579	76.69
279.81	97.69
280.042	75.69
280.273	74.69
280.505	94.69
280.736	79.69
280.968	88.69
281.199	76.69
281.431	87.69
281.662	74.69
281.894	77.69
282.125	80.69
282.356	88.69
282.588	92.69
282.819	80.69
283.051	85.69
283.282	84.69
283.513	91.69
283.745	86.69
283.976	80.69
284.207	83.69
284.439	91.69
284.67	84.69
284.901	63.69
285.132	80.69
285.364	72.69
285.595	89.69
285.826	70.69
286.057	81.69
286.288	73.69
286.52	84.69
286.751	82.69
286.982	89.69
287.213	90.69
287.444	96.69
287.675	82.69
287.906	91.69
288.138	87.69
288.369	82.69
288.6	93.69
288.831	78.69
289.062	79.69
289.293	78.69
289.524	84.69
289.755	78.69
289.986	67.69
290.217	83.69
290.448	83.69
290.679	77.69
290.91	83.69
291.141	75.69
291.371	78.69
291.602	82.69
291.833	78.69
292.064	76.69
292.295	86.69
292.526	91.69
292.757	74.69
292.987	86.69
293.218	72.69
293.449	76.69
293.68	68.69
293.91	90.69
294.141	84.69
294.372	85.69
294.603	81.69
294.833	86.69
295.064	90.69
295.295	81.69
295.525	71.69
295.756	81.69
295.987	86.69
296.217	79.69
296.448	86.69
296.679	89.69
296.909	78.69
297.14	74.69
297.37	83.69
297.601	75.69
297.831	88.69
298.062	89.69
298.292	94.69
298.523	85.69
298.753	83.69
298.984	83.69
299.214	83.69
299.445	89.69
299.675	74.69
299.905	78.69
300.136	81.69
300.366	72.69
300.597	86.69
300.827	85.69
301.057	82.69
301.288	81.69
301.518	77.69
301.748	86.69
301.979	91.69
302.209	85.69
302.439	83.69
302.669	78.69
302.9	82.69
303.13	80.69
303.36	81.69
303.59	83.69
303.82	81.69
304.051	73.69
304.281	81.69
304.511	97.69
304.741	83.69
304.971	90.69
305.201	88.69
305.431	82.69
305.661	80.69
305.891	85.69
306.121	68.69
306.352	96.69
306.582	79.69
306.812	82.69
307.042	76.69
307.272	80.69
307.502	74.69
307.731	89.69
307.961	81.69
308.191	81.69
308.421	75.69
308.651	88.69
308.881	76.69
309.111	81.69
309.341	71.69
309.571	77.69
309.8	84.69
310.03	90.69
310.26	89.69
310.49	103.69
310.72	73.69
310.949	95.69
311.179	87.69
311.409	82.69
311.639	77.69
311.868	72.69
312.098	73.69
312.328	85.69
312.557	78.69
312.787	86.69
313.017	79.69
313.246	89.69
313.476	87.69
313.706	90.69
313.935	99.69
314.165	86.69
314.394	83.69
314.624	77.69
314.853	89.69
315.083	68.69
315.312	98.69
315.542	91.69
315.771	83.69
316.001	80.69
316.23	71.69
316.46	81.69
316.689	89.69
316.919	77.69
317.148	81.69
317.377	84.69
317.607	86.69
317.836	103.69
318.065	93.69
318.295	81.69
318.524	85.69
318.753	76.69
318.983	85.69
319.212	80.69
319.441	76.69
319.67	88.69
319.9	98.69
320.129	96.69
320.358	92.69
320.587	92.69
320.816	91.69
321.046	91.69
321.275	83.69
321.504	70.69
321.733	76.69
321.962	88.69
322.191	85.69
322.42	89.69
322.649	90.69
322.878	86.69
323.108	86.69
323.337	87.69
323.566	75.69
323.795	85.69
324.024	96.69
324.253	89.69
324.482	82.69
324.71	84.69
324.939	87.69
325.168	80.69
325.397	86.69
325.626	85.69
325.855	80.69
326.084	81.69
326.313	95.69
326.542	89.69
326.77	84.69
326.999	96.69
327.228	89.69
327.457	84.69
327.686	81.69
327.914	74.69
328.143	85.69
328.372	84.69
328.6	91.69
328.829	96.69
329.058	84.69
329.287	80.69
329.515	84.69
329.744	86.69
329.972	82.69
330.201	85.69
330.43	100.69
330.658	83.69
330.887	68.69
331.115	90.69
331.344	84.69
331.572	89.69
331.801	85.69
332.03	76.69
332.258	74.69
332.486	87.69
332.715	82.69
332.943	77.69
333.172	73.69
333.4	94.69
333.629	88.69
333.857	74.69
334.085	83.69
334.314	89.69
334.542	84.69
334.771	82.69
334.999	84.69
335.227	70.69
335.455	99.69
335.684	67.69
335.912	84.69
336.14	84.69
336.369	86.69
336.597	81.69
336.825	86.69
337.053	83.69
337.281	92.69
337.51	89.69
337.738	92.69
337.966	77.69
338.194	85.69
338.422	82.69
338.65	86.69
338.878	79.69
339.106	76.69
339.334	80.69
339.562	82.69
339.79	72.69
340.018	85.69
340.246	82.69
340.474	69.69
340.702	88.69
340.93	75.69
341.158	85.69
341.386	76.69
341.614	84.69
341.842	70.69
342.07	90.69
342.298	84.69
342.526	90.69
342.754	82.69
342.981	81.69
343.209	75.69
343.437	98.69
343.665	76.69
343.893	86.69
344.12	88.69
344.348	86.69
344.576	83.69
344.804	77.69
345.031	86.69
345.259	107.69
345.487	83.69
345.714	82.69
345.942	82.69
346.17	85.69
346.397	74.69
346.625	99.69
346.853	73.69
347.08	68.69
347.308	78.69
347.535	79.69
347.763	78.69
347.99	83.69
348.218	93.69
348.445	84.69
348.673	76.69
348.9	91.69
349.128	87.69
349.355	99.69
349.583	93.69
349.81	90.69
350.037	84.69
350.265	81.69
350.492	83.69
350.72	89.69
350.947	87.69
351.174	70.69
351.402	72.69
351.629	80.69
351.856	75.69
352.083	75.69
352.311	96.69
352.538	83.69
352.765	100.69
352.992	83.69
353.22	74.69
353.447	82.69
353.674	85.69
353.901	78.69
354.128	88.69
354.355	94.69
354.583	74.69
354.81	75.69
355.037	88.69
355.264	80.69
355.491	74.69
355.718	88.69
355.945	86.69
356.172	79.69
356.399	93.69
356.626	92.69
356.853	91.69
357.08	91.69
357.307	83.69
357.534	69.69
357.761	82.69
357.988	79.69
358.215	105.69
358.441	82.69
358.668	98.69
358.895	80.69
359.122	92.69
359.349	86.69
359.576	90.69
359.802	90.69
360.029	84.69
360.256	89.69
360.483	87.69
360.709	62.69
360.936	80.69
361.163	88.69
361.39	92.69
361.616	73.69
361.843	77.69
362.07	90.69
362.296	88.69
362.523	92.69
362.749	83.69
362.976	74.69
363.203	93.69
363.429	78.69
363.656	80.69
363.882	83.69
364.109	80.69
364.335	92.69
364.562	83.69
364.788	86.69
365.015	94.69
365.241	97.69
365.468	81.69
365.694	63.69
365.92	86.69
366.147	77.69
366.373	91.69
366.599	76.69
366.826	81.69
367.052	94.69
367.278	87.69
367.505	80.69
367.731	86.69
367.957	82.69
368.184	84.69
368.41	76.69
368.636	91.69
368.862	97.69
369.089	75.69
369.315	88.69
369.541	89.69
369.767	76.69
369.993	84.69
370.219	80.69
370.445	74.69
370.672	86.69
370.898	91.69
371.124	76.69
371.35	75.69
371.576	82.69
371.802	91.69
372.028	82.69
372.254	84.69
372.48	93.69
372.706	88.69
372.932	102.69
373.158	98.69
373.384	90.69
373.61	90.69
373.835	74.69
374.061	77.69
374.287	80.69
374.513	68.69
374.739	84.69
374.965	81.69
375.191	87.69
375.416	78.69
375.642	89.69
375.868	91.69
376.094	79.69
376.319	68.69
376.545	84.69
376.771	89.69
376.997	90.69
377.222	89.69
377.448	83.69
377.674	84.69
377.899	77.69
378.125	81.69
378.35	100.69
378.576	76.69
378.802	86.69
379.027	77.69
379.253	83.69
379.478	81.69
379.704	97.69
379.929	90.69
380.155	89.69
380.38	77.69
380.606	89.69
380.831	93.69
381.057	84.69
381.282	70.69
381.507	74.69
381.733	100.69
381.958	90.69
382.184	85.69
382.409	78.69
382.634	80.69
382.86	83.69
383.085	78.69
383.31	88.69
383.535	67.69
383.761	99.69
383.986	81.69
384.211	78.69
384.436	68.69
384.662	73.69
384.887	74.69
385.112	74.69
385.337	82.69
385.562	89.69
385.787	82.69
386.013	77.69
386.238	84.69
386.463	82.69
386.688	85.69
386.913	92.69
387.138	89.69
387.363	80.69
387.588	94.69
387.813	88.69
388.038	95.69
388.263	74.69
388.488	77.69
388.713	68.69
388.938	81.69
389.163	93.69
389.387	78.69
389.612	81.69
389.837	90.69
390.062	86.69
390.287	71.69
390.512	82.69
390.736	94.69
390.961	83.69
391.186	68.69
391.411	84.69
391.636	86.69
391.86	89.69
392.085	85.69
392.31	82.69
392.534	78.69
392.759	78.69
392.984	84.69
393.208	93.69
393.433	68.69
393.658	88.69
393.882	82.69
394.107	82.69
394.331	81.69
394.556	81.69
394.78	91.69
395.005	81.69
395.229	73.69
395.454	91.69
395.678	84.69
395.903	77.69
396.127	72.69
396.352	78.69
396.576	93.69
396.801	84.69
397.025	84.69
397.249	83.69
397.474	86.69
397.698	84.69
397.922	90.69
398.147	86.69
398.371	81.69
398.595	95.69
398.82	85.69
399.044	88.69
399.268	86.69
399.492	91.69
399.717	97.69
399.941	88.69
400.165	80.69
400.389	82.69
400.613	85.69
400.837	76.69
401.062	76.69
401.286	82.69
401.51	63.69
401.734	75.69
401.958	88.69
402.182	82.69
402.406	90.69
402.63	90.69
402.854	79.69
403.078	78.69
403.302	87.69
403.526	100.69
403.75	74.69
403.974	92.69
404.198	84.69
404.422	77.69
404.645	85.69
404.869	82.69
405.093	62.69
405.317	102.69
405.541	85.69
405.765	80.69
405.988	90.69
406.212	90.69
406.436	78.69
406.66	98.69
406.883	90.69
407.107	93.69
407.331	82.69
407.555	83.69
407.778	83.69
408.002	93.69
408.226	89.69
408.449	71.69
408.673	70.69
408.896	90.69
409.12	82.69
409.344	86.69
409.567	86.69
409.791	85.69
410.014	78.69
410.238	87.69
410.461	88.69
410.685	94.69
410.908	89.69
411.132	93.69
411.355	85.69
411.578	81.69
411.802	81.69
412.025	80.69
412.249	70.69
412.472	77.69
412.695	90.69
412.919	76.69
413.142	97.69
413.365	77.69
413.589	100.69
413.812	87.69
414.035	88.69
414.258	85.69
414.482	72.69
414.705	85.69
414.928	101.69
415.151	82.69
415.374	85.69
415.597	84.69
415.821	91.69
416.044	90.69
416.267	98.69
416.49	82.69
416.713	82.69
416.936	82.69
417.159	71.69
417.382	87.69
417.605	89.69
417.828	88.69
418.051	90.69
418.274	80.69
418.497	81.69
418.72	71.69
418.943	66.69
419.166	90.69
419.389	92.69
419.611	84.69
419.834	100.69
420.057	86.69
420.28	78.69
420.503	74.69
420.726	84.69
420.948	79.69
421.171	78.69
421.394	81.69
421.617	96.69
421.839	80.69
422.062	74.69
422.285	86.69
422.507	80.69
422.73	74.69
422.953	73.69
423.175	98.69
423.398	84.69
423.621	84.69
423.843	88.69
424.066	81.69
424.288	90.69
424.511	62.69
424.733	96.69
424.956	78.69
425.178	70.69
425.401	82.69
425.623	86.69
425.846	90.69
426.068	80.69
426.291	87.69
426.513	76.69
426.735	78.69
426.958	79.69
427.18	84.69
427.402	82.69
427.625	89.69
427.847	88.69
428.069	82.69
428.292	103.69
428.514	88.69
428.736	74.69
428.958	65.69
429.181	87.69
429.403	94.69
429.625	91.69
429.847	78.69
430.069	95.69
430.292	96.69
430.514	78.69
430.736	78.69
430.958	90.69
431.18	66.69
431.402	84.69
431.624	85.69
431.846	81.69
432.068	74.69
432.29	72.69
432.512	81.69
432.734	79.69
432.956	70.69
433.178	84.69
433.4	90.69
433.622	78.69
433.844	78.69
434.066	88.69
434.287	74.69
434.509	80.69
434.731	79.69
434.953	96.69
435.175	75.69
435.397	80.69
435.618	90.69
435.84	85.69
436.062	73.69
436.284	73.69
436.505	89.69
436.727	83.69
436.949	88.69
437.17	97.69
437.392	90.69
437.614	101.69
437.835	65.69
438.057	93.69
438.278	82.69
438.5	88.69
438.721	65.69
438.943	68.69
439.165	82.69
439.386	71.69
439.608	84.69
439.829	76.69
440.05	85.69
440.272	77.69
440.493	81.69
440.715	82.69
440.936	65.69
441.158	69.69
441.379	86.69
441.6	90.69
441.822	84.69
442.043	80.69
442.264	89.69
442.486	89.69
442.707	65.69
442.928	87.69
443.149	85.69
443.371	76.69
443.592	92.69
443.813	100.69
444.034	78.69
444.255	74.69
444.476	76.69
444.698	82.69
444.919	86.69
445.14	163.69
445.361	123.69
445.582	83.69
445.803	94.69
446.024	76.69
446.245	85.69
446.466	97.69
446.687	76.69
446.908	72.69
447.129	89.69
447.35	81.69
447.571	92.69
447.792	97.69
448.013	68.69
448.234	87.69
448.455	77.69
448.675	83.69
448.896	80.69
449.117	59.69
449.338	75.69
449.559	94.69
449.779	84.69
450	72.69
450.221	93.69
450.442	103.69
450.662	74.69
450.883	88.69
451.104	80.69
451.324	89.69
451.545	85.69
451.766	86.69
451.986	81.69
452.207	95.69
452.428	76.69
452.648	87.69
452.869	90.69
453.089	90.69
453.31	80.69
453.53	83.69
453.751	81.69
453.971	99.69
454.192	85.69
454.412	82.69
454.633	74.69
454.853	83.69
455.073	84.69
455.294	84.69
455.514	91.69
455.734	82.69
455.955	88.69
456.175	93.69
456.395	85.69
456.616	100.69
456.836	90.69
457.056	78.69
457.276	93.69
457.497	96.69
457.717	96.69
457.937	74.69
458.157	76.69
458.377	82.69
458.598	79.69
458.818	81.69
459.038	84.69
459.258	73.69
459.478	80.69
459.698	69.69
459.918	70.69
460.138	91.69
460.358	91.69
460.578	81.69
460.798	93.69
461.018	84.69
461.238	87.69
461.458	84.69
461.678	84.69
461.898	75.69
462.118	83.69
462.338	74.69
462.558	96.69
462.777	102.69
462.997	88.69
463.217	81.69
463.437	104.69
463.657	88.69
463.876	77.69
464.096	80.69
464.316	83.69
464.536	96.69
464.755	88.69
464.975	77.69
465.195	72.69
465.414	79.69
465.634	75.69
465.854	58.69
466.073	77.69
466.293	65.69
466.512	86.69
466.732	89.69
466.951	98.69
467.171	77.69
467.391	84.69
467.61	80.69
467.829	89.69
468.049	83.69
468.268	88.69
468.488	78.69
468.707	83.69
468.927	74.69
469.146	76.69
469.365	78.69
469.585	86.69
469.804	79.69
470.023	80.69
470.243	84.69
470.462	88.69
470.681	89.69
470.901	86.69
471.12	75.69
471.339	60.69
471.558	78.69
471.777	88.69
471.997	71.69
472.216	74.69
472.435	77.69
472.654	88.69
472.873	98.69
473.092	78.69
473.311	91.69
473.53	87.69
473.749	92.69
473.968	84.69
474.187	88.69
474.406	74.69
474.625	70.69
474.844	75.69
475.063	80.69
475.282	84.69
475.501	97.69
475.72	85.69
475.939	96.69
476.158	84.69
476.377	76.69
476.596	77.69
476.814	76.69
477.033	82.69
477.252	92.69
477.471	84.69
477.69	76.69
477.908	86.69
478.127	83.69
478.346	84.69
478.564	97.69
478.783	96.69
479.002	86.69
479.22	94.69
479.439	91.69
479.658	98.69
479.876	84.69
480.095	91.69
480.313	76.69
480.532	93.69
480.751	80.69
480.969	81.69
481.188	83.69
481.406	96.69
481.624	92.69
481.843	90.69
482.061	88.69
482.28	82.69
482.498	80.69
482.717	100.69
482.935	80.69
483.153	85.69
483.372	83.69
483.59	82.69
483.808	91.69
484.027	89.69
484.245	91.69
484.463	82.69
484.681	101.69
484.9	88.69
485.118	71.69
485.336	78.69
485.554	77.69
485.772	86.69
485.99	92.69
486.209	87.69
486.427	93.69
486.645	84.69
486.863	82.69
487.081	81.69
487.299	92.69
487.517	85.69
487.735	86.69
487.953	87.69
488.171	98.69
488.389	75.69
488.607	72.69
488.825	83.69
489.043	84.69
489.261	86.69
489.479	84.69
489.696	81.69
489.914	91.69
490.132	89.69
490.35	93.69
490.568	93.69
490.786	81.69
491.003	87.69
491.221	78.69
491.439	92.69
491.657	96.69
491.874	98.69
492.092	83.69
492.31	84.69
492.527	91.69
492.745	89.69
492.963	97.69
493.18	94.69
493.398	86.69
493.615	96.69
493.833	92.69
494.05	94.69
494.268	97.69
494.485	104.69
494.703	88.69
494.92	82.69
495.138	101.69
495.355	86.69
495.573	92.69
495.79	84.69
496.008	71.69
496.225	80.69
496.442	78.69
496.66	85.69
496.877	79.69
497.094	100.69
497.312	91.69
497.529	82.69
497.746	96.69
497.963	104.69
498.181	74.69
498.398	81.69
498.615	98.69
498.832	90.69
499.049	89.69
499.267	98.69
499.484	90.69
499.701	101.69
499.918	107.69
500.135	101.69
500.352	107.69
500.569	101.69
500.786	110.69
501.003	106.69
501.22	96.69
501.437	107.69
501.654	92.69
501.871	85.69
502.088	89.69
502.305	95.69
502.522	90.69
502.739	96.69
502.956	93.69
503.172	82.69
503.389	85.69
503.606	105.69
503.823	96.69
504.04	93.69
504.256	96.69
504.473	84.69
504.69	87.69
504.907	97.69
505.123	80.69
505.34	84.69
505.557	96.69
505.773	89.69
505.99	78.69
506.207	87.69
506.423	78.69
506.64	68.69
506.856	97.69
507.073	80.69
507.289	91.69
507.506	85.69
507.722	89.69
507.939	90.69
508.155	80.69
508.372	77.69
508.588	93.69
508.805	94.69
509.021	90.69
509.238	84.69
509.454	84.69
509.67	74.69
509.887	86.69
510.103	77.69
510.319	80.69
510.536	82.69
510.752	67.69
510.968	82.69
511.184	94.69
511.401	84.69
511.617	85.69
511.833	91.69
512.049	85.69
512.265	89.69
512.481	84.69
512.698	88.69
512.914	82.69
513.13	90.69
513.346	77.69
513.562	82.69
513.778	89.69
513.994	82.69
514.21	99.69
514.426	79.69
514.642	100.69
514.858	88.69
515.074	81.69
515.29	91.69
515.506	96.69
515.721	89.69
515.937	94.69
516.153	87.69
516.369	83.69
516.585	83.69
516.801	84.69
517.016	97.69
517.232	84.69
517.448	93.69
517.664	81.69
517.879	78.69
518.095	80.69
518.311	102.69
518.527	96.69
518.742	97.69
518.958	76.69
519.173	86.69
519.389	70.69
519.605	89.69
519.82	82.69
