Data from BG_HRD10591_083.txt Node
Date: Fri May 16 15:21:35 EDT 2025
User: Yrep
Spectrometer: HR+D1059
Trigger mode: 1
Integration Time (sec): 1.000000E-1
Scans to average: 1
Electric dark correction enabled: true
Nonlinearity correction enabled: false
Boxcar width: 0
XAxis mode: Wavelengths
Number of Pixels in Spectrum: 2048
>>>>>Begin Spectral Data<<<<<
223.165	-30.94
223.4	-30.94
223.635	-30.94
223.869	-16.94
224.104	-16.94
224.338	-18.94
224.573	-22.94
224.808	-6.94
225.042	4.06
225.277	-2.94
225.511	15.06
225.746	3.06
225.98	10.06
226.215	7.06
226.449	7.06
226.683	7.06
226.918	30.06
227.152	33.06
227.387	56.06
227.621	49.06
227.856	51.06
228.09	55.06
228.324	75.06
228.559	66.06
228.793	64.06
229.027	65.06
229.262	78.06
229.496	57.06
229.73	67.06
229.964	80.06
230.199	81.06
230.433	87.06
230.667	85.06
230.901	82.06
231.136	79.06
231.37	77.06
231.604	74.06
231.838	90.06
232.072	94.06
232.306	81.06
232.541	74.06
232.775	85.06
233.009	85.06
233.243	94.06
233.477	83.06
233.711	89.06
233.945	69.06
234.179	91.06
234.413	89.06
234.647	83.06
234.881	79.06
235.115	67.06
235.349	74.06
235.583	70.06
235.817	91.06
236.051	87.06
236.285	69.06
236.519	71.06
236.753	84.06
236.987	68.06
237.221	67.06
237.455	79.06
237.689	83.06
237.922	72.06
238.156	77.06
238.39	73.06
238.624	83.06
238.858	65.06
239.091	88.06
239.325	71.06
239.559	74.06
239.793	83.06
240.027	82.06
240.26	79.06
240.494	79.06
240.728	63.06
240.961	81.06
241.195	79.06
241.429	81.06
241.662	75.06
241.896	77.06
242.13	72.06
242.363	78.06
242.597	76.06
242.83	73.06
243.064	72.06
243.298	78.06
243.531	73.06
243.765	79.06
243.998	77.06
244.232	79.06
244.465	82.06
244.699	90.06
244.932	71.06
245.166	78.06
245.399	79.06
245.633	85.06
245.866	70.06
246.099	61.06
246.333	81.06
246.566	71.06
246.8	91.06
247.033	74.06
247.266	78.06
247.5	69.06
247.733	72.06
247.966	71.06
248.2	74.06
248.433	81.06
248.666	65.06
248.899	83.06
249.133	78.06
249.366	82.06
249.599	93.06
249.832	78.06
250.066	89.06
250.299	67.06
250.532	80.06
250.765	80.06
250.998	73.06
251.231	71.06
251.465	66.06
251.698	79.06
251.931	82.06
252.164	80.06
252.397	87.06
252.63	90.06
252.863	70.06
253.096	77.06
253.329	75.06
253.562	84.06
253.795	97.06
254.028	85.06
254.261	75.06
254.494	71.06
254.727	82.06
254.96	83.06
255.193	79.06
255.426	78.06
255.659	91.06
255.892	81.06
256.124	71.06
256.357	65.06
256.59	78.06
256.823	79.06
257.056	89.06
257.289	95.06
257.521	77.06
257.754	78.06
257.987	70.06
258.22	96.06
258.452	96.06
258.685	84.06
258.918	67.06
259.151	81.06
259.383	90.06
259.616	78.06
259.849	82.06
260.081	85.06
260.314	75.06
260.547	86.06
260.779	89.06
261.012	76.06
261.244	93.06
261.477	92.06
261.71	89.06
261.942	89.06
262.175	95.06
262.407	68.06
262.64	75.06
262.872	90.06
263.105	77.06
263.337	77.06
263.57	80.06
263.802	89.06
264.035	84.06
264.267	83.06
264.499	91.06
264.732	80.06
264.964	82.06
265.197	72.06
265.429	68.06
265.661	78.06
265.894	75.06
266.126	83.06
266.358	81.06
266.591	78.06
266.823	98.06
267.055	90.06
267.287	71.06
267.52	87.06
267.752	87.06
267.984	85.06
268.216	76.06
268.448	87.06
268.681	89.06
268.913	86.06
269.145	82.06
269.377	85.06
269.609	79.06
269.841	82.06
270.073	90.06
270.306	94.06
270.538	84.06
270.77	75.06
271.002	75.06
271.234	88.06
271.466	87.06
271.698	85.06
271.93	83.06
272.162	87.06
272.394	91.06
272.626	75.06
272.858	95.06
273.09	91.06
273.322	96.06
273.553	81.06
273.785	80.06
274.017	79.06
274.249	84.06
274.481	82.06
274.713	75.06
274.945	69.06
275.176	94.06
275.408	87.06
275.64	84.06
275.872	77.06
276.104	88.06
276.335	91.06
276.567	90.06
276.799	96.06
277.031	83.06
277.262	79.06
277.494	85.06
277.726	83.06
277.957	76.06
278.189	94.06
278.421	92.06
278.652	78.06
278.884	81.06
279.115	78.06
279.347	87.06
279.579	96.06
279.81	73.06
280.042	73.06
280.273	82.06
280.505	95.06
280.736	87.06
280.968	83.06
281.199	82.06
281.431	81.06
281.662	83.06
281.894	93.06
282.125	78.06
282.356	89.06
282.588	79.06
282.819	82.06
283.051	87.06
283.282	80.06
283.513	88.06
283.745	95.06
283.976	85.06
284.207	81.06
284.439	85.06
284.67	91.06
284.901	82.06
285.132	89.06
285.364	81.06
285.595	86.06
285.826	91.06
286.057	85.06
286.288	87.06
286.52	94.06
286.751	85.06
286.982	85.06
287.213	91.06
287.444	86.06
287.675	90.06
287.906	85.06
288.138	89.06
288.369	86.06
288.6	80.06
288.831	77.06
289.062	80.06
289.293	86.06
289.524	82.06
289.755	70.06
289.986	96.06
290.217	83.06
290.448	80.06
290.679	75.06
290.91	95.06
291.141	78.06
291.371	83.06
291.602	83.06
291.833	77.06
292.064	79.06
292.295	96.06
292.526	98.06
292.757	85.06
292.987	96.06
293.218	81.06
293.449	94.06
293.68	86.06
293.91	75.06
294.141	90.06
294.372	76.06
294.603	80.06
294.833	106.06
295.064	98.06
295.295	83.06
295.525	81.06
295.756	89.06
295.987	78.06
296.217	97.06
296.448	98.06
296.679	78.06
296.909	85.06
297.14	88.06
297.37	86.06
297.601	85.06
297.831	76.06
298.062	82.06
298.292	87.06
298.523	69.06
298.753	79.06
298.984	80.06
299.214	76.06
299.445	72.06
299.675	98.06
299.905	67.06
300.136	94.06
300.366	78.06
300.597	98.06
300.827	83.06
301.057	90.06
301.288	84.06
301.518	94.06
301.748	84.06
301.979	92.06
302.209	81.06
302.439	96.06
302.669	98.06
302.9	86.06
303.13	91.06
303.36	89.06
303.59	78.06
303.82	84.06
304.051	86.06
304.281	88.06
304.511	98.06
304.741	97.06
304.971	78.06
305.201	102.06
305.431	77.06
305.661	88.06
305.891	85.06
306.121	88.06
306.352	87.06
306.582	96.06
306.812	83.06
307.042	87.06
307.272	83.06
307.502	106.06
307.731	91.06
307.961	83.06
308.191	81.06
308.421	84.06
308.651	73.06
308.881	81.06
309.111	74.06
309.341	94.06
309.571	93.06
309.8	83.06
310.03	80.06
310.26	81.06
310.49	74.06
310.72	64.06
310.949	82.06
311.179	78.06
311.409	73.06
311.639	91.06
311.868	91.06
312.098	95.06
312.328	85.06
312.557	91.06
312.787	107.06
313.017	101.06
313.246	96.06
313.476	86.06
313.706	89.06
313.935	78.06
314.165	89.06
314.394	87.06
314.624	88.06
314.853	87.06
315.083	88.06
315.312	85.06
315.542	75.06
315.771	91.06
316.001	80.06
316.23	72.06
316.46	85.06
316.689	76.06
316.919	86.06
317.148	82.06
317.377	71.06
317.607	75.06
317.836	82.06
318.065	79.06
318.295	83.06
318.524	94.06
318.753	89.06
318.983	87.06
319.212	87.06
319.441	81.06
319.67	90.06
319.9	85.06
320.129	87.06
320.358	68.06
320.587	90.06
320.816	93.06
321.046	87.06
321.275	93.06
321.504	85.06
321.733	79.06
321.962	89.06
322.191	90.06
322.42	78.06
322.649	87.06
322.878	83.06
323.108	94.06
323.337	90.06
323.566	87.06
323.795	87.06
324.024	85.06
324.253	88.06
324.482	85.06
324.71	75.06
324.939	85.06
325.168	93.06
325.397	93.06
325.626	80.06
325.855	81.06
326.084	82.06
326.313	78.06
326.542	94.06
326.77	84.06
326.999	87.06
327.228	77.06
327.457	81.06
327.686	98.06
327.914	82.06
328.143	95.06
328.372	87.06
328.6	88.06
328.829	81.06
329.058	83.06
329.287	84.06
329.515	79.06
329.744	93.06
329.972	77.06
330.201	87.06
330.43	78.06
330.658	89.06
330.887	73.06
331.115	78.06
331.344	87.06
331.572	92.06
331.801	83.06
332.03	77.06
332.258	82.06
332.486	96.06
332.715	78.06
332.943	89.06
333.172	74.06
333.4	81.06
333.629	81.06
333.857	72.06
334.085	58.06
334.314	79.06
334.542	82.06
334.771	89.06
334.999	74.06
335.227	80.06
335.455	72.06
335.684	86.06
335.912	89.06
336.14	90.06
336.369	93.06
336.597	77.06
336.825	77.06
337.053	80.06
337.281	87.06
337.51	85.06
337.738	79.06
337.966	90.06
338.194	76.06
338.422	91.06
338.65	87.06
338.878	103.06
339.106	101.06
339.334	87.06
339.562	75.06
339.79	75.06
340.018	81.06
340.246	66.06
340.474	91.06
340.702	72.06
340.93	87.06
341.158	78.06
341.386	87.06
341.614	86.06
341.842	95.06
342.07	86.06
342.298	78.06
342.526	94.06
342.754	91.06
342.981	81.06
343.209	81.06
343.437	112.06
343.665	78.06
343.893	75.06
344.12	90.06
344.348	90.06
344.576	80.06
344.804	78.06
345.031	81.06
345.259	94.06
345.487	78.06
345.714	87.06
345.942	87.06
346.17	91.06
346.397	83.06
346.625	81.06
346.853	81.06
347.08	86.06
347.308	93.06
347.535	87.06
347.763	94.06
347.99	85.06
348.218	86.06
348.445	77.06
348.673	81.06
348.9	91.06
349.128	84.06
349.355	85.06
349.583	90.06
349.81	65.06
350.037	89.06
350.265	85.06
350.492	86.06
350.72	91.06
350.947	88.06
351.174	82.06
351.402	77.06
351.629	78.06
351.856	80.06
352.083	83.06
352.311	92.06
352.538	90.06
352.765	83.06
352.992	81.06
353.22	86.06
353.447	92.06
353.674	94.06
353.901	74.06
354.128	90.06
354.355	87.06
354.583	87.06
354.81	91.06
355.037	80.06
355.264	78.06
355.491	75.06
355.718	86.06
355.945	82.06
356.172	86.06
356.399	89.06
356.626	85.06
356.853	94.06
357.08	87.06
357.307	87.06
357.534	85.06
357.761	86.06
357.988	90.06
358.215	78.06
358.441	71.06
358.668	74.06
358.895	86.06
359.122	91.06
359.349	65.06
359.576	90.06
359.802	91.06
360.029	87.06
360.256	66.06
360.483	79.06
360.709	87.06
360.936	93.06
361.163	81.06
361.39	81.06
361.616	66.06
361.843	83.06
362.07	74.06
362.296	76.06
362.523	78.06
362.749	87.06
362.976	74.06
363.203	93.06
363.429	91.06
363.656	78.06
363.882	76.06
364.109	80.06
364.335	96.06
364.562	101.06
364.788	73.06
365.015	82.06
365.241	103.06
365.468	89.06
365.694	88.06
365.92	101.06
366.147	92.06
366.373	79.06
366.599	85.06
366.826	62.06
367.052	82.06
367.278	93.06
367.505	88.06
367.731	89.06
367.957	85.06
368.184	79.06
368.41	81.06
368.636	93.06
368.862	82.06
369.089	85.06
369.315	69.06
369.541	86.06
369.767	82.06
369.993	87.06
370.219	88.06
370.445	87.06
370.672	90.06
370.898	77.06
371.124	79.06
371.35	90.06
371.576	73.06
371.802	75.06
372.028	90.06
372.254	81.06
372.48	82.06
372.706	92.06
372.932	64.06
373.158	95.06
373.384	81.06
373.61	80.06
373.835	95.06
374.061	71.06
374.287	83.06
374.513	79.06
374.739	92.06
374.965	83.06
375.191	89.06
375.416	81.06
375.642	87.06
375.868	77.06
376.094	77.06
376.319	87.06
376.545	77.06
376.771	92.06
376.997	85.06
377.222	87.06
377.448	74.06
377.674	85.06
377.899	83.06
378.125	96.06
378.35	77.06
378.576	91.06
378.802	99.06
379.027	82.06
379.253	87.06
379.478	80.06
379.704	73.06
379.929	84.06
380.155	86.06
380.38	84.06
380.606	79.06
380.831	73.06
381.057	102.06
381.282	85.06
381.507	90.06
381.733	93.06
381.958	87.06
382.184	86.06
382.409	81.06
382.634	79.06
382.86	80.06
383.085	80.06
383.31	79.06
383.535	71.06
383.761	88.06
383.986	73.06
384.211	83.06
384.436	76.06
384.662	92.06
384.887	80.06
385.112	82.06
385.337	75.06
385.562	83.06
385.787	73.06
386.013	73.06
386.238	63.06
386.463	81.06
386.688	84.06
386.913	73.06
387.138	80.06
387.363	85.06
387.588	99.06
387.813	92.06
388.038	80.06
388.263	68.06
388.488	78.06
388.713	79.06
388.938	90.06
389.163	67.06
389.387	77.06
389.612	94.06
389.837	80.06
390.062	69.06
390.287	80.06
390.512	74.06
390.736	86.06
390.961	81.06
391.186	73.06
391.411	85.06
391.636	77.06
391.86	80.06
392.085	75.06
392.31	67.06
392.534	88.06
392.759	95.06
392.984	77.06
393.208	83.06
393.433	79.06
393.658	77.06
393.882	90.06
394.107	66.06
394.331	93.06
394.556	75.06
394.78	86.06
395.005	97.06
395.229	90.06
395.454	81.06
395.678	84.06
395.903	82.06
396.127	75.06
396.352	82.06
396.576	73.06
396.801	75.06
397.025	87.06
397.249	94.06
397.474	81.06
397.698	87.06
397.922	75.06
398.147	67.06
398.371	82.06
398.595	82.06
398.82	83.06
399.044	84.06
399.268	65.06
399.492	88.06
399.717	75.06
399.941	81.06
400.165	86.06
400.389	81.06
400.613	76.06
400.837	86.06
401.062	83.06
401.286	93.06
401.51	79.06
401.734	82.06
401.958	81.06
402.182	76.06
402.406	85.06
402.63	84.06
402.854	80.06
403.078	73.06
403.302	77.06
403.526	86.06
403.75	79.06
403.974	91.06
404.198	88.06
404.422	85.06
404.645	73.06
404.869	79.06
405.093	67.06
405.317	82.06
405.541	79.06
405.765	103.06
405.988	81.06
406.212	74.06
406.436	73.06
406.66	79.06
406.883	84.06
407.107	78.06
407.331	78.06
407.555	73.06
407.778	87.06
408.002	70.06
408.226	94.06
408.449	75.06
408.673	75.06
408.896	81.06
409.12	77.06
409.344	91.06
409.567	83.06
409.791	91.06
410.014	74.06
410.238	81.06
410.461	81.06
410.685	88.06
410.908	85.06
411.132	75.06
411.355	69.06
411.578	89.06
411.802	91.06
412.025	84.06
412.249	81.06
412.472	63.06
412.695	73.06
412.919	83.06
413.142	77.06
413.365	88.06
413.589	75.06
413.812	83.06
414.035	94.06
414.258	76.06
414.482	81.06
414.705	73.06
414.928	98.06
415.151	87.06
415.374	73.06
415.597	85.06
415.821	64.06
416.044	88.06
416.267	90.06
416.49	77.06
416.713	82.06
416.936	79.06
417.159	81.06
417.382	90.06
417.605	87.06
417.828	68.06
418.051	81.06
418.274	70.06
418.497	63.06
418.72	75.06
418.943	69.06
419.166	86.06
419.389	82.06
419.611	81.06
419.834	74.06
420.057	73.06
420.28	83.06
420.503	87.06
420.726	72.06
420.948	72.06
421.171	86.06
421.394	79.06
421.617	60.06
421.839	66.06
422.062	69.06
422.285	94.06
422.507	59.06
422.73	68.06
422.953	65.06
423.175	77.06
423.398	76.06
423.621	91.06
423.843	72.06
424.066	75.06
424.288	73.06
424.511	84.06
424.733	87.06
424.956	78.06
425.178	82.06
425.401	81.06
425.623	76.06
425.846	75.06
426.068	78.06
426.291	81.06
426.513	65.06
426.735	75.06
426.958	81.06
427.18	90.06
427.402	73.06
427.625	74.06
427.847	79.06
428.069	86.06
428.292	78.06
428.514	82.06
428.736	82.06
428.958	71.06
429.181	72.06
429.403	75.06
429.625	91.06
429.847	88.06
430.069	67.06
430.292	91.06
430.514	78.06
430.736	72.06
430.958	75.06
431.18	82.06
431.402	82.06
431.624	69.06
431.846	84.06
432.068	95.06
432.29	88.06
432.512	99.06
432.734	92.06
432.956	73.06
433.178	88.06
433.4	87.06
433.622	73.06
433.844	94.06
434.066	74.06
434.287	78.06
434.509	84.06
434.731	94.06
434.953	78.06
435.175	75.06
435.397	77.06
435.618	81.06
435.84	90.06
436.062	99.06
436.284	88.06
436.505	77.06
436.727	75.06
436.949	81.06
437.17	79.06
437.392	74.06
437.614	77.06
437.835	85.06
438.057	81.06
438.278	71.06
438.5	82.06
438.721	96.06
438.943	79.06
439.165	70.06
439.386	88.06
439.608	82.06
439.829	78.06
440.05	79.06
440.272	87.06
440.493	74.06
440.715	75.06
440.936	91.06
441.158	81.06
441.379	82.06
441.6	93.06
441.822	78.06
442.043	65.06
442.264	90.06
442.486	69.06
442.707	82.06
442.928	77.06
443.149	93.06
443.371	67.06
443.592	87.06
443.813	74.06
444.034	67.06
444.255	80.06
444.476	77.06
444.698	75.06
444.919	85.06
445.14	159.06
445.361	121.06
445.582	87.06
445.803	81.06
446.024	72.06
446.245	90.06
446.466	87.06
446.687	84.06
446.908	94.06
447.129	78.06
447.35	81.06
447.571	82.06
447.792	80.06
448.013	92.06
448.234	88.06
448.455	82.06
448.675	87.06
448.896	87.06
449.117	83.06
449.338	82.06
449.559	79.06
449.779	75.06
450	77.06
450.221	87.06
450.442	79.06
450.662	90.06
450.883	90.06
451.104	69.06
451.324	101.06
451.545	90.06
451.766	60.06
451.986	93.06
452.207	82.06
452.428	77.06
452.648	86.06
452.869	89.06
453.089	91.06
453.31	82.06
453.53	79.06
453.751	81.06
453.971	92.06
454.192	73.06
454.412	67.06
454.633	91.06
454.853	86.06
455.073	88.06
455.294	88.06
455.514	76.06
455.734	90.06
455.955	81.06
456.175	83.06
456.395	80.06
456.616	69.06
456.836	97.06
457.056	79.06
457.276	89.06
457.497	84.06
457.717	79.06
457.937	77.06
458.157	65.06
458.377	86.06
458.598	65.06
458.818	85.06
459.038	95.06
459.258	82.06
459.478	81.06
459.698	93.06
459.918	79.06
460.138	83.06
460.358	86.06
460.578	83.06
460.798	89.06
461.018	93.06
461.238	89.06
461.458	80.06
461.678	83.06
461.898	91.06
462.118	69.06
462.338	90.06
462.558	82.06
462.777	73.06
462.997	81.06
463.217	82.06
463.437	85.06
463.657	91.06
463.876	68.06
464.096	85.06
464.316	79.06
464.536	90.06
464.755	97.06
464.975	79.06
465.195	85.06
465.414	78.06
465.634	77.06
465.854	86.06
466.073	88.06
466.293	69.06
466.512	73.06
466.732	74.06
466.951	74.06
467.171	84.06
467.391	86.06
467.61	70.06
467.829	77.06
468.049	83.06
468.268	77.06
468.488	80.06
468.707	75.06
468.927	94.06
469.146	81.06
469.365	87.06
469.585	83.06
469.804	77.06
470.023	72.06
470.243	95.06
470.462	81.06
470.681	82.06
470.901	92.06
471.12	93.06
471.339	82.06
471.558	88.06
471.777	78.06
471.997	91.06
472.216	73.06
472.435	87.06
472.654	72.06
472.873	75.06
473.092	77.06
473.311	80.06
473.53	83.06
473.749	85.06
473.968	89.06
474.187	66.06
474.406	92.06
474.625	88.06
474.844	88.06
475.063	85.06
475.282	86.06
475.501	82.06
475.72	80.06
475.939	87.06
476.158	83.06
476.377	84.06
476.596	78.06
476.814	86.06
477.033	61.06
477.252	89.06
477.471	89.06
477.69	93.06
477.908	85.06
478.127	86.06
478.346	95.06
478.564	77.06
478.783	98.06
479.002	72.06
479.22	76.06
479.439	80.06
479.658	83.06
479.876	81.06
480.095	83.06
480.313	92.06
480.532	82.06
480.751	81.06
480.969	83.06
481.188	89.06
481.406	87.06
481.624	93.06
481.843	78.06
482.061	65.06
482.28	93.06
482.498	82.06
482.717	103.06
482.935	87.06
483.153	88.06
483.372	91.06
483.59	73.06
483.808	83.06
484.027	75.06
484.245	94.06
484.463	85.06
484.681	98.06
484.9	80.06
485.118	72.06
485.336	92.06
485.554	77.06
485.772	94.06
485.99	95.06
486.209	88.06
486.427	89.06
486.645	95.06
486.863	79.06
487.081	71.06
487.299	76.06
487.517	87.06
487.735	73.06
487.953	87.06
488.171	85.06
488.389	69.06
488.607	80.06
488.825	89.06
489.043	75.06
489.261	78.06
489.479	67.06
489.696	99.06
489.914	79.06
490.132	80.06
490.35	76.06
490.568	89.06
490.786	87.06
491.003	81.06
491.221	87.06
491.439	77.06
491.657	77.06
491.874	87.06
492.092	78.06
492.31	101.06
492.527	94.06
492.745	90.06
492.963	88.06
493.18	85.06
493.398	87.06
493.615	80.06
493.833	92.06
494.05	65.06
494.268	87.06
494.485	88.06
494.703	87.06
494.92	85.06
495.138	95.06
495.355	94.06
495.573	99.06
495.79	90.06
496.008	83.06
496.225	89.06
496.442	89.06
496.66	96.06
496.877	91.06
497.094	95.06
497.312	79.06
497.529	85.06
497.746	89.06
497.963	80.06
498.181	86.06
498.398	77.06
498.615	95.06
498.832	86.06
499.049	77.06
499.267	92.06
499.484	83.06
499.701	83.06
499.918	77.06
500.135	79.06
500.352	82.06
500.569	89.06
500.786	79.06
501.003	74.06
501.22	74.06
501.437	74.06
501.654	85.06
501.871	85.06
502.088	86.06
502.305	88.06
502.522	90.06
502.739	78.06
502.956	79.06
503.172	79.06
503.389	95.06
503.606	88.06
503.823	94.06
504.04	89.06
504.256	81.06
504.473	92.06
504.69	67.06
504.907	92.06
505.123	71.06
505.34	85.06
505.557	89.06
505.773	86.06
505.99	84.06
506.207	83.06
506.423	89.06
506.64	89.06
506.856	78.06
507.073	85.06
507.289	90.06
507.506	86.06
507.722	79.06
507.939	78.06
508.155	75.06
508.372	92.06
508.588	79.06
508.805	86.06
509.021	73.06
509.238	90.06
509.454	79.06
509.67	81.06
509.887	84.06
510.103	83.06
510.319	71.06
510.536	88.06
510.752	95.06
510.968	90.06
511.184	85.06
511.401	83.06
511.617	89.06
511.833	97.06
512.049	82.06
512.265	85.06
512.481	85.06
512.698	85.06
512.914	81.06
513.13	81.06
513.346	83.06
513.562	86.06
513.778	82.06
513.994	90.06
514.21	85.06
514.426	97.06
514.642	75.06
514.858	70.06
515.074	96.06
515.29	82.06
515.506	91.06
515.721	88.06
515.937	85.06
516.153	83.06
516.369	93.06
516.585	103.06
516.801	73.06
517.016	80.06
517.232	93.06
517.448	85.06
517.664	90.06
517.879	85.06
518.095	82.06
518.311	71.06
518.527	92.06
518.742	78.06
518.958	81.06
519.173	86.06
519.389	77.06
519.605	75.06
519.82	77.06
520.036	85.06
520.251	78.06
