Data from BG_HRD10591_094.txt Node
Date: Fri May 16 15:21:40 EDT 2025
User: Yrep
Spectrometer: HR+D1059
Trigger mode: 1
Integration Time (sec): 1.000000E-1
Scans to average: 1
Electric dark correction enabled: true
Nonlinearity correction enabled: false
Boxcar width: 0
XAxis mode: Wavelengths
Number of Pixels in Spectrum: 2048
>>>>>Begin Spectral Data<<<<<
223.165	-14.25
223.4	-14.25
223.635	-14.25
223.869	-13.25
224.104	-4.25
224.338	-10.25
224.573	-18.25
224.808	-11.25
225.042	-3.25
225.277	-15.25
225.511	5.75
225.746	-0.25
225.98	4.75
226.215	10.75
226.449	3.75
226.683	6.75
226.918	22.75
227.152	35.75
227.387	28.75
227.621	39.75
227.856	48.75
228.09	49.75
228.324	52.75
228.559	60.75
228.793	57.75
229.027	70.75
229.262	65.75
229.496	67.75
229.73	76.75
229.964	73.75
230.199	79.75
230.433	71.75
230.667	83.75
230.901	72.75
231.136	80.75
231.37	74.75
231.604	58.75
231.838	80.75
232.072	78.75
232.306	86.75
232.541	70.75
232.775	91.75
233.009	80.75
233.243	77.75
233.477	77.75
233.711	88.75
233.945	88.75
234.179	81.75
234.413	83.75
234.647	73.75
234.881	76.75
235.115	75.75
235.349	85.75
235.583	86.75
235.817	76.75
236.051	71.75
236.285	74.75
236.519	87.75
236.753	84.75
236.987	86.75
237.221	62.75
237.455	85.75
237.689	69.75
237.922	73.75
238.156	76.75
238.39	77.75
238.624	71.75
238.858	73.75
239.091	86.75
239.325	70.75
239.559	71.75
239.793	76.75
240.027	84.75
240.26	87.75
240.494	74.75
240.728	71.75
240.961	77.75
241.195	72.75
241.429	88.75
241.662	77.75
241.896	78.75
242.13	72.75
242.363	72.75
242.597	78.75
242.83	76.75
243.064	81.75
243.298	79.75
243.531	85.75
243.765	72.75
243.998	76.75
244.232	82.75
244.465	87.75
244.699	80.75
244.932	85.75
245.166	74.75
245.399	72.75
245.633	75.75
245.866	67.75
246.099	75.75
246.333	81.75
246.566	73.75
246.8	80.75
247.033	81.75
247.266	72.75
247.5	96.75
247.733	76.75
247.966	95.75
248.2	79.75
248.433	63.75
248.666	69.75
248.899	66.75
249.133	64.75
249.366	81.75
249.599	82.75
249.832	75.75
250.066	94.75
250.299	79.75
250.532	84.75
250.765	84.75
250.998	65.75
251.231	68.75
251.465	72.75
251.698	80.75
251.931	82.75
252.164	79.75
252.397	76.75
252.63	73.75
252.863	83.75
253.096	85.75
253.329	81.75
253.562	80.75
253.795	83.75
254.028	79.75
254.261	74.75
254.494	70.75
254.727	75.75
254.96	80.75
255.193	79.75
255.426	73.75
255.659	85.75
255.892	73.75
256.124	78.75
256.357	87.75
256.59	80.75
256.823	89.75
257.056	91.75
257.289	85.75
257.521	82.75
257.754	70.75
257.987	70.75
258.22	84.75
258.452	77.75
258.685	87.75
258.918	76.75
259.151	84.75
259.383	90.75
259.616	88.75
259.849	86.75
260.081	78.75
260.314	84.75
260.547	75.75
260.779	81.75
261.012	78.75
261.244	94.75
261.477	82.75
261.71	82.75
261.942	75.75
262.175	91.75
262.407	79.75
262.64	76.75
262.872	103.75
263.105	91.75
263.337	78.75
263.57	77.75
263.802	71.75
264.035	74.75
264.267	69.75
264.499	74.75
264.732	82.75
264.964	96.75
265.197	81.75
265.429	85.75
265.661	75.75
265.894	93.75
266.126	91.75
266.358	92.75
266.591	84.75
266.823	65.75
267.055	81.75
267.287	81.75
267.52	77.75
267.752	81.75
267.984	82.75
268.216	69.75
268.448	72.75
268.681	79.75
268.913	84.75
269.145	86.75
269.377	97.75
269.609	78.75
269.841	80.75
270.073	76.75
270.306	78.75
270.538	74.75
270.77	79.75
271.002	76.75
271.234	88.75
271.466	63.75
271.698	92.75
271.93	86.75
272.162	95.75
272.394	74.75
272.626	88.75
272.858	74.75
273.09	80.75
273.322	72.75
273.553	85.75
273.785	76.75
274.017	74.75
274.249	82.75
274.481	94.75
274.713	85.75
274.945	95.75
275.176	62.75
275.408	83.75
275.64	86.75
275.872	93.75
276.104	87.75
276.335	84.75
276.567	82.75
276.799	97.75
277.031	87.75
277.262	79.75
277.494	81.75
277.726	80.75
277.957	75.75
278.189	66.75
278.421	91.75
278.652	76.75
278.884	88.75
279.115	96.75
279.347	75.75
279.579	88.75
279.81	85.75
280.042	82.75
280.273	81.75
280.505	75.75
280.736	96.75
280.968	76.75
281.199	77.75
281.431	67.75
281.662	91.75
281.894	64.75
282.125	65.75
282.356	84.75
282.588	89.75
282.819	91.75
283.051	79.75
283.282	75.75
283.513	64.75
283.745	82.75
283.976	77.75
284.207	87.75
284.439	79.75
284.67	81.75
284.901	80.75
285.132	84.75
285.364	96.75
285.595	79.75
285.826	87.75
286.057	75.75
286.288	78.75
286.52	82.75
286.751	85.75
286.982	85.75
287.213	73.75
287.444	81.75
287.675	85.75
287.906	74.75
288.138	77.75
288.369	83.75
288.6	84.75
288.831	80.75
289.062	71.75
289.293	74.75
289.524	77.75
289.755	76.75
289.986	93.75
290.217	89.75
290.448	77.75
290.679	84.75
290.91	78.75
291.141	86.75
291.371	86.75
291.602	85.75
291.833	84.75
292.064	76.75
292.295	88.75
292.526	86.75
292.757	93.75
292.987	82.75
293.218	88.75
293.449	83.75
293.68	86.75
293.91	84.75
294.141	67.75
294.372	94.75
294.603	68.75
294.833	73.75
295.064	86.75
295.295	71.75
295.525	80.75
295.756	71.75
295.987	87.75
296.217	89.75
296.448	87.75
296.679	79.75
296.909	86.75
297.14	78.75
297.37	80.75
297.601	64.75
297.831	79.75
298.062	95.75
298.292	77.75
298.523	87.75
298.753	86.75
298.984	73.75
299.214	98.75
299.445	79.75
299.675	83.75
299.905	86.75
300.136	76.75
300.366	78.75
300.597	79.75
300.827	74.75
301.057	90.75
301.288	93.75
301.518	78.75
301.748	81.75
301.979	82.75
302.209	79.75
302.439	77.75
302.669	81.75
302.9	81.75
303.13	84.75
303.36	83.75
303.59	77.75
303.82	96.75
304.051	94.75
304.281	92.75
304.511	82.75
304.741	92.75
304.971	87.75
305.201	89.75
305.431	67.75
305.661	68.75
305.891	88.75
306.121	87.75
306.352	75.75
306.582	81.75
306.812	78.75
307.042	81.75
307.272	86.75
307.502	76.75
307.731	70.75
307.961	100.75
308.191	88.75
308.421	89.75
308.651	87.75
308.881	92.75
309.111	85.75
309.341	89.75
309.571	86.75
309.8	93.75
310.03	85.75
310.26	76.75
310.49	72.75
310.72	82.75
310.949	79.75
311.179	66.75
311.409	74.75
311.639	83.75
311.868	81.75
312.098	81.75
312.328	93.75
312.557	87.75
312.787	81.75
313.017	90.75
313.246	86.75
313.476	86.75
313.706	65.75
313.935	85.75
314.165	89.75
314.394	76.75
314.624	82.75
314.853	93.75
315.083	90.75
315.312	84.75
315.542	73.75
315.771	88.75
316.001	79.75
316.23	80.75
316.46	73.75
316.689	75.75
316.919	90.75
317.148	72.75
317.377	84.75
317.607	91.75
317.836	78.75
318.065	72.75
318.295	75.75
318.524	80.75
318.753	74.75
318.983	85.75
319.212	79.75
319.441	68.75
319.67	89.75
319.9	89.75
320.129	83.75
320.358	76.75
320.587	96.75
320.816	87.75
321.046	76.75
321.275	72.75
321.504	82.75
321.733	86.75
321.962	72.75
322.191	86.75
322.42	76.75
322.649	79.75
322.878	86.75
323.108	93.75
323.337	96.75
323.566	72.75
323.795	87.75
324.024	88.75
324.253	81.75
324.482	76.75
324.71	95.75
324.939	88.75
325.168	79.75
325.397	75.75
325.626	85.75
325.855	92.75
326.084	76.75
326.313	84.75
326.542	65.75
326.77	72.75
326.999	84.75
327.228	83.75
327.457	95.75
327.686	82.75
327.914	76.75
328.143	86.75
328.372	86.75
328.6	74.75
328.829	74.75
329.058	80.75
329.287	82.75
329.515	85.75
329.744	84.75
329.972	82.75
330.201	85.75
330.43	73.75
330.658	72.75
330.887	85.75
331.115	79.75
331.344	84.75
331.572	92.75
331.801	90.75
332.03	85.75
332.258	90.75
332.486	81.75
332.715	78.75
332.943	80.75
333.172	81.75
333.4	77.75
333.629	72.75
333.857	82.75
334.085	70.75
334.314	74.75
334.542	79.75
334.771	79.75
334.999	84.75
335.227	90.75
335.455	78.75
335.684	80.75
335.912	82.75
336.14	85.75
336.369	89.75
336.597	89.75
336.825	74.75
337.053	92.75
337.281	83.75
337.51	84.75
337.738	84.75
337.966	87.75
338.194	69.75
338.422	73.75
338.65	79.75
338.878	79.75
339.106	87.75
339.334	86.75
339.562	83.75
339.79	82.75
340.018	82.75
340.246	75.75
340.474	76.75
340.702	104.75
340.93	81.75
341.158	78.75
341.386	84.75
341.614	88.75
341.842	75.75
342.07	93.75
342.298	76.75
342.526	75.75
342.754	70.75
342.981	78.75
343.209	77.75
343.437	84.75
343.665	86.75
343.893	69.75
344.12	100.75
344.348	86.75
344.576	83.75
344.804	82.75
345.031	76.75
345.259	72.75
345.487	80.75
345.714	84.75
345.942	77.75
346.17	70.75
346.397	74.75
346.625	81.75
346.853	89.75
347.08	80.75
347.308	98.75
347.535	85.75
347.763	67.75
347.99	85.75
348.218	88.75
348.445	80.75
348.673	78.75
348.9	80.75
349.128	80.75
349.355	69.75
349.583	88.75
349.81	80.75
350.037	85.75
350.265	85.75
350.492	79.75
350.72	81.75
350.947	91.75
351.174	91.75
351.402	78.75
351.629	78.75
351.856	86.75
352.083	93.75
352.311	73.75
352.538	78.75
352.765	86.75
352.992	84.75
353.22	70.75
353.447	75.75
353.674	78.75
353.901	96.75
354.128	78.75
354.355	71.75
354.583	88.75
354.81	70.75
355.037	88.75
355.264	94.75
355.491	98.75
355.718	85.75
355.945	86.75
356.172	93.75
356.399	95.75
356.626	78.75
356.853	92.75
357.08	81.75
357.307	78.75
357.534	75.75
357.761	78.75
357.988	79.75
358.215	90.75
358.441	76.75
358.668	84.75
358.895	93.75
359.122	88.75
359.349	90.75
359.576	74.75
359.802	72.75
360.029	80.75
360.256	89.75
360.483	80.75
360.709	83.75
360.936	90.75
361.163	91.75
361.39	86.75
361.616	78.75
361.843	73.75
362.07	72.75
362.296	77.75
362.523	73.75
362.749	79.75
362.976	81.75
363.203	69.75
363.429	80.75
363.656	73.75
363.882	76.75
364.109	81.75
364.335	81.75
364.562	85.75
364.788	74.75
365.015	74.75
365.241	81.75
365.468	82.75
365.694	88.75
365.92	73.75
366.147	64.75
366.373	73.75
366.599	79.75
366.826	90.75
367.052	78.75
367.278	71.75
367.505	85.75
367.731	99.75
367.957	82.75
368.184	70.75
368.41	93.75
368.636	73.75
368.862	75.75
369.089	63.75
369.315	68.75
369.541	88.75
369.767	81.75
369.993	77.75
370.219	86.75
370.445	81.75
370.672	80.75
370.898	72.75
371.124	80.75
371.35	60.75
371.576	88.75
371.802	56.75
372.028	80.75
372.254	92.75
372.48	84.75
372.706	96.75
372.932	81.75
373.158	66.75
373.384	89.75
373.61	86.75
373.835	81.75
374.061	86.75
374.287	86.75
374.513	80.75
374.739	79.75
374.965	86.75
375.191	77.75
375.416	82.75
375.642	76.75
375.868	84.75
376.094	82.75
376.319	78.75
376.545	81.75
376.771	75.75
376.997	73.75
377.222	67.75
377.448	74.75
377.674	89.75
377.899	78.75
378.125	83.75
378.35	90.75
378.576	79.75
378.802	65.75
379.027	88.75
379.253	81.75
379.478	76.75
379.704	87.75
379.929	72.75
380.155	88.75
380.38	90.75
380.606	72.75
380.831	71.75
381.057	92.75
381.282	86.75
381.507	91.75
381.733	92.75
381.958	84.75
382.184	72.75
382.409	80.75
382.634	69.75
382.86	79.75
383.085	88.75
383.31	74.75
383.535	84.75
383.761	84.75
383.986	84.75
384.211	71.75
384.436	87.75
384.662	81.75
384.887	77.75
385.112	84.75
385.337	84.75
385.562	84.75
385.787	93.75
386.013	92.75
386.238	85.75
386.463	85.75
386.688	91.75
386.913	73.75
387.138	87.75
387.363	86.75
387.588	78.75
387.813	83.75
388.038	86.75
388.263	88.75
388.488	70.75
388.713	82.75
388.938	77.75
389.163	79.75
389.387	80.75
389.612	77.75
389.837	76.75
390.062	89.75
390.287	74.75
390.512	81.75
390.736	81.75
390.961	84.75
391.186	79.75
391.411	77.75
391.636	92.75
391.86	69.75
392.085	70.75
392.31	87.75
392.534	78.75
392.759	78.75
392.984	79.75
393.208	94.75
393.433	70.75
393.658	80.75
393.882	89.75
394.107	92.75
394.331	79.75
394.556	81.75
394.78	86.75
395.005	89.75
395.229	75.75
395.454	92.75
395.678	80.75
395.903	85.75
396.127	76.75
396.352	74.75
396.576	84.75
396.801	83.75
397.025	64.75
397.249	81.75
397.474	90.75
397.698	76.75
397.922	80.75
398.147	88.75
398.371	71.75
398.595	83.75
398.82	82.75
399.044	70.75
399.268	95.75
399.492	93.75
399.717	90.75
399.941	89.75
400.165	77.75
400.389	69.75
400.613	81.75
400.837	89.75
401.062	74.75
401.286	83.75
401.51	83.75
401.734	85.75
401.958	79.75
402.182	73.75
402.406	72.75
402.63	76.75
402.854	79.75
403.078	71.75
403.302	80.75
403.526	75.75
403.75	78.75
403.974	86.75
404.198	81.75
404.422	81.75
404.645	91.75
404.869	79.75
405.093	82.75
405.317	73.75
405.541	76.75
405.765	72.75
405.988	81.75
406.212	81.75
406.436	84.75
406.66	85.75
406.883	95.75
407.107	62.75
407.331	81.75
407.555	81.75
407.778	81.75
408.002	82.75
408.226	85.75
408.449	71.75
408.673	81.75
408.896	73.75
409.12	100.75
409.344	76.75
409.567	103.75
409.791	86.75
410.014	78.75
410.238	87.75
410.461	89.75
410.685	69.75
410.908	78.75
411.132	76.75
411.355	83.75
411.578	84.75
411.802	80.75
412.025	70.75
412.249	89.75
412.472	74.75
412.695	80.75
412.919	73.75
413.142	72.75
413.365	87.75
413.589	88.75
413.812	79.75
414.035	68.75
414.258	83.75
414.482	85.75
414.705	88.75
414.928	79.75
415.151	70.75
415.374	66.75
415.597	76.75
415.821	72.75
416.044	85.75
416.267	78.75
416.49	81.75
416.713	76.75
416.936	84.75
417.159	76.75
417.382	82.75
417.605	72.75
417.828	86.75
418.051	87.75
418.274	94.75
418.497	81.75
418.72	89.75
418.943	86.75
419.166	84.75
419.389	73.75
419.611	69.75
419.834	95.75
420.057	93.75
420.28	87.75
420.503	80.75
420.726	77.75
420.948	78.75
421.171	74.75
421.394	70.75
421.617	79.75
421.839	83.75
422.062	82.75
422.285	88.75
422.507	91.75
422.73	89.75
422.953	75.75
423.175	64.75
423.398	78.75
423.621	82.75
423.843	66.75
424.066	75.75
424.288	84.75
424.511	75.75
424.733	79.75
424.956	62.75
425.178	86.75
425.401	84.75
425.623	75.75
425.846	81.75
426.068	73.75
426.291	71.75
426.513	84.75
426.735	90.75
426.958	77.75
427.18	80.75
427.402	65.75
427.625	73.75
427.847	84.75
428.069	79.75
428.292	74.75
428.514	90.75
428.736	77.75
428.958	74.75
429.181	78.75
429.403	83.75
429.625	78.75
429.847	79.75
430.069	65.75
430.292	87.75
430.514	84.75
430.736	83.75
430.958	77.75
431.18	79.75
431.402	87.75
431.624	86.75
431.846	94.75
432.068	85.75
432.29	87.75
432.512	77.75
432.734	79.75
432.956	79.75
433.178	81.75
433.4	79.75
433.622	97.75
433.844	90.75
434.066	75.75
434.287	82.75
434.509	84.75
434.731	98.75
434.953	79.75
435.175	93.75
435.397	79.75
435.618	67.75
435.84	79.75
436.062	85.75
436.284	84.75
436.505	88.75
436.727	84.75
436.949	94.75
437.17	71.75
437.392	76.75
437.614	93.75
437.835	74.75
438.057	89.75
438.278	79.75
438.5	90.75
438.721	92.75
438.943	91.75
439.165	78.75
439.386	95.75
439.608	72.75
439.829	84.75
440.05	80.75
440.272	79.75
440.493	80.75
440.715	77.75
440.936	66.75
441.158	76.75
441.379	80.75
441.6	88.75
441.822	77.75
442.043	86.75
442.264	88.75
442.486	80.75
442.707	80.75
442.928	95.75
443.149	88.75
443.371	94.75
443.592	82.75
443.813	72.75
444.034	85.75
444.255	83.75
444.476	58.75
444.698	90.75
444.919	82.75
445.14	150.75
445.361	114.75
445.582	89.75
445.803	77.75
446.024	82.75
446.245	89.75
446.466	74.75
446.687	73.75
446.908	80.75
447.129	88.75
447.35	72.75
447.571	85.75
447.792	89.75
448.013	80.75
448.234	69.75
448.455	85.75
448.675	58.75
448.896	88.75
449.117	86.75
449.338	86.75
449.559	85.75
449.779	67.75
450	79.75
450.221	72.75
450.442	78.75
450.662	90.75
450.883	78.75
451.104	81.75
451.324	81.75
451.545	88.75
451.766	78.75
451.986	64.75
452.207	71.75
452.428	83.75
452.648	63.75
452.869	80.75
453.089	88.75
453.31	90.75
453.53	79.75
453.751	89.75
453.971	72.75
454.192	77.75
454.412	84.75
454.633	78.75
454.853	76.75
455.073	94.75
455.294	84.75
455.514	91.75
455.734	79.75
455.955	85.75
456.175	87.75
456.395	82.75
456.616	66.75
456.836	82.75
457.056	85.75
457.276	79.75
457.497	68.75
457.717	85.75
457.937	69.75
458.157	75.75
458.377	86.75
458.598	61.75
458.818	90.75
459.038	81.75
459.258	67.75
459.478	77.75
459.698	84.75
459.918	72.75
460.138	88.75
460.358	76.75
460.578	76.75
460.798	82.75
461.018	77.75
461.238	75.75
461.458	77.75
461.678	94.75
461.898	81.75
462.118	77.75
462.338	70.75
462.558	69.75
462.777	63.75
462.997	90.75
463.217	80.75
463.437	98.75
463.657	77.75
463.876	79.75
464.096	82.75
464.316	88.75
464.536	80.75
464.755	79.75
464.975	61.75
465.195	88.75
465.414	81.75
465.634	78.75
465.854	78.75
466.073	93.75
466.293	75.75
466.512	82.75
466.732	56.75
466.951	70.75
467.171	78.75
467.391	68.75
467.61	89.75
467.829	88.75
468.049	74.75
468.268	74.75
468.488	80.75
468.707	72.75
468.927	89.75
469.146	97.75
469.365	88.75
469.585	82.75
469.804	89.75
470.023	75.75
470.243	72.75
470.462	84.75
470.681	65.75
470.901	84.75
471.12	80.75
471.339	87.75
471.558	93.75
471.777	89.75
471.997	86.75
472.216	71.75
472.435	72.75
472.654	74.75
472.873	91.75
473.092	80.75
473.311	85.75
473.53	88.75
473.749	77.75
473.968	74.75
474.187	82.75
474.406	76.75
474.625	76.75
474.844	76.75
475.063	85.75
475.282	66.75
475.501	81.75
475.72	88.75
475.939	90.75
476.158	87.75
476.377	77.75
476.596	72.75
476.814	88.75
477.033	83.75
477.252	87.75
477.471	82.75
477.69	86.75
477.908	82.75
478.127	82.75
478.346	87.75
478.564	77.75
478.783	74.75
479.002	79.75
479.22	93.75
479.439	92.75
479.658	81.75
479.876	76.75
480.095	73.75
480.313	78.75
480.532	75.75
480.751	96.75
480.969	82.75
481.188	81.75
481.406	72.75
481.624	86.75
481.843	84.75
482.061	75.75
482.28	75.75
482.498	85.75
482.717	82.75
482.935	90.75
483.153	83.75
483.372	77.75
483.59	76.75
483.808	86.75
484.027	92.75
484.245	86.75
484.463	66.75
484.681	95.75
484.9	76.75
485.118	77.75
485.336	70.75
485.554	76.75
485.772	87.75
485.99	77.75
486.209	71.75
486.427	84.75
486.645	89.75
486.863	96.75
487.081	78.75
487.299	83.75
487.517	82.75
487.735	94.75
487.953	86.75
488.171	96.75
488.389	81.75
488.607	86.75
488.825	70.75
489.043	88.75
489.261	86.75
489.479	67.75
489.696	71.75
489.914	71.75
490.132	86.75
490.35	81.75
490.568	71.75
490.786	66.75
491.003	83.75
491.221	75.75
491.439	86.75
491.657	72.75
491.874	69.75
492.092	81.75
492.31	87.75
492.527	77.75
492.745	75.75
492.963	91.75
493.18	87.75
493.398	67.75
493.615	60.75
493.833	92.75
494.05	81.75
494.268	73.75
494.485	87.75
494.703	81.75
494.92	84.75
495.138	80.75
495.355	89.75
495.573	86.75
495.79	85.75
496.008	91.75
496.225	83.75
496.442	84.75
496.66	87.75
496.877	85.75
497.094	85.75
497.312	80.75
497.529	71.75
497.746	82.75
497.963	73.75
498.181	100.75
498.398	96.75
498.615	81.75
498.832	84.75
499.049	73.75
499.267	77.75
499.484	85.75
499.701	76.75
499.918	66.75
500.135	75.75
500.352	87.75
500.569	96.75
500.786	81.75
501.003	82.75
501.22	77.75
501.437	77.75
501.654	83.75
501.871	74.75
502.088	86.75
502.305	93.75
502.522	78.75
502.739	87.75
502.956	86.75
503.172	79.75
503.389	70.75
503.606	82.75
503.823	100.75
504.04	91.75
504.256	76.75
504.473	93.75
504.69	96.75
504.907	87.75
505.123	80.75
505.34	75.75
505.557	85.75
505.773	94.75
505.99	76.75
506.207	87.75
506.423	81.75
506.64	81.75
506.856	76.75
507.073	74.75
507.289	91.75
507.506	84.75
507.722	78.75
507.939	85.75
508.155	79.75
508.372	87.75
508.588	79.75
508.805	93.75
509.021	78.75
509.238	78.75
509.454	67.75
509.67	86.75
509.887	64.75
510.103	84.75
510.319	85.75
510.536	97.75
510.752	82.75
510.968	76.75
511.184	92.75
511.401	77.75
511.617	82.75
511.833	81.75
512.049	84.75
512.265	77.75
512.481	82.75
512.698	84.75
512.914	88.75
513.13	88.75
513.346	79.75
513.562	97.75
513.778	81.75
513.994	87.75
514.21	77.75
514.426	92.75
514.642	77.75
514.858	87.75
515.074	81.75
515.29	80.75
515.506	88.75
515.721	79.75
515.937	88.75
516.153	89.75
516.369	80.75
516.585	71.75
516.801	71.75
517.016	77.75
517.232	58.75
517.448	75.75
517.664	93.75
517.879	89.75
518.095	92.75
518.311	87.75
518.527	79.75
518.742	67.75
518.958	81.75
519.173	87.75
519.389	73.75
519.605	79.75
519.82	81.75
520.036	75.75
520.251	72.75
