Data from BG_HRD10591_077.txt Node
Date: Fri May 16 15:21:32 EDT 2025
User: Yrep
Spectrometer: HR+D1059
Trigger mode: 1
Integration Time (sec): 1.000000E-1
Scans to average: 1
Electric dark correction enabled: true
Nonlinearity correction enabled: false
Boxcar width: 0
XAxis mode: Wavelengths
Number of Pixels in Spectrum: 2048
>>>>>Begin Spectral Data<<<<<
223.165	-18.5
223.4	-18.5
223.635	-18.5
223.869	-25.5
224.104	-22.5
224.338	-18.5
224.573	-6.5
224.808	-11.5
225.042	-6.5
225.277	-4.5
225.511	3.5
225.746	-0.5
225.98	6.5
226.215	12.5
226.449	15.5
226.683	35.5
226.918	22.5
227.152	18.5
227.387	36.5
227.621	50.5
227.856	32.5
228.09	51.5
228.324	49.5
228.559	57.5
228.793	60.5
229.027	73.5
229.262	71.5
229.496	56.5
229.73	67.5
229.964	74.5
230.199	80.5
230.433	76.5
230.667	66.5
230.901	80.5
231.136	88.5
231.37	78.5
231.604	83.5
231.838	67.5
232.072	80.5
232.306	93.5
232.541	91.5
232.775	73.5
233.009	75.5
233.243	77.5
233.477	88.5
233.711	66.5
233.945	58.5
234.179	74.5
234.413	76.5
234.647	87.5
234.881	77.5
235.115	85.5
235.349	83.5
235.583	85.5
235.817	69.5
236.051	104.5
236.285	77.5
236.519	75.5
236.753	89.5
236.987	84.5
237.221	85.5
237.455	84.5
237.689	82.5
237.922	69.5
238.156	70.5
238.39	66.5
238.624	83.5
238.858	80.5
239.091	71.5
239.325	65.5
239.559	86.5
239.793	73.5
240.027	73.5
240.26	82.5
240.494	74.5
240.728	82.5
240.961	74.5
241.195	76.5
241.429	77.5
241.662	67.5
241.896	70.5
242.13	83.5
242.363	68.5
242.597	74.5
242.83	81.5
243.064	72.5
243.298	87.5
243.531	78.5
243.765	69.5
243.998	72.5
244.232	80.5
244.465	74.5
244.699	63.5
244.932	74.5
245.166	90.5
245.399	96.5
245.633	79.5
245.866	76.5
246.099	82.5
246.333	83.5
246.566	77.5
246.8	83.5
247.033	78.5
247.266	75.5
247.5	87.5
247.733	88.5
247.966	80.5
248.2	76.5
248.433	87.5
248.666	91.5
248.899	81.5
249.133	87.5
249.366	79.5
249.599	65.5
249.832	71.5
250.066	89.5
250.299	83.5
250.532	86.5
250.765	75.5
250.998	81.5
251.231	87.5
251.465	86.5
251.698	65.5
251.931	71.5
252.164	77.5
252.397	67.5
252.63	75.5
252.863	92.5
253.096	71.5
253.329	80.5
253.562	77.5
253.795	85.5
254.028	83.5
254.261	84.5
254.494	91.5
254.727	74.5
254.96	94.5
255.193	81.5
255.426	78.5
255.659	82.5
255.892	78.5
256.124	71.5
256.357	85.5
256.59	67.5
256.823	94.5
257.056	83.5
257.289	77.5
257.521	96.5
257.754	104.5
257.987	84.5
258.22	79.5
258.452	81.5
258.685	79.5
258.918	78.5
259.151	81.5
259.383	88.5
259.616	91.5
259.849	77.5
260.081	73.5
260.314	88.5
260.547	74.5
260.779	89.5
261.012	91.5
261.244	81.5
261.477	62.5
261.71	85.5
261.942	87.5
262.175	90.5
262.407	78.5
262.64	87.5
262.872	88.5
263.105	78.5
263.337	88.5
263.57	91.5
263.802	74.5
264.035	86.5
264.267	81.5
264.499	87.5
264.732	97.5
264.964	82.5
265.197	93.5
265.429	86.5
265.661	76.5
265.894	95.5
266.126	83.5
266.358	99.5
266.591	82.5
266.823	82.5
267.055	87.5
267.287	53.5
267.52	89.5
267.752	90.5
267.984	101.5
268.216	89.5
268.448	77.5
268.681	89.5
268.913	87.5
269.145	97.5
269.377	79.5
269.609	92.5
269.841	74.5
270.073	87.5
270.306	74.5
270.538	82.5
270.77	86.5
271.002	71.5
271.234	82.5
271.466	86.5
271.698	79.5
271.93	85.5
272.162	86.5
272.394	90.5
272.626	83.5
272.858	83.5
273.09	89.5
273.322	91.5
273.553	67.5
273.785	90.5
274.017	78.5
274.249	79.5
274.481	94.5
274.713	78.5
274.945	88.5
275.176	75.5
275.408	72.5
275.64	95.5
275.872	76.5
276.104	66.5
276.335	95.5
276.567	81.5
276.799	90.5
277.031	77.5
277.262	83.5
277.494	88.5
277.726	89.5
277.957	83.5
278.189	85.5
278.421	91.5
278.652	94.5
278.884	81.5
279.115	81.5
279.347	93.5
279.579	90.5
279.81	83.5
280.042	87.5
280.273	85.5
280.505	94.5
280.736	89.5
280.968	88.5
281.199	86.5
281.431	98.5
281.662	81.5
281.894	86.5
282.125	89.5
282.356	74.5
282.588	85.5
282.819	87.5
283.051	92.5
283.282	81.5
283.513	104.5
283.745	91.5
283.976	80.5
284.207	99.5
284.439	75.5
284.67	88.5
284.901	75.5
285.132	82.5
285.364	88.5
285.595	93.5
285.826	110.5
286.057	88.5
286.288	79.5
286.52	83.5
286.751	74.5
286.982	78.5
287.213	76.5
287.444	83.5
287.675	83.5
287.906	94.5
288.138	93.5
288.369	99.5
288.6	79.5
288.831	95.5
289.062	90.5
289.293	81.5
289.524	90.5
289.755	97.5
289.986	86.5
290.217	78.5
290.448	93.5
290.679	78.5
290.91	93.5
291.141	82.5
291.371	100.5
291.602	91.5
291.833	92.5
292.064	85.5
292.295	86.5
292.526	86.5
292.757	75.5
292.987	101.5
293.218	77.5
293.449	93.5
293.68	80.5
293.91	81.5
294.141	78.5
294.372	89.5
294.603	77.5
294.833	94.5
295.064	87.5
295.295	99.5
295.525	92.5
295.756	95.5
295.987	73.5
296.217	81.5
296.448	76.5
296.679	87.5
296.909	98.5
297.14	73.5
297.37	80.5
297.601	101.5
297.831	83.5
298.062	85.5
298.292	85.5
298.523	92.5
298.753	83.5
298.984	92.5
299.214	81.5
299.445	75.5
299.675	81.5
299.905	91.5
300.136	86.5
300.366	79.5
300.597	90.5
300.827	84.5
301.057	93.5
301.288	81.5
301.518	90.5
301.748	74.5
301.979	106.5
302.209	91.5
302.439	85.5
302.669	90.5
302.9	105.5
303.13	91.5
303.36	79.5
303.59	87.5
303.82	84.5
304.051	89.5
304.281	97.5
304.511	83.5
304.741	84.5
304.971	88.5
305.201	86.5
305.431	88.5
305.661	89.5
305.891	87.5
306.121	86.5
306.352	96.5
306.582	95.5
306.812	84.5
307.042	94.5
307.272	91.5
307.502	98.5
307.731	93.5
307.961	90.5
308.191	97.5
308.421	102.5
308.651	108.5
308.881	83.5
309.111	98.5
309.341	93.5
309.571	84.5
309.8	96.5
310.03	92.5
310.26	79.5
310.49	107.5
310.72	87.5
310.949	86.5
311.179	109.5
311.409	107.5
311.639	87.5
311.868	85.5
312.098	86.5
312.328	91.5
312.557	90.5
312.787	90.5
313.017	83.5
313.246	82.5
313.476	77.5
313.706	87.5
313.935	82.5
314.165	103.5
314.394	82.5
314.624	94.5
314.853	85.5
315.083	97.5
315.312	78.5
315.542	104.5
315.771	89.5
316.001	83.5
316.23	78.5
316.46	88.5
316.689	84.5
316.919	88.5
317.148	90.5
317.377	85.5
317.607	77.5
317.836	78.5
318.065	86.5
318.295	95.5
318.524	84.5
318.753	88.5
318.983	97.5
319.212	112.5
319.441	95.5
319.67	85.5
319.9	90.5
320.129	98.5
320.358	85.5
320.587	88.5
320.816	83.5
321.046	91.5
321.275	79.5
321.504	86.5
321.733	95.5
321.962	87.5
322.191	78.5
322.42	91.5
322.649	81.5
322.878	105.5
323.108	90.5
323.337	83.5
323.566	89.5
323.795	107.5
324.024	112.5
324.253	85.5
324.482	72.5
324.71	85.5
324.939	93.5
325.168	95.5
325.397	92.5
325.626	88.5
325.855	87.5
326.084	96.5
326.313	96.5
326.542	86.5
326.77	91.5
326.999	86.5
327.228	95.5
327.457	97.5
327.686	98.5
327.914	95.5
328.143	98.5
328.372	84.5
328.6	85.5
328.829	102.5
329.058	87.5
329.287	101.5
329.515	88.5
329.744	99.5
329.972	96.5
330.201	89.5
330.43	75.5
330.658	95.5
330.887	85.5
331.115	90.5
331.344	83.5
331.572	95.5
331.801	86.5
332.03	87.5
332.258	90.5
332.486	93.5
332.715	85.5
332.943	96.5
333.172	98.5
333.4	79.5
333.629	88.5
333.857	101.5
334.085	97.5
334.314	83.5
334.542	84.5
334.771	80.5
334.999	107.5
335.227	93.5
335.455	98.5
335.684	90.5
335.912	94.5
336.14	82.5
336.369	97.5
336.597	94.5
336.825	87.5
337.053	90.5
337.281	89.5
337.51	81.5
337.738	85.5
337.966	95.5
338.194	84.5
338.422	89.5
338.65	94.5
338.878	91.5
339.106	99.5
339.334	95.5
339.562	83.5
339.79	91.5
340.018	109.5
340.246	92.5
340.474	91.5
340.702	84.5
340.93	103.5
341.158	89.5
341.386	88.5
341.614	97.5
341.842	86.5
342.07	85.5
342.298	80.5
342.526	86.5
342.754	77.5
342.981	101.5
343.209	95.5
343.437	88.5
343.665	89.5
343.893	88.5
344.12	82.5
344.348	79.5
344.576	86.5
344.804	86.5
345.031	93.5
345.259	84.5
345.487	76.5
345.714	95.5
345.942	99.5
346.17	79.5
346.397	97.5
346.625	100.5
346.853	73.5
347.08	76.5
347.308	101.5
347.535	81.5
347.763	87.5
347.99	94.5
348.218	82.5
348.445	86.5
348.673	91.5
348.9	83.5
349.128	89.5
349.355	83.5
349.583	94.5
349.81	91.5
350.037	104.5
350.265	92.5
350.492	88.5
350.72	78.5
350.947	81.5
351.174	73.5
351.402	83.5
351.629	93.5
351.856	85.5
352.083	98.5
352.311	83.5
352.538	70.5
352.765	110.5
352.992	95.5
353.22	91.5
353.447	85.5
353.674	85.5
353.901	90.5
354.128	85.5
354.355	89.5
354.583	88.5
354.81	84.5
355.037	82.5
355.264	70.5
355.491	78.5
355.718	91.5
355.945	91.5
356.172	83.5
356.399	88.5
356.626	85.5
356.853	78.5
357.08	90.5
357.307	103.5
357.534	90.5
357.761	96.5
357.988	85.5
358.215	87.5
358.441	90.5
358.668	91.5
358.895	84.5
359.122	95.5
359.349	86.5
359.576	90.5
359.802	82.5
360.029	87.5
360.256	89.5
360.483	89.5
360.709	93.5
360.936	93.5
361.163	79.5
361.39	90.5
361.616	101.5
361.843	87.5
362.07	88.5
362.296	82.5
362.523	79.5
362.749	84.5
362.976	100.5
363.203	86.5
363.429	69.5
363.656	87.5
363.882	93.5
364.109	94.5
364.335	89.5
364.562	76.5
364.788	96.5
365.015	96.5
365.241	90.5
365.468	89.5
365.694	84.5
365.92	86.5
366.147	77.5
366.373	84.5
366.599	87.5
366.826	103.5
367.052	104.5
367.278	87.5
367.505	82.5
367.731	83.5
367.957	77.5
368.184	85.5
368.41	88.5
368.636	85.5
368.862	94.5
369.089	77.5
369.315	84.5
369.541	81.5
369.767	82.5
369.993	83.5
370.219	81.5
370.445	76.5
370.672	87.5
370.898	84.5
371.124	86.5
371.35	84.5
371.576	83.5
371.802	82.5
372.028	93.5
372.254	93.5
372.48	83.5
372.706	88.5
372.932	98.5
373.158	86.5
373.384	91.5
373.61	94.5
373.835	89.5
374.061	84.5
374.287	96.5
374.513	104.5
374.739	96.5
374.965	80.5
375.191	86.5
375.416	105.5
375.642	93.5
375.868	93.5
376.094	96.5
376.319	75.5
376.545	85.5
376.771	87.5
376.997	80.5
377.222	81.5
377.448	87.5
377.674	82.5
377.899	95.5
378.125	98.5
378.35	83.5
378.576	78.5
378.802	68.5
379.027	88.5
379.253	86.5
379.478	91.5
379.704	78.5
379.929	86.5
380.155	86.5
380.38	87.5
380.606	93.5
380.831	81.5
381.057	85.5
381.282	91.5
381.507	80.5
381.733	79.5
381.958	95.5
382.184	96.5
382.409	75.5
382.634	86.5
382.86	83.5
383.085	86.5
383.31	89.5
383.535	96.5
383.761	90.5
383.986	93.5
384.211	75.5
384.436	88.5
384.662	81.5
384.887	93.5
385.112	89.5
385.337	98.5
385.562	91.5
385.787	78.5
386.013	80.5
386.238	96.5
386.463	91.5
386.688	89.5
386.913	93.5
387.138	97.5
387.363	83.5
387.588	85.5
387.813	91.5
388.038	73.5
388.263	86.5
388.488	86.5
388.713	93.5
388.938	92.5
389.163	78.5
389.387	99.5
389.612	92.5
389.837	88.5
390.062	75.5
390.287	83.5
390.512	82.5
390.736	101.5
390.961	89.5
391.186	91.5
391.411	89.5
391.636	97.5
391.86	75.5
392.085	90.5
392.31	89.5
392.534	83.5
392.759	92.5
392.984	91.5
393.208	85.5
393.433	79.5
393.658	81.5
393.882	88.5
394.107	91.5
394.331	85.5
394.556	78.5
394.78	85.5
395.005	101.5
395.229	111.5
395.454	91.5
395.678	95.5
395.903	89.5
396.127	94.5
396.352	89.5
396.576	97.5
396.801	101.5
397.025	79.5
397.249	79.5
397.474	88.5
397.698	90.5
397.922	97.5
398.147	89.5
398.371	86.5
398.595	93.5
398.82	94.5
399.044	94.5
399.268	99.5
399.492	91.5
399.717	105.5
399.941	89.5
400.165	87.5
400.389	101.5
400.613	77.5
400.837	88.5
401.062	87.5
401.286	89.5
401.51	88.5
401.734	90.5
401.958	96.5
402.182	106.5
402.406	93.5
402.63	92.5
402.854	91.5
403.078	96.5
403.302	82.5
403.526	90.5
403.75	99.5
403.974	85.5
404.198	98.5
404.422	98.5
404.645	85.5
404.869	102.5
405.093	94.5
405.317	99.5
405.541	83.5
405.765	78.5
405.988	91.5
406.212	108.5
406.436	95.5
406.66	95.5
406.883	88.5
407.107	92.5
407.331	90.5
407.555	76.5
407.778	95.5
408.002	91.5
408.226	90.5
408.449	86.5
408.673	106.5
408.896	85.5
409.12	87.5
409.344	82.5
409.567	85.5
409.791	89.5
410.014	108.5
410.238	94.5
410.461	77.5
410.685	80.5
410.908	84.5
411.132	101.5
411.355	87.5
411.578	104.5
411.802	87.5
412.025	83.5
412.249	99.5
412.472	86.5
412.695	83.5
412.919	94.5
413.142	96.5
413.365	85.5
413.589	73.5
413.812	84.5
414.035	85.5
414.258	94.5
414.482	97.5
414.705	80.5
414.928	87.5
415.151	87.5
415.374	85.5
415.597	70.5
415.821	87.5
416.044	103.5
416.267	96.5
416.49	89.5
416.713	86.5
416.936	94.5
417.159	87.5
417.382	98.5
417.605	88.5
417.828	80.5
418.051	92.5
418.274	89.5
418.497	83.5
418.72	105.5
418.943	85.5
419.166	95.5
419.389	91.5
419.611	86.5
419.834	78.5
420.057	92.5
420.28	80.5
420.503	88.5
420.726	83.5
420.948	78.5
421.171	78.5
421.394	87.5
421.617	69.5
421.839	87.5
422.062	78.5
422.285	79.5
422.507	90.5
422.73	88.5
422.953	77.5
423.175	80.5
423.398	91.5
423.621	86.5
423.843	68.5
424.066	84.5
424.288	89.5
424.511	96.5
424.733	84.5
424.956	103.5
425.178	86.5
425.401	95.5
425.623	82.5
425.846	74.5
426.068	93.5
426.291	93.5
426.513	82.5
426.735	79.5
426.958	91.5
427.18	96.5
427.402	89.5
427.625	93.5
427.847	77.5
428.069	97.5
428.292	89.5
428.514	81.5
428.736	88.5
428.958	92.5
429.181	81.5
429.403	105.5
429.625	83.5
429.847	88.5
430.069	89.5
430.292	87.5
430.514	74.5
430.736	79.5
430.958	84.5
431.18	78.5
431.402	88.5
431.624	97.5
431.846	81.5
432.068	82.5
432.29	93.5
432.512	92.5
432.734	95.5
432.956	85.5
433.178	77.5
433.4	91.5
433.622	90.5
433.844	83.5
434.066	84.5
434.287	73.5
434.509	96.5
434.731	101.5
434.953	86.5
435.175	79.5
435.397	76.5
435.618	92.5
435.84	89.5
436.062	89.5
436.284	97.5
436.505	95.5
436.727	90.5
436.949	79.5
437.17	81.5
437.392	81.5
437.614	80.5
437.835	85.5
438.057	88.5
438.278	88.5
438.5	87.5
438.721	101.5
438.943	110.5
439.165	82.5
439.386	89.5
439.608	91.5
439.829	89.5
440.05	81.5
440.272	92.5
440.493	84.5
440.715	90.5
440.936	76.5
441.158	80.5
441.379	89.5
441.6	90.5
441.822	106.5
442.043	95.5
442.264	79.5
442.486	96.5
442.707	87.5
442.928	92.5
443.149	79.5
443.371	78.5
443.592	90.5
443.813	86.5
444.034	83.5
444.255	86.5
444.476	89.5
444.698	93.5
444.919	89.5
445.14	159.5
445.361	120.5
445.582	109.5
445.803	81.5
446.024	93.5
446.245	103.5
446.466	96.5
446.687	75.5
446.908	81.5
447.129	105.5
447.35	92.5
447.571	92.5
447.792	79.5
448.013	78.5
448.234	92.5
448.455	89.5
448.675	89.5
448.896	91.5
449.117	82.5
449.338	80.5
449.559	82.5
449.779	93.5
450	79.5
450.221	89.5
450.442	91.5
450.662	80.5
450.883	79.5
451.104	64.5
451.324	84.5
451.545	85.5
451.766	94.5
451.986	101.5
452.207	88.5
452.428	91.5
452.648	78.5
452.869	81.5
453.089	91.5
453.31	77.5
453.53	87.5
453.751	69.5
453.971	75.5
454.192	82.5
454.412	98.5
454.633	71.5
454.853	89.5
455.073	92.5
455.294	81.5
455.514	102.5
455.734	85.5
455.955	104.5
456.175	89.5
456.395	89.5
456.616	96.5
456.836	83.5
457.056	101.5
457.276	87.5
457.497	85.5
457.717	75.5
457.937	88.5
458.157	91.5
458.377	82.5
458.598	88.5
458.818	74.5
459.038	88.5
459.258	91.5
459.478	88.5
459.698	72.5
459.918	84.5
460.138	79.5
460.358	75.5
460.578	84.5
460.798	82.5
461.018	91.5
461.238	88.5
461.458	96.5
461.678	91.5
461.898	79.5
462.118	89.5
462.338	98.5
462.558	84.5
462.777	96.5
462.997	94.5
463.217	91.5
463.437	93.5
463.657	87.5
463.876	86.5
464.096	103.5
464.316	103.5
464.536	89.5
464.755	82.5
464.975	78.5
465.195	81.5
465.414	97.5
465.634	95.5
465.854	99.5
466.073	82.5
466.293	84.5
466.512	77.5
466.732	86.5
466.951	87.5
467.171	93.5
467.391	82.5
467.61	87.5
467.829	79.5
468.049	83.5
468.268	86.5
468.488	94.5
468.707	91.5
468.927	92.5
469.146	90.5
469.365	82.5
469.585	74.5
469.804	77.5
470.023	82.5
470.243	88.5
470.462	91.5
470.681	82.5
470.901	89.5
471.12	75.5
471.339	95.5
471.558	93.5
471.777	67.5
471.997	88.5
472.216	88.5
472.435	80.5
472.654	92.5
472.873	95.5
473.092	79.5
473.311	100.5
473.53	85.5
473.749	95.5
473.968	86.5
474.187	86.5
474.406	88.5
474.625	91.5
474.844	83.5
475.063	78.5
475.282	94.5
475.501	79.5
475.72	106.5
475.939	103.5
476.158	85.5
476.377	70.5
476.596	92.5
476.814	86.5
477.033	90.5
477.252	87.5
477.471	74.5
477.69	79.5
477.908	95.5
478.127	86.5
478.346	74.5
478.564	88.5
478.783	78.5
479.002	92.5
479.22	91.5
479.439	85.5
479.658	101.5
479.876	91.5
480.095	79.5
480.313	107.5
480.532	91.5
480.751	99.5
480.969	77.5
481.188	86.5
481.406	98.5
481.624	83.5
481.843	83.5
482.061	99.5
482.28	89.5
482.498	88.5
482.717	93.5
482.935	76.5
483.153	105.5
483.372	94.5
483.59	84.5
483.808	90.5
484.027	84.5
484.245	94.5
484.463	75.5
484.681	108.5
484.9	93.5
485.118	97.5
485.336	78.5
485.554	83.5
485.772	82.5
485.99	91.5
486.209	92.5
486.427	79.5
486.645	93.5
486.863	86.5
487.081	94.5
487.299	94.5
487.517	101.5
487.735	96.5
487.953	98.5
488.171	80.5
488.389	86.5
488.607	86.5
488.825	86.5
489.043	87.5
489.261	80.5
489.479	85.5
489.696	87.5
489.914	97.5
490.132	85.5
490.35	106.5
490.568	90.5
490.786	93.5
491.003	87.5
491.221	94.5
491.439	106.5
491.657	96.5
491.874	91.5
492.092	90.5
492.31	95.5
492.527	94.5
492.745	96.5
492.963	99.5
493.18	92.5
493.398	103.5
493.615	101.5
493.833	84.5
494.05	68.5
494.268	82.5
494.485	82.5
494.703	98.5
494.92	88.5
495.138	106.5
495.355	89.5
495.573	99.5
495.79	97.5
496.008	88.5
496.225	77.5
496.442	93.5
496.66	102.5
496.877	109.5
497.094	97.5
497.312	91.5
497.529	101.5
497.746	103.5
497.963	86.5
498.181	86.5
498.398	94.5
498.615	99.5
498.832	80.5
499.049	86.5
499.267	103.5
499.484	108.5
499.701	104.5
499.918	111.5
500.135	99.5
500.352	105.5
500.569	103.5
500.786	106.5
501.003	111.5
501.22	85.5
501.437	94.5
501.654	117.5
501.871	97.5
502.088	92.5
502.305	102.5
502.522	85.5
502.739	97.5
502.956	90.5
503.172	97.5
503.389	87.5
503.606	95.5
503.823	84.5
504.04	95.5
504.256	111.5
504.473	95.5
504.69	100.5
504.907	100.5
505.123	88.5
505.34	92.5
505.557	101.5
505.773	107.5
505.99	85.5
506.207	86.5
506.423	99.5
506.64	85.5
506.856	95.5
507.073	95.5
507.289	93.5
507.506	97.5
507.722	92.5
507.939	90.5
508.155	88.5
508.372	77.5
508.588	91.5
508.805	95.5
509.021	89.5
509.238	80.5
509.454	85.5
509.67	83.5
509.887	80.5
510.103	93.5
510.319	94.5
510.536	110.5
510.752	72.5
510.968	80.5
511.184	75.5
511.401	90.5
511.617	93.5
511.833	102.5
512.049	88.5
512.265	88.5
512.481	83.5
512.698	95.5
512.914	82.5
513.13	81.5
513.346	92.5
513.562	76.5
513.778	85.5
513.994	90.5
514.21	88.5
514.426	81.5
514.642	91.5
514.858	86.5
515.074	85.5
515.29	104.5
515.506	81.5
515.721	93.5
515.937	94.5
516.153	95.5
516.369	85.5
516.585	83.5
516.801	92.5
517.016	104.5
517.232	89.5
517.448	83.5
517.664	89.5
517.879	94.5
518.095	107.5
518.311	92.5
518.527	91.5
518.742	86.5
518.958	89.5
519.173	99.5
519.389	96.5
519.605	91.5
519.82	80.5
520.036	88.5
520.251	91.5
520.467	94.5
520.682	83.5
520.898	93.5
521.113	91.5
521.329	100.5
521.544	87.5
521.76	91.5
521.975	96.5
522.19	86.5
522.406	94.5
522.621	101.5
522.836	88.5
523.052	90.5
523.267	105.5
523.482	94.5
523.698	99.5
523.913	83.5
524.128	99.5
524.343	84.5
524.559	89.5
524.774	93.5
524.989	86.5
525.204	95.5
525.419	102.5
525.634	84.5
525.849	89.5
526.064	78.5
526.28	94.5
526.495	83.5
526.71	97.5
526.925	90.5
527.14	84.5
527.355	94.5
527.57	99.5
527.785	91.5
527.999	88.5
528.214	96.5
528.429	86.5
528.644	82.5
528.859	95.5
529.074	94.5
529.289	88.5
529.503	83.5
529.718	98.5
529.933	82.5
530.148	106.5
530.363	91.5
530.577	98.5
530.792	88.5
531.007	93.5
531.221	92.5
531.436	82.5
531.651	107.5
531.865	86.5
532.08	81.5
532.295	83.5
532.509	81.5
532.724	87.5
532.938	71.5
533.153	94.5
533.367	96.5
533.582	82.5
533.796	88.5
534.011	89.5
534.225	89.5
534.44	82.5
534.654	93.5
534.868	85.5
535.083	95.5
535.297	86.5
535.511	104.5
535.726	91.5
535.94	84.5
536.154	88.5
536.369	72.5
536.583	90.5
536.797	97.5
537.011	97.5
537.225	105.5
537.44	101.5
537.654	72.5
537.868	74.5
538.082	93.5
538.296	93.5
538.51	92.5
538.724	83.5
538.938	90.5
