Data from BG_HRD10591_091.txt Node
Date: Fri May 16 15:21:39 EDT 2025
User: Yrep
Spectrometer: HR+D1059
Trigger mode: 1
Integration Time (sec): 1.000000E-1
Scans to average: 1
Electric dark correction enabled: true
Nonlinearity correction enabled: false
Boxcar width: 0
XAxis mode: Wavelengths
Number of Pixels in Spectrum: 2048
>>>>>Begin Spectral Data<<<<<
223.165	-21.38
223.4	-21.38
223.635	-21.38
223.869	-9.38
224.104	-22.38
224.338	-18.38
224.573	-10.38
224.808	-9.38
225.042	-11.38
225.277	0.62
225.511	-13.38
225.746	18.62
225.98	5.62
226.215	-2.38
226.449	15.62
226.683	23.62
226.918	25.62
227.152	28.62
227.387	31.62
227.621	41.62
227.856	45.62
228.09	46.62
228.324	66.62
228.559	67.62
228.793	52.62
229.027	59.62
229.262	70.62
229.496	80.62
229.73	76.62
229.964	94.62
230.199	78.62
230.433	70.62
230.667	77.62
230.901	67.62
231.136	92.62
231.37	83.62
231.604	81.62
231.838	82.62
232.072	67.62
232.306	67.62
232.541	78.62
232.775	71.62
233.009	79.62
233.243	66.62
233.477	65.62
233.711	70.62
233.945	77.62
234.179	90.62
234.413	82.62
234.647	86.62
234.881	70.62
235.115	79.62
235.349	81.62
235.583	82.62
235.817	75.62
236.051	63.62
236.285	75.62
236.519	81.62
236.753	65.62
236.987	82.62
237.221	81.62
237.455	70.62
237.689	72.62
237.922	78.62
238.156	73.62
238.39	66.62
238.624	86.62
238.858	76.62
239.091	71.62
239.325	78.62
239.559	76.62
239.793	78.62
240.027	82.62
240.26	67.62
240.494	83.62
240.728	71.62
240.961	67.62
241.195	59.62
241.429	73.62
241.662	74.62
241.896	75.62
242.13	89.62
242.363	80.62
242.597	79.62
242.83	79.62
243.064	83.62
243.298	72.62
243.531	73.62
243.765	80.62
243.998	105.62
244.232	76.62
244.465	71.62
244.699	70.62
244.932	78.62
245.166	87.62
245.399	92.62
245.633	83.62
245.866	88.62
246.099	80.62
246.333	87.62
246.566	95.62
246.8	97.62
247.033	80.62
247.266	73.62
247.5	75.62
247.733	67.62
247.966	62.62
248.2	70.62
248.433	71.62
248.666	79.62
248.899	77.62
249.133	81.62
249.366	85.62
249.599	78.62
249.832	80.62
250.066	79.62
250.299	94.62
250.532	81.62
250.765	85.62
250.998	72.62
251.231	92.62
251.465	82.62
251.698	84.62
251.931	69.62
252.164	81.62
252.397	72.62
252.63	83.62
252.863	73.62
253.096	67.62
253.329	80.62
253.562	79.62
253.795	75.62
254.028	93.62
254.261	87.62
254.494	74.62
254.727	65.62
254.96	75.62
255.193	93.62
255.426	96.62
255.659	76.62
255.892	87.62
256.124	80.62
256.357	85.62
256.59	80.62
256.823	94.62
257.056	88.62
257.289	88.62
257.521	86.62
257.754	78.62
257.987	83.62
258.22	81.62
258.452	76.62
258.685	77.62
258.918	85.62
259.151	81.62
259.383	86.62
259.616	92.62
259.849	85.62
260.081	81.62
260.314	80.62
260.547	77.62
260.779	83.62
261.012	78.62
261.244	99.62
261.477	85.62
261.71	82.62
261.942	70.62
262.175	89.62
262.407	79.62
262.64	77.62
262.872	78.62
263.105	84.62
263.337	93.62
263.57	89.62
263.802	82.62
264.035	75.62
264.267	72.62
264.499	92.62
264.732	96.62
264.964	88.62
265.197	87.62
265.429	80.62
265.661	71.62
265.894	81.62
266.126	76.62
266.358	81.62
266.591	99.62
266.823	86.62
267.055	98.62
267.287	79.62
267.52	79.62
267.752	90.62
267.984	87.62
268.216	92.62
268.448	83.62
268.681	93.62
268.913	76.62
269.145	95.62
269.377	90.62
269.609	87.62
269.841	73.62
270.073	71.62
270.306	90.62
270.538	90.62
270.77	78.62
271.002	81.62
271.234	89.62
271.466	89.62
271.698	94.62
271.93	74.62
272.162	93.62
272.394	93.62
272.626	86.62
272.858	95.62
273.09	90.62
273.322	88.62
273.553	84.62
273.785	75.62
274.017	78.62
274.249	74.62
274.481	103.62
274.713	93.62
274.945	95.62
275.176	87.62
275.408	84.62
275.64	85.62
275.872	80.62
276.104	79.62
276.335	81.62
276.567	77.62
276.799	95.62
277.031	82.62
277.262	91.62
277.494	95.62
277.726	105.62
277.957	82.62
278.189	77.62
278.421	95.62
278.652	95.62
278.884	96.62
279.115	87.62
279.347	78.62
279.579	83.62
279.81	89.62
280.042	89.62
280.273	90.62
280.505	81.62
280.736	105.62
280.968	81.62
281.199	97.62
281.431	110.62
281.662	91.62
281.894	84.62
282.125	94.62
282.356	59.62
282.588	89.62
282.819	68.62
283.051	86.62
283.282	98.62
283.513	90.62
283.745	103.62
283.976	75.62
284.207	87.62
284.439	83.62
284.67	89.62
284.901	78.62
285.132	87.62
285.364	96.62
285.595	93.62
285.826	80.62
286.057	91.62
286.288	84.62
286.52	85.62
286.751	87.62
286.982	89.62
287.213	86.62
287.444	82.62
287.675	91.62
287.906	93.62
288.138	90.62
288.369	83.62
288.6	81.62
288.831	90.62
289.062	89.62
289.293	88.62
289.524	98.62
289.755	84.62
289.986	83.62
290.217	96.62
290.448	82.62
290.679	98.62
290.91	77.62
291.141	88.62
291.371	90.62
291.602	82.62
291.833	77.62
292.064	83.62
292.295	77.62
292.526	90.62
292.757	83.62
292.987	89.62
293.218	88.62
293.449	102.62
293.68	87.62
293.91	95.62
294.141	97.62
294.372	89.62
294.603	94.62
294.833	94.62
295.064	78.62
295.295	86.62
295.525	84.62
295.756	86.62
295.987	96.62
296.217	83.62
296.448	83.62
296.679	77.62
296.909	93.62
297.14	83.62
297.37	81.62
297.601	71.62
297.831	85.62
298.062	79.62
298.292	82.62
298.523	90.62
298.753	77.62
298.984	84.62
299.214	84.62
299.445	83.62
299.675	86.62
299.905	91.62
300.136	80.62
300.366	92.62
300.597	82.62
300.827	88.62
301.057	96.62
301.288	110.62
301.518	83.62
301.748	104.62
301.979	110.62
302.209	92.62
302.439	76.62
302.669	83.62
302.9	79.62
303.13	95.62
303.36	93.62
303.59	73.62
303.82	72.62
304.051	80.62
304.281	79.62
304.511	78.62
304.741	96.62
304.971	90.62
305.201	86.62
305.431	91.62
305.661	94.62
305.891	88.62
306.121	88.62
306.352	85.62
306.582	94.62
306.812	85.62
307.042	77.62
307.272	82.62
307.502	85.62
307.731	98.62
307.961	84.62
308.191	93.62
308.421	97.62
308.651	102.62
308.881	82.62
309.111	92.62
309.341	82.62
309.571	91.62
309.8	94.62
310.03	85.62
310.26	90.62
310.49	78.62
310.72	95.62
310.949	96.62
311.179	84.62
311.409	85.62
311.639	91.62
311.868	89.62
312.098	76.62
312.328	94.62
312.557	95.62
312.787	104.62
313.017	94.62
313.246	87.62
313.476	67.62
313.706	101.62
313.935	88.62
314.165	89.62
314.394	85.62
314.624	89.62
314.853	95.62
315.083	81.62
315.312	77.62
315.542	79.62
315.771	90.62
316.001	88.62
316.23	84.62
316.46	85.62
316.689	83.62
316.919	90.62
317.148	79.62
317.377	75.62
317.607	93.62
317.836	85.62
318.065	83.62
318.295	90.62
318.524	80.62
318.753	77.62
318.983	89.62
319.212	89.62
319.441	93.62
319.67	91.62
319.9	77.62
320.129	88.62
320.358	87.62
320.587	95.62
320.816	95.62
321.046	85.62
321.275	96.62
321.504	85.62
321.733	95.62
321.962	73.62
322.191	93.62
322.42	99.62
322.649	88.62
322.878	73.62
323.108	84.62
323.337	74.62
323.566	88.62
323.795	78.62
324.024	90.62
324.253	87.62
324.482	89.62
324.71	84.62
324.939	97.62
325.168	91.62
325.397	85.62
325.626	88.62
325.855	84.62
326.084	77.62
326.313	94.62
326.542	90.62
326.77	89.62
326.999	85.62
327.228	77.62
327.457	99.62
327.686	86.62
327.914	83.62
328.143	83.62
328.372	104.62
328.6	103.62
328.829	88.62
329.058	105.62
329.287	87.62
329.515	77.62
329.744	80.62
329.972	96.62
330.201	88.62
330.43	82.62
330.658	101.62
330.887	91.62
331.115	82.62
331.344	91.62
331.572	89.62
331.801	91.62
332.03	78.62
332.258	85.62
332.486	88.62
332.715	74.62
332.943	98.62
333.172	93.62
333.4	83.62
333.629	94.62
333.857	75.62
334.085	81.62
334.314	86.62
334.542	103.62
334.771	90.62
334.999	105.62
335.227	92.62
335.455	104.62
335.684	88.62
335.912	92.62
336.14	85.62
336.369	87.62
336.597	96.62
336.825	89.62
337.053	102.62
337.281	84.62
337.51	86.62
337.738	91.62
337.966	94.62
338.194	88.62
338.422	94.62
338.65	90.62
338.878	90.62
339.106	97.62
339.334	102.62
339.562	75.62
339.79	78.62
340.018	94.62
340.246	94.62
340.474	91.62
340.702	85.62
340.93	80.62
341.158	79.62
341.386	90.62
341.614	84.62
341.842	86.62
342.07	72.62
342.298	90.62
342.526	88.62
342.754	86.62
342.981	89.62
343.209	82.62
343.437	97.62
343.665	86.62
343.893	94.62
344.12	78.62
344.348	97.62
344.576	93.62
344.804	86.62
345.031	98.62
345.259	94.62
345.487	92.62
345.714	94.62
345.942	97.62
346.17	77.62
346.397	92.62
346.625	93.62
346.853	86.62
347.08	71.62
347.308	103.62
347.535	96.62
347.763	85.62
347.99	90.62
348.218	105.62
348.445	95.62
348.673	94.62
348.9	82.62
349.128	75.62
349.355	90.62
349.583	91.62
349.81	101.62
350.037	97.62
350.265	93.62
350.492	79.62
350.72	84.62
350.947	77.62
351.174	93.62
351.402	73.62
351.629	89.62
351.856	72.62
352.083	77.62
352.311	82.62
352.538	105.62
352.765	91.62
352.992	85.62
353.22	86.62
353.447	81.62
353.674	80.62
353.901	93.62
354.128	91.62
354.355	87.62
354.583	96.62
354.81	102.62
355.037	93.62
355.264	79.62
355.491	96.62
355.718	93.62
355.945	93.62
356.172	92.62
356.399	69.62
356.626	86.62
356.853	90.62
357.08	80.62
357.307	99.62
357.534	111.62
357.761	101.62
357.988	89.62
358.215	96.62
358.441	95.62
358.668	91.62
358.895	93.62
359.122	86.62
359.349	95.62
359.576	96.62
359.802	75.62
360.029	83.62
360.256	85.62
360.483	94.62
360.709	88.62
360.936	90.62
361.163	103.62
361.39	76.62
361.616	85.62
361.843	89.62
362.07	82.62
362.296	82.62
362.523	88.62
362.749	85.62
362.976	78.62
363.203	73.62
363.429	85.62
363.656	90.62
363.882	83.62
364.109	82.62
364.335	80.62
364.562	83.62
364.788	96.62
365.015	96.62
365.241	89.62
365.468	103.62
365.694	85.62
365.92	93.62
366.147	99.62
366.373	69.62
366.599	80.62
366.826	82.62
367.052	81.62
367.278	90.62
367.505	73.62
367.731	88.62
367.957	81.62
368.184	77.62
368.41	91.62
368.636	87.62
368.862	87.62
369.089	77.62
369.315	87.62
369.541	91.62
369.767	94.62
369.993	96.62
370.219	94.62
370.445	97.62
370.672	87.62
370.898	98.62
371.124	93.62
371.35	88.62
371.576	93.62
371.802	81.62
372.028	73.62
372.254	91.62
372.48	106.62
372.706	93.62
372.932	88.62
373.158	91.62
373.384	88.62
373.61	92.62
373.835	90.62
374.061	76.62
374.287	89.62
374.513	75.62
374.739	73.62
374.965	91.62
375.191	75.62
375.416	95.62
375.642	97.62
375.868	80.62
376.094	94.62
376.319	74.62
376.545	79.62
376.771	95.62
376.997	87.62
377.222	84.62
377.448	79.62
377.674	78.62
377.899	86.62
378.125	88.62
378.35	83.62
378.576	96.62
378.802	103.62
379.027	97.62
379.253	76.62
379.478	89.62
379.704	90.62
379.929	88.62
380.155	92.62
380.38	63.62
380.606	88.62
380.831	84.62
381.057	88.62
381.282	77.62
381.507	79.62
381.733	87.62
381.958	84.62
382.184	88.62
382.409	95.62
382.634	86.62
382.86	90.62
383.085	101.62
383.31	74.62
383.535	70.62
383.761	103.62
383.986	88.62
384.211	86.62
384.436	77.62
384.662	97.62
384.887	89.62
385.112	96.62
385.337	107.62
385.562	90.62
385.787	79.62
386.013	81.62
386.238	96.62
386.463	87.62
386.688	107.62
386.913	77.62
387.138	67.62
387.363	89.62
387.588	102.62
387.813	93.62
388.038	91.62
388.263	81.62
388.488	87.62
388.713	82.62
388.938	98.62
389.163	83.62
389.387	93.62
389.612	85.62
389.837	76.62
390.062	97.62
390.287	89.62
390.512	79.62
390.736	78.62
390.961	76.62
391.186	78.62
391.411	87.62
391.636	92.62
391.86	83.62
392.085	92.62
392.31	99.62
392.534	103.62
392.759	83.62
392.984	90.62
393.208	99.62
393.433	83.62
393.658	97.62
393.882	86.62
394.107	69.62
394.331	89.62
394.556	89.62
394.78	103.62
395.005	78.62
395.229	85.62
395.454	92.62
395.678	103.62
395.903	96.62
396.127	89.62
396.352	80.62
396.576	86.62
396.801	71.62
397.025	73.62
397.249	73.62
397.474	88.62
397.698	103.62
397.922	90.62
398.147	91.62
398.371	98.62
398.595	68.62
398.82	87.62
399.044	97.62
399.268	104.62
399.492	81.62
399.717	102.62
399.941	97.62
400.165	88.62
400.389	97.62
400.613	91.62
400.837	85.62
401.062	80.62
401.286	89.62
401.51	98.62
401.734	84.62
401.958	84.62
402.182	89.62
402.406	95.62
402.63	82.62
402.854	93.62
403.078	67.62
403.302	71.62
403.526	87.62
403.75	95.62
403.974	85.62
404.198	80.62
404.422	85.62
404.645	88.62
404.869	88.62
405.093	89.62
405.317	94.62
405.541	89.62
405.765	91.62
405.988	101.62
406.212	93.62
406.436	92.62
406.66	83.62
406.883	89.62
407.107	105.62
407.331	72.62
407.555	90.62
407.778	91.62
408.002	101.62
408.226	87.62
408.449	87.62
408.673	83.62
408.896	78.62
409.12	79.62
409.344	94.62
409.567	89.62
409.791	101.62
410.014	96.62
410.238	87.62
410.461	87.62
410.685	89.62
410.908	80.62
411.132	90.62
411.355	85.62
411.578	93.62
411.802	96.62
412.025	101.62
412.249	90.62
412.472	77.62
412.695	101.62
412.919	107.62
413.142	97.62
413.365	82.62
413.589	89.62
413.812	85.62
414.035	75.62
414.258	85.62
414.482	74.62
414.705	76.62
414.928	81.62
415.151	92.62
415.374	79.62
415.597	97.62
415.821	92.62
416.044	89.62
416.267	70.62
416.49	85.62
416.713	69.62
416.936	104.62
417.159	92.62
417.382	96.62
417.605	97.62
417.828	101.62
418.051	96.62
418.274	91.62
418.497	77.62
418.72	96.62
418.943	88.62
419.166	91.62
419.389	90.62
419.611	94.62
419.834	89.62
420.057	93.62
420.28	91.62
420.503	87.62
420.726	95.62
420.948	83.62
421.171	82.62
421.394	86.62
421.617	104.62
421.839	90.62
422.062	77.62
422.285	81.62
422.507	94.62
422.73	87.62
422.953	91.62
423.175	85.62
423.398	97.62
423.621	93.62
423.843	85.62
424.066	94.62
424.288	107.62
424.511	101.62
424.733	81.62
424.956	95.62
425.178	68.62
425.401	75.62
425.623	85.62
425.846	97.62
426.068	90.62
426.291	73.62
426.513	91.62
426.735	88.62
426.958	73.62
427.18	95.62
427.402	85.62
427.625	98.62
427.847	97.62
428.069	89.62
428.292	76.62
428.514	91.62
428.736	85.62
428.958	106.62
429.181	85.62
429.403	91.62
429.625	95.62
429.847	89.62
430.069	92.62
430.292	73.62
430.514	86.62
430.736	81.62
430.958	98.62
431.18	87.62
431.402	83.62
431.624	86.62
431.846	82.62
432.068	79.62
432.29	88.62
432.512	96.62
432.734	86.62
432.956	89.62
433.178	86.62
433.4	94.62
433.622	86.62
433.844	79.62
434.066	80.62
434.287	82.62
434.509	86.62
434.731	86.62
434.953	75.62
435.175	89.62
435.397	85.62
435.618	85.62
435.84	100.62
436.062	89.62
436.284	98.62
436.505	65.62
436.727	80.62
436.949	95.62
437.17	91.62
437.392	88.62
437.614	79.62
437.835	84.62
438.057	89.62
438.278	85.62
438.5	89.62
438.721	100.62
438.943	87.62
439.165	85.62
439.386	88.62
439.608	88.62
439.829	97.62
440.05	78.62
440.272	71.62
440.493	73.62
440.715	80.62
440.936	87.62
441.158	89.62
441.379	88.62
441.6	98.62
441.822	85.62
442.043	78.62
442.264	87.62
442.486	95.62
442.707	76.62
442.928	85.62
443.149	91.62
443.371	92.62
443.592	85.62
443.813	102.62
444.034	89.62
444.255	83.62
444.476	83.62
444.698	89.62
444.919	79.62
445.14	167.62
445.361	128.62
445.582	87.62
445.803	89.62
446.024	101.62
446.245	93.62
446.466	97.62
446.687	77.62
446.908	83.62
447.129	110.62
447.35	98.62
447.571	90.62
447.792	78.62
448.013	80.62
448.234	81.62
448.455	84.62
448.675	97.62
448.896	77.62
449.117	85.62
449.338	86.62
449.559	87.62
449.779	77.62
450	90.62
450.221	91.62
450.442	73.62
450.662	97.62
450.883	90.62
451.104	92.62
451.324	97.62
451.545	91.62
451.766	94.62
451.986	94.62
452.207	90.62
452.428	91.62
452.648	82.62
452.869	89.62
453.089	81.62
453.31	79.62
453.53	98.62
453.751	88.62
453.971	100.62
454.192	88.62
454.412	85.62
454.633	72.62
454.853	91.62
455.073	104.62
455.294	94.62
455.514	83.62
455.734	86.62
455.955	85.62
456.175	82.62
456.395	89.62
456.616	91.62
456.836	105.62
457.056	73.62
457.276	85.62
457.497	73.62
457.717	91.62
457.937	80.62
458.157	95.62
458.377	87.62
458.598	95.62
458.818	82.62
459.038	75.62
459.258	87.62
459.478	94.62
459.698	85.62
459.918	87.62
460.138	85.62
460.358	98.62
460.578	107.62
460.798	80.62
461.018	71.62
461.238	82.62
461.458	89.62
461.678	90.62
461.898	86.62
462.118	90.62
462.338	85.62
462.558	91.62
462.777	102.62
462.997	102.62
463.217	95.62
463.437	87.62
463.657	78.62
463.876	101.62
464.096	86.62
464.316	87.62
464.536	97.62
464.755	100.62
464.975	81.62
465.195	102.62
465.414	100.62
465.634	89.62
465.854	81.62
466.073	93.62
466.293	91.62
466.512	94.62
466.732	94.62
466.951	85.62
467.171	95.62
467.391	84.62
467.61	71.62
467.829	88.62
468.049	96.62
468.268	89.62
468.488	88.62
468.707	89.62
468.927	86.62
469.146	89.62
469.365	88.62
469.585	88.62
469.804	97.62
470.023	95.62
470.243	90.62
470.462	82.62
470.681	102.62
470.901	94.62
471.12	107.62
471.339	91.62
471.558	93.62
471.777	88.62
471.997	76.62
472.216	82.62
472.435	85.62
472.654	83.62
472.873	96.62
473.092	97.62
473.311	93.62
473.53	80.62
473.749	106.62
473.968	80.62
474.187	104.62
474.406	89.62
474.625	90.62
474.844	98.62
475.063	74.62
475.282	101.62
475.501	82.62
475.72	92.62
475.939	98.62
476.158	97.62
476.377	82.62
476.596	83.62
476.814	89.62
477.033	90.62
477.252	84.62
477.471	80.62
477.69	84.62
477.908	90.62
478.127	97.62
478.346	92.62
478.564	103.62
478.783	80.62
479.002	77.62
479.22	85.62
479.439	94.62
479.658	81.62
479.876	76.62
480.095	88.62
480.313	93.62
480.532	87.62
480.751	87.62
480.969	96.62
481.188	92.62
481.406	90.62
481.624	96.62
481.843	78.62
482.061	81.62
482.28	76.62
482.498	92.62
482.717	86.62
482.935	80.62
483.153	95.62
483.372	93.62
483.59	86.62
483.808	71.62
484.027	104.62
484.245	99.62
484.463	80.62
484.681	104.62
484.9	89.62
485.118	83.62
485.336	76.62
485.554	77.62
485.772	80.62
485.99	93.62
486.209	83.62
486.427	93.62
486.645	88.62
486.863	91.62
487.081	87.62
487.299	74.62
487.517	71.62
487.735	86.62
487.953	91.62
488.171	89.62
488.389	92.62
488.607	84.62
488.825	88.62
489.043	78.62
489.261	98.62
489.479	85.62
489.696	89.62
489.914	79.62
490.132	91.62
490.35	107.62
490.568	88.62
490.786	105.62
491.003	93.62
491.221	89.62
491.439	85.62
491.657	92.62
491.874	85.62
492.092	82.62
492.31	97.62
492.527	91.62
492.745	91.62
492.963	99.62
493.18	92.62
493.398	93.62
493.615	86.62
493.833	95.62
494.05	79.62
494.268	94.62
494.485	92.62
494.703	106.62
494.92	84.62
495.138	83.62
495.355	86.62
495.573	94.62
495.79	81.62
496.008	113.62
496.225	101.62
496.442	98.62
496.66	92.62
496.877	93.62
497.094	91.62
497.312	97.62
497.529	80.62
497.746	87.62
497.963	82.62
498.181	93.62
498.398	82.62
498.615	80.62
498.832	97.62
499.049	105.62
499.267	98.62
499.484	101.62
499.701	104.62
499.918	93.62
500.135	103.62
500.352	105.62
500.569	114.62
500.786	104.62
501.003	105.62
501.22	106.62
501.437	94.62
501.654	95.62
501.871	101.62
502.088	101.62
502.305	99.62
502.522	98.62
502.739	86.62
502.956	93.62
503.172	96.62
503.389	107.62
503.606	89.62
503.823	98.62
504.04	100.62
504.256	87.62
504.473	101.62
504.69	93.62
504.907	95.62
505.123	102.62
505.34	98.62
505.557	104.62
505.773	86.62
505.99	83.62
506.207	96.62
506.423	88.62
506.64	88.62
506.856	86.62
507.073	95.62
507.289	94.62
507.506	90.62
507.722	89.62
507.939	83.62
508.155	90.62
508.372	84.62
508.588	78.62
508.805	90.62
509.021	83.62
509.238	89.62
509.454	87.62
509.67	88.62
509.887	86.62
510.103	91.62
510.319	76.62
510.536	79.62
510.752	82.62
510.968	81.62
511.184	97.62
511.401	91.62
511.617	93.62
511.833	82.62
512.049	86.62
512.265	68.62
512.481	96.62
512.698	97.62
512.914	82.62
513.13	96.62
513.346	90.62
513.562	87.62
513.778	77.62
513.994	82.62
514.21	93.62
514.426	82.62
514.642	81.62
514.858	96.62
515.074	88.62
515.29	107.62
515.506	97.62
515.721	83.62
515.937	87.62
516.153	98.62
516.369	92.62
516.585	88.62
516.801	90.62
517.016	79.62
517.232	104.62
517.448	96.62
517.664	103.62
517.879	99.62
518.095	85.62
518.311	95.62
518.527	103.62
518.742	85.62
518.958	86.62
