Data from BG_HRD10591_012.txt Node
Date: Fri May 16 15:21:00 EDT 2025
User: Yrep
Spectrometer: HR+D1059
Trigger mode: 1
Integration Time (sec): 1.000000E-1
Scans to average: 1
Electric dark correction enabled: true
Nonlinearity correction enabled: false
Boxcar width: 0
XAxis mode: Wavelengths
Number of Pixels in Spectrum: 2048
>>>>>Begin Spectral Data<<<<<
223.165	-25.75
223.4	-25.75
223.635	-25.75
223.869	-24.75
224.104	-5.75
224.338	-26.75
224.573	-12.75
224.808	-19.75
225.042	-3.75
225.277	-6.75
225.511	8.25
225.746	6.25
225.98	10.25
226.215	0.25
226.449	9.25
226.683	18.25
226.918	30.25
227.152	43.25
227.387	36.25
227.621	42.25
227.856	53.25
228.09	41.25
228.324	50.25
228.559	52.25
228.793	60.25
229.027	78.25
229.262	73.25
229.496	87.25
229.73	75.25
229.964	71.25
230.199	88.25
230.433	73.25
230.667	81.25
230.901	78.25
231.136	75.25
231.37	83.25
231.604	79.25
231.838	97.25
232.072	81.25
232.306	81.25
232.541	77.25
232.775	77.25
233.009	79.25
233.243	81.25
233.477	79.25
233.711	79.25
233.945	81.25
234.179	84.25
234.413	77.25
234.647	83.25
234.881	86.25
235.115	87.25
235.349	75.25
235.583	83.25
235.817	80.25
236.051	73.25
236.285	67.25
236.519	89.25
236.753	85.25
236.987	87.25
237.221	80.25
237.455	77.25
237.689	75.25
237.922	82.25
238.156	76.25
238.39	65.25
238.624	69.25
238.858	73.25
239.091	81.25
239.325	81.25
239.559	82.25
239.793	95.25
240.027	91.25
240.26	85.25
240.494	80.25
240.728	80.25
240.961	98.25
241.195	73.25
241.429	63.25
241.662	71.25
241.896	84.25
242.13	86.25
242.363	68.25
242.597	81.25
242.83	75.25
243.064	82.25
243.298	69.25
243.531	81.25
243.765	79.25
243.998	82.25
244.232	85.25
244.465	75.25
244.699	84.25
244.932	73.25
245.166	87.25
245.399	71.25
245.633	70.25
245.866	99.25
246.099	74.25
246.333	71.25
246.566	70.25
246.8	68.25
247.033	84.25
247.266	76.25
247.5	92.25
247.733	72.25
247.966	75.25
248.2	85.25
248.433	75.25
248.666	74.25
248.899	95.25
249.133	76.25
249.366	72.25
249.599	90.25
249.832	75.25
250.066	87.25
250.299	96.25
250.532	83.25
250.765	90.25
250.998	69.25
251.231	74.25
251.465	78.25
251.698	72.25
251.931	56.25
252.164	81.25
252.397	75.25
252.63	70.25
252.863	73.25
253.096	76.25
253.329	77.25
253.562	80.25
253.795	79.25
254.028	80.25
254.261	82.25
254.494	80.25
254.727	78.25
254.96	89.25
255.193	92.25
255.426	67.25
255.659	89.25
255.892	82.25
256.124	73.25
256.357	93.25
256.59	77.25
256.823	65.25
257.056	77.25
257.289	75.25
257.521	76.25
257.754	81.25
257.987	85.25
258.22	78.25
258.452	91.25
258.685	66.25
258.918	82.25
259.151	77.25
259.383	93.25
259.616	67.25
259.849	82.25
260.081	79.25
260.314	77.25
260.547	82.25
260.779	83.25
261.012	75.25
261.244	80.25
261.477	94.25
261.71	92.25
261.942	82.25
262.175	98.25
262.407	90.25
262.64	83.25
262.872	90.25
263.105	91.25
263.337	81.25
263.57	95.25
263.802	87.25
264.035	96.25
264.267	77.25
264.499	82.25
264.732	80.25
264.964	87.25
265.197	78.25
265.429	82.25
265.661	76.25
265.894	81.25
266.126	79.25
266.358	85.25
266.591	93.25
266.823	79.25
267.055	92.25
267.287	89.25
267.52	72.25
267.752	92.25
267.984	105.25
268.216	91.25
268.448	85.25
268.681	82.25
268.913	72.25
269.145	87.25
269.377	89.25
269.609	85.25
269.841	102.25
270.073	82.25
270.306	71.25
270.538	90.25
270.77	87.25
271.002	81.25
271.234	76.25
271.466	85.25
271.698	80.25
271.93	74.25
272.162	85.25
272.394	86.25
272.626	78.25
272.858	85.25
273.09	94.25
273.322	98.25
273.553	84.25
273.785	76.25
274.017	89.25
274.249	82.25
274.481	85.25
274.713	95.25
274.945	93.25
275.176	89.25
275.408	87.25
275.64	89.25
275.872	91.25
276.104	93.25
276.335	83.25
276.567	85.25
276.799	71.25
277.031	78.25
277.262	86.25
277.494	82.25
277.726	89.25
277.957	101.25
278.189	89.25
278.421	92.25
278.652	79.25
278.884	84.25
279.115	80.25
279.347	75.25
279.579	87.25
279.81	78.25
280.042	93.25
280.273	85.25
280.505	91.25
280.736	90.25
280.968	80.25
281.199	97.25
281.431	91.25
281.662	89.25
281.894	75.25
282.125	79.25
282.356	88.25
282.588	95.25
282.819	79.25
283.051	94.25
283.282	87.25
283.513	92.25
283.745	67.25
283.976	86.25
284.207	86.25
284.439	96.25
284.67	94.25
284.901	94.25
285.132	93.25
285.364	72.25
285.595	71.25
285.826	95.25
286.057	98.25
286.288	91.25
286.52	91.25
286.751	94.25
286.982	88.25
287.213	87.25
287.444	80.25
287.675	91.25
287.906	80.25
288.138	79.25
288.369	93.25
288.6	75.25
288.831	86.25
289.062	86.25
289.293	86.25
289.524	78.25
289.755	86.25
289.986	102.25
290.217	89.25
290.448	89.25
290.679	81.25
290.91	99.25
291.141	88.25
291.371	85.25
291.602	79.25
291.833	82.25
292.064	86.25
292.295	95.25
292.526	75.25
292.757	91.25
292.987	90.25
293.218	95.25
293.449	86.25
293.68	93.25
293.91	77.25
294.141	92.25
294.372	91.25
294.603	88.25
294.833	86.25
295.064	92.25
295.295	85.25
295.525	89.25
295.756	84.25
295.987	73.25
296.217	90.25
296.448	74.25
296.679	90.25
296.909	98.25
297.14	89.25
297.37	81.25
297.601	81.25
297.831	82.25
298.062	88.25
298.292	81.25
298.523	81.25
298.753	74.25
298.984	86.25
299.214	88.25
299.445	88.25
299.675	80.25
299.905	93.25
300.136	93.25
300.366	89.25
300.597	91.25
300.827	87.25
301.057	91.25
301.288	90.25
301.518	84.25
301.748	86.25
301.979	101.25
302.209	90.25
302.439	94.25
302.669	73.25
302.9	61.25
303.13	81.25
303.36	96.25
303.59	87.25
303.82	96.25
304.051	85.25
304.281	94.25
304.511	90.25
304.741	85.25
304.971	87.25
305.201	79.25
305.431	92.25
305.661	83.25
305.891	85.25
306.121	90.25
306.352	81.25
306.582	80.25
306.812	83.25
307.042	87.25
307.272	98.25
307.502	81.25
307.731	87.25
307.961	94.25
308.191	77.25
308.421	90.25
308.651	88.25
308.881	87.25
309.111	80.25
309.341	99.25
309.571	93.25
309.8	76.25
310.03	77.25
310.26	80.25
310.49	81.25
310.72	98.25
310.949	86.25
311.179	71.25
311.409	93.25
311.639	79.25
311.868	84.25
312.098	89.25
312.328	75.25
312.557	83.25
312.787	89.25
313.017	90.25
313.246	87.25
313.476	74.25
313.706	85.25
313.935	82.25
314.165	82.25
314.394	81.25
314.624	85.25
314.853	95.25
315.083	89.25
315.312	91.25
315.542	80.25
315.771	85.25
316.001	74.25
316.23	70.25
316.46	90.25
316.689	82.25
316.919	86.25
317.148	88.25
317.377	82.25
317.607	93.25
317.836	90.25
318.065	88.25
318.295	82.25
318.524	84.25
318.753	79.25
318.983	91.25
319.212	84.25
319.441	85.25
319.67	83.25
319.9	79.25
320.129	79.25
320.358	97.25
320.587	85.25
320.816	86.25
321.046	85.25
321.275	79.25
321.504	72.25
321.733	84.25
321.962	103.25
322.191	81.25
322.42	89.25
322.649	95.25
322.878	86.25
323.108	90.25
323.337	84.25
323.566	92.25
323.795	85.25
324.024	92.25
324.253	75.25
324.482	97.25
324.71	88.25
324.939	90.25
325.168	68.25
325.397	83.25
325.626	84.25
325.855	73.25
326.084	108.25
326.313	86.25
326.542	90.25
326.77	94.25
326.999	93.25
327.228	86.25
327.457	75.25
327.686	90.25
327.914	85.25
328.143	92.25
328.372	87.25
328.6	96.25
328.829	91.25
329.058	101.25
329.287	97.25
329.515	84.25
329.744	73.25
329.972	73.25
330.201	91.25
330.43	91.25
330.658	78.25
330.887	105.25
331.115	87.25
331.344	94.25
331.572	98.25
331.801	65.25
332.03	85.25
332.258	90.25
332.486	91.25
332.715	86.25
332.943	85.25
333.172	86.25
333.4	69.25
333.629	69.25
333.857	81.25
334.085	84.25
334.314	73.25
334.542	79.25
334.771	90.25
334.999	93.25
335.227	91.25
335.455	81.25
335.684	96.25
335.912	98.25
336.14	87.25
336.369	94.25
336.597	85.25
336.825	87.25
337.053	92.25
337.281	99.25
337.51	101.25
337.738	101.25
337.966	86.25
338.194	90.25
338.422	82.25
338.65	77.25
338.878	82.25
339.106	86.25
339.334	89.25
339.562	80.25
339.79	87.25
340.018	90.25
340.246	84.25
340.474	88.25
340.702	82.25
340.93	96.25
341.158	87.25
341.386	89.25
341.614	69.25
341.842	87.25
342.07	82.25
342.298	65.25
342.526	82.25
342.754	98.25
342.981	92.25
343.209	91.25
343.437	98.25
343.665	99.25
343.893	80.25
344.12	101.25
344.348	79.25
344.576	88.25
344.804	85.25
345.031	70.25
345.259	81.25
345.487	82.25
345.714	82.25
345.942	94.25
346.17	87.25
346.397	78.25
346.625	92.25
346.853	83.25
347.08	70.25
347.308	97.25
347.535	83.25
347.763	102.25
347.99	82.25
348.218	91.25
348.445	94.25
348.673	76.25
348.9	89.25
349.128	82.25
349.355	79.25
349.583	95.25
349.81	79.25
350.037	82.25
350.265	92.25
350.492	87.25
350.72	83.25
350.947	95.25
351.174	79.25
351.402	89.25
351.629	107.25
351.856	93.25
352.083	74.25
352.311	96.25
352.538	79.25
352.765	87.25
352.992	88.25
353.22	92.25
353.447	100.25
353.674	97.25
353.901	98.25
354.128	82.25
354.355	89.25
354.583	90.25
354.81	91.25
355.037	89.25
355.264	93.25
355.491	79.25
355.718	91.25
355.945	81.25
356.172	81.25
356.399	89.25
356.626	90.25
356.853	74.25
357.08	82.25
357.307	90.25
357.534	101.25
357.761	93.25
357.988	72.25
358.215	77.25
358.441	101.25
358.668	85.25
358.895	87.25
359.122	67.25
359.349	78.25
359.576	94.25
359.802	78.25
360.029	84.25
360.256	88.25
360.483	71.25
360.709	75.25
360.936	88.25
361.163	98.25
361.39	89.25
361.616	68.25
361.843	97.25
362.07	96.25
362.296	82.25
362.523	79.25
362.749	89.25
362.976	83.25
363.203	89.25
363.429	75.25
363.656	80.25
363.882	77.25
364.109	73.25
364.335	85.25
364.562	75.25
364.788	85.25
365.015	88.25
365.241	97.25
365.468	80.25
365.694	63.25
365.92	70.25
366.147	67.25
366.373	80.25
366.599	80.25
366.826	94.25
367.052	86.25
367.278	88.25
367.505	82.25
367.731	94.25
367.957	96.25
368.184	79.25
368.41	81.25
368.636	78.25
368.862	77.25
369.089	63.25
369.315	93.25
369.541	78.25
369.767	85.25
369.993	80.25
370.219	90.25
370.445	83.25
370.672	74.25
370.898	94.25
371.124	91.25
371.35	85.25
371.576	81.25
371.802	81.25
372.028	72.25
372.254	83.25
372.48	85.25
372.706	78.25
372.932	89.25
373.158	68.25
373.384	91.25
373.61	95.25
373.835	74.25
374.061	89.25
374.287	97.25
374.513	78.25
374.739	87.25
374.965	89.25
375.191	84.25
375.416	68.25
375.642	83.25
375.868	70.25
376.094	81.25
376.319	73.25
376.545	81.25
376.771	97.25
376.997	83.25
377.222	77.25
377.448	82.25
377.674	78.25
377.899	82.25
378.125	88.25
378.35	72.25
378.576	76.25
378.802	86.25
379.027	88.25
379.253	84.25
379.478	96.25
379.704	89.25
379.929	87.25
380.155	75.25
380.38	89.25
380.606	86.25
380.831	82.25
381.057	76.25
381.282	71.25
381.507	73.25
381.733	81.25
381.958	77.25
382.184	95.25
382.409	76.25
382.634	82.25
382.86	78.25
383.085	93.25
383.31	90.25
383.535	93.25
383.761	93.25
383.986	74.25
384.211	81.25
384.436	72.25
384.662	83.25
384.887	74.25
385.112	93.25
385.337	100.25
385.562	87.25
385.787	88.25
386.013	93.25
386.238	93.25
386.463	89.25
386.688	97.25
386.913	98.25
387.138	102.25
387.363	94.25
387.588	97.25
387.813	81.25
388.038	85.25
388.263	81.25
388.488	79.25
388.713	85.25
388.938	82.25
389.163	87.25
389.387	94.25
389.612	77.25
389.837	85.25
390.062	86.25
390.287	81.25
390.512	98.25
390.736	94.25
390.961	81.25
391.186	66.25
391.411	88.25
391.636	82.25
391.86	89.25
392.085	65.25
392.31	78.25
392.534	92.25
392.759	80.25
392.984	81.25
393.208	87.25
393.433	87.25
393.658	83.25
393.882	75.25
394.107	71.25
394.331	92.25
394.556	77.25
394.78	81.25
395.005	96.25
395.229	83.25
395.454	85.25
395.678	78.25
395.903	82.25
396.127	90.25
396.352	83.25
396.576	77.25
396.801	80.25
397.025	79.25
397.249	83.25
397.474	87.25
397.698	73.25
397.922	82.25
398.147	79.25
398.371	82.25
398.595	83.25
398.82	86.25
399.044	86.25
399.268	98.25
399.492	90.25
399.717	78.25
399.941	89.25
400.165	82.25
400.389	88.25
400.613	85.25
400.837	82.25
401.062	96.25
401.286	106.25
401.51	79.25
401.734	87.25
401.958	79.25
402.182	93.25
402.406	79.25
402.63	85.25
402.854	89.25
403.078	83.25
403.302	91.25
403.526	80.25
403.75	65.25
403.974	80.25
404.198	93.25
404.422	79.25
404.645	73.25
404.869	79.25
405.093	76.25
405.317	82.25
405.541	90.25
405.765	82.25
405.988	91.25
406.212	78.25
406.436	67.25
406.66	79.25
406.883	79.25
407.107	79.25
407.331	82.25
407.555	78.25
407.778	85.25
408.002	91.25
408.226	83.25
408.449	87.25
408.673	85.25
408.896	81.25
409.12	96.25
409.344	86.25
409.567	79.25
409.791	94.25
410.014	91.25
410.238	93.25
410.461	76.25
410.685	82.25
410.908	85.25
411.132	85.25
411.355	80.25
411.578	89.25
411.802	82.25
412.025	91.25
412.249	90.25
412.472	70.25
412.695	89.25
412.919	90.25
413.142	78.25
413.365	89.25
413.589	83.25
413.812	81.25
414.035	83.25
414.258	73.25
414.482	79.25
414.705	92.25
414.928	88.25
415.151	78.25
415.374	85.25
415.597	73.25
415.821	74.25
416.044	77.25
416.267	82.25
416.49	86.25
416.713	78.25
416.936	80.25
417.159	76.25
417.382	87.25
417.605	69.25
417.828	77.25
418.051	68.25
418.274	88.25
418.497	75.25
418.72	94.25
418.943	84.25
419.166	90.25
419.389	92.25
419.611	79.25
419.834	87.25
420.057	81.25
420.28	91.25
420.503	73.25
420.726	81.25
420.948	87.25
421.171	88.25
421.394	79.25
421.617	84.25
421.839	82.25
422.062	88.25
422.285	85.25
422.507	79.25
422.73	77.25
422.953	78.25
423.175	85.25
423.398	86.25
423.621	86.25
423.843	68.25
424.066	81.25
424.288	101.25
424.511	85.25
424.733	92.25
424.956	77.25
425.178	70.25
425.401	89.25
425.623	88.25
425.846	79.25
426.068	79.25
426.291	67.25
426.513	88.25
426.735	95.25
426.958	95.25
427.18	77.25
427.402	81.25
427.625	83.25
427.847	75.25
428.069	85.25
428.292	92.25
428.514	78.25
428.736	82.25
428.958	93.25
429.181	97.25
429.403	94.25
429.625	83.25
429.847	81.25
430.069	83.25
430.292	87.25
430.514	83.25
430.736	87.25
430.958	104.25
431.18	79.25
431.402	62.25
431.624	79.25
431.846	83.25
432.068	79.25
432.29	93.25
432.512	98.25
432.734	99.25
432.956	81.25
433.178	72.25
433.4	74.25
433.622	84.25
433.844	87.25
434.066	89.25
434.287	91.25
434.509	82.25
434.731	79.25
434.953	87.25
435.175	86.25
435.397	86.25
435.618	83.25
435.84	80.25
436.062	77.25
436.284	80.25
436.505	82.25
436.727	77.25
436.949	87.25
437.17	87.25
437.392	82.25
437.614	84.25
437.835	83.25
438.057	76.25
438.278	81.25
438.5	74.25
438.721	85.25
438.943	85.25
439.165	88.25
439.386	80.25
439.608	87.25
439.829	88.25
440.05	82.25
440.272	85.25
440.493	78.25
440.715	85.25
440.936	89.25
441.158	76.25
441.379	75.25
441.6	99.25
441.822	85.25
442.043	95.25
442.264	81.25
442.486	82.25
442.707	77.25
442.928	80.25
443.149	80.25
443.371	83.25
443.592	94.25
443.813	75.25
444.034	75.25
444.255	79.25
444.476	91.25
444.698	85.25
444.919	78.25
445.14	185.25
445.361	125.25
445.582	80.25
445.803	90.25
446.024	96.25
446.245	94.25
446.466	79.25
446.687	90.25
446.908	82.25
447.129	75.25
447.35	71.25
447.571	72.25
447.792	94.25
448.013	80.25
448.234	82.25
448.455	80.25
448.675	82.25
448.896	84.25
449.117	88.25
449.338	85.25
449.559	81.25
449.779	87.25
450	95.25
450.221	76.25
450.442	77.25
450.662	82.25
450.883	80.25
451.104	78.25
451.324	90.25
451.545	83.25
451.766	71.25
451.986	77.25
452.207	77.25
452.428	85.25
452.648	85.25
452.869	75.25
453.089	87.25
453.31	74.25
453.53	78.25
453.751	78.25
453.971	72.25
454.192	73.25
454.412	81.25
454.633	107.25
454.853	75.25
455.073	84.25
455.294	75.25
455.514	86.25
455.734	77.25
455.955	78.25
456.175	89.25
456.395	75.25
456.616	65.25
456.836	83.25
457.056	93.25
457.276	80.25
457.497	82.25
457.717	81.25
457.937	83.25
458.157	76.25
458.377	77.25
458.598	98.25
458.818	62.25
459.038	87.25
459.258	86.25
459.478	79.25
459.698	82.25
459.918	84.25
460.138	81.25
460.358	73.25
460.578	67.25
460.798	92.25
461.018	79.25
461.238	77.25
461.458	81.25
461.678	78.25
461.898	75.25
462.118	91.25
462.338	85.25
462.558	87.25
462.777	95.25
462.997	73.25
463.217	63.25
463.437	75.25
463.657	82.25
463.876	82.25
464.096	90.25
464.316	81.25
464.536	82.25
464.755	69.25
464.975	81.25
465.195	86.25
465.414	78.25
465.634	90.25
465.854	82.25
466.073	82.25
466.293	85.25
466.512	92.25
466.732	77.25
466.951	77.25
467.171	68.25
467.391	80.25
467.61	86.25
467.829	74.25
468.049	81.25
468.268	77.25
468.488	86.25
468.707	86.25
468.927	82.25
469.146	77.25
469.365	81.25
469.585	89.25
469.804	72.25
470.023	77.25
470.243	73.25
470.462	71.25
470.681	89.25
470.901	83.25
471.12	70.25
471.339	97.25
471.558	71.25
471.777	78.25
471.997	95.25
472.216	92.25
472.435	82.25
472.654	80.25
472.873	90.25
473.092	93.25
473.311	85.25
473.53	90.25
473.749	90.25
473.968	77.25
474.187	88.25
474.406	85.25
474.625	85.25
474.844	97.25
475.063	90.25
475.282	80.25
475.501	84.25
475.72	85.25
475.939	82.25
476.158	83.25
476.377	77.25
476.596	87.25
476.814	82.25
477.033	87.25
477.252	83.25
477.471	88.25
477.69	80.25
477.908	77.25
478.127	86.25
478.346	95.25
478.564	94.25
478.783	75.25
479.002	92.25
479.22	77.25
479.439	86.25
479.658	83.25
479.876	74.25
480.095	91.25
480.313	88.25
480.532	80.25
480.751	83.25
480.969	101.25
481.188	82.25
481.406	91.25
481.624	88.25
481.843	92.25
482.061	84.25
482.28	74.25
482.498	81.25
482.717	87.25
482.935	81.25
483.153	77.25
483.372	89.25
483.59	82.25
483.808	86.25
484.027	95.25
484.245	80.25
484.463	81.25
484.681	91.25
484.9	87.25
485.118	79.25
485.336	73.25
485.554	70.25
485.772	82.25
485.99	90.25
486.209	90.25
486.427	78.25
486.645	100.25
486.863	75.25
487.081	90.25
487.299	82.25
487.517	87.25
487.735	66.25
487.953	91.25
488.171	81.25
488.389	92.25
488.607	99.25
488.825	73.25
489.043	77.25
489.261	84.25
489.479	77.25
489.696	77.25
489.914	81.25
490.132	91.25
490.35	89.25
490.568	81.25
490.786	93.25
491.003	79.25
491.221	87.25
491.439	82.25
491.657	99.25
491.874	86.25
492.092	79.25
492.31	90.25
492.527	86.25
492.745	81.25
492.963	90.25
493.18	85.25
493.398	87.25
493.615	82.25
493.833	80.25
494.05	89.25
494.268	82.25
494.485	87.25
494.703	81.25
494.92	79.25
495.138	92.25
495.355	91.25
495.573	75.25
495.79	91.25
496.008	85.25
496.225	80.25
496.442	78.25
496.66	80.25
496.877	79.25
497.094	90.25
497.312	79.25
497.529	93.25
497.746	76.25
497.963	93.25
498.181	86.25
498.398	80.25
498.615	84.25
498.832	79.25
499.049	97.25
499.267	94.25
499.484	89.25
499.701	75.25
499.918	88.25
500.135	81.25
500.352	87.25
500.569	80.25
500.786	95.25
501.003	86.25
501.22	80.25
501.437	99.25
501.654	95.25
501.871	85.25
502.088	85.25
502.305	86.25
502.522	84.25
502.739	88.25
502.956	88.25
503.172	75.25
503.389	82.25
503.606	66.25
503.823	77.25
504.04	79.25
504.256	83.25
504.473	95.25
504.69	82.25
504.907	85.25
505.123	81.25
505.34	81.25
505.557	94.25
505.773	95.25
505.99	72.25
506.207	77.25
506.423	84.25
506.64	94.25
506.856	81.25
507.073	90.25
507.289	85.25
507.506	87.25
507.722	95.25
507.939	76.25
508.155	80.25
508.372	86.25
508.588	84.25
508.805	87.25
509.021	81.25
509.238	79.25
509.454	73.25
509.67	82.25
509.887	91.25
510.103	80.25
510.319	86.25
510.536	83.25
510.752	89.25
510.968	73.25
511.184	74.25
511.401	71.25
511.617	80.25
511.833	82.25
512.049	68.25
512.265	93.25
512.481	81.25
512.698	91.25
512.914	77.25
513.13	105.25
513.346	86.25
513.562	68.25
513.778	78.25
513.994	95.25
514.21	98.25
514.426	90.25
514.642	74.25
514.858	64.25
515.074	86.25
515.29	91.25
515.506	92.25
515.721	81.25
515.937	91.25
516.153	89.25
516.369	87.25
516.585	95.25
516.801	87.25
517.016	92.25
517.232	82.25
517.448	83.25
517.664	82.25
517.879	69.25
518.095	73.25
518.311	96.25
518.527	98.25
518.742	88.25
518.958	75.25
519.173	84.25
519.389	81.25
519.605	99.25
519.82	81.25
520.036	92.25
