Data from Circ_2004_H10_HRD10591_00053.txt Node
Date: Wed Jan 03 10:33:24 EST 2024
User: Yrep
Spectrometer: HR+D1059
Trigger mode: 1
Integration Time (sec): 1.000000E-1
Scans to average: 1
Electric dark correction enabled: true
Nonlinearity correction enabled: false
Boxcar width: 0
XAxis mode: Wavelengths
Number of Pixels in Spectrum: 2048
>>>>>Begin Spectral Data<<<<<
223.165	-26.12
223.4	-26.12
223.635	-26.12
223.869	-22.12
224.104	-16.12
224.338	-4.12
224.573	-16.12
224.808	-1.12
225.042	-19.12
225.277	-0.12
225.511	6.88
225.746	11.88
225.98	2.88
226.215	10.88
226.449	6.88
226.683	12.88
226.918	19.88
227.152	32.88
227.387	32.88
227.621	43.88
227.856	59.88
228.09	43.88
228.324	51.88
228.559	50.88
228.793	51.88
229.027	61.88
229.262	65.88
229.496	73.88
229.73	96.88
229.964	86.88
230.199	80.88
230.433	89.88
230.667	91.88
230.901	99.88
231.136	79.88
231.37	80.88
231.604	74.88
231.838	85.88
232.072	75.88
232.306	71.88
232.541	76.88
232.775	85.88
233.009	97.88
233.243	79.88
233.477	78.88
233.711	90.88
233.945	81.88
234.179	89.88
234.413	86.88
234.647	82.88
234.881	89.88
235.115	94.88
235.349	88.88
235.583	81.88
235.817	73.88
236.051	72.88
236.285	95.88
236.519	74.88
236.753	86.88
236.987	98.88
237.221	102.88
237.455	97.88
237.689	93.88
237.922	87.88
238.156	87.88
238.39	75.88
238.624	82.88
238.858	82.88
239.091	91.88
239.325	76.88
239.559	77.88
239.793	88.88
240.027	84.88
240.26	91.88
240.494	84.88
240.728	56.88
240.961	83.88
241.195	86.88
241.429	97.88
241.662	60.88
241.896	80.88
242.13	72.88
242.363	85.88
242.597	76.88
242.83	88.88
243.064	85.88
243.298	75.88
243.531	73.88
243.765	77.88
243.998	93.88
244.232	80.88
244.465	91.88
244.699	74.88
244.932	74.88
245.166	86.88
245.399	75.88
245.633	85.88
245.866	91.88
246.099	87.88
246.333	92.88
246.566	78.88
246.8	69.88
247.033	81.88
247.266	75.88
247.5	69.88
247.733	87.88
247.966	77.88
248.2	81.88
248.433	89.88
248.666	76.88
248.899	89.88
249.133	92.88
249.366	91.88
249.599	93.88
249.832	83.88
250.066	91.88
250.299	87.88
250.532	86.88
250.765	91.88
250.998	86.88
251.231	75.88
251.465	85.88
251.698	78.88
251.931	92.88
252.164	84.88
252.397	94.88
252.63	83.88
252.863	89.88
253.096	82.88
253.329	81.88
253.562	99.88
253.795	87.88
254.028	94.88
254.261	97.88
254.494	77.88
254.727	83.88
254.96	82.88
255.193	83.88
255.426	78.88
255.659	87.88
255.892	78.88
256.124	86.88
256.357	74.88
256.59	88.88
256.823	85.88
257.056	93.88
257.289	82.88
257.521	75.88
257.754	77.88
257.987	79.88
258.22	96.88
258.452	86.88
258.685	88.88
258.918	100.88
259.151	91.88
259.383	85.88
259.616	79.88
259.849	81.88
260.081	83.88
260.314	96.88
260.547	82.88
260.779	96.88
261.012	97.88
261.244	92.88
261.477	99.88
261.71	91.88
261.942	120.88
262.175	109.88
262.407	93.88
262.64	89.88
262.872	85.88
263.105	84.88
263.337	91.88
263.57	87.88
263.802	87.88
264.035	72.88
264.267	84.88
264.499	92.88
264.732	83.88
264.964	88.88
265.197	89.88
265.429	99.88
265.661	88.88
265.894	98.88
266.126	99.88
266.358	85.88
266.591	91.88
266.823	88.88
267.055	85.88
267.287	96.88
267.52	68.88
267.752	81.88
267.984	77.88
268.216	78.88
268.448	86.88
268.681	79.88
268.913	92.88
269.145	87.88
269.377	82.88
269.609	97.88
269.841	97.88
270.073	91.88
270.306	79.88
270.538	81.88
270.77	84.88
271.002	96.88
271.234	87.88
271.466	90.88
271.698	84.88
271.93	98.88
272.162	89.88
272.394	90.88
272.626	96.88
272.858	75.88
273.09	77.88
273.322	85.88
273.553	96.88
273.785	71.88
274.017	89.88
274.249	79.88
274.481	84.88
274.713	93.88
274.945	101.88
275.176	98.88
275.408	90.88
275.64	86.88
275.872	89.88
276.104	71.88
276.335	99.88
276.567	90.88
276.799	108.88
277.031	128.88
277.262	121.88
277.494	109.88
277.726	90.88
277.957	85.88
278.189	91.88
278.421	100.88
278.652	88.88
278.884	75.88
279.115	82.88
279.347	85.88
279.579	93.88
279.81	103.88
280.042	99.88
280.273	137.88
280.505	105.88
280.736	99.88
280.968	90.88
281.199	98.88
281.431	89.88
281.662	97.88
281.894	81.88
282.125	91.88
282.356	122.88
282.588	147.88
282.819	117.88
283.051	103.88
283.282	105.88
283.513	93.88
283.745	91.88
283.976	102.88
284.207	89.88
284.439	89.88
284.67	74.88
284.901	78.88
285.132	91.88
285.364	108.88
285.595	90.88
285.826	91.88
286.057	89.88
286.288	85.88
286.52	103.88
286.751	85.88
286.982	78.88
287.213	94.88
287.444	84.88
287.675	87.88
287.906	79.88
288.138	97.88
288.369	98.88
288.6	82.88
288.831	88.88
289.062	67.88
289.293	87.88
289.524	92.88
289.755	95.88
289.986	90.88
290.217	75.88
290.448	93.88
290.679	85.88
290.91	103.88
291.141	97.88
291.371	88.88
291.602	79.88
291.833	89.88
292.064	100.88
292.295	89.88
292.526	94.88
292.757	99.88
292.987	80.88
293.218	97.88
293.449	93.88
293.68	96.88
293.91	83.88
294.141	91.88
294.372	90.88
294.603	86.88
294.833	73.88
295.064	92.88
295.295	95.88
295.525	95.88
295.756	98.88
295.987	123.88
296.217	141.88
296.448	136.88
296.679	95.88
296.909	91.88
297.14	88.88
297.37	83.88
297.601	83.88
297.831	96.88
298.062	90.88
298.292	97.88
298.523	80.88
298.753	93.88
298.984	100.88
299.214	73.88
299.445	91.88
299.675	102.88
299.905	89.88
300.136	89.88
300.366	87.88
300.597	94.88
300.827	95.88
301.057	94.88
301.288	107.88
301.518	103.88
301.748	88.88
301.979	93.88
302.209	89.88
302.439	91.88
302.669	83.88
302.9	84.88
303.13	79.88
303.36	97.88
303.59	102.88
303.82	116.88
304.051	104.88
304.281	78.88
304.511	96.88
304.741	92.88
304.971	89.88
305.201	113.88
305.431	92.88
305.661	102.88
305.891	84.88
306.121	93.88
306.352	103.88
306.582	107.88
306.812	99.88
307.042	104.88
307.272	115.88
307.502	119.88
307.731	128.88
307.961	97.88
308.191	93.88
308.421	100.88
308.651	86.88
308.881	95.88
309.111	110.88
309.341	100.88
309.571	107.88
309.8	99.88
310.03	99.88
310.26	98.88
310.49	93.88
310.72	95.88
310.949	106.88
311.179	90.88
311.409	96.88
311.639	89.88
311.868	97.88
312.098	97.88
312.328	108.88
312.557	105.88
312.787	108.88
313.017	106.88
313.246	95.88
313.476	84.88
313.706	93.88
313.935	104.88
314.165	92.88
314.394	102.88
314.624	113.88
314.853	94.88
315.083	95.88
315.312	92.88
315.542	88.88
315.771	89.88
316.001	92.88
316.23	100.88
316.46	90.88
316.689	93.88
316.919	113.88
317.148	96.88
317.377	102.88
317.607	83.88
317.836	89.88
318.065	108.88
318.295	89.88
318.524	95.88
318.753	100.88
318.983	95.88
319.212	107.88
319.441	104.88
319.67	96.88
319.9	96.88
320.129	106.88
320.358	102.88
320.587	111.88
320.816	97.88
321.046	109.88
321.275	90.88
321.504	89.88
321.733	102.88
321.962	107.88
322.191	105.88
322.42	95.88
322.649	112.88
322.878	118.88
323.108	123.88
323.337	134.88
323.566	118.88
323.795	157.88
324.024	215.88
324.253	416.88
324.482	855.88
324.71	1749.88
324.939	2319.88
325.168	823.88
325.397	251.88
325.626	153.88
325.855	124.88
326.084	131.88
326.313	131.88
326.542	157.88
326.77	242.88
326.999	469.88
327.228	953.88
327.457	1773.88
327.686	1401.88
327.914	419.88
328.143	258.88
328.372	283.88
328.6	185.88
328.829	136.88
329.058	152.88
329.287	156.88
329.515	137.88
329.744	141.88
329.972	194.88
330.201	336.88
330.43	455.88
330.658	269.88
330.887	187.88
331.115	139.88
331.344	116.88
331.572	111.88
331.801	102.88
332.03	108.88
332.258	101.88
332.486	92.88
332.715	97.88
332.943	106.88
333.172	112.88
333.4	100.88
333.629	121.88
333.857	164.88
334.085	214.88
334.314	331.88
334.542	578.88
334.771	553.88
334.999	186.88
335.227	129.88
335.455	109.88
335.684	100.88
335.912	93.88
336.14	98.88
336.369	103.88
336.597	119.88
336.825	99.88
337.053	100.88
337.281	90.88
337.51	104.88
337.738	100.88
337.966	93.88
338.194	117.88
338.422	93.88
338.65	111.88
338.878	100.88
339.106	94.88
339.334	80.88
339.562	97.88
339.79	101.88
340.018	91.88
340.246	86.88
340.474	107.88
340.702	101.88
340.93	92.88
341.158	98.88
341.386	100.88
341.614	101.88
341.842	105.88
342.07	90.88
342.298	82.88
342.526	97.88
342.754	82.88
342.981	92.88
343.209	99.88
343.437	103.88
343.665	92.88
343.893	96.88
344.12	95.88
344.348	104.88
344.576	107.88
344.804	99.88
345.031	88.88
345.259	99.88
345.487	111.88
345.714	91.88
345.942	86.88
346.17	89.88
346.397	99.88
346.625	97.88
346.853	95.88
347.08	94.88
347.308	101.88
347.535	105.88
347.763	93.88
347.99	93.88
348.218	98.88
348.445	110.88
348.673	105.88
348.9	104.88
349.128	95.88
349.355	92.88
349.583	96.88
349.81	88.88
350.037	86.88
350.265	85.88
350.492	94.88
350.72	88.88
350.947	108.88
351.174	108.88
351.402	109.88
351.629	122.88
351.856	99.88
352.083	109.88
352.311	105.88
352.538	99.88
352.765	111.88
352.992	111.88
353.22	104.88
353.447	95.88
353.674	100.88
353.901	81.88
354.128	103.88
354.355	101.88
354.583	98.88
354.81	99.88
355.037	100.88
355.264	99.88
355.491	111.88
355.718	87.88
355.945	98.88
356.172	87.88
356.399	103.88
356.626	104.88
356.853	94.88
357.08	109.88
357.307	105.88
357.534	99.88
357.761	91.88
357.988	90.88
358.215	107.88
358.441	97.88
358.668	83.88
358.895	111.88
359.122	95.88
359.349	71.88
359.576	102.88
359.802	104.88
360.029	127.88
360.256	105.88
360.483	101.88
360.709	93.88
360.936	116.88
361.163	98.88
361.39	105.88
361.616	99.88
361.843	87.88
362.07	95.88
362.296	104.88
362.523	93.88
362.749	110.88
362.976	96.88
363.203	89.88
363.429	91.88
363.656	81.88
363.882	100.88
364.109	103.88
364.335	95.88
364.562	102.88
364.788	107.88
365.015	97.88
365.241	109.88
365.468	115.88
365.694	113.88
365.92	101.88
366.147	89.88
366.373	89.88
366.599	91.88
366.826	95.88
367.052	102.88
367.278	85.88
367.505	107.88
367.731	97.88
367.957	96.88
368.184	88.88
368.41	104.88
368.636	113.88
368.862	136.88
369.089	105.88
369.315	99.88
369.541	97.88
369.767	101.88
369.993	93.88
370.219	111.88
370.445	74.88
370.672	88.88
370.898	86.88
371.124	85.88
371.35	88.88
371.576	76.88
371.802	87.88
372.028	81.88
372.254	109.88
372.48	102.88
372.706	93.88
372.932	89.88
373.158	84.88
373.384	93.88
373.61	96.88
373.835	99.88
374.061	92.88
374.287	98.88
374.513	105.88
374.739	91.88
374.965	107.88
375.191	89.88
375.416	81.88
375.642	104.88
375.868	91.88
376.094	88.88
376.319	99.88
376.545	91.88
376.771	72.88
376.997	89.88
377.222	82.88
377.448	97.88
377.674	97.88
377.899	93.88
378.125	100.88
378.35	93.88
378.576	114.88
378.802	98.88
379.027	97.88
379.253	74.88
379.478	77.88
379.704	80.88
379.929	95.88
380.155	87.88
380.38	95.88
380.606	115.88
380.831	87.88
381.057	79.88
381.282	88.88
381.507	102.88
381.733	89.88
381.958	96.88
382.184	87.88
382.409	106.88
382.634	103.88
382.86	107.88
383.085	97.88
383.31	104.88
383.535	94.88
383.761	107.88
383.986	102.88
384.211	110.88
384.436	108.88
384.662	97.88
384.887	107.88
385.112	98.88
385.337	93.88
385.562	104.88
385.787	104.88
386.013	104.88
386.238	97.88
386.463	117.88
386.688	103.88
386.913	121.88
387.138	105.88
387.363	106.88
387.588	108.88
387.813	92.88
388.038	99.88
388.263	99.88
388.488	106.88
388.713	101.88
388.938	98.88
389.163	73.88
389.387	105.88
389.612	92.88
389.837	91.88
390.062	93.88
390.287	104.88
390.512	89.88
390.736	93.88
390.961	92.88
391.186	82.88
391.411	104.88
391.636	95.88
391.86	91.88
392.085	91.88
392.31	76.88
392.534	95.88
392.759	87.88
392.984	93.88
393.208	85.88
393.433	99.88
393.658	87.88
393.882	86.88
394.107	99.88
394.331	90.88
394.556	90.88
394.78	96.88
395.005	99.88
395.229	81.88
395.454	82.88
395.678	102.88
395.903	98.88
396.127	85.88
396.352	101.88
396.576	100.88
396.801	90.88
397.025	100.88
397.249	104.88
397.474	91.88
397.698	74.88
397.922	85.88
398.147	84.88
398.371	87.88
398.595	82.88
398.82	102.88
399.044	88.88
399.268	97.88
399.492	83.88
399.717	89.88
399.941	92.88
400.165	107.88
400.389	102.88
400.613	92.88
400.837	89.88
401.062	101.88
401.286	106.88
401.51	90.88
401.734	106.88
401.958	101.88
402.182	128.88
402.406	164.88
402.63	123.88
402.854	89.88
403.078	100.88
403.302	107.88
403.526	106.88
403.75	106.88
403.974	93.88
404.198	93.88
404.422	86.88
404.645	93.88
404.869	107.88
405.093	100.88
405.317	105.88
405.541	124.88
405.765	111.88
405.988	120.88
406.212	173.88
406.436	235.88
406.66	153.88
406.883	112.88
407.107	104.88
407.331	108.88
407.555	112.88
407.778	92.88
408.002	90.88
408.226	95.88
408.449	91.88
408.673	96.88
408.896	106.88
409.12	107.88
409.344	94.88
409.567	93.88
409.791	85.88
410.014	93.88
410.238	103.88
410.461	93.88
410.685	107.88
410.908	103.88
411.132	105.88
411.355	97.88
411.578	97.88
411.802	80.88
412.025	83.88
412.249	84.88
412.472	99.88
412.695	123.88
412.919	88.88
413.142	86.88
413.365	104.88
413.589	90.88
413.812	83.88
414.035	94.88
414.258	89.88
414.482	101.88
414.705	75.88
414.928	99.88
415.151	90.88
415.374	93.88
415.597	87.88
415.821	98.88
416.044	80.88
416.267	93.88
416.49	88.88
416.713	85.88
416.936	85.88
417.159	83.88
417.382	88.88
417.605	99.88
417.828	102.88
418.051	96.88
418.274	93.88
418.497	96.88
418.72	100.88
418.943	89.88
419.166	93.88
419.389	83.88
419.611	95.88
419.834	88.88
420.057	93.88
420.28	100.88
420.503	84.88
420.726	88.88
420.948	98.88
421.171	88.88
421.394	107.88
421.617	92.88
421.839	100.88
422.062	85.88
422.285	88.88
422.507	107.88
422.73	99.88
422.953	100.88
423.175	104.88
423.398	90.88
423.621	90.88
423.843	81.88
424.066	91.88
424.288	98.88
424.511	101.88
424.733	94.88
424.956	99.88
425.178	97.88
425.401	103.88
425.623	101.88
425.846	99.88
426.068	106.88
426.291	87.88
426.513	84.88
426.735	100.88
426.958	103.88
427.18	120.88
427.402	135.88
427.625	167.88
427.847	153.88
428.069	155.88
428.292	108.88
428.514	99.88
428.736	93.88
428.958	87.88
429.181	93.88
429.403	87.88
429.625	73.88
429.847	104.88
430.069	104.88
430.292	108.88
430.514	89.88
430.736	98.88
430.958	84.88
431.18	86.88
431.402	79.88
431.624	97.88
431.846	98.88
432.068	84.88
432.29	97.88
432.512	106.88
432.734	95.88
432.956	99.88
433.178	92.88
433.4	93.88
433.622	109.88
433.844	100.88
434.066	83.88
434.287	85.88
434.509	95.88
434.731	98.88
434.953	103.88
435.175	91.88
435.397	82.88
435.618	105.88
435.84	104.88
436.062	112.88
436.284	132.88
436.505	110.88
436.727	106.88
436.949	100.88
437.17	88.88
437.392	89.88
437.614	92.88
437.835	108.88
438.057	127.88
438.278	116.88
438.5	90.88
438.721	124.88
438.943	102.88
439.165	93.88
439.386	92.88
439.608	96.88
439.829	100.88
440.05	133.88
440.272	157.88
440.493	117.88
440.715	104.88
440.936	98.88
441.158	94.88
441.379	87.88
441.6	97.88
441.822	103.88
442.043	109.88
442.264	115.88
442.486	113.88
442.707	105.88
442.928	109.88
443.149	154.88
443.371	141.88
443.592	119.88
443.813	111.88
444.034	117.88
444.255	102.88
444.476	105.88
444.698	90.88
444.919	107.88
445.14	99.88
445.361	123.88
445.582	114.88
445.803	147.88
446.024	154.88
446.245	129.88
446.466	121.88
446.687	92.88
446.908	89.88
447.129	88.88
447.35	94.88
447.571	103.88
447.792	92.88
448.013	113.88
448.234	115.88
448.455	100.88
448.675	128.88
448.896	117.88
449.117	92.88
449.338	109.88
449.559	138.88
449.779	138.88
450	104.88
450.221	91.88
450.442	91.88
450.662	92.88
450.883	119.88
451.104	111.88
451.324	104.88
451.545	96.88
451.766	86.88
451.986	89.88
452.207	85.88
452.428	93.88
452.648	105.88
452.869	109.88
453.089	119.88
453.31	107.88
453.53	92.88
453.751	99.88
453.971	108.88
454.192	115.88
454.412	106.88
454.633	102.88
454.853	96.88
455.073	87.88
455.294	115.88
455.514	88.88
455.734	83.88
455.955	89.88
456.175	71.88
456.395	98.88
456.616	92.88
456.836	107.88
457.056	92.88
457.276	88.88
457.497	95.88
457.717	99.88
457.937	90.88
458.157	92.88
458.377	108.88
458.598	103.88
458.818	153.88
459.038	188.88
459.258	130.88
459.478	103.88
459.698	90.88
459.918	69.88
460.138	87.88
460.358	80.88
460.578	102.88
460.798	115.88
461.018	100.88
461.238	85.88
461.458	100.88
461.678	92.88
461.898	89.88
462.118	82.88
462.338	89.88
462.558	98.88
462.777	75.88
462.997	101.88
463.217	89.88
463.437	95.88
463.657	86.88
463.876	88.88
464.096	94.88
464.316	95.88
464.536	104.88
464.755	96.88
464.975	122.88
465.195	177.88
465.414	173.88
465.634	102.88
465.854	86.88
466.073	91.88
466.293	92.88
466.512	89.88
466.732	82.88
466.951	93.88
467.171	85.88
467.391	87.88
467.61	101.88
467.829	136.88
468.049	220.88
468.268	283.88
468.488	130.88
468.707	85.88
468.927	94.88
469.146	109.88
469.365	83.88
469.585	93.88
469.804	101.88
470.023	108.88
470.243	82.88
470.462	109.88
470.681	126.88
470.901	91.88
471.12	104.88
471.339	80.88
471.558	83.88
471.777	117.88
471.997	163.88
472.216	403.88
472.435	779.88
472.654	236.88
472.873	109.88
473.092	88.88
473.311	82.88
473.53	92.88
473.749	84.88
473.968	87.88
474.187	95.88
474.406	105.88
474.625	93.88
474.844	87.88
475.063	89.88
475.282	90.88
475.501	88.88
475.72	89.88
475.939	87.88
476.158	79.88
476.377	90.88
476.596	90.88
476.814	108.88
477.033	89.88
477.252	91.88
477.471	92.88
477.69	112.88
477.908	97.88
478.127	89.88
478.346	98.88
478.564	86.88
478.783	87.88
479.002	95.88
479.22	98.88
479.439	120.88
479.658	116.88
479.876	111.88
480.095	97.88
480.313	108.88
480.532	117.88
480.751	142.88
480.969	375.88
481.188	1351.88
481.406	808.88
481.624	177.88
481.843	112.88
482.061	99.88
482.28	93.88
482.498	97.88
482.717	93.88
482.935	92.88
483.153	81.88
483.372	72.88
483.59	89.88
483.808	92.88
484.027	93.88
484.245	92.88
484.463	78.88
484.681	92.88
484.9	85.88
485.118	79.88
485.336	101.88
485.554	106.88
485.772	100.88
485.99	93.88
486.209	114.88
486.427	100.88
486.645	116.88
486.863	108.88
487.081	93.88
487.299	92.88
487.517	98.88
487.735	85.88
487.953	107.88
488.171	108.88
488.389	101.88
488.607	117.88
488.825	103.88
489.043	91.88
489.261	99.88
489.479	95.88
489.696	94.88
489.914	93.88
490.132	89.88
490.35	94.88
490.568	81.88
490.786	95.88
491.003	86.88
491.221	95.88
491.439	87.88
491.657	88.88
491.874	108.88
492.092	94.88
492.31	93.88
492.527	94.88
492.745	91.88
492.963	90.88
493.18	89.88
493.398	88.88
493.615	104.88
493.833	94.88
494.05	76.88
494.268	103.88
494.485	102.88
494.703	97.88
494.92	101.88
495.138	81.88
495.355	94.88
495.573	83.88
495.79	91.88
496.008	93.88
496.225	81.88
496.442	95.88
496.66	87.88
496.877	94.88
497.094	109.88
497.312	95.88
497.529	104.88
497.746	96.88
497.963	87.88
498.181	115.88
498.398	107.88
498.615	112.88
498.832	112.88
499.049	99.88
499.267	76.88
499.484	95.88
499.701	87.88
499.918	93.88
500.135	83.88
500.352	89.88
500.569	93.88
500.786	98.88
501.003	105.88
501.22	85.88
501.437	96.88
501.654	94.88
501.871	114.88
502.088	92.88
502.305	99.88
502.522	84.88
502.739	83.88
502.956	103.88
503.172	100.88
503.389	99.88
503.606	112.88
503.823	112.88
504.04	103.88
504.256	98.88
504.473	102.88
504.69	84.88
504.907	91.88
505.123	101.88
505.34	93.88
505.557	85.88
505.773	94.88
505.99	95.88
506.207	93.88
506.423	94.88
506.64	97.88
506.856	95.88
507.073	86.88
507.289	99.88
507.506	105.88
507.722	113.88
507.939	117.88
508.155	108.88
508.372	97.88
508.588	104.88
508.805	90.88
509.021	89.88
509.238	112.88
509.454	108.88
509.67	113.88
509.887	103.88
510.103	122.88
510.319	222.88
510.536	732.88
510.752	2290.88
510.968	617.88
511.184	163.88
511.401	127.88
511.617	104.88
511.833	101.88
512.049	102.88
512.265	90.88
512.481	100.88
512.698	89.88
512.914	84.88
513.13	98.88
513.346	83.88
513.562	92.88
