Data from Circ_2004_H10_HRD10591_00007.txt Node
Date: Wed Jan 03 10:33:15 EST 2024
User: Yrep
Spectrometer: HR+D1059
Trigger mode: 1
Integration Time (sec): 1.000000E-1
Scans to average: 1
Electric dark correction enabled: true
Nonlinearity correction enabled: false
Boxcar width: 0
XAxis mode: Wavelengths
Number of Pixels in Spectrum: 2048
>>>>>Begin Spectral Data<<<<<
223.165	-26.56
223.4	-26.56
223.635	-26.56
223.869	-15.56
224.104	-20.56
224.338	-20.56
224.573	-10.56
224.808	-20.56
225.042	-3.56
225.277	-0.56
225.511	4.44
225.746	15.44
225.98	8.44
226.215	17.44
226.449	5.44
226.683	16.44
226.918	24.44
227.152	26.44
227.387	49.44
227.621	34.44
227.856	45.44
228.09	41.44
228.324	48.44
228.559	55.44
228.793	67.44
229.027	53.44
229.262	60.44
229.496	70.44
229.73	73.44
229.964	79.44
230.199	66.44
230.433	79.44
230.667	89.44
230.901	69.44
231.136	81.44
231.37	83.44
231.604	81.44
231.838	75.44
232.072	83.44
232.306	71.44
232.541	86.44
232.775	88.44
233.009	72.44
233.243	84.44
233.477	72.44
233.711	82.44
233.945	84.44
234.179	86.44
234.413	72.44
234.647	76.44
234.881	74.44
235.115	60.44
235.349	66.44
235.583	90.44
235.817	72.44
236.051	67.44
236.285	74.44
236.519	56.44
236.753	73.44
236.987	78.44
237.221	77.44
237.455	85.44
237.689	70.44
237.922	71.44
238.156	84.44
238.39	60.44
238.624	68.44
238.858	69.44
239.091	85.44
239.325	90.44
239.559	79.44
239.793	70.44
240.027	75.44
240.26	79.44
240.494	85.44
240.728	75.44
240.961	84.44
241.195	79.44
241.429	80.44
241.662	72.44
241.896	67.44
242.13	88.44
242.363	75.44
242.597	92.44
242.83	78.44
243.064	77.44
243.298	87.44
243.531	70.44
243.765	60.44
243.998	57.44
244.232	72.44
244.465	75.44
244.699	89.44
244.932	84.44
245.166	74.44
245.399	70.44
245.633	75.44
245.866	72.44
246.099	62.44
246.333	69.44
246.566	84.44
246.8	72.44
247.033	80.44
247.266	77.44
247.5	69.44
247.733	68.44
247.966	86.44
248.2	59.44
248.433	74.44
248.666	77.44
248.899	72.44
249.133	90.44
249.366	93.44
249.599	101.44
249.832	88.44
250.066	68.44
250.299	59.44
250.532	81.44
250.765	71.44
250.998	65.44
251.231	82.44
251.465	81.44
251.698	69.44
251.931	79.44
252.164	71.44
252.397	79.44
252.63	61.44
252.863	84.44
253.096	85.44
253.329	72.44
253.562	82.44
253.795	84.44
254.028	80.44
254.261	96.44
254.494	67.44
254.727	95.44
254.96	73.44
255.193	80.44
255.426	65.44
255.659	87.44
255.892	78.44
256.124	80.44
256.357	81.44
256.59	97.44
256.823	85.44
257.056	74.44
257.289	94.44
257.521	75.44
257.754	76.44
257.987	79.44
258.22	75.44
258.452	75.44
258.685	78.44
258.918	73.44
259.151	96.44
259.383	89.44
259.616	73.44
259.849	82.44
260.081	71.44
260.314	92.44
260.547	85.44
260.779	80.44
261.012	78.44
261.244	82.44
261.477	100.44
261.71	85.44
261.942	103.44
262.175	116.44
262.407	87.44
262.64	83.44
262.872	68.44
263.105	81.44
263.337	83.44
263.57	63.44
263.802	66.44
264.035	73.44
264.267	79.44
264.499	84.44
264.732	95.44
264.964	98.44
265.197	84.44
265.429	80.44
265.661	87.44
265.894	80.44
266.126	77.44
266.358	89.44
266.591	85.44
266.823	77.44
267.055	85.44
267.287	85.44
267.52	83.44
267.752	88.44
267.984	92.44
268.216	74.44
268.448	74.44
268.681	74.44
268.913	79.44
269.145	88.44
269.377	88.44
269.609	98.44
269.841	89.44
270.073	79.44
270.306	86.44
270.538	87.44
270.77	76.44
271.002	69.44
271.234	71.44
271.466	78.44
271.698	91.44
271.93	87.44
272.162	77.44
272.394	83.44
272.626	81.44
272.858	87.44
273.09	91.44
273.322	92.44
273.553	89.44
273.785	87.44
274.017	77.44
274.249	76.44
274.481	88.44
274.713	75.44
274.945	88.44
275.176	83.44
275.408	99.44
275.64	89.44
275.872	82.44
276.104	90.44
276.335	93.44
276.567	93.44
276.799	104.44
277.031	100.44
277.262	93.44
277.494	88.44
277.726	95.44
277.957	77.44
278.189	66.44
278.421	87.44
278.652	81.44
278.884	98.44
279.115	94.44
279.347	87.44
279.579	79.44
279.81	84.44
280.042	98.44
280.273	84.44
280.505	107.44
280.736	98.44
280.968	95.44
281.199	87.44
281.431	102.44
281.662	83.44
281.894	77.44
282.125	92.44
282.356	102.44
282.588	97.44
282.819	100.44
283.051	95.44
283.282	85.44
283.513	76.44
283.745	89.44
283.976	65.44
284.207	81.44
284.439	91.44
284.67	74.44
284.901	77.44
285.132	79.44
285.364	76.44
285.595	91.44
285.826	92.44
286.057	82.44
286.288	85.44
286.52	77.44
286.751	84.44
286.982	73.44
287.213	84.44
287.444	81.44
287.675	70.44
287.906	77.44
288.138	87.44
288.369	81.44
288.6	77.44
288.831	92.44
289.062	83.44
289.293	86.44
289.524	75.44
289.755	83.44
289.986	71.44
290.217	101.44
290.448	84.44
290.679	93.44
290.91	82.44
291.141	88.44
291.371	88.44
291.602	99.44
291.833	83.44
292.064	79.44
292.295	82.44
292.526	93.44
292.757	102.44
292.987	86.44
293.218	80.44
293.449	81.44
293.68	71.44
293.91	103.44
294.141	89.44
294.372	71.44
294.603	78.44
294.833	85.44
295.064	76.44
295.295	85.44
295.525	84.44
295.756	94.44
295.987	101.44
296.217	123.44
296.448	97.44
296.679	84.44
296.909	85.44
297.14	82.44
297.37	88.44
297.601	80.44
297.831	78.44
298.062	89.44
298.292	86.44
298.523	69.44
298.753	85.44
298.984	94.44
299.214	84.44
299.445	70.44
299.675	85.44
299.905	99.44
300.136	94.44
300.366	85.44
300.597	79.44
300.827	89.44
301.057	107.44
301.288	100.44
301.518	85.44
301.748	95.44
301.979	97.44
302.209	88.44
302.439	86.44
302.669	82.44
302.9	83.44
303.13	81.44
303.36	86.44
303.59	93.44
303.82	94.44
304.051	83.44
304.281	79.44
304.511	82.44
304.741	87.44
304.971	81.44
305.201	88.44
305.431	97.44
305.661	79.44
305.891	93.44
306.121	113.44
306.352	88.44
306.582	98.44
306.812	84.44
307.042	87.44
307.272	87.44
307.502	101.44
307.731	90.44
307.961	97.44
308.191	80.44
308.421	102.44
308.651	101.44
308.881	91.44
309.111	96.44
309.341	93.44
309.571	99.44
309.8	82.44
310.03	101.44
310.26	88.44
310.49	84.44
310.72	79.44
310.949	97.44
311.179	93.44
311.409	87.44
311.639	85.44
311.868	94.44
312.098	88.44
312.328	95.44
312.557	96.44
312.787	99.44
313.017	104.44
313.246	92.44
313.476	106.44
313.706	98.44
313.935	79.44
314.165	105.44
314.394	93.44
314.624	95.44
314.853	100.44
315.083	92.44
315.312	86.44
315.542	101.44
315.771	85.44
316.001	89.44
316.23	73.44
316.46	95.44
316.689	92.44
316.919	93.44
317.148	76.44
317.377	95.44
317.607	73.44
317.836	83.44
318.065	87.44
318.295	87.44
318.524	88.44
318.753	92.44
318.983	89.44
319.212	87.44
319.441	99.44
319.67	108.44
319.9	88.44
320.129	89.44
320.358	93.44
320.587	96.44
320.816	100.44
321.046	114.44
321.275	108.44
321.504	88.44
321.733	91.44
321.962	87.44
322.191	103.44
322.42	96.44
322.649	103.44
322.878	120.44
323.108	100.44
323.337	123.44
323.566	115.44
323.795	133.44
324.024	179.44
324.253	322.44
324.482	684.44
324.71	1348.44
324.939	1725.44
325.168	651.44
325.397	205.44
325.626	124.44
325.855	110.44
326.084	115.44
326.313	123.44
326.542	143.44
326.77	206.44
326.999	384.44
327.228	757.44
327.457	1374.44
327.686	1127.44
327.914	333.44
328.143	176.44
328.372	186.44
328.6	129.44
328.829	105.44
329.058	115.44
329.287	108.44
329.515	109.44
329.744	112.44
329.972	141.44
330.201	179.44
330.43	226.44
330.658	161.44
330.887	125.44
331.115	108.44
331.344	93.44
331.572	102.44
331.801	85.44
332.03	103.44
332.258	84.44
332.486	85.44
332.715	91.44
332.943	95.44
333.172	102.44
333.4	82.44
333.629	107.44
333.857	117.44
334.085	132.44
334.314	187.44
334.542	251.44
334.771	245.44
334.999	124.44
335.227	92.44
335.455	104.44
335.684	92.44
335.912	85.44
336.14	99.44
336.369	86.44
336.597	82.44
336.825	88.44
337.053	105.44
337.281	95.44
337.51	89.44
337.738	87.44
337.966	94.44
338.194	96.44
338.422	79.44
338.65	96.44
338.878	79.44
339.106	91.44
339.334	102.44
339.562	89.44
339.79	83.44
340.018	95.44
340.246	97.44
340.474	86.44
340.702	86.44
340.93	98.44
341.158	108.44
341.386	87.44
341.614	96.44
341.842	99.44
342.07	104.44
342.298	91.44
342.526	84.44
342.754	80.44
342.981	89.44
343.209	84.44
343.437	82.44
343.665	96.44
343.893	87.44
344.12	87.44
344.348	83.44
344.576	101.44
344.804	79.44
345.031	93.44
345.259	97.44
345.487	92.44
345.714	95.44
345.942	86.44
346.17	77.44
346.397	97.44
346.625	89.44
346.853	91.44
347.08	86.44
347.308	86.44
347.535	88.44
347.763	101.44
347.99	103.44
348.218	100.44
348.445	94.44
348.673	91.44
348.9	91.44
349.128	91.44
349.355	88.44
349.583	91.44
349.81	97.44
350.037	93.44
350.265	92.44
350.492	92.44
350.72	90.44
350.947	102.44
351.174	95.44
351.402	103.44
351.629	101.44
351.856	93.44
352.083	88.44
352.311	94.44
352.538	108.44
352.765	115.44
352.992	105.44
353.22	120.44
353.447	101.44
353.674	101.44
353.901	92.44
354.128	87.44
354.355	87.44
354.583	86.44
354.81	97.44
355.037	96.44
355.264	95.44
355.491	96.44
355.718	86.44
355.945	91.44
356.172	95.44
356.399	97.44
356.626	89.44
356.853	102.44
357.08	94.44
357.307	96.44
357.534	81.44
357.761	97.44
357.988	95.44
358.215	91.44
358.441	102.44
358.668	95.44
358.895	90.44
359.122	99.44
359.349	104.44
359.576	98.44
359.802	98.44
360.029	106.44
360.256	92.44
360.483	97.44
360.709	95.44
360.936	103.44
361.163	87.44
361.39	89.44
361.616	88.44
361.843	86.44
362.07	89.44
362.296	85.44
362.523	89.44
362.749	93.44
362.976	93.44
363.203	89.44
363.429	94.44
363.656	87.44
363.882	79.44
364.109	94.44
364.335	107.44
364.562	95.44
364.788	89.44
365.015	75.44
365.241	103.44
365.468	115.44
365.694	112.44
365.92	101.44
366.147	73.44
366.373	78.44
366.599	89.44
366.826	98.44
367.052	95.44
367.278	91.44
367.505	82.44
367.731	79.44
367.957	84.44
368.184	85.44
368.41	99.44
368.636	99.44
368.862	102.44
369.089	106.44
369.315	83.44
369.541	96.44
369.767	95.44
369.993	88.44
370.219	92.44
370.445	87.44
370.672	74.44
370.898	89.44
371.124	92.44
371.35	77.44
371.576	103.44
371.802	90.44
372.028	81.44
372.254	96.44
372.48	91.44
372.706	83.44
372.932	82.44
373.158	97.44
373.384	74.44
373.61	91.44
373.835	98.44
374.061	89.44
374.287	88.44
374.513	80.44
374.739	100.44
374.965	88.44
375.191	95.44
375.416	86.44
375.642	88.44
375.868	94.44
376.094	88.44
376.319	100.44
376.545	96.44
376.771	88.44
376.997	105.44
377.222	74.44
377.448	80.44
377.674	82.44
377.899	79.44
378.125	87.44
378.35	80.44
378.576	93.44
378.802	88.44
379.027	92.44
379.253	87.44
379.478	112.44
379.704	97.44
379.929	84.44
380.155	98.44
380.38	118.44
380.606	100.44
380.831	98.44
381.057	105.44
381.282	88.44
381.507	96.44
381.733	94.44
381.958	102.44
382.184	102.44
382.409	116.44
382.634	111.44
382.86	92.44
383.085	94.44
383.31	104.44
383.535	100.44
383.761	94.44
383.986	111.44
384.211	99.44
384.436	99.44
384.662	117.44
384.887	107.44
385.112	121.44
385.337	112.44
385.562	130.44
385.787	121.44
386.013	104.44
386.238	126.44
386.463	98.44
386.688	112.44
386.913	110.44
387.138	111.44
387.363	100.44
387.588	120.44
387.813	105.44
388.038	124.44
388.263	122.44
388.488	96.44
388.713	103.44
388.938	83.44
389.163	88.44
389.387	94.44
389.612	102.44
389.837	89.44
390.062	85.44
390.287	81.44
390.512	85.44
390.736	89.44
390.961	95.44
391.186	93.44
391.411	91.44
391.636	92.44
391.86	91.44
392.085	95.44
392.31	89.44
392.534	88.44
392.759	89.44
392.984	95.44
393.208	88.44
393.433	109.44
393.658	93.44
393.882	96.44
394.107	88.44
394.331	79.44
394.556	76.44
394.78	93.44
395.005	89.44
395.229	80.44
395.454	77.44
395.678	92.44
395.903	95.44
396.127	85.44
396.352	79.44
396.576	81.44
396.801	73.44
397.025	88.44
397.249	82.44
397.474	92.44
397.698	94.44
397.922	83.44
398.147	88.44
398.371	75.44
398.595	82.44
398.82	81.44
399.044	94.44
399.268	86.44
399.492	81.44
399.717	91.44
399.941	89.44
400.165	84.44
400.389	84.44
400.613	88.44
400.837	90.44
401.062	79.44
401.286	80.44
401.51	83.44
401.734	79.44
401.958	101.44
402.182	110.44
402.406	132.44
402.63	104.44
402.854	89.44
403.078	84.44
403.302	79.44
403.526	87.44
403.75	86.44
403.974	90.44
404.198	78.44
404.422	89.44
404.645	82.44
404.869	96.44
405.093	93.44
405.317	122.44
405.541	95.44
405.765	97.44
405.988	101.44
406.212	158.44
406.436	191.44
406.66	126.44
406.883	96.44
407.107	80.44
407.331	94.44
407.555	101.44
407.778	91.44
408.002	99.44
408.226	98.44
408.449	91.44
408.673	83.44
408.896	85.44
409.12	100.44
409.344	96.44
409.567	91.44
409.791	91.44
410.014	104.44
410.238	96.44
410.461	82.44
410.685	99.44
410.908	102.44
411.132	101.44
411.355	93.44
411.578	81.44
411.802	86.44
412.025	87.44
412.249	80.44
412.472	85.44
412.695	96.44
412.919	86.44
413.142	78.44
413.365	87.44
413.589	99.44
413.812	87.44
414.035	95.44
414.258	98.44
414.482	80.44
414.705	93.44
414.928	84.44
415.151	84.44
415.374	94.44
415.597	86.44
415.821	94.44
416.044	88.44
416.267	86.44
416.49	97.44
416.713	82.44
416.936	87.44
417.159	81.44
417.382	84.44
417.605	100.44
417.828	88.44
418.051	96.44
418.274	73.44
418.497	77.44
418.72	94.44
418.943	97.44
419.166	86.44
419.389	87.44
419.611	96.44
419.834	96.44
420.057	98.44
420.28	92.44
420.503	80.44
420.726	88.44
420.948	79.44
421.171	97.44
421.394	80.44
421.617	99.44
421.839	86.44
422.062	91.44
422.285	91.44
422.507	91.44
422.73	98.44
422.953	101.44
423.175	72.44
423.398	97.44
423.621	95.44
423.843	79.44
424.066	76.44
424.288	77.44
424.511	96.44
424.733	77.44
424.956	103.44
425.178	100.44
425.401	95.44
425.623	89.44
425.846	87.44
426.068	82.44
426.291	97.44
426.513	81.44
426.735	97.44
426.958	87.44
427.18	100.44
427.402	133.44
427.625	150.44
427.847	126.44
428.069	108.44
428.292	79.44
428.514	86.44
428.736	80.44
428.958	86.44
429.181	85.44
429.403	91.44
429.625	76.44
429.847	89.44
430.069	87.44
430.292	96.44
430.514	87.44
430.736	77.44
430.958	87.44
431.18	92.44
431.402	93.44
431.624	76.44
431.846	89.44
432.068	102.44
432.29	86.44
432.512	82.44
432.734	87.44
432.956	81.44
433.178	97.44
433.4	90.44
433.622	76.44
433.844	91.44
434.066	87.44
434.287	87.44
434.509	83.44
434.731	93.44
434.953	91.44
435.175	86.44
435.397	96.44
435.618	87.44
435.84	87.44
436.062	111.44
436.284	108.44
436.505	77.44
436.727	89.44
436.949	87.44
437.17	100.44
437.392	83.44
437.614	89.44
437.835	103.44
438.057	103.44
438.278	93.44
438.5	94.44
438.721	104.44
438.943	98.44
439.165	55.44
439.386	72.44
439.608	97.44
439.829	88.44
440.05	112.44
440.272	126.44
440.493	95.44
440.715	91.44
440.936	89.44
441.158	91.44
441.379	81.44
441.6	96.44
441.822	93.44
442.043	80.44
442.264	97.44
442.486	81.44
442.707	81.44
442.928	100.44
443.149	107.44
443.371	120.44
443.592	98.44
443.813	108.44
444.034	89.44
444.255	101.44
444.476	85.44
444.698	87.44
444.919	83.44
445.14	126.44
445.361	114.44
445.582	97.44
445.803	119.44
446.024	121.44
446.245	136.44
446.466	114.44
446.687	111.44
446.908	88.44
447.129	102.44
447.35	94.44
447.571	89.44
447.792	87.44
448.013	106.44
448.234	93.44
448.455	103.44
448.675	95.44
448.896	96.44
449.117	91.44
449.338	96.44
449.559	116.44
449.779	101.44
450	88.44
450.221	104.44
450.442	91.44
450.662	78.44
450.883	105.44
451.104	99.44
451.324	95.44
451.545	92.44
451.766	88.44
451.986	101.44
452.207	85.44
452.428	85.44
452.648	87.44
452.869	106.44
453.089	111.44
453.31	113.44
453.53	87.44
453.751	89.44
453.971	91.44
454.192	92.44
454.412	81.44
454.633	86.44
454.853	85.44
455.073	80.44
455.294	91.44
455.514	81.44
455.734	75.44
455.955	80.44
456.175	92.44
456.395	84.44
456.616	88.44
456.836	93.44
457.056	87.44
457.276	76.44
457.497	85.44
457.717	103.44
457.937	83.44
458.157	85.44
458.377	93.44
458.598	105.44
458.818	134.44
459.038	124.44
459.258	106.44
459.478	84.44
459.698	95.44
459.918	96.44
460.138	76.44
460.358	95.44
460.578	86.44
460.798	85.44
461.018	84.44
461.238	73.44
461.458	97.44
461.678	70.44
461.898	89.44
462.118	86.44
462.338	89.44
462.558	68.44
462.777	83.44
462.997	91.44
463.217	81.44
463.437	79.44
463.657	82.44
463.876	83.44
464.096	97.44
464.316	87.44
464.536	87.44
464.755	91.44
464.975	111.44
465.195	145.44
465.414	135.44
465.634	89.44
465.854	76.44
466.073	73.44
466.293	83.44
466.512	98.44
466.732	78.44
466.951	90.44
467.171	87.44
467.391	101.44
467.61	98.44
467.829	100.44
468.049	144.44
468.268	151.44
468.488	97.44
468.707	87.44
468.927	72.44
469.146	80.44
469.365	96.44
469.585	78.44
469.804	98.44
470.023	88.44
470.243	80.44
470.462	90.44
470.681	89.44
470.901	80.44
471.12	97.44
471.339	77.44
471.558	81.44
471.777	90.44
471.997	108.44
472.216	212.44
472.435	345.44
472.654	136.44
472.873	97.44
473.092	97.44
473.311	87.44
473.53	80.44
473.749	95.44
473.968	84.44
474.187	83.44
474.406	75.44
474.625	93.44
474.844	95.44
475.063	83.44
475.282	86.44
475.501	77.44
475.72	94.44
475.939	77.44
476.158	86.44
476.377	92.44
476.596	96.44
476.814	95.44
477.033	92.44
477.252	89.44
477.471	94.44
477.69	87.44
477.908	98.44
478.127	93.44
478.346	99.44
478.564	90.44
478.783	87.44
479.002	97.44
479.22	94.44
479.439	102.44
479.658	102.44
479.876	86.44
480.095	73.44
480.313	87.44
480.532	99.44
480.751	125.44
480.969	205.44
481.188	548.44
481.406	369.44
481.624	120.44
481.843	99.44
482.061	89.44
482.28	81.44
482.498	85.44
482.717	94.44
482.935	86.44
483.153	96.44
483.372	84.44
483.59	95.44
483.808	90.44
484.027	79.44
484.245	94.44
484.463	84.44
484.681	94.44
484.9	84.44
485.118	86.44
485.336	91.44
485.554	97.44
485.772	91.44
485.99	96.44
486.209	92.44
486.427	103.44
486.645	100.44
486.863	99.44
487.081	95.44
487.299	101.44
487.517	93.44
487.735	79.44
487.953	98.44
488.171	79.44
488.389	88.44
488.607	88.44
488.825	92.44
489.043	93.44
489.261	83.44
489.479	84.44
489.696	93.44
489.914	85.44
490.132	79.44
490.35	92.44
490.568	87.44
490.786	77.44
491.003	87.44
491.221	96.44
491.439	91.44
491.657	92.44
491.874	92.44
492.092	93.44
492.31	81.44
492.527	88.44
492.745	82.44
492.963	81.44
493.18	98.44
493.398	95.44
493.615	91.44
493.833	87.44
494.05	86.44
494.268	80.44
494.485	91.44
494.703	88.44
494.92	79.44
495.138	88.44
495.355	90.44
495.573	93.44
495.79	99.44
496.008	104.44
496.225	89.44
496.442	85.44
496.66	94.44
496.877	93.44
497.094	88.44
497.312	84.44
497.529	93.44
497.746	90.44
497.963	99.44
498.181	73.44
498.398	88.44
498.615	92.44
498.832	101.44
499.049	95.44
499.267	108.44
499.484	93.44
499.701	80.44
499.918	110.44
500.135	92.44
500.352	86.44
500.569	84.44
500.786	85.44
501.003	85.44
501.22	93.44
501.437	92.44
501.654	108.44
501.871	96.44
502.088	87.44
502.305	83.44
502.522	85.44
502.739	88.44
502.956	93.44
503.172	94.44
503.389	74.44
503.606	100.44
503.823	103.44
504.04	103.44
504.256	97.44
504.473	92.44
504.69	97.44
504.907	88.44
505.123	94.44
505.34	81.44
505.557	81.44
505.773	97.44
505.99	91.44
506.207	94.44
506.423	97.44
506.64	111.44
506.856	101.44
507.073	81.44
507.289	92.44
507.506	68.44
507.722	92.44
507.939	101.44
508.155	95.44
508.372	86.44
508.588	91.44
508.805	75.44
509.021	92.44
509.238	89.44
509.454	81.44
509.67	96.44
509.887	121.44
510.103	128.44
510.319	191.44
510.536	618.44
510.752	1820.44
510.968	537.44
511.184	116.44
511.401	104.44
511.617	103.44
511.833	89.44
512.049	94.44
512.265	91.44
512.481	93.44
512.698	91.44
512.914	97.44
513.13	107.44
513.346	100.44
513.562	76.44
513.778	94.44
513.994	101.44
514.21	105.44
514.426	111.44
514.642	113.44
514.858	110.44
515.074	144.44
515.29	376.44
515.506	1142.44
515.721	452.44
515.937	143.44
516.153	112.44
516.369	98.44
