Data from Circ_2004_H10_HRD10591_00074.txt Node
Date: Wed Jan 03 10:33:29 EST 2024
User: Yrep
Spectrometer: HR+D1059
Trigger mode: 1
Integration Time (sec): 1.000000E-1
Scans to average: 1
Electric dark correction enabled: true
Nonlinearity correction enabled: false
Boxcar width: 0
XAxis mode: Wavelengths
Number of Pixels in Spectrum: 2048
>>>>>Begin Spectral Data<<<<<
223.165	-29.12
223.4	-29.12
223.635	-29.12
223.869	-19.12
224.104	-17.12
224.338	-21.12
224.573	-22.12
224.808	-18.12
225.042	-10.12
225.277	-15.12
225.511	-6.12
225.746	8.88
225.98	18.88
226.215	11.88
226.449	13.88
226.683	35.88
226.918	29.88
227.152	38.88
227.387	29.88
227.621	42.88
227.856	52.88
228.09	50.88
228.324	60.88
228.559	62.88
228.793	56.88
229.027	74.88
229.262	68.88
229.496	80.88
229.73	98.88
229.964	72.88
230.199	76.88
230.433	79.88
230.667	68.88
230.901	73.88
231.136	80.88
231.37	77.88
231.604	91.88
231.838	83.88
232.072	83.88
232.306	84.88
232.541	78.88
232.775	84.88
233.009	82.88
233.243	83.88
233.477	94.88
233.711	74.88
233.945	88.88
234.179	72.88
234.413	84.88
234.647	74.88
234.881	74.88
235.115	83.88
235.349	83.88
235.583	69.88
235.817	94.88
236.051	87.88
236.285	90.88
236.519	76.88
236.753	72.88
236.987	76.88
237.221	88.88
237.455	99.88
237.689	86.88
237.922	81.88
238.156	65.88
238.39	67.88
238.624	67.88
238.858	87.88
239.091	90.88
239.325	80.88
239.559	75.88
239.793	68.88
240.027	78.88
240.26	74.88
240.494	90.88
240.728	75.88
240.961	85.88
241.195	68.88
241.429	82.88
241.662	94.88
241.896	79.88
242.13	72.88
242.363	76.88
242.597	65.88
242.83	74.88
243.064	74.88
243.298	88.88
243.531	80.88
243.765	85.88
243.998	88.88
244.232	88.88
244.465	96.88
244.699	83.88
244.932	76.88
245.166	66.88
245.399	88.88
245.633	86.88
245.866	78.88
246.099	82.88
246.333	71.88
246.566	73.88
246.8	78.88
247.033	69.88
247.266	76.88
247.5	85.88
247.733	92.88
247.966	77.88
248.2	77.88
248.433	75.88
248.666	75.88
248.899	76.88
249.133	82.88
249.366	93.88
249.599	99.88
249.832	83.88
250.066	93.88
250.299	78.88
250.532	94.88
250.765	84.88
250.998	88.88
251.231	92.88
251.465	85.88
251.698	80.88
251.931	88.88
252.164	77.88
252.397	66.88
252.63	78.88
252.863	81.88
253.096	92.88
253.329	79.88
253.562	72.88
253.795	78.88
254.028	80.88
254.261	84.88
254.494	87.88
254.727	96.88
254.96	82.88
255.193	76.88
255.426	66.88
255.659	86.88
255.892	91.88
256.124	99.88
256.357	83.88
256.59	89.88
256.823	94.88
257.056	94.88
257.289	85.88
257.521	84.88
257.754	85.88
257.987	83.88
258.22	107.88
258.452	77.88
258.685	97.88
258.918	79.88
259.151	90.88
259.383	80.88
259.616	85.88
259.849	73.88
260.081	98.88
260.314	76.88
260.547	84.88
260.779	90.88
261.012	98.88
261.244	82.88
261.477	88.88
261.71	111.88
261.942	123.88
262.175	125.88
262.407	93.88
262.64	82.88
262.872	80.88
263.105	80.88
263.337	79.88
263.57	76.88
263.802	94.88
264.035	90.88
264.267	76.88
264.499	79.88
264.732	92.88
264.964	81.88
265.197	80.88
265.429	69.88
265.661	98.88
265.894	90.88
266.126	80.88
266.358	90.88
266.591	89.88
266.823	73.88
267.055	77.88
267.287	86.88
267.52	87.88
267.752	69.88
267.984	82.88
268.216	83.88
268.448	88.88
268.681	79.88
268.913	88.88
269.145	95.88
269.377	77.88
269.609	83.88
269.841	87.88
270.073	86.88
270.306	88.88
270.538	95.88
270.77	86.88
271.002	85.88
271.234	101.88
271.466	84.88
271.698	104.88
271.93	91.88
272.162	77.88
272.394	88.88
272.626	71.88
272.858	95.88
273.09	98.88
273.322	80.88
273.553	83.88
273.785	76.88
274.017	81.88
274.249	73.88
274.481	91.88
274.713	86.88
274.945	75.88
275.176	91.88
275.408	91.88
275.64	103.88
275.872	96.88
276.104	113.88
276.335	98.88
276.567	97.88
276.799	113.88
277.031	139.88
277.262	156.88
277.494	120.88
277.726	107.88
277.957	88.88
278.189	97.88
278.421	89.88
278.652	97.88
278.884	85.88
279.115	84.88
279.347	89.88
279.579	87.88
279.81	91.88
280.042	134.88
280.273	168.88
280.505	140.88
280.736	100.88
280.968	86.88
281.199	92.88
281.431	90.88
281.662	96.88
281.894	91.88
282.125	96.88
282.356	128.88
282.588	159.88
282.819	108.88
283.051	91.88
283.282	82.88
283.513	86.88
283.745	85.88
283.976	92.88
284.207	91.88
284.439	86.88
284.67	85.88
284.901	85.88
285.132	82.88
285.364	90.88
285.595	95.88
285.826	95.88
286.057	96.88
286.288	83.88
286.52	84.88
286.751	86.88
286.982	96.88
287.213	79.88
287.444	83.88
287.675	94.88
287.906	109.88
288.138	95.88
288.369	94.88
288.6	98.88
288.831	75.88
289.062	89.88
289.293	89.88
289.524	84.88
289.755	82.88
289.986	99.88
290.217	78.88
290.448	74.88
290.679	87.88
290.91	79.88
291.141	86.88
291.371	107.88
291.602	87.88
291.833	97.88
292.064	78.88
292.295	83.88
292.526	80.88
292.757	97.88
292.987	98.88
293.218	85.88
293.449	89.88
293.68	101.88
293.91	93.88
294.141	83.88
294.372	103.88
294.603	98.88
294.833	101.88
295.064	97.88
295.295	98.88
295.525	92.88
295.756	95.88
295.987	136.88
296.217	149.88
296.448	144.88
296.679	89.88
296.909	88.88
297.14	83.88
297.37	102.88
297.601	100.88
297.831	96.88
298.062	97.88
298.292	106.88
298.523	86.88
298.753	97.88
298.984	87.88
299.214	84.88
299.445	102.88
299.675	101.88
299.905	92.88
300.136	108.88
300.366	95.88
300.597	90.88
300.827	105.88
301.057	103.88
301.288	93.88
301.518	90.88
301.748	105.88
301.979	95.88
302.209	79.88
302.439	95.88
302.669	81.88
302.9	91.88
303.13	105.88
303.36	102.88
303.59	105.88
303.82	130.88
304.051	98.88
304.281	102.88
304.511	87.88
304.741	98.88
304.971	83.88
305.201	88.88
305.431	92.88
305.661	94.88
305.891	105.88
306.121	83.88
306.352	95.88
306.582	119.88
306.812	111.88
307.042	101.88
307.272	124.88
307.502	124.88
307.731	120.88
307.961	107.88
308.191	86.88
308.421	94.88
308.651	114.88
308.881	106.88
309.111	87.88
309.341	111.88
309.571	103.88
309.8	108.88
310.03	112.88
310.26	85.88
310.49	84.88
310.72	106.88
310.949	103.88
311.179	104.88
311.409	95.88
311.639	101.88
311.868	105.88
312.098	102.88
312.328	108.88
312.557	123.88
312.787	107.88
313.017	106.88
313.246	98.88
313.476	85.88
313.706	92.88
313.935	104.88
314.165	98.88
314.394	106.88
314.624	97.88
314.853	115.88
315.083	76.88
315.312	91.88
315.542	80.88
315.771	97.88
316.001	85.88
316.23	92.88
316.46	82.88
316.689	107.88
316.919	94.88
317.148	105.88
317.377	108.88
317.607	107.88
317.836	98.88
318.065	103.88
318.295	101.88
318.524	90.88
318.753	95.88
318.983	88.88
319.212	113.88
319.441	118.88
319.67	110.88
319.9	91.88
320.129	99.88
320.358	88.88
320.587	112.88
320.816	99.88
321.046	99.88
321.275	104.88
321.504	95.88
321.733	92.88
321.962	100.88
322.191	109.88
322.42	111.88
322.649	123.88
322.878	115.88
323.108	120.88
323.337	132.88
323.566	155.88
323.795	166.88
324.024	238.88
324.253	465.88
324.482	955.88
324.71	1938.88
324.939	2550.88
325.168	896.88
325.397	268.88
325.626	178.88
325.855	144.88
326.084	128.88
326.313	142.88
326.542	171.88
326.77	242.88
326.999	510.88
327.228	1050.88
327.457	1884.88
327.686	1500.88
327.914	455.88
328.143	371.88
328.372	404.88
328.6	244.88
328.829	153.88
329.058	159.88
329.287	153.88
329.515	138.88
329.744	162.88
329.972	284.88
330.201	530.88
330.43	787.88
330.658	401.88
330.887	224.88
331.115	150.88
331.344	98.88
331.572	107.88
331.801	111.88
332.03	104.88
332.258	101.88
332.486	102.88
332.715	114.88
332.943	110.88
333.172	123.88
333.4	111.88
333.629	137.88
333.857	172.88
334.085	282.88
334.314	517.88
334.542	985.88
334.771	973.88
334.999	287.88
335.227	134.88
335.455	108.88
335.684	102.88
335.912	115.88
336.14	102.88
336.369	98.88
336.597	95.88
336.825	105.88
337.053	87.88
337.281	88.88
337.51	99.88
337.738	100.88
337.966	95.88
338.194	97.88
338.422	102.88
338.65	98.88
338.878	90.88
339.106	91.88
339.334	103.88
339.562	110.88
339.79	113.88
340.018	89.88
340.246	86.88
340.474	97.88
340.702	106.88
340.93	103.88
341.158	98.88
341.386	94.88
341.614	102.88
341.842	102.88
342.07	95.88
342.298	105.88
342.526	99.88
342.754	98.88
342.981	112.88
343.209	89.88
343.437	106.88
343.665	98.88
343.893	102.88
344.12	106.88
344.348	93.88
344.576	90.88
344.804	102.88
345.031	102.88
345.259	113.88
345.487	101.88
345.714	87.88
345.942	92.88
346.17	92.88
346.397	95.88
346.625	96.88
346.853	103.88
347.08	96.88
347.308	94.88
347.535	107.88
347.763	101.88
347.99	91.88
348.218	106.88
348.445	101.88
348.673	109.88
348.9	108.88
349.128	110.88
349.355	96.88
349.583	106.88
349.81	96.88
350.037	106.88
350.265	103.88
350.492	91.88
350.72	99.88
350.947	112.88
351.174	107.88
351.402	130.88
351.629	112.88
351.856	108.88
352.083	96.88
352.311	110.88
352.538	113.88
352.765	120.88
352.992	111.88
353.22	108.88
353.447	101.88
353.674	97.88
353.901	96.88
354.128	88.88
354.355	88.88
354.583	94.88
354.81	92.88
355.037	98.88
355.264	92.88
355.491	105.88
355.718	80.88
355.945	102.88
356.172	99.88
356.399	93.88
356.626	83.88
356.853	83.88
357.08	91.88
357.307	89.88
357.534	91.88
357.761	100.88
357.988	79.88
358.215	101.88
358.441	99.88
358.668	80.88
358.895	88.88
359.122	94.88
359.349	87.88
359.576	89.88
359.802	124.88
360.029	120.88
360.256	123.88
360.483	114.88
360.709	104.88
360.936	94.88
361.163	108.88
361.39	98.88
361.616	91.88
361.843	102.88
362.07	111.88
362.296	99.88
362.523	89.88
362.749	109.88
362.976	114.88
363.203	82.88
363.429	89.88
363.656	95.88
363.882	90.88
364.109	82.88
364.335	84.88
364.562	95.88
364.788	101.88
365.015	102.88
365.241	106.88
365.468	111.88
365.694	106.88
365.92	107.88
366.147	95.88
366.373	97.88
366.599	98.88
366.826	96.88
367.052	95.88
367.278	90.88
367.505	88.88
367.731	103.88
367.957	91.88
368.184	69.88
368.41	96.88
368.636	123.88
368.862	119.88
369.089	118.88
369.315	85.88
369.541	89.88
369.767	99.88
369.993	113.88
370.219	92.88
370.445	87.88
370.672	84.88
370.898	92.88
371.124	94.88
371.35	85.88
371.576	76.88
371.802	86.88
372.028	98.88
372.254	87.88
372.48	87.88
372.706	86.88
372.932	99.88
373.158	79.88
373.384	97.88
373.61	98.88
373.835	90.88
374.061	82.88
374.287	85.88
374.513	105.88
374.739	87.88
374.965	99.88
375.191	82.88
375.416	85.88
375.642	88.88
375.868	106.88
376.094	102.88
376.319	101.88
376.545	91.88
376.771	91.88
376.997	95.88
377.222	84.88
377.448	87.88
377.674	95.88
377.899	103.88
378.125	84.88
378.35	73.88
378.576	88.88
378.802	110.88
379.027	98.88
379.253	100.88
379.478	93.88
379.704	86.88
379.929	110.88
380.155	88.88
380.38	96.88
380.606	108.88
380.831	94.88
381.057	82.88
381.282	86.88
381.507	90.88
381.733	104.88
381.958	95.88
382.184	102.88
382.409	106.88
382.634	98.88
382.86	106.88
383.085	91.88
383.31	91.88
383.535	107.88
383.761	104.88
383.986	96.88
384.211	104.88
384.436	92.88
384.662	85.88
384.887	102.88
385.112	109.88
385.337	95.88
385.562	101.88
385.787	103.88
386.013	110.88
386.238	117.88
386.463	91.88
386.688	102.88
386.913	94.88
387.138	95.88
387.363	102.88
387.588	98.88
387.813	101.88
388.038	91.88
388.263	93.88
388.488	102.88
388.713	96.88
388.938	103.88
389.163	86.88
389.387	98.88
389.612	98.88
389.837	102.88
390.062	84.88
390.287	82.88
390.512	96.88
390.736	107.88
390.961	75.88
391.186	80.88
391.411	85.88
391.636	95.88
391.86	94.88
392.085	93.88
392.31	74.88
392.534	78.88
392.759	90.88
392.984	102.88
393.208	96.88
393.433	98.88
393.658	104.88
393.882	92.88
394.107	83.88
394.331	80.88
394.556	96.88
394.78	95.88
395.005	85.88
395.229	91.88
395.454	84.88
395.678	100.88
395.903	104.88
396.127	104.88
396.352	99.88
396.576	84.88
396.801	81.88
397.025	90.88
397.249	81.88
397.474	92.88
397.698	86.88
397.922	93.88
398.147	74.88
398.371	97.88
398.595	83.88
398.82	78.88
399.044	85.88
399.268	94.88
399.492	74.88
399.717	92.88
399.941	106.88
400.165	93.88
400.389	79.88
400.613	81.88
400.837	80.88
401.062	88.88
401.286	83.88
401.51	88.88
401.734	101.88
401.958	98.88
402.182	141.88
402.406	168.88
402.63	114.88
402.854	101.88
403.078	85.88
403.302	92.88
403.526	98.88
403.75	90.88
403.974	101.88
404.198	92.88
404.422	82.88
404.645	80.88
404.869	92.88
405.093	102.88
405.317	123.88
405.541	132.88
405.765	93.88
405.988	132.88
406.212	191.88
406.436	286.88
406.66	174.88
406.883	95.88
407.107	107.88
407.331	101.88
407.555	100.88
407.778	104.88
408.002	101.88
408.226	89.88
408.449	92.88
408.673	92.88
408.896	84.88
409.12	96.88
409.344	73.88
409.567	83.88
409.791	91.88
410.014	92.88
410.238	90.88
410.461	84.88
410.685	88.88
410.908	84.88
411.132	99.88
411.355	117.88
411.578	104.88
411.802	83.88
412.025	97.88
412.249	113.88
412.472	108.88
412.695	131.88
412.919	103.88
413.142	97.88
413.365	91.88
413.589	105.88
413.812	96.88
414.035	99.88
414.258	84.88
414.482	74.88
414.705	87.88
414.928	106.88
415.151	92.88
415.374	103.88
415.597	103.88
415.821	87.88
416.044	93.88
416.267	95.88
416.49	88.88
416.713	95.88
416.936	90.88
417.159	79.88
417.382	87.88
417.605	104.88
417.828	105.88
418.051	97.88
418.274	91.88
418.497	85.88
418.72	92.88
418.943	94.88
419.166	92.88
419.389	89.88
419.611	92.88
419.834	101.88
420.057	98.88
420.28	91.88
420.503	93.88
420.726	90.88
420.948	92.88
421.171	91.88
421.394	95.88
421.617	87.88
421.839	73.88
422.062	87.88
422.285	80.88
422.507	106.88
422.73	108.88
422.953	98.88
423.175	87.88
423.398	98.88
423.621	98.88
423.843	88.88
424.066	88.88
424.288	89.88
424.511	93.88
424.733	95.88
424.956	122.88
425.178	109.88
425.401	104.88
425.623	111.88
425.846	84.88
426.068	92.88
426.291	103.88
426.513	91.88
426.735	96.88
426.958	87.88
427.18	116.88
427.402	158.88
427.625	215.88
427.847	200.88
428.069	179.88
428.292	107.88
428.514	93.88
428.736	85.88
428.958	86.88
429.181	85.88
429.403	91.88
429.625	93.88
429.847	105.88
430.069	102.88
430.292	92.88
430.514	98.88
430.736	100.88
430.958	91.88
431.18	91.88
431.402	86.88
431.624	82.88
431.846	94.88
432.068	93.88
432.29	84.88
432.512	90.88
432.734	92.88
432.956	97.88
433.178	104.88
433.4	91.88
433.622	102.88
433.844	94.88
434.066	87.88
434.287	94.88
434.509	88.88
434.731	96.88
434.953	82.88
435.175	95.88
435.397	87.88
435.618	89.88
435.84	112.88
436.062	124.88
436.284	121.88
436.505	98.88
436.727	102.88
436.949	84.88
437.17	81.88
437.392	89.88
437.614	87.88
437.835	118.88
438.057	121.88
438.278	108.88
438.5	122.88
438.721	134.88
438.943	126.88
439.165	75.88
439.386	93.88
439.608	107.88
439.829	96.88
440.05	141.88
440.272	159.88
440.493	119.88
440.715	91.88
440.936	95.88
441.158	80.88
441.379	97.88
441.6	88.88
441.822	100.88
442.043	96.88
442.264	113.88
442.486	113.88
442.707	102.88
442.928	110.88
443.149	152.88
443.371	154.88
443.592	106.88
443.813	124.88
444.034	102.88
444.255	99.88
444.476	83.88
444.698	89.88
444.919	102.88
445.14	134.88
445.361	122.88
445.582	137.88
445.803	179.88
446.024	169.88
446.245	161.88
446.466	118.88
446.687	90.88
446.908	99.88
447.129	65.88
447.35	84.88
447.571	106.88
447.792	84.88
448.013	105.88
448.234	115.88
448.455	112.88
448.675	134.88
448.896	123.88
449.117	94.88
449.338	102.88
449.559	149.88
449.779	148.88
450	97.88
450.221	98.88
450.442	99.88
450.662	107.88
450.883	121.88
451.104	118.88
451.324	103.88
451.545	86.88
451.766	89.88
451.986	94.88
452.207	87.88
452.428	89.88
452.648	98.88
452.869	127.88
453.089	111.88
453.31	130.88
453.53	114.88
453.751	97.88
453.971	100.88
454.192	124.88
454.412	103.88
454.633	83.88
454.853	78.88
455.073	82.88
455.294	95.88
455.514	113.88
455.734	93.88
455.955	94.88
456.175	84.88
456.395	87.88
456.616	73.88
456.836	96.88
457.056	86.88
457.276	87.88
457.497	90.88
457.717	106.88
457.937	90.88
458.157	92.88
458.377	109.88
458.598	123.88
458.818	185.88
459.038	184.88
459.258	115.88
459.478	98.88
459.698	91.88
459.918	76.88
460.138	90.88
460.358	89.88
460.578	80.88
460.798	90.88
461.018	89.88
461.238	98.88
461.458	84.88
461.678	85.88
461.898	89.88
462.118	100.88
462.338	94.88
462.558	95.88
462.777	92.88
462.997	85.88
463.217	96.88
463.437	82.88
463.657	89.88
463.876	92.88
464.096	87.88
464.316	113.88
464.536	90.88
464.755	97.88
464.975	122.88
465.195	204.88
465.414	209.88
465.634	102.88
465.854	90.88
466.073	101.88
466.293	91.88
466.512	86.88
466.732	101.88
466.951	95.88
467.171	111.88
467.391	104.88
467.61	122.88
467.829	162.88
468.049	330.88
468.268	454.88
468.488	158.88
468.707	93.88
468.927	97.88
469.146	90.88
469.365	95.88
469.585	94.88
469.804	96.88
470.023	95.88
470.243	104.88
470.462	105.88
470.681	126.88
470.901	105.88
471.12	84.88
471.339	85.88
471.558	95.88
471.777	115.88
471.997	186.88
472.216	597.88
472.435	1322.88
472.654	356.88
472.873	125.88
473.092	106.88
473.311	88.88
473.53	90.88
473.749	84.88
473.968	99.88
474.187	114.88
474.406	106.88
474.625	89.88
474.844	99.88
475.063	84.88
475.282	87.88
475.501	79.88
475.72	104.88
475.939	81.88
476.158	91.88
476.377	95.88
476.596	83.88
476.814	102.88
477.033	90.88
477.252	96.88
477.471	86.88
477.69	84.88
477.908	82.88
478.127	82.88
478.346	88.88
478.564	91.88
478.783	95.88
479.002	75.88
479.22	98.88
479.439	109.88
479.658	122.88
479.876	98.88
480.095	110.88
480.313	110.88
480.532	139.88
480.751	207.88
480.969	565.88
481.188	2210.88
481.406	1394.88
481.624	249.88
481.843	124.88
482.061	96.88
482.28	94.88
482.498	98.88
482.717	105.88
482.935	73.88
483.153	96.88
483.372	80.88
483.59	98.88
483.808	80.88
484.027	85.88
484.245	90.88
484.463	79.88
484.681	95.88
484.9	93.88
485.118	90.88
485.336	90.88
485.554	97.88
485.772	111.88
485.99	109.88
486.209	90.88
486.427	122.88
486.645	90.88
486.863	118.88
487.081	87.88
487.299	106.88
487.517	114.88
487.735	104.88
487.953	95.88
488.171	98.88
488.389	102.88
488.607	85.88
488.825	89.88
489.043	92.88
489.261	100.88
489.479	95.88
489.696	86.88
489.914	104.88
490.132	96.88
490.35	94.88
490.568	93.88
490.786	87.88
491.003	106.88
491.221	96.88
491.439	92.88
491.657	96.88
491.874	98.88
492.092	101.88
492.31	84.88
492.527	101.88
492.745	101.88
492.963	81.88
493.18	101.88
493.398	98.88
493.615	98.88
493.833	105.88
494.05	90.88
494.268	93.88
494.485	91.88
494.703	86.88
494.92	106.88
495.138	93.88
495.355	102.88
495.573	82.88
495.79	98.88
496.008	95.88
496.225	95.88
496.442	101.88
496.66	70.88
496.877	81.88
497.094	88.88
497.312	79.88
497.529	81.88
497.746	109.88
497.963	79.88
498.181	93.88
498.398	98.88
498.615	105.88
498.832	96.88
499.049	96.88
499.267	82.88
499.484	85.88
499.701	94.88
499.918	85.88
500.135	69.88
500.352	70.88
500.569	98.88
500.786	87.88
501.003	102.88
501.22	86.88
501.437	91.88
501.654	89.88
501.871	116.88
502.088	85.88
502.305	78.88
502.522	92.88
502.739	96.88
502.956	96.88
503.172	93.88
503.389	89.88
503.606	114.88
503.823	88.88
504.04	99.88
504.256	95.88
504.473	91.88
504.69	82.88
504.907	87.88
505.123	85.88
505.34	92.88
505.557	100.88
505.773	92.88
505.99	101.88
506.207	92.88
506.423	101.88
506.64	98.88
506.856	94.88
507.073	105.88
507.289	100.88
507.506	96.88
507.722	117.88
507.939	115.88
508.155	108.88
508.372	94.88
508.588	98.88
508.805	107.88
509.021	104.88
509.238	106.88
509.454	114.88
509.67	106.88
509.887	110.88
510.103	127.88
510.319	238.88
510.536	899.88
510.752	2880.88
510.968	781.88
511.184	171.88
511.401	126.88
511.617	98.88
511.833	101.88
512.049	106.88
512.265	103.88
512.481	78.88
512.698	100.88
512.914	99.88
513.13	91.88
513.346	91.88
513.562	107.88
