Data from Circ_2004_H10_HRD10591_00031.txt Node
Date: Wed Jan 03 10:33:20 EST 2024
User: Yrep
Spectrometer: HR+D1059
Trigger mode: 1
Integration Time (sec): 1.000000E-1
Scans to average: 1
Electric dark correction enabled: true
Nonlinearity correction enabled: false
Boxcar width: 0
XAxis mode: Wavelengths
Number of Pixels in Spectrum: 2048
>>>>>Begin Spectral Data<<<<<
223.165	-24.31
223.4	-24.31
223.635	-24.31
223.869	-12.31
224.104	-22.31
224.338	-26.31
224.573	-15.31
224.808	-5.31
225.042	-5.31
225.277	-2.31
225.511	4.69
225.746	9.69
225.98	7.69
226.215	14.69
226.449	14.69
226.683	19.69
226.918	22.69
227.152	19.69
227.387	36.69
227.621	25.69
227.856	52.69
228.09	44.69
228.324	36.69
228.559	65.69
228.793	150.69
229.027	416.69
229.262	499.69
229.496	593.69
229.73	804.69
229.964	830.69
230.199	532.69
230.433	475.69
230.667	464.69
230.901	472.69
231.136	446.69
231.37	450.69
231.604	461.69
231.838	452.69
232.072	438.69
232.306	459.69
232.541	482.69
232.775	487.69
233.009	471.69
233.243	461.69
233.477	478.69
233.711	497.69
233.945	515.69
234.179	511.69
234.413	497.69
234.647	528.69
234.881	517.69
235.115	547.69
235.349	559.69
235.583	578.69
235.817	586.69
236.051	635.69
236.285	583.69
236.519	639.69
236.753	703.69
236.987	911.69
237.221	1378.69
237.455	1496.69
237.689	884.69
237.922	744.69
238.156	719.69
238.39	686.69
238.624	650.69
238.858	667.69
239.091	650.69
239.325	666.69
239.559	711.69
239.793	707.69
240.027	786.69
240.26	906.69
240.494	980.69
240.728	951.69
240.961	899.69
241.195	812.69
241.429	801.69
241.662	766.69
241.896	804.69
242.13	796.69
242.363	821.69
242.597	835.69
242.83	868.69
243.064	864.69
243.298	855.69
243.531	893.69
243.765	867.69
243.998	871.69
244.232	885.69
244.465	918.69
244.699	941.69
244.932	955.69
245.166	912.69
245.399	939.69
245.633	934.69
245.866	941.69
246.099	972.69
246.333	972.69
246.566	977.69
246.8	1003.69
247.033	1042.69
247.266	1056.69
247.5	1118.69
247.733	1184.69
247.966	1174.69
248.2	1180.69
248.433	1219.69
248.666	1268.69
248.899	1388.69
249.133	1504.69
249.366	1494.69
249.599	1399.69
249.832	1373.69
250.066	1519.69
250.299	1894.69
250.532	2482.69
250.765	2387.69
250.998	2174.69
251.231	1854.69
251.465	1635.69
251.698	1517.69
251.931	1499.69
252.164	1414.69
252.397	1476.69
252.63	1499.69
252.863	1617.69
253.096	1706.69
253.329	1747.69
253.562	1650.69
253.795	1602.69
254.028	1613.69
254.261	1729.69
254.494	1842.69
254.727	2244.69
254.96	2336.69
255.193	2096.69
255.426	2029.69
255.659	2359.69
255.892	3309.69
256.124	4278.69
256.357	3556.69
256.59	2583.69
256.823	2124.69
257.056	1954.69
257.289	1826.69
257.521	1807.69
257.754	1772.69
257.987	1692.69
258.22	1650.69
258.452	1670.69
258.685	1637.69
258.918	1632.69
259.151	1698.69
259.383	1799.69
259.616	1751.69
259.849	1798.69
260.081	1893.69
260.314	2137.69
260.547	2056.69
260.779	1915.69
261.012	1852.69
261.244	1792.69
261.477	1749.69
261.71	1736.69
261.942	1797.69
262.175	1842.69
262.407	1799.69
262.64	1698.69
262.872	1705.69
263.105	1678.69
263.337	1654.69
263.57	1725.69
263.802	1685.69
264.035	1714.69
264.267	1724.69
264.499	1752.69
264.732	1748.69
264.964	1768.69
265.197	1764.69
265.429	1749.69
265.661	1760.69
265.894	1780.69
266.126	1801.69
266.358	1810.69
266.591	1847.69
266.823	1922.69
267.055	1950.69
267.287	1926.69
267.52	1875.69
267.752	1900.69
267.984	1929.69
268.216	1922.69
268.448	1955.69
268.681	2060.69
268.913	2152.69
269.145	2320.69
269.377	2384.69
269.609	2280.69
269.841	2250.69
270.073	2395.69
270.306	2629.69
270.538	2759.69
270.77	2621.69
271.002	2460.69
271.234	2468.69
271.466	2583.69
271.698	2759.69
271.93	2736.69
272.162	2734.69
272.394	2634.69
272.626	2516.69
272.858	2344.69
273.09	2358.69
273.322	2268.69
273.553	2301.69
273.785	2292.69
274.017	2289.69
274.249	2395.69
274.481	2350.69
274.713	2387.69
274.945	2382.69
275.176	2401.69
275.408	2449.69
275.64	2470.69
275.872	2443.69
276.104	2478.69
276.335	2490.69
276.567	2619.69
276.799	2834.69
277.031	3073.69
277.262	3252.69
277.494	3075.69
277.726	2837.69
277.957	2660.69
278.189	2612.69
278.421	2585.69
278.652	2530.69
278.884	2565.69
279.115	2570.69
279.347	2569.69
279.579	2567.69
279.81	2670.69
280.042	2767.69
280.273	2953.69
280.505	2878.69
280.736	2778.69
280.968	2650.69
281.199	2587.69
281.431	2619.69
281.662	2628.69
281.894	2629.69
282.125	2697.69
282.356	2820.69
282.588	2984.69
282.819	2776.69
283.051	2703.69
283.282	2659.69
283.513	2684.69
283.745	2674.69
283.976	2768.69
284.207	2727.69
284.439	2718.69
284.67	2733.69
284.901	2764.69
285.132	2702.69
285.364	2715.69
285.595	2714.69
285.826	2775.69
286.057	2775.69
286.288	2783.69
286.52	2798.69
286.751	2778.69
286.982	2834.69
287.213	2813.69
287.444	2858.69
287.675	2914.69
287.906	3002.69
288.138	3057.69
288.369	3007.69
288.6	3043.69
288.831	2982.69
289.062	2918.69
289.293	2897.69
289.524	2916.69
289.755	2909.69
289.986	2915.69
290.217	2930.69
290.448	2899.69
290.679	2918.69
290.91	2866.69
291.141	2877.69
291.371	2865.69
291.602	2882.69
291.833	2850.69
292.064	2875.69
292.295	2869.69
292.526	2907.69
292.757	2896.69
292.987	2855.69
293.218	2856.69
293.449	2927.69
293.68	2934.69
293.91	2922.69
294.141	2883.69
294.372	2909.69
294.603	2935.69
294.833	2943.69
295.064	2977.69
295.295	2943.69
295.525	2959.69
295.756	3035.69
295.987	3106.69
296.217	3314.69
296.448	3220.69
296.679	3020.69
296.909	2982.69
297.14	3007.69
297.37	3150.69
297.601	3123.69
297.831	3152.69
298.062	3071.69
298.292	3153.69
298.523	3164.69
298.753	3191.69
298.984	3190.69
299.214	3173.69
299.445	3178.69
299.675	3186.69
299.905	3293.69
300.136	3236.69
300.366	3216.69
300.597	3223.69
300.827	3386.69
301.057	3440.69
301.288	3481.69
301.518	3409.69
301.748	3482.69
301.979	3498.69
302.209	3476.69
302.439	3502.69
302.669	3508.69
302.9	3383.69
303.13	3408.69
303.36	3450.69
303.59	3584.69
303.82	3579.69
304.051	3477.69
304.281	3451.69
304.511	3365.69
304.741	3355.69
304.971	3372.69
305.201	3346.69
305.431	3343.69
305.661	3388.69
305.891	3395.69
306.121	3392.69
306.352	3456.69
306.582	3440.69
306.812	3379.69
307.042	3452.69
307.272	3536.69
307.502	3573.69
307.731	3544.69
307.961	3466.69
308.191	3419.69
308.421	3403.69
308.651	3421.69
308.881	3415.69
309.111	3474.69
309.341	3490.69
309.571	3584.69
309.8	3629.69
310.03	3706.69
310.26	3701.69
310.49	3714.69
310.72	3898.69
310.949	3909.69
311.179	3863.69
311.409	3757.69
311.639	3731.69
311.868	3718.69
312.098	3785.69
312.328	3914.69
312.557	4069.69
312.787	4139.69
313.017	4006.69
313.246	3926.69
313.476	3773.69
313.706	3874.69
313.935	3932.69
314.165	4038.69
314.394	4076.69
314.624	3989.69
314.853	3953.69
315.083	3895.69
315.312	3891.69
315.542	3846.69
315.771	3805.69
316.001	3802.69
316.23	3799.69
316.46	3820.69
316.689	3852.69
316.919	3865.69
317.148	4007.69
317.377	3943.69
317.607	3872.69
317.836	3817.69
318.065	3762.69
318.295	3800.69
318.524	3793.69
318.753	3772.69
318.983	3878.69
319.212	3781.69
319.441	3937.69
319.67	3921.69
319.9	3866.69
320.129	3858.69
320.358	3866.69
320.587	3859.69
320.816	3943.69
321.046	4042.69
321.275	3938.69
321.504	3973.69
321.733	3989.69
321.962	4064.69
322.191	4159.69
322.42	4275.69
322.649	4372.69
322.878	4408.69
323.108	4523.69
323.337	4859.69
323.566	5031.69
323.795	5338.69
324.024	5871.69
324.253	7667.69
324.482	11543.69
324.71	15608.69
324.939	15608.69
325.168	13668.69
325.397	6940.69
325.626	5574.69
325.855	5219.69
326.084	5130.69
326.313	5121.69
326.542	5315.69
326.77	6034.69
326.999	7637.69
327.228	11037.69
327.457	14995.69
327.686	14586.69
327.914	8749.69
328.143	8024.69
328.372	8273.69
328.6	7196.69
328.829	6394.69
329.058	6481.69
329.287	6625.69
329.515	6486.69
329.744	6919.69
329.972	8309.69
330.201	10400.69
330.43	11794.69
330.658	9110.69
330.887	7614.69
331.115	6614.69
331.344	5964.69
331.572	5767.69
331.801	5771.69
332.03	5784.69
332.258	5663.69
332.486	5722.69
332.715	5912.69
332.943	6137.69
333.172	6403.69
333.4	6748.69
333.629	7282.69
333.857	8097.69
334.085	9563.69
334.314	11906.69
334.542	14228.69
334.771	13600.69
334.999	8940.69
335.227	7154.69
335.455	6416.69
335.684	6032.69
335.912	5778.69
336.14	5540.69
336.369	5512.69
336.597	5486.69
336.825	5382.69
337.053	5258.69
337.281	5125.69
337.51	5063.69
337.738	5083.69
337.966	4999.69
338.194	5024.69
338.422	4910.69
338.65	4809.69
338.878	4800.69
339.106	4741.69
339.334	4720.69
339.562	4653.69
339.79	4575.69
340.018	4646.69
340.246	4589.69
340.474	4692.69
340.702	4632.69
340.93	4524.69
341.158	4557.69
341.386	4634.69
341.614	4563.69
341.842	4575.69
342.07	4490.69
342.298	4465.69
342.526	4488.69
342.754	4437.69
342.981	4403.69
343.209	4597.69
343.437	4766.69
343.665	5023.69
343.893	5314.69
344.12	5347.69
344.348	5074.69
344.576	4931.69
344.804	4818.69
345.031	4818.69
345.259	4773.69
345.487	4600.69
345.714	4463.69
345.942	4312.69
346.17	4339.69
346.397	4360.69
346.625	4341.69
346.853	4279.69
347.08	4318.69
347.308	4356.69
347.535	4436.69
347.763	4411.69
347.99	4414.69
348.218	4489.69
348.445	4497.69
348.673	4426.69
348.9	4300.69
349.128	4175.69
349.355	4162.69
349.583	4240.69
349.81	4168.69
350.037	4107.69
350.265	4183.69
350.492	4134.69
350.72	4236.69
350.947	4277.69
351.174	4328.69
351.402	4319.69
351.629	4298.69
351.856	4282.69
352.083	4357.69
352.311	4383.69
352.538	4431.69
352.765	4429.69
352.992	4319.69
353.22	4226.69
353.447	4217.69
353.674	4196.69
353.901	4162.69
354.128	4074.69
354.355	4114.69
354.583	4123.69
354.81	4090.69
355.037	4088.69
355.264	4059.69
355.491	4037.69
355.718	4052.69
355.945	4043.69
356.172	4085.69
356.399	4060.69
356.626	4059.69
356.853	4116.69
357.08	4006.69
357.307	4034.69
357.534	4073.69
357.761	4079.69
357.988	4138.69
358.215	4078.69
358.441	4078.69
358.668	4115.69
358.895	4144.69
359.122	4098.69
359.349	4318.69
359.576	4396.69
359.802	4588.69
360.029	4824.69
360.256	4789.69
360.483	4571.69
360.709	4340.69
360.936	4270.69
361.163	4380.69
361.39	4368.69
361.616	4302.69
361.843	4291.69
362.07	4303.69
362.296	4352.69
362.523	4302.69
362.749	4270.69
362.976	4285.69
363.203	4181.69
363.429	4220.69
363.656	4231.69
363.882	4219.69
364.109	4198.69
364.335	4084.69
364.562	4138.69
364.788	4187.69
365.015	4206.69
365.241	4176.69
365.468	4164.69
365.694	4219.69
365.92	4261.69
366.147	4229.69
366.373	4139.69
366.599	4134.69
366.826	4161.69
367.052	4098.69
367.278	4213.69
367.505	4157.69
367.731	4151.69
367.957	4181.69
368.184	4182.69
368.41	4242.69
368.636	4307.69
368.862	4329.69
369.089	4271.69
369.315	4208.69
369.541	4279.69
369.767	4262.69
369.993	4284.69
370.219	4303.69
370.445	4306.69
370.672	4349.69
370.898	4363.69
371.124	4404.69
371.35	4433.69
371.576	4347.69
371.802	4368.69
372.028	4357.69
372.254	4456.69
372.48	4448.69
372.706	4549.69
372.932	4556.69
373.158	4520.69
373.384	4450.69
373.61	4389.69
373.835	4422.69
374.061	4432.69
374.287	4529.69
374.513	4562.69
374.739	4788.69
374.965	4840.69
375.191	4823.69
375.416	4675.69
375.642	4530.69
375.868	4524.69
376.094	4483.69
376.319	4472.69
376.545	4394.69
376.771	4420.69
376.997	4425.69
377.222	4421.69
377.448	4380.69
377.674	4360.69
377.899	4351.69
378.125	4367.69
378.35	4321.69
378.576	4318.69
378.802	4310.69
379.027	4300.69
379.253	4329.69
379.478	4280.69
379.704	4353.69
379.929	4403.69
380.155	4401.69
380.38	4377.69
380.606	4405.69
380.831	4417.69
381.057	4439.69
381.282	4395.69
381.507	4444.69
381.733	4506.69
381.958	4479.69
382.184	4560.69
382.409	4590.69
382.634	4604.69
382.86	4663.69
383.085	4707.69
383.31	4800.69
383.535	4813.69
383.761	4881.69
383.986	4952.69
384.211	5027.69
384.436	5115.69
384.662	5216.69
384.887	5312.69
385.112	5194.69
385.337	5293.69
385.562	5303.69
385.787	5375.69
386.013	5412.69
386.238	5400.69
386.463	5400.69
386.688	5425.69
386.913	5210.69
387.138	5232.69
387.363	5242.69
387.588	5216.69
387.813	5287.69
388.038	5171.69
388.263	5307.69
388.488	5342.69
388.713	5271.69
388.938	5219.69
389.163	5180.69
389.387	5194.69
389.612	5135.69
389.837	5202.69
390.062	5121.69
390.287	5154.69
390.512	5108.69
390.736	5152.69
390.961	5344.69
391.186	5386.69
391.411	5498.69
391.636	5681.69
391.86	5874.69
392.085	5877.69
392.31	5831.69
392.534	5618.69
392.759	5602.69
392.984	5469.69
393.208	5415.69
393.433	5478.69
393.658	5415.69
393.882	5398.69
394.107	5518.69
394.331	5457.69
394.556	5504.69
394.78	5549.69
395.005	5652.69
395.229	5598.69
395.454	5806.69
395.678	5902.69
395.903	5941.69
396.127	5962.69
396.352	5776.69
396.576	5572.69
396.801	5518.69
397.025	5642.69
397.249	5798.69
397.474	5925.69
397.698	5940.69
397.922	6130.69
398.147	6213.69
398.371	6304.69
398.595	6460.69
398.82	6699.69
399.044	7251.69
399.268	8031.69
399.492	9110.69
399.717	9732.69
399.941	9453.69
400.165	8881.69
400.389	8200.69
400.613	7447.69
400.837	7063.69
401.062	6797.69
401.286	6702.69
401.51	6666.69
401.734	6589.69
401.958	6724.69
402.182	6909.69
402.406	6981.69
402.63	7103.69
402.854	7247.69
403.078	7228.69
403.302	7384.69
403.526	7519.69
403.75	7526.69
403.974	7700.69
404.198	7607.69
404.422	7735.69
404.645	7903.69
404.869	8020.69
405.093	8694.69
405.317	9140.69
405.541	9029.69
405.765	8197.69
405.988	7823.69
406.212	7848.69
406.436	7969.69
406.66	8031.69
406.883	7922.69
407.107	8535.69
407.331	9109.69
407.555	9546.69
407.778	9132.69
408.002	8456.69
408.226	8067.69
408.449	8004.69
408.673	7817.69
408.896	7985.69
409.12	8169.69
409.344	7697.69
409.567	7252.69
409.791	7291.69
410.014	7225.69
410.238	7135.69
410.461	7187.69
410.685	7249.69
410.908	7326.69
411.132	7472.69
411.355	7562.69
411.578	7116.69
411.802	7132.69
412.025	7296.69
412.249	7670.69
412.472	8270.69
412.695	8896.69
412.919	8186.69
413.142	7671.69
413.365	7434.69
413.589	7190.69
413.812	6839.69
414.035	6743.69
414.258	6799.69
414.482	6891.69
414.705	6748.69
414.928	6657.69
415.151	6628.69
415.374	6680.69
415.597	6590.69
415.821	6483.69
416.044	6471.69
416.267	6482.69
416.49	6411.69
416.713	6341.69
416.936	6481.69
417.159	6438.69
417.382	6638.69
417.605	6766.69
417.828	6982.69
418.051	6867.69
418.274	6684.69
418.497	6626.69
418.72	6743.69
418.943	6700.69
419.166	7130.69
419.389	7581.69
419.611	7573.69
419.834	7450.69
420.057	7610.69
420.28	7924.69
420.503	7708.69
420.726	7331.69
420.948	7338.69
421.171	7563.69
421.394	7332.69
421.617	6799.69
421.839	6747.69
422.062	6882.69
422.285	6937.69
422.507	7616.69
422.73	8186.69
422.953	7471.69
423.175	7168.69
423.398	7176.69
423.621	7171.69
423.843	7397.69
424.066	7287.69
424.288	7253.69
424.511	7442.69
424.733	7898.69
424.956	8419.69
425.178	7830.69
425.401	7950.69
425.623	7920.69
425.846	6934.69
426.068	6774.69
426.291	6658.69
426.513	6718.69
426.735	6822.69
426.958	7258.69
427.18	8062.69
427.402	9362.69
427.625	9724.69
427.847	8938.69
428.069	8560.69
428.292	7212.69
428.514	6468.69
428.736	6282.69
428.958	6128.69
429.181	5978.69
429.403	5947.69
429.625	6111.69
429.847	6476.69
430.069	7017.69
430.292	6500.69
430.514	5934.69
430.736	5936.69
430.958	5892.69
431.18	5753.69
431.402	5758.69
431.624	5784.69
431.846	5846.69
432.068	5808.69
432.29	5957.69
432.512	5852.69
432.734	5890.69
432.956	5812.69
433.178	5928.69
433.4	5928.69
433.622	5853.69
433.844	5863.69
434.066	5921.69
434.287	5950.69
434.509	6190.69
434.731	6484.69
434.953	6505.69
435.175	6676.69
435.397	6729.69
435.618	6667.69
435.84	7072.69
436.062	7932.69
436.284	7960.69
436.505	6641.69
436.727	6353.69
436.949	6092.69
437.17	5950.69
437.392	5918.69
437.614	6088.69
437.835	6504.69
438.057	7505.69
438.278	8180.69
438.5	7983.69
438.721	8871.69
438.943	7743.69
439.165	6505.69
439.386	6402.69
439.608	6393.69
439.829	6491.69
440.05	6850.69
440.272	7355.69
440.493	6538.69
440.715	6325.69
440.936	6244.69
441.158	6200.69
441.379	6360.69
441.6	6730.69
441.822	6929.69
442.043	7435.69
442.264	8234.69
442.486	7902.69
442.707	6985.69
442.928	6850.69
443.149	7100.69
443.371	7326.69
443.592	7806.69
443.813	8868.69
444.034	8762.69
444.255	7646.69
444.476	7400.69
444.698	7566.69
444.919	7662.69
445.14	7531.69
445.361	7324.69
445.582	7590.69
445.803	8391.69
446.024	9053.69
446.245	8573.69
446.466	7670.69
446.687	6566.69
446.908	6152.69
447.129	5918.69
447.35	5770.69
447.571	5685.69
447.792	5639.69
448.013	5762.69
448.234	5956.69
448.455	6592.69
448.675	7916.69
448.896	8364.69
449.117	6829.69
449.338	7070.69
449.559	8446.69
449.779	8738.69
450	6587.69
450.221	5906.69
450.442	5631.69
450.662	5599.69
450.883	5671.69
451.104	5811.69
451.324	5652.69
451.545	5469.69
451.766	5314.69
451.986	5162.69
452.207	5147.69
452.428	5097.69
452.648	5182.69
452.869	5137.69
453.089	5228.69
453.31	5397.69
453.53	5190.69
453.751	5132.69
453.971	5209.69
454.192	5300.69
454.412	5079.69
454.633	5036.69
454.853	4962.69
455.073	5024.69
455.294	5428.69
455.514	6068.69
455.734	5487.69
455.955	4914.69
456.175	4813.69
456.395	4768.69
456.616	4742.69
456.836	4762.69
457.056	4703.69
457.276	4662.69
457.497	4951.69
457.717	4848.69
457.937	4924.69
458.157	4958.69
458.377	5119.69
458.598	5498.69
458.818	6235.69
459.038	7010.69
459.258	6906.69
459.478	6138.69
459.698	5919.69
459.918	5974.69
460.138	6204.69
460.358	6427.69
460.578	6372.69
460.798	6519.69
461.018	6484.69
461.238	6343.69
461.458	6320.69
461.678	6359.69
461.898	6494.69
462.118	6520.69
462.338	6843.69
462.558	7028.69
462.777	7363.69
462.997	7919.69
463.217	8292.69
463.437	8098.69
463.657	7445.69
463.876	7317.69
464.096	7350.69
464.316	7320.69
464.536	7415.69
464.755	7214.69
464.975	7107.69
465.195	7253.69
465.414	7350.69
465.634	6421.69
465.854	6090.69
466.073	5854.69
466.293	5674.69
466.512	5449.69
466.732	5390.69
466.951	5476.69
467.171	5379.69
467.391	5564.69
467.61	5589.69
467.829	5748.69
468.049	6336.69
468.268	7001.69
468.488	6060.69
468.707	5577.69
468.927	5448.69
469.146	5295.69
469.365	5316.69
469.585	5413.69
469.804	5596.69
470.023	5685.69
470.243	5780.69
470.462	5782.69
470.681	5899.69
470.901	5813.69
471.12	5772.69
471.339	5649.69
471.558	5588.69
471.777	5689.69
471.997	5964.69
472.216	7599.69
472.435	10941.69
472.654	8524.69
472.873	6660.69
473.092	6062.69
473.311	5776.69
473.53	5629.69
473.749	5713.69
473.968	6181.69
474.187	7191.69
474.406	6724.69
474.625	5664.69
474.844	5374.69
475.063	5292.69
475.282	5311.69
475.501	5368.69
475.72	5395.69
475.939	5462.69
476.158	5373.69
476.377	5424.69
476.596	5487.69
476.814	5614.69
477.033	5662.69
477.252	5699.69
477.471	5838.69
477.69	5861.69
477.908	6018.69
478.127	6185.69
478.346	6306.69
478.564	6354.69
478.783	6453.69
479.002	6706.69
479.22	6651.69
479.439	6793.69
479.658	6914.69
479.876	7063.69
480.095	7279.69
480.313	7723.69
480.532	7788.69
480.751	7982.69
480.969	9659.69
481.188	14397.69
481.406	14750.69
481.624	10500.69
481.843	8572.69
482.061	7757.69
482.28	7253.69
482.498	6933.69
482.717	6695.69
482.935	6651.69
483.153	6611.69
483.372	6451.69
483.59	6387.69
483.808	6405.69
484.027	6388.69
484.245	6396.69
484.463	6427.69
484.681	6588.69
484.9	6535.69
485.118	6553.69
485.336	6593.69
485.554	6623.69
485.772	6645.69
485.99	6659.69
486.209	6708.69
486.427	6810.69
486.645	6762.69
486.863	6818.69
487.081	6786.69
487.299	6753.69
487.517	6765.69
487.735	6722.69
