Data from Circ_2004_H10_HRD10591_00001.txt Node
Date: Wed Jan 03 10:33:14 EST 2024
User: Yrep
Spectrometer: HR+D1059
Trigger mode: 1
Integration Time (sec): 1.000000E-1
Scans to average: 1
Electric dark correction enabled: true
Nonlinearity correction enabled: false
Boxcar width: 0
XAxis mode: Wavelengths
Number of Pixels in Spectrum: 2048
>>>>>Begin Spectral Data<<<<<
223.165	-14.44
223.4	-14.44
223.635	-14.44
223.869	-7.44
224.104	-22.44
224.338	-9.44
224.573	-16.44
224.808	-3.44
225.042	-8.44
225.277	-14.44
225.511	-7.44
225.746	1.56
225.98	-5.44
226.215	11.56
226.449	11.56
226.683	20.56
226.918	28.56
227.152	35.56
227.387	48.56
227.621	35.56
227.856	44.56
228.09	42.56
228.324	60.56
228.559	72.56
228.793	58.56
229.027	59.56
229.262	66.56
229.496	76.56
229.73	83.56
229.964	87.56
230.199	72.56
230.433	64.56
230.667	83.56
230.901	78.56
231.136	86.56
231.37	85.56
231.604	76.56
231.838	71.56
232.072	83.56
232.306	73.56
232.541	79.56
232.775	81.56
233.009	78.56
233.243	85.56
233.477	81.56
233.711	79.56
233.945	87.56
234.179	95.56
234.413	76.56
234.647	87.56
234.881	85.56
235.115	82.56
235.349	76.56
235.583	85.56
235.817	74.56
236.051	73.56
236.285	79.56
236.519	93.56
236.753	78.56
236.987	87.56
237.221	70.56
237.455	89.56
237.689	80.56
237.922	74.56
238.156	77.56
238.39	87.56
238.624	67.56
238.858	73.56
239.091	82.56
239.325	82.56
239.559	75.56
239.793	79.56
240.027	76.56
240.26	78.56
240.494	76.56
240.728	72.56
240.961	82.56
241.195	71.56
241.429	93.56
241.662	86.56
241.896	89.56
242.13	68.56
242.363	85.56
242.597	87.56
242.83	73.56
243.064	71.56
243.298	68.56
243.531	93.56
243.765	85.56
243.998	74.56
244.232	87.56
244.465	80.56
244.699	85.56
244.932	88.56
245.166	78.56
245.399	85.56
245.633	92.56
245.866	78.56
246.099	94.56
246.333	93.56
246.566	85.56
246.8	85.56
247.033	87.56
247.266	80.56
247.5	84.56
247.733	81.56
247.966	81.56
248.2	82.56
248.433	83.56
248.666	78.56
248.899	91.56
249.133	81.56
249.366	101.56
249.599	88.56
249.832	91.56
250.066	69.56
250.299	69.56
250.532	81.56
250.765	76.56
250.998	81.56
251.231	79.56
251.465	78.56
251.698	84.56
251.931	85.56
252.164	71.56
252.397	68.56
252.63	82.56
252.863	96.56
253.096	79.56
253.329	79.56
253.562	80.56
253.795	73.56
254.028	88.56
254.261	92.56
254.494	73.56
254.727	86.56
254.96	90.56
255.193	85.56
255.426	99.56
255.659	80.56
255.892	87.56
256.124	90.56
256.357	87.56
256.59	95.56
256.823	79.56
257.056	87.56
257.289	86.56
257.521	89.56
257.754	91.56
257.987	92.56
258.22	87.56
258.452	98.56
258.685	80.56
258.918	87.56
259.151	83.56
259.383	80.56
259.616	92.56
259.849	97.56
260.081	73.56
260.314	72.56
260.547	87.56
260.779	92.56
261.012	88.56
261.244	103.56
261.477	111.56
261.71	80.56
261.942	90.56
262.175	104.56
262.407	92.56
262.64	81.56
262.872	83.56
263.105	90.56
263.337	95.56
263.57	99.56
263.802	82.56
264.035	89.56
264.267	93.56
264.499	82.56
264.732	66.56
264.964	82.56
265.197	93.56
265.429	80.56
265.661	89.56
265.894	97.56
266.126	98.56
266.358	86.56
266.591	83.56
266.823	72.56
267.055	87.56
267.287	99.56
267.52	95.56
267.752	87.56
267.984	101.56
268.216	80.56
268.448	94.56
268.681	84.56
268.913	102.56
269.145	70.56
269.377	83.56
269.609	70.56
269.841	90.56
270.073	101.56
270.306	83.56
270.538	80.56
270.77	90.56
271.002	87.56
271.234	94.56
271.466	88.56
271.698	100.56
271.93	86.56
272.162	84.56
272.394	86.56
272.626	76.56
272.858	92.56
273.09	78.56
273.322	81.56
273.553	89.56
273.785	86.56
274.017	85.56
274.249	74.56
274.481	85.56
274.713	71.56
274.945	85.56
275.176	95.56
275.408	97.56
275.64	82.56
275.872	77.56
276.104	104.56
276.335	92.56
276.567	97.56
276.799	109.56
277.031	110.56
277.262	93.56
277.494	98.56
277.726	99.56
277.957	85.56
278.189	89.56
278.421	83.56
278.652	98.56
278.884	102.56
279.115	88.56
279.347	77.56
279.579	86.56
279.81	91.56
280.042	91.56
280.273	102.56
280.505	107.56
280.736	83.56
280.968	87.56
281.199	93.56
281.431	81.56
281.662	101.56
281.894	104.56
282.125	88.56
282.356	101.56
282.588	116.56
282.819	93.56
283.051	91.56
283.282	101.56
283.513	82.56
283.745	89.56
283.976	88.56
284.207	91.56
284.439	83.56
284.67	77.56
284.901	80.56
285.132	87.56
285.364	91.56
285.595	94.56
285.826	85.56
286.057	85.56
286.288	83.56
286.52	85.56
286.751	88.56
286.982	72.56
287.213	82.56
287.444	98.56
287.675	96.56
287.906	96.56
288.138	94.56
288.369	77.56
288.6	84.56
288.831	81.56
289.062	105.56
289.293	95.56
289.524	89.56
289.755	98.56
289.986	89.56
290.217	99.56
290.448	77.56
290.679	64.56
290.91	82.56
291.141	79.56
291.371	98.56
291.602	99.56
291.833	88.56
292.064	95.56
292.295	79.56
292.526	90.56
292.757	95.56
292.987	94.56
293.218	90.56
293.449	87.56
293.68	99.56
293.91	88.56
294.141	98.56
294.372	84.56
294.603	99.56
294.833	98.56
295.064	91.56
295.295	98.56
295.525	98.56
295.756	99.56
295.987	110.56
296.217	116.56
296.448	104.56
296.679	97.56
296.909	89.56
297.14	90.56
297.37	97.56
297.601	86.56
297.831	97.56
298.062	98.56
298.292	87.56
298.523	83.56
298.753	107.56
298.984	96.56
299.214	103.56
299.445	94.56
299.675	84.56
299.905	80.56
300.136	77.56
300.366	90.56
300.597	96.56
300.827	86.56
301.057	112.56
301.288	90.56
301.518	93.56
301.748	102.56
301.979	105.56
302.209	92.56
302.439	90.56
302.669	96.56
302.9	98.56
303.13	109.56
303.36	92.56
303.59	98.56
303.82	113.56
304.051	107.56
304.281	87.56
304.511	89.56
304.741	100.56
304.971	81.56
305.201	97.56
305.431	84.56
305.661	88.56
305.891	90.56
306.121	90.56
306.352	110.56
306.582	103.56
306.812	104.56
307.042	106.56
307.272	95.56
307.502	106.56
307.731	104.56
307.961	81.56
308.191	82.56
308.421	98.56
308.651	79.56
308.881	88.56
309.111	88.56
309.341	83.56
309.571	96.56
309.8	94.56
310.03	94.56
310.26	97.56
310.49	109.56
310.72	101.56
310.949	110.56
311.179	93.56
311.409	91.56
311.639	94.56
311.868	93.56
312.098	88.56
312.328	96.56
312.557	93.56
312.787	104.56
313.017	91.56
313.246	85.56
313.476	88.56
313.706	88.56
313.935	89.56
314.165	100.56
314.394	92.56
314.624	96.56
314.853	97.56
315.083	91.56
315.312	99.56
315.542	89.56
315.771	90.56
316.001	96.56
316.23	81.56
316.46	82.56
316.689	77.56
316.919	97.56
317.148	101.56
317.377	86.56
317.607	101.56
317.836	105.56
318.065	83.56
318.295	88.56
318.524	81.56
318.753	88.56
318.983	98.56
319.212	94.56
319.441	113.56
319.67	103.56
319.9	104.56
320.129	103.56
320.358	97.56
320.587	93.56
320.816	97.56
321.046	84.56
321.275	98.56
321.504	102.56
321.733	96.56
321.962	103.56
322.191	101.56
322.42	92.56
322.649	104.56
322.878	111.56
323.108	107.56
323.337	121.56
323.566	120.56
323.795	129.56
324.024	182.56
324.253	335.56
324.482	661.56
324.71	1338.56
324.939	1705.56
325.168	646.56
325.397	188.56
325.626	133.56
325.855	128.56
326.084	129.56
326.313	129.56
326.542	128.56
326.77	176.56
326.999	376.56
327.228	748.56
327.457	1311.56
327.686	1073.56
327.914	325.56
328.143	187.56
328.372	173.56
328.6	121.56
328.829	117.56
329.058	123.56
329.287	122.56
329.515	118.56
329.744	123.56
329.972	136.56
330.201	167.56
330.43	213.56
330.658	153.56
330.887	133.56
331.115	116.56
331.344	110.56
331.572	93.56
331.801	109.56
332.03	103.56
332.258	85.56
332.486	85.56
332.715	93.56
332.943	110.56
333.172	97.56
333.4	103.56
333.629	106.56
333.857	117.56
334.085	137.56
334.314	171.56
334.542	241.56
334.771	238.56
334.999	119.56
335.227	105.56
335.455	91.56
335.684	101.56
335.912	97.56
336.14	108.56
336.369	104.56
336.597	96.56
336.825	102.56
337.053	104.56
337.281	100.56
337.51	93.56
337.738	83.56
337.966	87.56
338.194	84.56
338.422	89.56
338.65	104.56
338.878	111.56
339.106	86.56
339.334	113.56
339.562	84.56
339.79	96.56
340.018	103.56
340.246	102.56
340.474	85.56
340.702	95.56
340.93	104.56
341.158	101.56
341.386	107.56
341.614	93.56
341.842	89.56
342.07	93.56
342.298	99.56
342.526	92.56
342.754	99.56
342.981	104.56
343.209	89.56
343.437	96.56
343.665	87.56
343.893	104.56
344.12	101.56
344.348	104.56
344.576	93.56
344.804	91.56
345.031	93.56
345.259	97.56
345.487	89.56
345.714	79.56
345.942	93.56
346.17	89.56
346.397	103.56
346.625	110.56
346.853	96.56
347.08	84.56
347.308	105.56
347.535	105.56
347.763	91.56
347.99	104.56
348.218	102.56
348.445	100.56
348.673	103.56
348.9	103.56
349.128	90.56
349.355	88.56
349.583	94.56
349.81	89.56
350.037	105.56
350.265	104.56
350.492	105.56
350.72	114.56
350.947	105.56
351.174	107.56
351.402	119.56
351.629	111.56
351.856	83.56
352.083	111.56
352.311	113.56
352.538	97.56
352.765	108.56
352.992	120.56
353.22	98.56
353.447	113.56
353.674	102.56
353.901	91.56
354.128	103.56
354.355	110.56
354.583	99.56
354.81	101.56
355.037	100.56
355.264	89.56
355.491	85.56
355.718	89.56
355.945	85.56
356.172	95.56
356.399	93.56
356.626	96.56
356.853	96.56
357.08	103.56
357.307	99.56
357.534	84.56
357.761	102.56
357.988	90.56
358.215	101.56
358.441	102.56
358.668	98.56
358.895	94.56
359.122	96.56
359.349	80.56
359.576	99.56
359.802	98.56
360.029	113.56
360.256	101.56
360.483	103.56
360.709	96.56
360.936	98.56
361.163	98.56
361.39	90.56
361.616	98.56
361.843	93.56
362.07	102.56
362.296	88.56
362.523	96.56
362.749	89.56
362.976	96.56
363.203	101.56
363.429	96.56
363.656	93.56
363.882	94.56
364.109	84.56
364.335	101.56
364.562	114.56
364.788	88.56
365.015	99.56
365.241	81.56
365.468	96.56
365.694	98.56
365.92	108.56
366.147	104.56
366.373	98.56
366.599	99.56
366.826	99.56
367.052	82.56
367.278	87.56
367.505	88.56
367.731	101.56
367.957	93.56
368.184	98.56
368.41	95.56
368.636	115.56
368.862	117.56
369.089	92.56
369.315	85.56
369.541	99.56
369.767	97.56
369.993	83.56
370.219	76.56
370.445	93.56
370.672	88.56
370.898	103.56
371.124	90.56
371.35	70.56
371.576	86.56
371.802	94.56
372.028	92.56
372.254	77.56
372.48	94.56
372.706	79.56
372.932	90.56
373.158	100.56
373.384	96.56
373.61	96.56
373.835	98.56
374.061	90.56
374.287	100.56
374.513	93.56
374.739	102.56
374.965	90.56
375.191	91.56
375.416	96.56
375.642	98.56
375.868	96.56
376.094	81.56
376.319	98.56
376.545	86.56
376.771	94.56
376.997	92.56
377.222	88.56
377.448	82.56
377.674	96.56
377.899	90.56
378.125	98.56
378.35	97.56
378.576	90.56
378.802	101.56
379.027	87.56
379.253	89.56
379.478	82.56
379.704	90.56
379.929	101.56
380.155	94.56
380.38	90.56
380.606	92.56
380.831	94.56
381.057	107.56
381.282	115.56
381.507	100.56
381.733	108.56
381.958	106.56
382.184	103.56
382.409	104.56
382.634	111.56
382.86	85.56
383.085	104.56
383.31	114.56
383.535	127.56
383.761	114.56
383.986	106.56
384.211	98.56
384.436	101.56
384.662	124.56
384.887	123.56
385.112	120.56
385.337	123.56
385.562	112.56
385.787	114.56
386.013	127.56
386.238	131.56
386.463	92.56
386.688	119.56
386.913	114.56
387.138	115.56
387.363	122.56
387.588	107.56
387.813	124.56
388.038	111.56
388.263	127.56
388.488	134.56
388.713	117.56
388.938	90.56
389.163	87.56
389.387	98.56
389.612	100.56
389.837	111.56
390.062	96.56
390.287	96.56
390.512	96.56
390.736	93.56
390.961	86.56
391.186	100.56
391.411	113.56
391.636	94.56
391.86	84.56
392.085	78.56
392.31	102.56
392.534	90.56
392.759	90.56
392.984	93.56
393.208	96.56
393.433	96.56
393.658	99.56
393.882	98.56
394.107	82.56
394.331	84.56
394.556	90.56
394.78	96.56
395.005	95.56
395.229	87.56
395.454	102.56
395.678	92.56
395.903	93.56
396.127	92.56
396.352	91.56
396.576	89.56
396.801	90.56
397.025	96.56
397.249	84.56
397.474	86.56
397.698	92.56
397.922	87.56
398.147	92.56
398.371	88.56
398.595	94.56
398.82	85.56
399.044	84.56
399.268	79.56
399.492	97.56
399.717	90.56
399.941	95.56
400.165	88.56
400.389	90.56
400.613	95.56
400.837	92.56
401.062	103.56
401.286	75.56
401.51	87.56
401.734	98.56
401.958	108.56
402.182	124.56
402.406	138.56
402.63	106.56
402.854	88.56
403.078	84.56
403.302	84.56
403.526	82.56
403.75	106.56
403.974	93.56
404.198	84.56
404.422	92.56
404.645	88.56
404.869	75.56
405.093	99.56
405.317	104.56
405.541	98.56
405.765	106.56
405.988	120.56
406.212	159.56
406.436	183.56
406.66	143.56
406.883	97.56
407.107	87.56
407.331	93.56
407.555	97.56
407.778	89.56
408.002	99.56
408.226	95.56
408.449	99.56
408.673	93.56
408.896	76.56
409.12	98.56
409.344	94.56
409.567	104.56
409.791	94.56
410.014	95.56
410.238	99.56
410.461	104.56
410.685	79.56
410.908	102.56
411.132	98.56
411.355	82.56
411.578	89.56
411.802	85.56
412.025	87.56
412.249	99.56
412.472	96.56
412.695	91.56
412.919	85.56
413.142	101.56
413.365	97.56
413.589	87.56
413.812	80.56
414.035	97.56
414.258	89.56
414.482	86.56
414.705	90.56
414.928	98.56
415.151	90.56
415.374	102.56
415.597	93.56
415.821	95.56
416.044	91.56
416.267	97.56
416.49	91.56
416.713	107.56
416.936	108.56
417.159	102.56
417.382	92.56
417.605	87.56
417.828	93.56
418.051	96.56
418.274	96.56
418.497	95.56
418.72	96.56
418.943	89.56
419.166	91.56
419.389	92.56
419.611	103.56
419.834	86.56
420.057	110.56
420.28	112.56
420.503	88.56
420.726	90.56
420.948	98.56
421.171	86.56
421.394	91.56
421.617	104.56
421.839	105.56
422.062	92.56
422.285	93.56
422.507	102.56
422.73	97.56
422.953	101.56
423.175	99.56
423.398	99.56
423.621	82.56
423.843	84.56
424.066	88.56
424.288	92.56
424.511	88.56
424.733	91.56
424.956	96.56
425.178	96.56
425.401	92.56
425.623	99.56
425.846	89.56
426.068	100.56
426.291	97.56
426.513	101.56
426.735	100.56
426.958	103.56
427.18	111.56
427.402	108.56
427.625	157.56
427.847	117.56
428.069	113.56
428.292	106.56
428.514	84.56
428.736	83.56
428.958	93.56
429.181	100.56
429.403	102.56
429.625	109.56
429.847	101.56
430.069	87.56
430.292	84.56
430.514	93.56
430.736	93.56
430.958	86.56
431.18	89.56
431.402	87.56
431.624	93.56
431.846	90.56
432.068	97.56
432.29	84.56
432.512	88.56
432.734	94.56
432.956	91.56
433.178	94.56
433.4	99.56
433.622	86.56
433.844	89.56
434.066	97.56
434.287	105.56
434.509	96.56
434.731	100.56
434.953	86.56
435.175	86.56
435.397	79.56
435.618	96.56
435.84	101.56
436.062	130.56
436.284	101.56
436.505	101.56
436.727	105.56
436.949	87.56
437.17	87.56
437.392	84.56
437.614	82.56
437.835	99.56
438.057	114.56
438.278	99.56
438.5	98.56
438.721	105.56
438.943	100.56
439.165	89.56
439.386	86.56
439.608	101.56
439.829	85.56
440.05	109.56
440.272	117.56
440.493	100.56
440.715	86.56
440.936	94.56
441.158	81.56
441.379	86.56
441.6	101.56
441.822	100.56
442.043	84.56
442.264	107.56
442.486	101.56
442.707	90.56
442.928	103.56
443.149	120.56
443.371	119.56
443.592	97.56
443.813	95.56
444.034	98.56
444.255	89.56
444.476	79.56
444.698	85.56
444.919	89.56
445.14	133.56
445.361	120.56
445.582	89.56
445.803	108.56
446.024	121.56
446.245	130.56
446.466	109.56
446.687	89.56
446.908	91.56
447.129	92.56
447.35	100.56
447.571	101.56
447.792	96.56
448.013	109.56
448.234	104.56
448.455	96.56
448.675	98.56
448.896	101.56
449.117	91.56
449.338	96.56
449.559	125.56
449.779	145.56
450	98.56
450.221	84.56
450.442	91.56
450.662	89.56
450.883	102.56
451.104	99.56
451.324	90.56
451.545	92.56
451.766	103.56
451.986	78.56
452.207	100.56
452.428	101.56
452.648	113.56
452.869	108.56
453.089	99.56
453.31	122.56
453.53	100.56
453.751	82.56
453.971	98.56
454.192	102.56
454.412	91.56
454.633	97.56
454.853	86.56
455.073	84.56
455.294	91.56
455.514	98.56
455.734	94.56
455.955	81.56
456.175	103.56
456.395	90.56
456.616	86.56
456.836	75.56
457.056	86.56
457.276	87.56
457.497	82.56
457.717	105.56
457.937	87.56
458.157	83.56
458.377	97.56
458.598	86.56
458.818	130.56
459.038	151.56
459.258	105.56
459.478	103.56
459.698	91.56
459.918	87.56
460.138	88.56
460.358	94.56
460.578	84.56
460.798	89.56
461.018	99.56
461.238	79.56
461.458	80.56
461.678	93.56
461.898	98.56
462.118	103.56
462.338	78.56
462.558	89.56
462.777	76.56
462.997	93.56
463.217	86.56
463.437	81.56
463.657	96.56
463.876	82.56
464.096	88.56
464.316	90.56
464.536	92.56
464.755	100.56
464.975	97.56
465.195	136.56
465.414	152.56
465.634	91.56
465.854	98.56
466.073	85.56
466.293	100.56
466.512	106.56
466.732	89.56
466.951	103.56
467.171	99.56
467.391	92.56
467.61	100.56
467.829	98.56
468.049	115.56
468.268	160.56
468.488	95.56
468.707	90.56
468.927	89.56
469.146	85.56
469.365	77.56
469.585	91.56
469.804	105.56
470.023	94.56
470.243	102.56
470.462	92.56
470.681	109.56
470.901	87.56
471.12	88.56
471.339	82.56
471.558	104.56
471.777	86.56
471.997	118.56
472.216	198.56
472.435	298.56
472.654	138.56
472.873	98.56
473.092	86.56
473.311	98.56
473.53	93.56
473.749	104.56
473.968	96.56
474.187	96.56
474.406	92.56
474.625	83.56
474.844	89.56
475.063	91.56
475.282	87.56
475.501	96.56
475.72	94.56
475.939	91.56
476.158	96.56
476.377	89.56
476.596	90.56
476.814	98.56
477.033	95.56
477.252	98.56
477.471	89.56
477.69	88.56
477.908	102.56
478.127	95.56
478.346	106.56
478.564	104.56
478.783	103.56
479.002	106.56
479.22	78.56
479.439	90.56
479.658	112.56
479.876	96.56
480.095	76.56
480.313	90.56
480.532	102.56
480.751	115.56
480.969	191.56
481.188	497.56
481.406	318.56
481.624	127.56
481.843	92.56
482.061	98.56
482.28	96.56
482.498	98.56
482.717	87.56
482.935	87.56
483.153	85.56
483.372	92.56
483.59	83.56
483.808	92.56
484.027	87.56
484.245	101.56
484.463	96.56
484.681	96.56
484.9	103.56
485.118	97.56
485.336	103.56
485.554	103.56
485.772	103.56
485.99	100.56
486.209	102.56
486.427	112.56
486.645	99.56
486.863	110.56
487.081	122.56
487.299	100.56
487.517	93.56
487.735	105.56
487.953	112.56
488.171	97.56
488.389	90.56
488.607	99.56
488.825	80.56
489.043	99.56
489.261	93.56
489.479	93.56
489.696	102.56
489.914	96.56
490.132	95.56
490.35	96.56
490.568	79.56
490.786	100.56
491.003	93.56
491.221	87.56
491.439	87.56
491.657	91.56
491.874	91.56
492.092	103.56
492.31	103.56
492.527	107.56
492.745	86.56
492.963	93.56
493.18	99.56
493.398	79.56
493.615	90.56
493.833	107.56
494.05	91.56
494.268	101.56
494.485	100.56
494.703	87.56
494.92	87.56
495.138	100.56
495.355	85.56
495.573	97.56
495.79	88.56
496.008	94.56
496.225	97.56
496.442	105.56
496.66	97.56
496.877	88.56
497.094	104.56
497.312	100.56
497.529	96.56
497.746	87.56
497.963	81.56
498.181	93.56
498.398	113.56
498.615	117.56
498.832	93.56
499.049	102.56
499.267	102.56
499.484	91.56
499.701	89.56
499.918	114.56
500.135	97.56
500.352	92.56
500.569	78.56
500.786	87.56
501.003	90.56
501.22	91.56
501.437	95.56
501.654	91.56
501.871	114.56
502.088	101.56
502.305	80.56
502.522	103.56
502.739	81.56
502.956	101.56
503.172	92.56
503.389	90.56
503.606	97.56
503.823	101.56
504.04	84.56
504.256	100.56
504.473	86.56
504.69	85.56
504.907	91.56
505.123	80.56
505.34	93.56
505.557	97.56
505.773	87.56
505.99	90.56
506.207	92.56
506.423	98.56
506.64	85.56
506.856	91.56
507.073	93.56
507.289	89.56
507.506	105.56
507.722	112.56
507.939	101.56
508.155	98.56
508.372	91.56
508.588	93.56
508.805	96.56
509.021	93.56
509.238	92.56
509.454	100.56
509.67	92.56
509.887	101.56
510.103	120.56
510.319	182.56
510.536	586.56
510.752	1791.56
510.968	538.56
511.184	143.56
511.401	105.56
511.617	95.56
511.833	108.56
512.049	92.56
512.265	101.56
512.481	113.56
512.698	99.56
512.914	101.56
513.13	97.56
513.346	89.56
513.562	91.56
513.778	96.56
513.994	93.56
514.21	99.56
514.426	114.56
514.642	103.56
