Data from Circ_2004_H10_HRD10591_00097.txt Node
Date: Wed Jan 03 10:33:33 EST 2024
User: Yrep
Spectrometer: HR+D1059
Trigger mode: 1
Integration Time (sec): 1.000000E-1
Scans to average: 1
Electric dark correction enabled: true
Nonlinearity correction enabled: false
Boxcar width: 0
XAxis mode: Wavelengths
Number of Pixels in Spectrum: 2048
>>>>>Begin Spectral Data<<<<<
223.165	-16.94
223.4	-16.94
223.635	-16.94
223.869	-33.94
224.104	-20.94
224.338	-2.94
224.573	-23.94
224.808	-22.94
225.042	3.06
225.277	-7.94
225.511	8.06
225.746	0.06
225.98	5.06
226.215	21.06
226.449	28.06
226.683	15.06
226.918	14.06
227.152	35.06
227.387	30.06
227.621	38.06
227.856	45.06
228.09	45.06
228.324	58.06
228.559	64.06
228.793	64.06
229.027	57.06
229.262	78.06
229.496	83.06
229.73	106.06
229.964	106.06
230.199	69.06
230.433	77.06
230.667	99.06
230.901	88.06
231.136	92.06
231.37	75.06
231.604	69.06
231.838	77.06
232.072	73.06
232.306	88.06
232.541	82.06
232.775	88.06
233.009	106.06
233.243	76.06
233.477	81.06
233.711	76.06
233.945	86.06
234.179	76.06
234.413	94.06
234.647	92.06
234.881	83.06
235.115	68.06
235.349	89.06
235.583	78.06
235.817	102.06
236.051	87.06
236.285	84.06
236.519	90.06
236.753	77.06
236.987	92.06
237.221	94.06
237.455	83.06
237.689	85.06
237.922	83.06
238.156	69.06
238.39	74.06
238.624	88.06
238.858	81.06
239.091	58.06
239.325	86.06
239.559	88.06
239.793	83.06
240.027	81.06
240.26	87.06
240.494	77.06
240.728	93.06
240.961	86.06
241.195	91.06
241.429	94.06
241.662	88.06
241.896	88.06
242.13	70.06
242.363	80.06
242.597	84.06
242.83	82.06
243.064	76.06
243.298	82.06
243.531	79.06
243.765	92.06
243.998	85.06
244.232	78.06
244.465	77.06
244.699	94.06
244.932	81.06
245.166	92.06
245.399	92.06
245.633	97.06
245.866	90.06
246.099	80.06
246.333	79.06
246.566	80.06
246.8	79.06
247.033	90.06
247.266	79.06
247.5	90.06
247.733	98.06
247.966	84.06
248.2	79.06
248.433	90.06
248.666	86.06
248.899	72.06
249.133	83.06
249.366	108.06
249.599	110.06
249.832	91.06
250.066	81.06
250.299	95.06
250.532	81.06
250.765	86.06
250.998	91.06
251.231	89.06
251.465	82.06
251.698	76.06
251.931	83.06
252.164	86.06
252.397	70.06
252.63	89.06
252.863	83.06
253.096	89.06
253.329	84.06
253.562	87.06
253.795	72.06
254.028	76.06
254.261	85.06
254.494	102.06
254.727	87.06
254.96	86.06
255.193	76.06
255.426	99.06
255.659	77.06
255.892	95.06
256.124	78.06
256.357	97.06
256.59	78.06
256.823	92.06
257.056	94.06
257.289	104.06
257.521	96.06
257.754	89.06
257.987	85.06
258.22	99.06
258.452	92.06
258.685	85.06
258.918	82.06
259.151	79.06
259.383	87.06
259.616	97.06
259.849	91.06
260.081	98.06
260.314	98.06
260.547	89.06
260.779	84.06
261.012	93.06
261.244	96.06
261.477	95.06
261.71	102.06
261.942	113.06
262.175	142.06
262.407	110.06
262.64	74.06
262.872	88.06
263.105	93.06
263.337	103.06
263.57	91.06
263.802	92.06
264.035	100.06
264.267	92.06
264.499	91.06
264.732	84.06
264.964	81.06
265.197	87.06
265.429	88.06
265.661	95.06
265.894	80.06
266.126	84.06
266.358	81.06
266.591	74.06
266.823	78.06
267.055	84.06
267.287	87.06
267.52	90.06
267.752	93.06
267.984	72.06
268.216	92.06
268.448	101.06
268.681	102.06
268.913	91.06
269.145	94.06
269.377	81.06
269.609	85.06
269.841	83.06
270.073	98.06
270.306	94.06
270.538	89.06
270.77	99.06
271.002	100.06
271.234	95.06
271.466	93.06
271.698	81.06
271.93	84.06
272.162	84.06
272.394	84.06
272.626	93.06
272.858	81.06
273.09	87.06
273.322	98.06
273.553	88.06
273.785	88.06
274.017	86.06
274.249	77.06
274.481	83.06
274.713	91.06
274.945	94.06
275.176	111.06
275.408	97.06
275.64	97.06
275.872	104.06
276.104	89.06
276.335	104.06
276.567	108.06
276.799	129.06
277.031	147.06
277.262	151.06
277.494	106.06
277.726	101.06
277.957	94.06
278.189	97.06
278.421	86.06
278.652	96.06
278.884	114.06
279.115	95.06
279.347	93.06
279.579	98.06
279.81	121.06
280.042	153.06
280.273	181.06
280.505	138.06
280.736	106.06
280.968	104.06
281.199	103.06
281.431	120.06
281.662	97.06
281.894	108.06
282.125	109.06
282.356	120.06
282.588	167.06
282.819	129.06
283.051	98.06
283.282	88.06
283.513	116.06
283.745	84.06
283.976	85.06
284.207	105.06
284.439	77.06
284.67	91.06
284.901	108.06
285.132	96.06
285.364	72.06
285.595	81.06
285.826	90.06
286.057	94.06
286.288	94.06
286.52	89.06
286.751	89.06
286.982	100.06
287.213	98.06
287.444	92.06
287.675	104.06
287.906	95.06
288.138	105.06
288.369	95.06
288.6	76.06
288.831	96.06
289.062	90.06
289.293	101.06
289.524	84.06
289.755	100.06
289.986	76.06
290.217	100.06
290.448	94.06
290.679	94.06
290.91	81.06
291.141	88.06
291.371	95.06
291.602	97.06
291.833	89.06
292.064	92.06
292.295	110.06
292.526	104.06
292.757	93.06
292.987	84.06
293.218	83.06
293.449	97.06
293.68	89.06
293.91	94.06
294.141	82.06
294.372	97.06
294.603	77.06
294.833	100.06
295.064	87.06
295.295	101.06
295.525	100.06
295.756	97.06
295.987	137.06
296.217	152.06
296.448	138.06
296.679	103.06
296.909	91.06
297.14	95.06
297.37	93.06
297.601	90.06
297.831	97.06
298.062	98.06
298.292	94.06
298.523	103.06
298.753	91.06
298.984	99.06
299.214	87.06
299.445	96.06
299.675	109.06
299.905	97.06
300.136	93.06
300.366	89.06
300.597	87.06
300.827	102.06
301.057	104.06
301.288	110.06
301.518	95.06
301.748	92.06
301.979	118.06
302.209	106.06
302.439	95.06
302.669	96.06
302.9	93.06
303.13	92.06
303.36	106.06
303.59	117.06
303.82	127.06
304.051	118.06
304.281	86.06
304.511	100.06
304.741	86.06
304.971	84.06
305.201	94.06
305.431	100.06
305.661	88.06
305.891	95.06
306.121	106.06
306.352	116.06
306.582	113.06
306.812	111.06
307.042	113.06
307.272	124.06
307.502	147.06
307.731	149.06
307.961	104.06
308.191	103.06
308.421	98.06
308.651	105.06
308.881	96.06
309.111	94.06
309.341	104.06
309.571	88.06
309.8	108.06
310.03	85.06
310.26	96.06
310.49	104.06
310.72	118.06
310.949	110.06
311.179	122.06
311.409	109.06
311.639	99.06
311.868	115.06
312.098	88.06
312.328	103.06
312.557	110.06
312.787	131.06
313.017	112.06
313.246	106.06
313.476	90.06
313.706	101.06
313.935	112.06
314.165	85.06
314.394	93.06
314.624	109.06
314.853	98.06
315.083	94.06
315.312	98.06
315.542	95.06
315.771	96.06
316.001	89.06
316.23	94.06
316.46	96.06
316.689	84.06
316.919	93.06
317.148	96.06
317.377	103.06
317.607	108.06
317.836	90.06
318.065	94.06
318.295	85.06
318.524	96.06
318.753	99.06
318.983	116.06
319.212	114.06
319.441	121.06
319.67	100.06
319.9	93.06
320.129	105.06
320.358	107.06
320.587	104.06
320.816	117.06
321.046	114.06
321.275	104.06
321.504	105.06
321.733	104.06
321.962	104.06
322.191	117.06
322.42	109.06
322.649	111.06
322.878	117.06
323.108	126.06
323.337	148.06
323.566	157.06
323.795	174.06
324.024	207.06
324.253	451.06
324.482	948.06
324.71	2017.06
324.939	2635.06
325.168	975.06
325.397	288.06
325.626	166.06
325.855	146.06
326.084	121.06
326.313	146.06
326.542	181.06
326.77	263.06
326.999	525.06
327.228	1101.06
327.457	1954.06
327.686	1572.06
327.914	523.06
328.143	381.06
328.372	441.06
328.6	272.06
328.829	168.06
329.058	160.06
329.287	167.06
329.515	147.06
329.744	193.06
329.972	322.06
330.201	594.06
330.43	876.06
330.658	425.06
330.887	235.06
331.115	168.06
331.344	123.06
331.572	115.06
331.801	133.06
332.03	109.06
332.258	118.06
332.486	110.06
332.715	121.06
332.943	117.06
333.172	122.06
333.4	108.06
333.629	138.06
333.857	189.06
334.085	292.06
334.314	567.06
334.542	1050.06
334.771	1044.06
334.999	303.06
335.227	153.06
335.455	102.06
335.684	121.06
335.912	110.06
336.14	120.06
336.369	108.06
336.597	101.06
336.825	99.06
337.053	107.06
337.281	102.06
337.51	90.06
337.738	112.06
337.966	100.06
338.194	106.06
338.422	109.06
338.65	101.06
338.878	98.06
339.106	94.06
339.334	93.06
339.562	100.06
339.79	102.06
340.018	97.06
340.246	102.06
340.474	114.06
340.702	104.06
340.93	94.06
341.158	94.06
341.386	109.06
341.614	113.06
341.842	111.06
342.07	94.06
342.298	94.06
342.526	97.06
342.754	85.06
342.981	101.06
343.209	103.06
343.437	109.06
343.665	95.06
343.893	91.06
344.12	100.06
344.348	104.06
344.576	101.06
344.804	109.06
345.031	114.06
345.259	104.06
345.487	106.06
345.714	96.06
345.942	103.06
346.17	84.06
346.397	115.06
346.625	109.06
346.853	101.06
347.08	82.06
347.308	119.06
347.535	88.06
347.763	104.06
347.99	106.06
348.218	100.06
348.445	125.06
348.673	115.06
348.9	98.06
349.128	101.06
349.355	102.06
349.583	96.06
349.81	102.06
350.037	90.06
350.265	97.06
350.492	101.06
350.72	107.06
350.947	92.06
351.174	111.06
351.402	121.06
351.629	109.06
351.856	106.06
352.083	102.06
352.311	121.06
352.538	137.06
352.765	110.06
352.992	129.06
353.22	108.06
353.447	107.06
353.674	109.06
353.901	90.06
354.128	105.06
354.355	109.06
354.583	106.06
354.81	102.06
355.037	109.06
355.264	96.06
355.491	93.06
355.718	107.06
355.945	102.06
356.172	101.06
356.399	112.06
356.626	96.06
356.853	106.06
357.08	92.06
357.307	87.06
357.534	88.06
357.761	103.06
357.988	90.06
358.215	90.06
358.441	89.06
358.668	90.06
358.895	89.06
359.122	93.06
359.349	86.06
359.576	107.06
359.802	108.06
360.029	120.06
360.256	144.06
360.483	114.06
360.709	96.06
360.936	96.06
361.163	117.06
361.39	106.06
361.616	90.06
361.843	90.06
362.07	103.06
362.296	105.06
362.523	108.06
362.749	106.06
362.976	105.06
363.203	82.06
363.429	106.06
363.656	95.06
363.882	89.06
364.109	97.06
364.335	92.06
364.562	107.06
364.788	96.06
365.015	94.06
365.241	96.06
365.468	115.06
365.694	116.06
365.92	113.06
366.147	100.06
366.373	94.06
366.599	87.06
366.826	86.06
367.052	84.06
367.278	108.06
367.505	114.06
367.731	92.06
367.957	117.06
368.184	114.06
368.41	109.06
368.636	120.06
368.862	133.06
369.089	135.06
369.315	101.06
369.541	116.06
369.767	115.06
369.993	100.06
370.219	88.06
370.445	92.06
370.672	91.06
370.898	108.06
371.124	84.06
371.35	76.06
371.576	95.06
371.802	96.06
372.028	88.06
372.254	84.06
372.48	92.06
372.706	90.06
372.932	92.06
373.158	90.06
373.384	98.06
373.61	110.06
373.835	99.06
374.061	89.06
374.287	99.06
374.513	100.06
374.739	98.06
374.965	94.06
375.191	83.06
375.416	80.06
375.642	104.06
375.868	92.06
376.094	94.06
376.319	101.06
376.545	92.06
376.771	85.06
376.997	88.06
377.222	108.06
377.448	100.06
377.674	100.06
377.899	87.06
378.125	90.06
378.35	104.06
378.576	88.06
378.802	86.06
379.027	90.06
379.253	84.06
379.478	94.06
379.704	89.06
379.929	104.06
380.155	91.06
380.38	96.06
380.606	97.06
380.831	105.06
381.057	101.06
381.282	95.06
381.507	105.06
381.733	105.06
381.958	88.06
382.184	99.06
382.409	91.06
382.634	91.06
382.86	102.06
383.085	97.06
383.31	104.06
383.535	90.06
383.761	110.06
383.986	109.06
384.211	109.06
384.436	94.06
384.662	94.06
384.887	93.06
385.112	101.06
385.337	107.06
385.562	115.06
385.787	118.06
386.013	92.06
386.238	120.06
386.463	102.06
386.688	108.06
386.913	92.06
387.138	106.06
387.363	113.06
387.588	99.06
387.813	116.06
388.038	102.06
388.263	107.06
388.488	107.06
388.713	103.06
388.938	112.06
389.163	91.06
389.387	97.06
389.612	86.06
389.837	96.06
390.062	100.06
390.287	107.06
390.512	88.06
390.736	90.06
390.961	117.06
391.186	122.06
391.411	91.06
391.636	88.06
391.86	96.06
392.085	95.06
392.31	94.06
392.534	83.06
392.759	103.06
392.984	104.06
393.208	94.06
393.433	104.06
393.658	89.06
393.882	101.06
394.107	85.06
394.331	93.06
394.556	91.06
394.78	89.06
395.005	97.06
395.229	81.06
395.454	71.06
395.678	93.06
395.903	98.06
396.127	86.06
396.352	98.06
396.576	82.06
396.801	87.06
397.025	99.06
397.249	100.06
397.474	85.06
397.698	95.06
397.922	91.06
398.147	81.06
398.371	92.06
398.595	94.06
398.82	91.06
399.044	85.06
399.268	78.06
399.492	83.06
399.717	80.06
399.941	92.06
400.165	82.06
400.389	89.06
400.613	85.06
400.837	97.06
401.062	99.06
401.286	98.06
401.51	102.06
401.734	106.06
401.958	111.06
402.182	124.06
402.406	196.06
402.63	144.06
402.854	97.06
403.078	116.06
403.302	93.06
403.526	104.06
403.75	95.06
403.974	101.06
404.198	100.06
404.422	94.06
404.645	102.06
404.869	102.06
405.093	124.06
405.317	120.06
405.541	132.06
405.765	123.06
405.988	132.06
406.212	213.06
406.436	275.06
406.66	196.06
406.883	106.06
407.107	95.06
407.331	98.06
407.555	106.06
407.778	119.06
408.002	87.06
408.226	95.06
408.449	87.06
408.673	93.06
408.896	96.06
409.12	98.06
409.344	94.06
409.567	101.06
409.791	82.06
410.014	106.06
410.238	100.06
410.461	96.06
410.685	89.06
410.908	99.06
411.132	108.06
411.355	104.06
411.578	106.06
411.802	102.06
412.025	103.06
412.249	104.06
412.472	104.06
412.695	135.06
412.919	92.06
413.142	111.06
413.365	102.06
413.589	93.06
413.812	98.06
414.035	104.06
414.258	69.06
414.482	74.06
414.705	84.06
414.928	78.06
415.151	97.06
415.374	91.06
415.597	88.06
415.821	83.06
416.044	92.06
416.267	98.06
416.49	80.06
416.713	101.06
416.936	98.06
417.159	101.06
417.382	112.06
417.605	104.06
417.828	122.06
418.051	86.06
418.274	96.06
418.497	90.06
418.72	90.06
418.943	93.06
419.166	81.06
419.389	94.06
419.611	114.06
419.834	98.06
420.057	92.06
420.28	92.06
420.503	91.06
420.726	91.06
420.948	80.06
421.171	98.06
421.394	97.06
421.617	86.06
421.839	82.06
422.062	103.06
422.285	94.06
422.507	117.06
422.73	105.06
422.953	90.06
423.175	108.06
423.398	100.06
423.621	88.06
423.843	74.06
424.066	85.06
424.288	80.06
424.511	106.06
424.733	105.06
424.956	107.06
425.178	105.06
425.401	100.06
425.623	106.06
425.846	101.06
426.068	111.06
426.291	104.06
426.513	86.06
426.735	104.06
426.958	94.06
427.18	116.06
427.402	161.06
427.625	208.06
427.847	207.06
428.069	194.06
428.292	114.06
428.514	87.06
428.736	93.06
428.958	93.06
429.181	105.06
429.403	71.06
429.625	92.06
429.847	86.06
430.069	121.06
430.292	92.06
430.514	93.06
430.736	83.06
430.958	85.06
431.18	72.06
431.402	99.06
431.624	85.06
431.846	92.06
432.068	76.06
432.29	91.06
432.512	95.06
432.734	93.06
432.956	76.06
433.178	106.06
433.4	119.06
433.622	89.06
433.844	84.06
434.066	89.06
434.287	93.06
434.509	89.06
434.731	100.06
434.953	88.06
435.175	85.06
435.397	93.06
435.618	100.06
435.84	107.06
436.062	136.06
436.284	122.06
436.505	103.06
436.727	108.06
436.949	95.06
437.17	80.06
437.392	101.06
437.614	109.06
437.835	125.06
438.057	128.06
438.278	110.06
438.5	102.06
438.721	133.06
438.943	109.06
439.165	84.06
439.386	96.06
439.608	94.06
439.829	93.06
440.05	134.06
440.272	162.06
440.493	109.06
440.715	106.06
440.936	89.06
441.158	79.06
441.379	81.06
441.6	93.06
441.822	98.06
442.043	101.06
442.264	104.06
442.486	99.06
442.707	98.06
442.928	135.06
443.149	161.06
443.371	156.06
443.592	133.06
443.813	121.06
444.034	110.06
444.255	94.06
444.476	86.06
444.698	71.06
444.919	94.06
445.14	130.06
445.361	118.06
445.582	121.06
445.803	156.06
446.024	152.06
446.245	154.06
446.466	115.06
446.687	96.06
446.908	94.06
447.129	84.06
447.35	84.06
447.571	104.06
447.792	101.06
448.013	104.06
448.234	101.06
448.455	97.06
448.675	112.06
448.896	125.06
449.117	115.06
449.338	124.06
449.559	148.06
449.779	126.06
450	97.06
450.221	100.06
450.442	100.06
450.662	113.06
450.883	132.06
451.104	119.06
451.324	108.06
451.545	87.06
451.766	91.06
451.986	94.06
452.207	81.06
452.428	97.06
452.648	118.06
452.869	116.06
453.089	136.06
453.31	138.06
453.53	98.06
453.751	96.06
453.971	127.06
454.192	127.06
454.412	87.06
454.633	90.06
454.853	86.06
455.073	95.06
455.294	93.06
455.514	94.06
455.734	92.06
455.955	88.06
456.175	84.06
456.395	98.06
456.616	93.06
456.836	94.06
457.056	93.06
457.276	90.06
457.497	89.06
457.717	84.06
457.937	83.06
458.157	92.06
458.377	85.06
458.598	116.06
458.818	171.06
459.038	204.06
459.258	144.06
459.478	100.06
459.698	105.06
459.918	76.06
460.138	94.06
460.358	92.06
460.578	87.06
460.798	99.06
461.018	92.06
461.238	81.06
461.458	82.06
461.678	99.06
461.898	79.06
462.118	88.06
462.338	89.06
462.558	98.06
462.777	86.06
462.997	97.06
463.217	96.06
463.437	92.06
463.657	92.06
463.876	80.06
464.096	90.06
464.316	107.06
464.536	95.06
464.755	85.06
464.975	109.06
465.195	214.06
465.414	210.06
465.634	105.06
465.854	86.06
466.073	84.06
466.293	88.06
466.512	92.06
466.732	102.06
466.951	87.06
467.171	101.06
467.391	109.06
467.61	127.06
467.829	172.06
468.049	347.06
468.268	537.06
468.488	179.06
468.707	96.06
468.927	93.06
469.146	108.06
469.365	98.06
469.585	106.06
469.804	107.06
470.023	117.06
470.243	111.06
470.462	117.06
470.681	136.06
470.901	113.06
471.12	109.06
471.339	100.06
471.558	106.06
471.777	123.06
471.997	215.06
472.216	713.06
472.435	1548.06
472.654	407.06
472.873	141.06
473.092	105.06
473.311	97.06
473.53	101.06
473.749	105.06
473.968	110.06
474.187	103.06
474.406	101.06
474.625	94.06
474.844	106.06
475.063	86.06
475.282	93.06
475.501	90.06
475.72	106.06
475.939	107.06
476.158	97.06
476.377	98.06
476.596	98.06
476.814	91.06
477.033	88.06
477.252	93.06
477.471	94.06
477.69	103.06
477.908	90.06
478.127	89.06
478.346	91.06
478.564	102.06
478.783	113.06
479.002	111.06
479.22	94.06
479.439	115.06
479.658	122.06
479.876	114.06
480.095	99.06
480.313	110.06
480.532	123.06
480.751	218.06
480.969	624.06
481.188	2540.06
481.406	1554.06
481.624	256.06
481.843	121.06
482.061	107.06
482.28	110.06
482.498	88.06
482.717	100.06
482.935	103.06
483.153	84.06
483.372	94.06
483.59	105.06
483.808	97.06
484.027	90.06
484.245	88.06
484.463	87.06
484.681	104.06
484.9	96.06
485.118	91.06
485.336	109.06
485.554	106.06
485.772	103.06
485.99	113.06
486.209	107.06
486.427	94.06
486.645	107.06
486.863	118.06
487.081	111.06
487.299	94.06
487.517	91.06
487.735	97.06
487.953	107.06
488.171	103.06
488.389	94.06
488.607	120.06
488.825	109.06
489.043	91.06
489.261	97.06
489.479	100.06
489.696	97.06
489.914	88.06
490.132	94.06
490.35	107.06
490.568	104.06
490.786	88.06
491.003	82.06
491.221	83.06
491.439	110.06
491.657	98.06
491.874	103.06
492.092	96.06
492.31	112.06
492.527	92.06
492.745	95.06
492.963	96.06
493.18	98.06
493.398	92.06
493.615	109.06
493.833	92.06
494.05	87.06
494.268	82.06
494.485	104.06
494.703	82.06
494.92	82.06
495.138	100.06
495.355	94.06
495.573	88.06
495.79	97.06
496.008	101.06
496.225	90.06
496.442	89.06
496.66	95.06
496.877	90.06
497.094	106.06
497.312	100.06
497.529	101.06
497.746	97.06
497.963	97.06
498.181	94.06
498.398	89.06
498.615	101.06
498.832	113.06
499.049	97.06
499.267	94.06
499.484	95.06
499.701	84.06
499.918	94.06
500.135	87.06
500.352	93.06
500.569	100.06
500.786	94.06
501.003	94.06
501.22	92.06
501.437	91.06
501.654	100.06
501.871	133.06
502.088	97.06
502.305	93.06
502.522	99.06
502.739	109.06
502.956	96.06
503.172	93.06
503.389	109.06
503.606	113.06
503.823	93.06
504.04	90.06
504.256	106.06
504.473	86.06
504.69	92.06
504.907	96.06
505.123	102.06
505.34	88.06
505.557	99.06
505.773	86.06
505.99	83.06
506.207	99.06
506.423	102.06
506.64	105.06
506.856	112.06
507.073	88.06
507.289	83.06
507.506	91.06
507.722	129.06
507.939	117.06
508.155	101.06
508.372	104.06
508.588	102.06
508.805	114.06
509.021	107.06
509.238	100.06
509.454	84.06
509.67	92.06
509.887	129.06
510.103	129.06
510.319	239.06
510.536	874.06
510.752	2795.06
510.968	762.06
511.184	181.06
511.401	138.06
511.617	103.06
511.833	106.06
512.049	99.06
