Data from Circ_2004_H10_HRD10591_00092.txt Node
Date: Wed Jan 03 10:33:32 EST 2024
User: Yrep
Spectrometer: HR+D1059
Trigger mode: 1
Integration Time (sec): 1.000000E-1
Scans to average: 1
Electric dark correction enabled: true
Nonlinearity correction enabled: false
Boxcar width: 0
XAxis mode: Wavelengths
Number of Pixels in Spectrum: 2048
>>>>>Begin Spectral Data<<<<<
223.165	-24
223.4	-24
223.635	-24
223.869	-28
224.104	-13
224.338	-29
224.573	-8
224.808	-15
225.042	-4
225.277	-5
225.511	-8
225.746	9
225.98	6
226.215	20
226.449	15
226.683	32
226.918	17
227.152	35
227.387	52
227.621	29
227.856	41
228.09	50
228.324	46
228.559	62
228.793	55
229.027	76
229.262	78
229.496	78
229.73	104
229.964	80
230.199	84
230.433	70
230.667	78
230.901	78
231.136	83
231.37	82
231.604	78
231.838	81
232.072	72
232.306	84
232.541	84
232.775	89
233.009	90
233.243	79
233.477	108
233.711	88
233.945	71
234.179	86
234.413	86
234.647	81
234.881	81
235.115	86
235.349	81
235.583	84
235.817	92
236.051	88
236.285	76
236.519	75
236.753	79
236.987	88
237.221	89
237.455	87
237.689	93
237.922	86
238.156	75
238.39	84
238.624	87
238.858	85
239.091	67
239.325	87
239.559	93
239.793	92
240.027	98
240.26	83
240.494	78
240.728	86
240.961	74
241.195	82
241.429	71
241.662	64
241.896	72
242.13	85
242.363	82
242.597	74
242.83	86
243.064	90
243.298	78
243.531	86
243.765	72
243.998	80
244.232	88
244.465	90
244.699	88
244.932	77
245.166	86
245.399	87
245.633	93
245.866	82
246.099	92
246.333	92
246.566	82
246.8	81
247.033	86
247.266	68
247.5	77
247.733	91
247.966	82
248.2	78
248.433	95
248.666	90
248.899	81
249.133	90
249.366	101
249.599	93
249.832	96
250.066	92
250.299	84
250.532	85
250.765	73
250.998	91
251.231	90
251.465	94
251.698	69
251.931	82
252.164	81
252.397	88
252.63	81
252.863	88
253.096	82
253.329	89
253.562	89
253.795	88
254.028	94
254.261	84
254.494	85
254.727	86
254.96	88
255.193	77
255.426	86
255.659	82
255.892	89
256.124	93
256.357	99
256.59	92
256.823	86
257.056	76
257.289	99
257.521	91
257.754	87
257.987	89
258.22	88
258.452	93
258.685	97
258.918	82
259.151	77
259.383	73
259.616	86
259.849	96
260.081	97
260.314	79
260.547	79
260.779	94
261.012	98
261.244	86
261.477	102
261.71	116
261.942	121
262.175	136
262.407	108
262.64	91
262.872	85
263.105	75
263.337	82
263.57	94
263.802	90
264.035	86
264.267	82
264.499	100
264.732	78
264.964	97
265.197	76
265.429	88
265.661	88
265.894	86
266.126	76
266.358	86
266.591	87
266.823	88
267.055	93
267.287	90
267.52	90
267.752	90
267.984	87
268.216	89
268.448	97
268.681	90
268.913	57
269.145	85
269.377	91
269.609	76
269.841	95
270.073	101
270.306	90
270.538	93
270.77	92
271.002	93
271.234	99
271.466	103
271.698	87
271.93	70
272.162	91
272.394	99
272.626	93
272.858	83
273.09	79
273.322	86
273.553	95
273.785	85
274.017	86
274.249	87
274.481	97
274.713	101
274.945	86
275.176	82
275.408	100
275.64	106
275.872	99
276.104	106
276.335	105
276.567	105
276.799	129
277.031	135
277.262	153
277.494	126
277.726	112
277.957	106
278.189	92
278.421	99
278.652	91
278.884	104
279.115	101
279.347	94
279.579	115
279.81	134
280.042	129
280.273	174
280.505	141
280.736	104
280.968	95
281.199	103
281.431	95
281.662	110
281.894	101
282.125	113
282.356	135
282.588	145
282.819	125
283.051	105
283.282	93
283.513	98
283.745	96
283.976	87
284.207	92
284.439	79
284.67	85
284.901	85
285.132	86
285.364	92
285.595	78
285.826	92
286.057	88
286.288	94
286.52	94
286.751	82
286.982	94
287.213	79
287.444	69
287.675	86
287.906	78
288.138	105
288.369	101
288.6	102
288.831	77
289.062	98
289.293	94
289.524	101
289.755	87
289.986	89
290.217	76
290.448	102
290.679	92
290.91	109
291.141	95
291.371	79
291.602	95
291.833	93
292.064	100
292.295	95
292.526	82
292.757	94
292.987	77
293.218	97
293.449	91
293.68	85
293.91	86
294.141	108
294.372	104
294.603	102
294.833	84
295.064	91
295.295	85
295.525	95
295.756	105
295.987	115
296.217	151
296.448	129
296.679	99
296.909	99
297.14	99
297.37	98
297.601	94
297.831	94
298.062	102
298.292	108
298.523	110
298.753	87
298.984	81
299.214	97
299.445	88
299.675	105
299.905	92
300.136	93
300.366	102
300.597	101
300.827	95
301.057	98
301.288	110
301.518	101
301.748	109
301.979	109
302.209	107
302.439	101
302.669	95
302.9	82
303.13	95
303.36	103
303.59	116
303.82	125
304.051	99
304.281	95
304.511	101
304.741	95
304.971	83
305.201	102
305.431	102
305.661	104
305.891	108
306.121	100
306.352	119
306.582	129
306.812	87
307.042	104
307.272	133
307.502	143
307.731	131
307.961	124
308.191	103
308.421	105
308.651	104
308.881	102
309.111	107
309.341	101
309.571	106
309.8	94
310.03	108
310.26	110
310.49	99
310.72	106
310.949	103
311.179	118
311.409	104
311.639	92
311.868	101
312.098	99
312.328	111
312.557	106
312.787	108
313.017	136
313.246	103
313.476	100
313.706	93
313.935	97
314.165	104
314.394	113
314.624	108
314.853	113
315.083	90
315.312	95
315.542	91
315.771	79
316.001	95
316.23	90
316.46	101
316.689	102
316.919	95
317.148	100
317.377	90
317.607	95
317.836	101
318.065	93
318.295	82
318.524	94
318.753	105
318.983	99
319.212	108
319.441	113
319.67	109
319.9	93
320.129	93
320.358	111
320.587	97
320.816	109
321.046	118
321.275	101
321.504	99
321.733	103
321.962	110
322.191	115
322.42	123
322.649	132
322.878	110
323.108	132
323.337	149
323.566	145
323.795	180
324.024	228
324.253	453
324.482	940
324.71	1919
324.939	2557
325.168	930
325.397	258
325.626	173
325.855	145
326.084	129
326.313	154
326.542	163
326.77	264
326.999	518
327.228	1065
327.457	1956
327.686	1585
327.914	465
328.143	361
328.372	409
328.6	262
328.829	162
329.058	145
329.287	165
329.515	138
329.744	201
329.972	273
330.201	548
330.43	803
330.658	395
330.887	196
331.115	145
331.344	108
331.572	131
331.801	111
332.03	119
332.258	99
332.486	97
332.715	106
332.943	118
333.172	111
333.4	113
333.629	130
333.857	159
334.085	280
334.314	519
334.542	963
334.771	918
334.999	287
335.227	153
335.455	116
335.684	118
335.912	102
336.14	114
336.369	124
336.597	103
336.825	103
337.053	94
337.281	86
337.51	98
337.738	106
337.966	98
338.194	112
338.422	117
338.65	108
338.878	102
339.106	109
339.334	100
339.562	110
339.79	95
340.018	97
340.246	105
340.474	96
340.702	89
340.93	90
341.158	103
341.386	103
341.614	110
341.842	107
342.07	102
342.298	101
342.526	101
342.754	89
342.981	85
343.209	98
343.437	109
343.665	102
343.893	99
344.12	103
344.348	94
344.576	106
344.804	97
345.031	101
345.259	87
345.487	100
345.714	90
345.942	77
346.17	89
346.397	95
346.625	112
346.853	103
347.08	101
347.308	107
347.535	113
347.763	99
347.99	110
348.218	98
348.445	108
348.673	104
348.9	106
349.128	105
349.355	94
349.583	100
349.81	110
350.037	98
350.265	105
350.492	99
350.72	100
350.947	100
351.174	121
351.402	122
351.629	100
351.856	99
352.083	94
352.311	106
352.538	129
352.765	116
352.992	99
353.22	108
353.447	109
353.674	110
353.901	108
354.128	94
354.355	101
354.583	97
354.81	104
355.037	104
355.264	94
355.491	95
355.718	91
355.945	88
356.172	101
356.399	121
356.626	93
356.853	85
357.08	103
357.307	84
357.534	101
357.761	108
357.988	102
358.215	91
358.441	106
358.668	116
358.895	87
359.122	97
359.349	83
359.576	115
359.802	115
360.029	114
360.256	123
360.483	100
360.709	97
360.936	104
361.163	96
361.39	101
361.616	107
361.843	111
362.07	116
362.296	94
362.523	101
362.749	90
362.976	87
363.203	101
363.429	89
363.656	93
363.882	87
364.109	103
364.335	90
364.562	93
364.788	109
365.015	100
365.241	106
365.468	107
365.694	109
365.92	121
366.147	93
366.373	103
366.599	96
366.826	92
367.052	94
367.278	96
367.505	95
367.731	111
367.957	91
368.184	105
368.41	100
368.636	129
368.862	134
369.089	121
369.315	104
369.541	102
369.767	97
369.993	82
370.219	85
370.445	91
370.672	93
370.898	108
371.124	91
371.35	97
371.576	72
371.802	86
372.028	91
372.254	107
372.48	97
372.706	82
372.932	98
373.158	103
373.384	102
373.61	90
373.835	88
374.061	100
374.287	111
374.513	95
374.739	110
374.965	93
375.191	83
375.416	89
375.642	109
375.868	98
376.094	87
376.319	97
376.545	82
376.771	87
376.997	93
377.222	93
377.448	110
377.674	96
377.899	86
378.125	89
378.35	84
378.576	98
378.802	103
379.027	88
379.253	91
379.478	106
379.704	101
379.929	95
380.155	111
380.38	87
380.606	112
380.831	90
381.057	96
381.282	94
381.507	93
381.733	92
381.958	105
382.184	103
382.409	114
382.634	110
382.86	115
383.085	92
383.31	97
383.535	101
383.761	104
383.986	96
384.211	97
384.436	103
384.662	101
384.887	100
385.112	102
385.337	110
385.562	104
385.787	103
386.013	114
386.238	102
386.463	122
386.688	105
386.913	121
387.138	100
387.363	115
387.588	83
387.813	85
388.038	94
388.263	105
388.488	99
388.713	108
388.938	101
389.163	99
389.387	97
389.612	89
389.837	92
390.062	109
390.287	95
390.512	94
390.736	89
390.961	102
391.186	95
391.411	100
391.636	90
391.86	83
392.085	88
392.31	86
392.534	90
392.759	101
392.984	89
393.208	86
393.433	97
393.658	97
393.882	96
394.107	81
394.331	79
394.556	100
394.78	99
395.005	96
395.229	98
395.454	70
395.678	76
395.903	96
396.127	91
396.352	112
396.576	88
396.801	88
397.025	101
397.249	95
397.474	100
397.698	96
397.922	79
398.147	86
398.371	91
398.595	74
398.82	110
399.044	88
399.268	82
399.492	76
399.717	108
399.941	101
400.165	92
400.389	94
400.613	104
400.837	84
401.062	98
401.286	91
401.51	86
401.734	108
401.958	114
402.182	131
402.406	172
402.63	140
402.854	102
403.078	91
403.302	84
403.526	101
403.75	93
403.974	87
404.198	90
404.422	91
404.645	102
404.869	92
405.093	98
405.317	121
405.541	121
405.765	107
405.988	125
406.212	181
406.436	260
406.66	183
406.883	115
407.107	111
407.331	124
407.555	104
407.778	100
408.002	93
408.226	85
408.449	89
408.673	93
408.896	100
409.12	90
409.344	101
409.567	95
409.791	89
410.014	98
410.238	110
410.461	81
410.685	97
410.908	103
411.132	85
411.355	105
411.578	83
411.802	97
412.025	89
412.249	89
412.472	107
412.695	122
412.919	109
413.142	100
413.365	102
413.589	97
413.812	91
414.035	99
414.258	97
414.482	80
414.705	86
414.928	102
415.151	97
415.374	82
415.597	97
415.821	91
416.044	89
416.267	100
416.49	92
416.713	79
416.936	102
417.159	109
417.382	94
417.605	97
417.828	85
418.051	109
418.274	96
418.497	87
418.72	91
418.943	97
419.166	90
419.389	93
419.611	109
419.834	90
420.057	86
420.28	99
420.503	89
420.726	93
420.948	98
421.171	102
421.394	102
421.617	103
421.839	91
422.062	93
422.285	105
422.507	101
422.73	93
422.953	103
423.175	95
423.398	98
423.621	98
423.843	95
424.066	86
424.288	83
424.511	94
424.733	101
424.956	109
425.178	107
425.401	99
425.623	102
425.846	105
426.068	96
426.291	95
426.513	101
426.735	103
426.958	99
427.18	113
427.402	163
427.625	202
427.847	197
428.069	198
428.292	122
428.514	99
428.736	99
428.958	87
429.181	109
429.403	89
429.625	98
429.847	100
430.069	102
430.292	99
430.514	92
430.736	90
430.958	95
431.18	80
431.402	98
431.624	81
431.846	98
432.068	94
432.29	89
432.512	80
432.734	96
432.956	85
433.178	102
433.4	106
433.622	106
433.844	98
434.066	91
434.287	106
434.509	101
434.731	95
434.953	87
435.175	89
435.397	106
435.618	98
435.84	116
436.062	147
436.284	124
436.505	99
436.727	106
436.949	95
437.17	90
437.392	100
437.614	89
437.835	104
438.057	129
438.278	106
438.5	109
438.721	142
438.943	105
439.165	81
439.386	82
439.608	99
439.829	91
440.05	140
440.272	151
440.493	122
440.715	88
440.936	88
441.158	86
441.379	97
441.6	91
441.822	94
442.043	99
442.264	116
442.486	122
442.707	103
442.928	107
443.149	148
443.371	133
443.592	106
443.813	123
444.034	116
444.255	97
444.476	88
444.698	93
444.919	86
445.14	136
445.361	129
445.582	119
445.803	155
446.024	150
446.245	147
446.466	122
446.687	94
446.908	83
447.129	97
447.35	102
447.571	99
447.792	108
448.013	115
448.234	114
448.455	102
448.675	118
448.896	129
449.117	95
449.338	115
449.559	131
449.779	141
450	94
450.221	90
450.442	99
450.662	100
450.883	119
451.104	106
451.324	103
451.545	96
451.766	91
451.986	86
452.207	101
452.428	91
452.648	108
452.869	124
453.089	125
453.31	132
453.53	100
453.751	98
453.971	108
454.192	131
454.412	94
454.633	92
454.853	99
455.073	110
455.294	101
455.514	100
455.734	97
455.955	85
456.175	91
456.395	95
456.616	79
456.836	92
457.056	80
457.276	73
457.497	81
457.717	91
457.937	97
458.157	85
458.377	113
458.598	127
458.818	155
459.038	194
459.258	124
459.478	105
459.698	85
459.918	106
460.138	81
460.358	110
460.578	93
460.798	90
461.018	87
461.238	90
461.458	86
461.678	89
461.898	86
462.118	89
462.338	90
462.558	85
462.777	86
462.997	108
463.217	93
463.437	96
463.657	99
463.876	102
464.096	85
464.316	104
464.536	91
464.755	110
464.975	116
465.195	194
465.414	195
465.634	109
465.854	101
466.073	96
466.293	89
466.512	95
466.732	92
466.951	89
467.171	96
467.391	112
467.61	141
467.829	157
468.049	355
468.268	493
468.488	153
468.707	100
468.927	88
469.146	95
469.365	88
469.585	90
469.804	117
470.023	105
470.243	90
470.462	106
470.681	130
470.901	101
471.12	105
471.339	108
471.558	121
471.777	116
471.997	201
472.216	613
472.435	1402
472.654	359
472.873	140
473.092	100
473.311	92
473.53	94
473.749	98
473.968	108
474.187	105
474.406	103
474.625	75
474.844	85
475.063	88
475.282	95
475.501	97
475.72	95
475.939	79
476.158	99
476.377	92
476.596	105
476.814	98
477.033	106
477.252	99
477.471	83
477.69	112
477.908	93
478.127	102
478.346	99
478.564	102
478.783	107
479.002	103
479.22	103
479.439	105
479.658	120
479.876	121
480.095	98
480.313	113
480.532	134
480.751	207
480.969	606
481.188	2340
481.406	1416
481.624	245
481.843	125
482.061	106
482.28	90
482.498	101
482.717	86
482.935	102
483.153	95
483.372	88
483.59	91
483.808	90
484.027	100
484.245	102
484.463	107
484.681	105
484.9	107
485.118	101
485.336	100
485.554	111
485.772	107
485.99	100
486.209	111
486.427	115
486.645	119
486.863	120
487.081	107
487.299	90
487.517	90
487.735	108
487.953	98
488.171	88
488.389	113
488.607	91
488.825	108
489.043	91
489.261	107
489.479	74
489.696	85
489.914	94
490.132	100
490.35	96
490.568	94
490.786	95
491.003	109
491.221	95
491.439	83
491.657	103
491.874	95
492.092	94
492.31	82
492.527	92
492.745	111
492.963	93
493.18	102
493.398	86
493.615	109
493.833	85
494.05	94
494.268	85
494.485	99
494.703	81
494.92	86
495.138	98
495.355	94
495.573	99
495.79	96
496.008	91
496.225	91
496.442	95
496.66	101
496.877	99
497.094	99
497.312	115
497.529	115
497.746	98
497.963	109
498.181	102
498.398	95
498.615	107
498.832	100
499.049	110
499.267	95
499.484	102
499.701	101
499.918	106
500.135	103
500.352	89
500.569	101
500.786	92
501.003	81
501.22	91
501.437	96
501.654	93
501.871	121
502.088	106
502.305	99
502.522	97
502.739	94
502.956	86
503.172	98
503.389	103
503.606	110
503.823	94
504.04	92
504.256	91
504.473	96
504.69	98
504.907	103
505.123	108
505.34	93
505.557	106
505.773	110
505.99	104
506.207	89
506.423	96
506.64	84
506.856	101
507.073	113
507.289	99
507.506	101
507.722	142
507.939	111
508.155	93
508.372	106
508.588	91
508.805	104
509.021	97
509.238	106
509.454	103
509.67	103
509.887	108
510.103	134
510.319	233
510.536	811
510.752	2592
510.968	712
511.184	166
511.401	126
511.617	101
511.833	105
512.049	88
512.265	92
512.481	86
512.698	99
512.914	91
513.13	102
513.346	83
513.562	106
513.778	108
513.994	106
514.21	114
514.426	129
514.642	151
514.858	137
515.074	201
515.29	559
515.506	1925
515.721	724
515.937	173
516.153	110
516.369	117
516.585	105
516.801	104
517.016	116
517.232	97
517.448	98
517.664	106
517.879	104
518.095	98
518.311	98
518.527	111
518.742	87
518.958	101
519.173	93
519.389	92
519.605	98
519.82	96
520.036	126
520.251	149
520.467	129
520.682	117
520.898	130
521.113	126
521.329	168
521.544	242
521.76	719
521.975	3135
522.19	1916
522.406	408
522.621	139
522.836	115
523.052	109
523.267	100
523.482	104
523.698	112
523.913	119
524.128	113
524.343	112
524.559	86
524.774	101
524.989	118
525.204	116
525.419	100
525.634	104
525.849	101
526.064	90
526.28	83
526.495	80
526.71	102
526.925	88
527.14	86
527.355	89
527.57	95
527.785	88
527.999	93
528.214	100
528.429	102
528.644	110
528.859	109
529.074	97
529.289	138
529.503	230
529.718	129
529.933	103
530.148	86
530.363	87
530.577	101
530.792	100
531.007	94
531.221	91
531.436	95
531.651	114
531.865	112
532.08	89
532.295	92
532.509	106
532.724	108
532.938	90
533.153	103
533.367	106
533.582	94
533.796	111
534.011	96
534.225	100
534.44	83
534.654	95
534.868	90
535.083	103
535.297	108
535.511	100
535.726	92
535.94	112
536.154	93
536.369	98
536.583	101
536.797	96
537.011	91
537.225	99
537.44	79
537.654	100
537.868	93
538.082	105
538.296	99
538.51	91
538.724	100
538.938	105
539.153	111
539.367	109
539.581	103
539.795	109
540.009	98
540.222	105
540.436	85
540.65	94
540.864	95
541.078	94
541.292	90
541.506	102
541.72	91
541.934	91
542.147	99
542.361	89
542.575	93
542.789	90
543.002	92
543.216	106
543.43	118
543.644	86
543.857	94
544.071	84
544.285	87
544.498	82
544.712	99
544.925	99
545.139	95
545.352	93
545.566	88
545.779	87
545.993	98
546.206	86
546.42	95
546.633	85
546.847	74
547.06	106
547.274	100
547.487	91
547.7	95
547.914	90
548.127	96
548.34	102
548.554	92
548.767	110
548.98	96
549.193	106
549.407	92
549.62	91
549.833	88
550.046	89
550.259	106
550.473	94
550.686	107
550.899	95
551.112	93
551.325	111
551.538	89
551.751	107
551.964	102
552.177	95
552.39	93
552.603	91
552.816	93
553.029	91
553.242	93
553.455	99
553.667	106
553.88	107
554.093	100
554.306	111
554.519	115
554.732	89
554.944	100
555.157	114
555.37	95
555.583	95
555.795	104
556.008	97
556.221	88
556.433	93
556.646	93
556.859	105
557.071	99
557.284	93
557.496	110
557.709	97
557.921	98
558.134	83
558.346	103
558.559	96
558.771	102
558.984	105
559.196	83
559.409	87
559.621	100
559.833	102
560.046	94
560.258	118
560.47	126
560.683	100
560.895	100
561.107	99
561.32	95
561.532	103
561.744	94
561.956	80
562.168	94
562.381	90
562.593	109
562.805	86
563.017	95
563.229	96
563.441	99
563.653	97
563.865	90
564.077	95
564.289	100
564.501	102
564.713	101
564.925	109
565.137	115
565.349	92
565.561	99
565.773	99
565.985	108
566.197	89
566.408	92
566.62	89
566.832	89
567.044	97
567.255	104
567.467	99
567.679	82
567.891	106
568.102	96
568.314	93
568.526	94
568.737	109
568.949	94
569.161	97
569.372	105
569.584	92
569.795	103
570.007	128
570.218	269
570.43	145
570.641	103
570.853	84
571.064	92
571.276	86
571.487	68
571.698	90
571.91	84
572.121	88
572.333	94
572.544	95
572.755	85
572.966	90
573.178	90
573.389	87
573.6	101
573.811	100
574.023	90
574.234	99
574.445	89
574.656	90
574.867	94
575.078	84
575.289	97
575.501	76
575.712	84
575.923	86
576.134	85
576.345	97
576.556	103
576.767	86
576.978	108
577.188	99
577.399	101
577.61	102
577.821	98
578.032	130
578.243	295
