Data from Circ_2004_H10_HRD10591_00030.txt Node
Date: Wed Jan 03 10:33:20 EST 2024
User: Yrep
Spectrometer: HR+D1059
Trigger mode: 1
Integration Time (sec): 1.000000E-1
Scans to average: 1
Electric dark correction enabled: true
Nonlinearity correction enabled: false
Boxcar width: 0
XAxis mode: Wavelengths
Number of Pixels in Spectrum: 2048
>>>>>Begin Spectral Data<<<<<
223.165	-16.38
223.4	-16.38
223.635	-16.38
223.869	-13.38
224.104	-16.38
224.338	-35.38
224.573	1.62
224.808	-21.38
225.042	-18.38
225.277	-14.38
225.511	-9.38
225.746	14.62
225.98	13.62
226.215	18.62
226.449	16.62
226.683	30.62
226.918	15.62
227.152	33.62
227.387	40.62
227.621	42.62
227.856	49.62
228.09	52.62
228.324	40.62
228.559	45.62
228.793	58.62
229.027	51.62
229.262	60.62
229.496	68.62
229.73	96.62
229.964	83.62
230.199	58.62
230.433	56.62
230.667	71.62
230.901	72.62
231.136	73.62
231.37	80.62
231.604	85.62
231.838	81.62
232.072	78.62
232.306	106.62
232.541	85.62
232.775	93.62
233.009	86.62
233.243	88.62
233.477	80.62
233.711	74.62
233.945	78.62
234.179	69.62
234.413	77.62
234.647	68.62
234.881	76.62
235.115	78.62
235.349	94.62
235.583	69.62
235.817	85.62
236.051	82.62
236.285	86.62
236.519	69.62
236.753	69.62
236.987	83.62
237.221	81.62
237.455	67.62
237.689	64.62
237.922	75.62
238.156	80.62
238.39	76.62
238.624	85.62
238.858	78.62
239.091	68.62
239.325	66.62
239.559	85.62
239.793	91.62
240.027	78.62
240.26	75.62
240.494	88.62
240.728	83.62
240.961	78.62
241.195	66.62
241.429	61.62
241.662	78.62
241.896	79.62
242.13	79.62
242.363	74.62
242.597	81.62
242.83	87.62
243.064	85.62
243.298	75.62
243.531	81.62
243.765	83.62
243.998	83.62
244.232	81.62
244.465	78.62
244.699	93.62
244.932	66.62
245.166	84.62
245.399	81.62
245.633	72.62
245.866	66.62
246.099	77.62
246.333	69.62
246.566	73.62
246.8	75.62
247.033	74.62
247.266	80.62
247.5	86.62
247.733	82.62
247.966	90.62
248.2	79.62
248.433	80.62
248.666	88.62
248.899	90.62
249.133	80.62
249.366	74.62
249.599	96.62
249.832	87.62
250.066	75.62
250.299	81.62
250.532	81.62
250.765	78.62
250.998	88.62
251.231	82.62
251.465	68.62
251.698	80.62
251.931	77.62
252.164	79.62
252.397	66.62
252.63	77.62
252.863	77.62
253.096	81.62
253.329	78.62
253.562	76.62
253.795	82.62
254.028	77.62
254.261	83.62
254.494	93.62
254.727	83.62
254.96	82.62
255.193	79.62
255.426	61.62
255.659	80.62
255.892	94.62
256.124	85.62
256.357	86.62
256.59	81.62
256.823	81.62
257.056	77.62
257.289	87.62
257.521	83.62
257.754	81.62
257.987	74.62
258.22	87.62
258.452	74.62
258.685	77.62
258.918	92.62
259.151	72.62
259.383	84.62
259.616	73.62
259.849	69.62
260.081	93.62
260.314	85.62
260.547	96.62
260.779	81.62
261.012	87.62
261.244	67.62
261.477	87.62
261.71	94.62
261.942	108.62
262.175	106.62
262.407	84.62
262.64	74.62
262.872	74.62
263.105	93.62
263.337	81.62
263.57	82.62
263.802	82.62
264.035	87.62
264.267	76.62
264.499	76.62
264.732	85.62
264.964	76.62
265.197	78.62
265.429	83.62
265.661	72.62
265.894	83.62
266.126	83.62
266.358	83.62
266.591	80.62
266.823	99.62
267.055	79.62
267.287	81.62
267.52	77.62
267.752	72.62
267.984	93.62
268.216	81.62
268.448	89.62
268.681	82.62
268.913	75.62
269.145	87.62
269.377	84.62
269.609	82.62
269.841	76.62
270.073	85.62
270.306	77.62
270.538	82.62
270.77	83.62
271.002	80.62
271.234	88.62
271.466	84.62
271.698	92.62
271.93	97.62
272.162	65.62
272.394	86.62
272.626	87.62
272.858	68.62
273.09	78.62
273.322	86.62
273.553	75.62
273.785	82.62
274.017	80.62
274.249	82.62
274.481	93.62
274.713	73.62
274.945	74.62
275.176	76.62
275.408	76.62
275.64	71.62
275.872	103.62
276.104	94.62
276.335	100.62
276.567	93.62
276.799	104.62
277.031	89.62
277.262	88.62
277.494	85.62
277.726	93.62
277.957	99.62
278.189	79.62
278.421	94.62
278.652	83.62
278.884	80.62
279.115	84.62
279.347	87.62
279.579	84.62
279.81	97.62
280.042	99.62
280.273	108.62
280.505	94.62
280.736	79.62
280.968	100.62
281.199	68.62
281.431	83.62
281.662	92.62
281.894	70.62
282.125	97.62
282.356	126.62
282.588	113.62
282.819	117.62
283.051	87.62
283.282	73.62
283.513	81.62
283.745	83.62
283.976	87.62
284.207	88.62
284.439	92.62
284.67	86.62
284.901	93.62
285.132	86.62
285.364	81.62
285.595	78.62
285.826	91.62
286.057	90.62
286.288	98.62
286.52	81.62
286.751	83.62
286.982	83.62
287.213	76.62
287.444	77.62
287.675	74.62
287.906	87.62
288.138	91.62
288.369	93.62
288.6	83.62
288.831	96.62
289.062	91.62
289.293	95.62
289.524	82.62
289.755	80.62
289.986	91.62
290.217	84.62
290.448	77.62
290.679	85.62
290.91	78.62
291.141	85.62
291.371	88.62
291.602	92.62
291.833	88.62
292.064	67.62
292.295	83.62
292.526	95.62
292.757	81.62
292.987	78.62
293.218	89.62
293.449	75.62
293.68	84.62
293.91	91.62
294.141	93.62
294.372	75.62
294.603	101.62
294.833	96.62
295.064	98.62
295.295	93.62
295.525	85.62
295.756	93.62
295.987	109.62
296.217	129.62
296.448	110.62
296.679	95.62
296.909	80.62
297.14	83.62
297.37	87.62
297.601	88.62
297.831	85.62
298.062	88.62
298.292	71.62
298.523	89.62
298.753	85.62
298.984	86.62
299.214	76.62
299.445	80.62
299.675	70.62
299.905	87.62
300.136	94.62
300.366	94.62
300.597	86.62
300.827	86.62
301.057	71.62
301.288	93.62
301.518	87.62
301.748	82.62
301.979	102.62
302.209	79.62
302.439	90.62
302.669	81.62
302.9	90.62
303.13	103.62
303.36	103.62
303.59	79.62
303.82	94.62
304.051	86.62
304.281	93.62
304.511	101.62
304.741	86.62
304.971	82.62
305.201	78.62
305.431	86.62
305.661	86.62
305.891	95.62
306.121	85.62
306.352	95.62
306.582	96.62
306.812	98.62
307.042	93.62
307.272	95.62
307.502	100.62
307.731	87.62
307.961	84.62
308.191	76.62
308.421	76.62
308.651	84.62
308.881	95.62
309.111	94.62
309.341	88.62
309.571	85.62
309.8	79.62
310.03	91.62
310.26	98.62
310.49	95.62
310.72	93.62
310.949	95.62
311.179	78.62
311.409	94.62
311.639	107.62
311.868	93.62
312.098	98.62
312.328	87.62
312.557	81.62
312.787	96.62
313.017	99.62
313.246	100.62
313.476	100.62
313.706	88.62
313.935	82.62
314.165	87.62
314.394	92.62
314.624	84.62
314.853	102.62
315.083	93.62
315.312	96.62
315.542	86.62
315.771	87.62
316.001	90.62
316.23	103.62
316.46	79.62
316.689	87.62
316.919	92.62
317.148	95.62
317.377	95.62
317.607	85.62
317.836	88.62
318.065	98.62
318.295	96.62
318.524	82.62
318.753	91.62
318.983	94.62
319.212	93.62
319.441	103.62
319.67	95.62
319.9	82.62
320.129	96.62
320.358	94.62
320.587	103.62
320.816	91.62
321.046	97.62
321.275	88.62
321.504	84.62
321.733	97.62
321.962	102.62
322.191	99.62
322.42	107.62
322.649	118.62
322.878	97.62
323.108	120.62
323.337	110.62
323.566	141.62
323.795	134.62
324.024	185.62
324.253	366.62
324.482	757.62
324.71	1527.62
324.939	2042.62
325.168	743.62
325.397	239.62
325.626	145.62
325.855	100.62
326.084	126.62
326.313	137.62
326.542	140.62
326.77	216.62
326.999	427.62
327.228	870.62
327.457	1582.62
327.686	1250.62
327.914	352.62
328.143	211.62
328.372	201.62
328.6	153.62
328.829	117.62
329.058	124.62
329.287	128.62
329.515	119.62
329.744	125.62
329.972	149.62
330.201	232.62
330.43	266.62
330.658	188.62
330.887	154.62
331.115	114.62
331.344	102.62
331.572	117.62
331.801	99.62
332.03	87.62
332.258	92.62
332.486	95.62
332.715	84.62
332.943	96.62
333.172	106.62
333.4	103.62
333.629	108.62
333.857	111.62
334.085	151.62
334.314	211.62
334.542	366.62
334.771	355.62
334.999	128.62
335.227	106.62
335.455	97.62
335.684	93.62
335.912	94.62
336.14	88.62
336.369	85.62
336.597	100.62
336.825	94.62
337.053	89.62
337.281	88.62
337.51	82.62
337.738	89.62
337.966	100.62
338.194	115.62
338.422	95.62
338.65	92.62
338.878	91.62
339.106	97.62
339.334	86.62
339.562	90.62
339.79	88.62
340.018	94.62
340.246	87.62
340.474	96.62
340.702	90.62
340.93	91.62
341.158	100.62
341.386	98.62
341.614	95.62
341.842	101.62
342.07	89.62
342.298	84.62
342.526	85.62
342.754	104.62
342.981	97.62
343.209	90.62
343.437	94.62
343.665	88.62
343.893	89.62
344.12	80.62
344.348	90.62
344.576	79.62
344.804	87.62
345.031	91.62
345.259	89.62
345.487	88.62
345.714	88.62
345.942	85.62
346.17	91.62
346.397	70.62
346.625	93.62
346.853	83.62
347.08	84.62
347.308	85.62
347.535	91.62
347.763	101.62
347.99	94.62
348.218	103.62
348.445	98.62
348.673	88.62
348.9	104.62
349.128	85.62
349.355	88.62
349.583	94.62
349.81	92.62
350.037	88.62
350.265	80.62
350.492	90.62
350.72	82.62
350.947	86.62
351.174	88.62
351.402	113.62
351.629	93.62
351.856	111.62
352.083	93.62
352.311	93.62
352.538	117.62
352.765	92.62
352.992	112.62
353.22	89.62
353.447	102.62
353.674	106.62
353.901	100.62
354.128	92.62
354.355	94.62
354.583	97.62
354.81	89.62
355.037	107.62
355.264	99.62
355.491	86.62
355.718	85.62
355.945	97.62
356.172	83.62
356.399	97.62
356.626	96.62
356.853	92.62
357.08	88.62
357.307	95.62
357.534	86.62
357.761	84.62
357.988	87.62
358.215	88.62
358.441	61.62
358.668	92.62
358.895	94.62
359.122	88.62
359.349	85.62
359.576	84.62
359.802	94.62
360.029	107.62
360.256	122.62
360.483	86.62
360.709	97.62
360.936	94.62
361.163	97.62
361.39	106.62
361.616	100.62
361.843	87.62
362.07	95.62
362.296	95.62
362.523	90.62
362.749	83.62
362.976	85.62
363.203	91.62
363.429	80.62
363.656	87.62
363.882	93.62
364.109	82.62
364.335	109.62
364.562	94.62
364.788	84.62
365.015	97.62
365.241	108.62
365.468	102.62
365.694	87.62
365.92	93.62
366.147	92.62
366.373	94.62
366.599	93.62
366.826	102.62
367.052	83.62
367.278	94.62
367.505	85.62
367.731	106.62
367.957	94.62
368.184	101.62
368.41	83.62
368.636	98.62
368.862	112.62
369.089	106.62
369.315	98.62
369.541	95.62
369.767	90.62
369.993	102.62
370.219	81.62
370.445	88.62
370.672	87.62
370.898	69.62
371.124	92.62
371.35	85.62
371.576	88.62
371.802	91.62
372.028	95.62
372.254	88.62
372.48	91.62
372.706	80.62
372.932	85.62
373.158	100.62
373.384	95.62
373.61	94.62
373.835	82.62
374.061	85.62
374.287	87.62
374.513	84.62
374.739	90.62
374.965	94.62
375.191	89.62
375.416	82.62
375.642	92.62
375.868	93.62
376.094	75.62
376.319	73.62
376.545	87.62
376.771	85.62
376.997	90.62
377.222	89.62
377.448	93.62
377.674	71.62
377.899	91.62
378.125	99.62
378.35	93.62
378.576	73.62
378.802	86.62
379.027	94.62
379.253	94.62
379.478	101.62
379.704	94.62
379.929	86.62
380.155	90.62
380.38	96.62
380.606	86.62
380.831	94.62
381.057	92.62
381.282	87.62
381.507	97.62
381.733	104.62
381.958	106.62
382.184	94.62
382.409	110.62
382.634	100.62
382.86	80.62
383.085	95.62
383.31	105.62
383.535	93.62
383.761	105.62
383.986	94.62
384.211	99.62
384.436	94.62
384.662	99.62
384.887	80.62
385.112	99.62
385.337	101.62
385.562	101.62
385.787	115.62
386.013	100.62
386.238	96.62
386.463	103.62
386.688	99.62
386.913	99.62
387.138	112.62
387.363	101.62
387.588	97.62
387.813	88.62
388.038	101.62
388.263	105.62
388.488	96.62
388.713	89.62
388.938	96.62
389.163	88.62
389.387	76.62
389.612	99.62
389.837	91.62
390.062	90.62
390.287	87.62
390.512	86.62
390.736	88.62
390.961	81.62
391.186	81.62
391.411	93.62
391.636	106.62
391.86	88.62
392.085	88.62
392.31	86.62
392.534	82.62
392.759	88.62
392.984	89.62
393.208	91.62
393.433	106.62
393.658	84.62
393.882	90.62
394.107	83.62
394.331	76.62
394.556	77.62
394.78	84.62
395.005	97.62
395.229	78.62
395.454	85.62
395.678	85.62
395.903	88.62
396.127	87.62
396.352	79.62
396.576	92.62
396.801	75.62
397.025	95.62
397.249	87.62
397.474	82.62
397.698	91.62
397.922	82.62
398.147	81.62
398.371	99.62
398.595	103.62
398.82	88.62
399.044	92.62
399.268	91.62
399.492	95.62
399.717	91.62
399.941	93.62
400.165	90.62
400.389	86.62
400.613	93.62
400.837	80.62
401.062	96.62
401.286	73.62
401.51	94.62
401.734	78.62
401.958	103.62
402.182	118.62
402.406	133.62
402.63	93.62
402.854	98.62
403.078	89.62
403.302	89.62
403.526	91.62
403.75	92.62
403.974	100.62
404.198	83.62
404.422	89.62
404.645	85.62
404.869	96.62
405.093	105.62
405.317	99.62
405.541	101.62
405.765	101.62
405.988	101.62
406.212	151.62
406.436	178.62
406.66	139.62
406.883	92.62
407.107	98.62
407.331	102.62
407.555	86.62
407.778	103.62
408.002	83.62
408.226	92.62
408.449	94.62
408.673	88.62
408.896	82.62
409.12	92.62
409.344	78.62
409.567	80.62
409.791	79.62
410.014	83.62
410.238	78.62
410.461	85.62
410.685	91.62
410.908	87.62
411.132	99.62
411.355	94.62
411.578	78.62
411.802	77.62
412.025	93.62
412.249	98.62
412.472	104.62
412.695	104.62
412.919	89.62
413.142	81.62
413.365	82.62
413.589	72.62
413.812	85.62
414.035	74.62
414.258	80.62
414.482	83.62
414.705	88.62
414.928	83.62
415.151	95.62
415.374	75.62
415.597	77.62
415.821	88.62
416.044	96.62
416.267	75.62
416.49	94.62
416.713	100.62
416.936	76.62
417.159	79.62
417.382	81.62
417.605	78.62
417.828	87.62
418.051	95.62
418.274	95.62
418.497	81.62
418.72	98.62
418.943	77.62
419.166	90.62
419.389	87.62
419.611	85.62
419.834	76.62
420.057	81.62
420.28	83.62
420.503	85.62
420.726	94.62
420.948	92.62
421.171	107.62
421.394	86.62
421.617	94.62
421.839	91.62
422.062	82.62
422.285	100.62
422.507	104.62
422.73	106.62
422.953	108.62
423.175	84.62
423.398	85.62
423.621	94.62
423.843	76.62
424.066	87.62
424.288	83.62
424.511	67.62
424.733	96.62
424.956	89.62
425.178	86.62
425.401	98.62
425.623	91.62
425.846	83.62
426.068	97.62
426.291	87.62
426.513	77.62
426.735	88.62
426.958	86.62
427.18	99.62
427.402	136.62
427.625	151.62
427.847	149.62
428.069	122.62
428.292	98.62
428.514	90.62
428.736	73.62
428.958	83.62
429.181	88.62
429.403	88.62
429.625	87.62
429.847	97.62
430.069	106.62
430.292	85.62
430.514	84.62
430.736	90.62
430.958	77.62
431.18	70.62
431.402	90.62
431.624	85.62
431.846	76.62
432.068	92.62
432.29	81.62
432.512	90.62
432.734	81.62
432.956	81.62
433.178	83.62
433.4	98.62
433.622	90.62
433.844	85.62
434.066	86.62
434.287	87.62
434.509	83.62
434.731	79.62
434.953	86.62
435.175	72.62
435.397	87.62
435.618	88.62
435.84	111.62
436.062	103.62
436.284	107.62
436.505	92.62
436.727	91.62
436.949	87.62
437.17	75.62
437.392	82.62
437.614	91.62
437.835	104.62
438.057	100.62
438.278	97.62
438.5	99.62
438.721	112.62
438.943	91.62
439.165	92.62
439.386	92.62
439.608	97.62
439.829	104.62
440.05	113.62
440.272	137.62
440.493	100.62
440.715	85.62
440.936	67.62
441.158	87.62
441.379	90.62
441.6	92.62
441.822	87.62
442.043	70.62
442.264	103.62
442.486	88.62
442.707	101.62
442.928	100.62
443.149	127.62
443.371	111.62
443.592	103.62
443.813	106.62
444.034	108.62
444.255	91.62
444.476	86.62
444.698	87.62
444.919	85.62
445.14	119.62
445.361	127.62
445.582	108.62
445.803	136.62
446.024	112.62
446.245	114.62
446.466	98.62
446.687	94.62
446.908	84.62
447.129	76.62
447.35	76.62
447.571	87.62
447.792	85.62
448.013	92.62
448.234	109.62
448.455	92.62
448.675	101.62
448.896	118.62
449.117	95.62
449.338	91.62
449.559	118.62
449.779	123.62
450	87.62
450.221	76.62
450.442	109.62
450.662	79.62
450.883	104.62
451.104	110.62
451.324	94.62
451.545	84.62
451.766	84.62
451.986	93.62
452.207	78.62
452.428	87.62
452.648	109.62
452.869	107.62
453.089	114.62
453.31	100.62
453.53	100.62
453.751	92.62
453.971	98.62
454.192	114.62
454.412	96.62
454.633	82.62
454.853	87.62
455.073	94.62
455.294	86.62
455.514	101.62
455.734	97.62
455.955	87.62
456.175	85.62
456.395	79.62
456.616	78.62
456.836	76.62
457.056	94.62
457.276	81.62
457.497	76.62
457.717	78.62
457.937	78.62
458.157	80.62
458.377	96.62
458.598	87.62
458.818	141.62
459.038	151.62
459.258	110.62
459.478	83.62
459.698	86.62
459.918	90.62
460.138	74.62
460.358	93.62
460.578	89.62
460.798	90.62
461.018	93.62
461.238	88.62
461.458	79.62
461.678	80.62
461.898	90.62
462.118	84.62
462.338	101.62
462.558	84.62
462.777	85.62
462.997	75.62
463.217	84.62
463.437	72.62
463.657	69.62
463.876	68.62
464.096	83.62
464.316	93.62
464.536	85.62
464.755	88.62
464.975	99.62
465.195	140.62
465.414	131.62
465.634	105.62
465.854	104.62
466.073	83.62
466.293	78.62
466.512	87.62
466.732	92.62
466.951	99.62
467.171	80.62
467.391	90.62
467.61	106.62
467.829	112.62
468.049	160.62
468.268	215.62
468.488	100.62
468.707	85.62
468.927	93.62
469.146	79.62
469.365	86.62
469.585	92.62
469.804	109.62
470.023	95.62
470.243	91.62
470.462	88.62
470.681	115.62
470.901	89.62
471.12	82.62
471.339	74.62
471.558	100.62
471.777	98.62
471.997	140.62
472.216	275.62
472.435	503.62
472.654	154.62
472.873	95.62
473.092	74.62
473.311	104.62
473.53	91.62
473.749	83.62
473.968	85.62
474.187	100.62
474.406	100.62
474.625	78.62
474.844	83.62
475.063	80.62
475.282	80.62
475.501	72.62
475.72	101.62
475.939	70.62
476.158	87.62
476.377	64.62
476.596	92.62
476.814	85.62
477.033	82.62
477.252	85.62
477.471	77.62
477.69	91.62
477.908	84.62
478.127	96.62
478.346	79.62
478.564	95.62
478.783	94.62
479.002	70.62
479.22	83.62
479.439	97.62
479.658	100.62
479.876	93.62
480.095	84.62
480.313	98.62
480.532	99.62
480.751	128.62
480.969	254.62
481.188	812.62
481.406	519.62
481.624	147.62
481.843	95.62
482.061	93.62
482.28	76.62
482.498	69.62
482.717	78.62
482.935	93.62
483.153	70.62
483.372	96.62
483.59	85.62
483.808	74.62
484.027	82.62
484.245	93.62
484.463	92.62
484.681	100.62
484.9	85.62
485.118	86.62
485.336	94.62
485.554	96.62
485.772	97.62
485.99	88.62
486.209	86.62
486.427	102.62
486.645	89.62
486.863	87.62
487.081	106.62
487.299	106.62
487.517	91.62
487.735	74.62
487.953	85.62
488.171	90.62
488.389	89.62
488.607	83.62
488.825	90.62
489.043	84.62
489.261	72.62
489.479	77.62
489.696	88.62
489.914	80.62
490.132	79.62
490.35	88.62
490.568	96.62
490.786	84.62
491.003	92.62
491.221	86.62
491.439	88.62
491.657	104.62
491.874	94.62
492.092	94.62
492.31	84.62
492.527	91.62
492.745	78.62
492.963	102.62
493.18	80.62
493.398	86.62
493.615	83.62
493.833	88.62
494.05	96.62
494.268	101.62
494.485	86.62
494.703	76.62
494.92	75.62
495.138	104.62
495.355	99.62
495.573	94.62
495.79	79.62
496.008	82.62
496.225	100.62
496.442	82.62
496.66	99.62
496.877	111.62
497.094	99.62
497.312	88.62
497.529	72.62
497.746	63.62
497.963	78.62
498.181	87.62
498.398	105.62
498.615	116.62
498.832	101.62
499.049	92.62
499.267	88.62
499.484	87.62
499.701	68.62
499.918	81.62
500.135	96.62
500.352	93.62
500.569	86.62
500.786	96.62
501.003	84.62
501.22	81.62
501.437	91.62
501.654	94.62
501.871	94.62
502.088	94.62
502.305	90.62
502.522	87.62
502.739	99.62
502.956	99.62
503.172	87.62
503.389	82.62
503.606	89.62
503.823	104.62
504.04	91.62
504.256	87.62
504.473	81.62
504.69	85.62
504.907	94.62
505.123	91.62
505.34	85.62
505.557	85.62
505.773	91.62
505.99	94.62
506.207	76.62
506.423	93.62
506.64	89.62
506.856	103.62
507.073	91.62
507.289	77.62
507.506	97.62
507.722	98.62
507.939	91.62
508.155	84.62
508.372	76.62
508.588	77.62
508.805	91.62
509.021	95.62
509.238	90.62
509.454	92.62
509.67	90.62
509.887	109.62
510.103	140.62
510.319	190.62
510.536	644.62
510.752	1980.62
510.968	543.62
511.184	135.62
511.401	96.62
511.617	75.62
511.833	98.62
512.049	85.62
512.265	78.62
512.481	79.62
512.698	89.62
512.914	89.62
513.13	101.62
513.346	81.62
513.562	96.62
513.778	98.62
513.994	97.62
514.21	104.62
514.426	112.62
514.642	126.62
514.858	122.62
515.074	137.62
515.29	397.62
515.506	1235.62
515.721	472.62
515.937	151.62
516.153	104.62
516.369	99.62
