Data from Circ_2004_H10_HRD10591_00045.txt Node
Date: Wed Jan 03 10:33:23 EST 2024
User: Yrep
Spectrometer: HR+D1059
Trigger mode: 1
Integration Time (sec): 1.000000E-1
Scans to average: 1
Electric dark correction enabled: true
Nonlinearity correction enabled: false
Boxcar width: 0
XAxis mode: Wavelengths
Number of Pixels in Spectrum: 2048
>>>>>Begin Spectral Data<<<<<
223.165	-2.25
223.4	-2.25
223.635	-2.25
223.869	-39.25
224.104	-16.25
224.338	-36.25
224.573	-10.25
224.808	-3.25
225.042	2.75
225.277	-12.25
225.511	-5.25
225.746	6.75
225.98	9.75
226.215	5.75
226.449	26.75
226.683	15.75
226.918	24.75
227.152	32.75
227.387	37.75
227.621	39.75
227.856	42.75
228.09	27.75
228.324	48.75
228.559	62.75
228.793	165.75
229.027	432.75
229.262	527.75
229.496	629.75
229.73	807.75
229.964	821.75
230.199	536.75
230.433	477.75
230.667	484.75
230.901	468.75
231.136	431.75
231.37	459.75
231.604	459.75
231.838	468.75
232.072	484.75
232.306	458.75
232.541	477.75
232.775	472.75
233.009	476.75
233.243	490.75
233.477	495.75
233.711	489.75
233.945	512.75
234.179	533.75
234.413	512.75
234.647	508.75
234.881	518.75
235.115	531.75
235.349	549.75
235.583	566.75
235.817	611.75
236.051	640.75
236.285	618.75
236.519	653.75
236.753	719.75
236.987	925.75
237.221	1404.75
237.455	1530.75
237.689	925.75
237.922	726.75
238.156	733.75
238.39	670.75
238.624	672.75
238.858	675.75
239.091	669.75
239.325	686.75
239.559	700.75
239.793	735.75
240.027	804.75
240.26	938.75
240.494	978.75
240.728	962.75
240.961	914.75
241.195	830.75
241.429	820.75
241.662	796.75
241.896	764.75
242.13	801.75
242.363	789.75
242.597	814.75
242.83	867.75
243.064	858.75
243.298	862.75
243.531	877.75
243.765	891.75
243.998	868.75
244.232	894.75
244.465	885.75
244.699	942.75
244.932	937.75
245.166	938.75
245.399	937.75
245.633	951.75
245.866	962.75
246.099	985.75
246.333	976.75
246.566	978.75
246.8	1004.75
247.033	1047.75
247.266	1056.75
247.5	1142.75
247.733	1170.75
247.966	1180.75
248.2	1179.75
248.433	1217.75
248.666	1298.75
248.899	1406.75
249.133	1499.75
249.366	1568.75
249.599	1470.75
249.832	1420.75
250.066	1559.75
250.299	1980.75
250.532	2580.75
250.765	2479.75
250.998	2173.75
251.231	1894.75
251.465	1660.75
251.698	1550.75
251.931	1538.75
252.164	1491.75
252.397	1523.75
252.63	1519.75
252.863	1590.75
253.096	1743.75
253.329	1812.75
253.562	1682.75
253.795	1620.75
254.028	1626.75
254.261	1694.75
254.494	1922.75
254.727	2262.75
254.96	2372.75
255.193	2120.75
255.426	2104.75
255.659	2444.75
255.892	3392.75
256.124	4532.75
256.357	3761.75
256.59	2706.75
256.823	2234.75
257.056	1980.75
257.289	1860.75
257.521	1807.75
257.754	1781.75
257.987	1728.75
258.22	1754.75
258.452	1686.75
258.685	1701.75
258.918	1650.75
259.151	1710.75
259.383	1770.75
259.616	1775.75
259.849	1874.75
260.081	1994.75
260.314	2137.75
260.547	2082.75
260.779	1932.75
261.012	1827.75
261.244	1808.75
261.477	1754.75
261.71	1790.75
261.942	1859.75
262.175	1884.75
262.407	1783.75
262.64	1734.75
262.872	1730.75
263.105	1730.75
263.337	1695.75
263.57	1731.75
263.802	1777.75
264.035	1777.75
264.267	1700.75
264.499	1702.75
264.732	1766.75
264.964	1794.75
265.197	1745.75
265.429	1749.75
265.661	1799.75
265.894	1766.75
266.126	1796.75
266.358	1827.75
266.591	1854.75
266.823	1944.75
267.055	1937.75
267.287	1901.75
267.52	1933.75
267.752	1880.75
267.984	1913.75
268.216	1932.75
268.448	2003.75
268.681	2066.75
268.913	2194.75
269.145	2362.75
269.377	2424.75
269.609	2359.75
269.841	2311.75
270.073	2411.75
270.306	2698.75
270.538	2837.75
270.77	2636.75
271.002	2468.75
271.234	2448.75
271.466	2677.75
271.698	2762.75
271.93	2726.75
272.162	2766.75
272.394	2669.75
272.626	2559.75
272.858	2419.75
273.09	2384.75
273.322	2368.75
273.553	2287.75
273.785	2323.75
274.017	2354.75
274.249	2406.75
274.481	2375.75
274.713	2374.75
274.945	2422.75
275.176	2399.75
275.408	2448.75
275.64	2444.75
275.872	2471.75
276.104	2515.75
276.335	2565.75
276.567	2633.75
276.799	2843.75
277.031	3151.75
277.262	3267.75
277.494	3071.75
277.726	2868.75
277.957	2679.75
278.189	2673.75
278.421	2615.75
278.652	2595.75
278.884	2572.75
279.115	2558.75
279.347	2596.75
279.579	2668.75
279.81	2710.75
280.042	2785.75
280.273	2997.75
280.505	2889.75
280.736	2727.75
280.968	2733.75
281.199	2678.75
281.431	2651.75
281.662	2710.75
281.894	2707.75
282.125	2738.75
282.356	2896.75
282.588	3011.75
282.819	2804.75
283.051	2676.75
283.282	2635.75
283.513	2687.75
283.745	2801.75
283.976	2760.75
284.207	2753.75
284.439	2757.75
284.67	2763.75
284.901	2697.75
285.132	2756.75
285.364	2744.75
285.595	2722.75
285.826	2759.75
286.057	2795.75
286.288	2801.75
286.52	2791.75
286.751	2831.75
286.982	2850.75
287.213	2893.75
287.444	2878.75
287.675	2942.75
287.906	3062.75
288.138	2996.75
288.369	3008.75
288.6	3066.75
288.831	2993.75
289.062	2977.75
289.293	2959.75
289.524	2956.75
289.755	2941.75
289.986	2928.75
290.217	2874.75
290.448	2916.75
290.679	2928.75
290.91	2949.75
291.141	2937.75
291.371	2968.75
291.602	2964.75
291.833	2912.75
292.064	2948.75
292.295	2925.75
292.526	2917.75
292.757	2945.75
292.987	2878.75
293.218	2870.75
293.449	2867.75
293.68	2901.75
293.91	2902.75
294.141	2961.75
294.372	2958.75
294.603	2973.75
294.833	2963.75
295.064	2971.75
295.295	3012.75
295.525	2966.75
295.756	3041.75
295.987	3111.75
296.217	3323.75
296.448	3228.75
296.679	3064.75
296.909	3036.75
297.14	3046.75
297.37	3191.75
297.601	3140.75
297.831	3072.75
298.062	3136.75
298.292	3142.75
298.523	3243.75
298.753	3207.75
298.984	3176.75
299.214	3208.75
299.445	3197.75
299.675	3181.75
299.905	3238.75
300.136	3287.75
300.366	3291.75
300.597	3278.75
300.827	3393.75
301.057	3458.75
301.288	3487.75
301.518	3419.75
301.748	3472.75
301.979	3574.75
302.209	3508.75
302.439	3469.75
302.669	3478.75
302.9	3424.75
303.13	3373.75
303.36	3480.75
303.59	3556.75
303.82	3597.75
304.051	3546.75
304.281	3457.75
304.511	3396.75
304.741	3388.75
304.971	3348.75
305.201	3409.75
305.431	3479.75
305.661	3437.75
305.891	3346.75
306.121	3438.75
306.352	3480.75
306.582	3424.75
306.812	3404.75
307.042	3428.75
307.272	3492.75
307.502	3612.75
307.731	3582.75
307.961	3459.75
308.191	3432.75
308.421	3417.75
308.651	3447.75
308.881	3434.75
309.111	3524.75
309.341	3530.75
309.571	3586.75
309.8	3596.75
310.03	3703.75
310.26	3719.75
310.49	3732.75
310.72	3856.75
310.949	3945.75
311.179	3906.75
311.409	3784.75
311.639	3754.75
311.868	3761.75
312.098	3831.75
312.328	3929.75
312.557	4086.75
312.787	4182.75
313.017	4021.75
313.246	3916.75
313.476	3856.75
313.706	3873.75
313.935	4030.75
314.165	4056.75
314.394	4160.75
314.624	4052.75
314.853	3938.75
315.083	3941.75
315.312	3842.75
315.542	3852.75
315.771	3778.75
316.001	3785.75
316.23	3768.75
316.46	3788.75
316.689	3891.75
316.919	3986.75
317.148	4016.75
317.377	3959.75
317.607	3992.75
317.836	3868.75
318.065	3805.75
318.295	3836.75
318.524	3931.75
318.753	3875.75
318.983	3853.75
319.212	3858.75
319.441	3931.75
319.67	3935.75
319.9	3811.75
320.129	3874.75
320.358	3904.75
320.587	3974.75
320.816	3960.75
321.046	3954.75
321.275	4015.75
321.504	4052.75
321.733	4031.75
321.962	4090.75
322.191	4303.75
322.42	4346.75
322.649	4465.75
322.878	4567.75
323.108	4604.75
323.337	4888.75
323.566	5030.75
323.795	5380.75
324.024	6036.75
324.253	7944.75
324.482	11993.75
324.71	15608.75
324.939	15608.75
325.168	13789.75
325.397	7039.75
325.626	5630.75
325.855	5371.75
326.084	5211.75
326.313	5198.75
326.542	5381.75
326.77	6199.75
326.999	7849.75
327.228	11648.75
327.457	15319.75
327.686	14815.75
327.914	9150.75
328.143	8296.75
328.372	8506.75
328.6	7213.75
328.829	6579.75
329.058	6630.75
329.287	6770.75
329.515	6622.75
329.744	7248.75
329.972	8745.75
330.201	11132.75
330.43	12390.75
330.658	9482.75
330.887	7786.75
331.115	6798.75
331.344	6122.75
331.572	5873.75
331.801	5925.75
332.03	5918.75
332.258	5829.75
332.486	5869.75
332.715	5982.75
332.943	6291.75
333.172	6510.75
333.4	7002.75
333.629	7486.75
333.857	8416.75
334.085	10070.75
334.314	12651.75
334.542	14772.75
334.771	14017.75
334.999	9279.75
335.227	7319.75
335.455	6616.75
335.684	6112.75
335.912	5911.75
336.14	5660.75
336.369	5586.75
336.597	5601.75
336.825	5415.75
337.053	5245.75
337.281	5222.75
337.51	5207.75
337.738	5103.75
337.966	5018.75
338.194	4999.75
338.422	4977.75
338.65	4827.75
338.878	4849.75
339.106	4821.75
339.334	4804.75
339.562	4663.75
339.79	4620.75
340.018	4695.75
340.246	4634.75
340.474	4697.75
340.702	4679.75
340.93	4658.75
341.158	4661.75
341.386	4620.75
341.614	4638.75
341.842	4626.75
342.07	4518.75
342.298	4518.75
342.526	4463.75
342.754	4422.75
342.981	4495.75
343.209	4630.75
343.437	4771.75
343.665	5092.75
343.893	5253.75
344.12	5271.75
344.348	5088.75
344.576	4937.75
344.804	4869.75
345.031	4877.75
345.259	4785.75
345.487	4624.75
345.714	4550.75
345.942	4414.75
346.17	4365.75
346.397	4313.75
346.625	4361.75
346.853	4308.75
347.08	4294.75
347.308	4336.75
347.535	4470.75
347.763	4468.75
347.99	4422.75
348.218	4418.75
348.445	4448.75
348.673	4359.75
348.9	4372.75
349.128	4248.75
349.355	4259.75
349.583	4224.75
349.81	4218.75
350.037	4215.75
350.265	4166.75
350.492	4116.75
350.72	4187.75
350.947	4261.75
351.174	4295.75
351.402	4428.75
351.629	4304.75
351.856	4385.75
352.083	4437.75
352.311	4477.75
352.538	4509.75
352.765	4434.75
352.992	4278.75
353.22	4278.75
353.447	4261.75
353.674	4144.75
353.901	4118.75
354.128	4141.75
354.355	4108.75
354.583	4163.75
354.81	4101.75
355.037	4135.75
355.264	4058.75
355.491	4056.75
355.718	4108.75
355.945	4068.75
356.172	4122.75
356.399	4028.75
356.626	4068.75
356.853	4092.75
357.08	4093.75
357.307	4078.75
357.534	4074.75
357.761	4107.75
357.988	4084.75
358.215	4101.75
358.441	4073.75
358.668	4143.75
358.895	4202.75
359.122	4227.75
359.349	4305.75
359.576	4418.75
359.802	4666.75
360.029	4770.75
360.256	4803.75
360.483	4630.75
360.709	4347.75
360.936	4356.75
361.163	4363.75
361.39	4381.75
361.616	4376.75
361.843	4327.75
362.07	4333.75
362.296	4382.75
362.523	4334.75
362.749	4309.75
362.976	4311.75
363.203	4251.75
363.429	4180.75
363.656	4236.75
363.882	4178.75
364.109	4183.75
364.335	4194.75
364.562	4157.75
364.788	4234.75
365.015	4182.75
365.241	4232.75
365.468	4242.75
365.694	4251.75
365.92	4244.75
366.147	4215.75
366.373	4188.75
366.599	4170.75
366.826	4148.75
367.052	4142.75
367.278	4197.75
367.505	4171.75
367.731	4244.75
367.957	4184.75
368.184	4240.75
368.41	4279.75
368.636	4406.75
368.862	4424.75
369.089	4273.75
369.315	4294.75
369.541	4257.75
369.767	4302.75
369.993	4346.75
370.219	4347.75
370.445	4290.75
370.672	4348.75
370.898	4348.75
371.124	4454.75
371.35	4371.75
371.576	4414.75
371.802	4390.75
372.028	4417.75
372.254	4433.75
372.48	4445.75
372.706	4535.75
372.932	4615.75
373.158	4524.75
373.384	4532.75
373.61	4453.75
373.835	4461.75
374.061	4525.75
374.287	4585.75
374.513	4588.75
374.739	4726.75
374.965	4851.75
375.191	4876.75
375.416	4774.75
375.642	4614.75
375.868	4564.75
376.094	4501.75
376.319	4536.75
376.545	4516.75
376.771	4436.75
376.997	4428.75
377.222	4456.75
377.448	4405.75
377.674	4444.75
377.899	4400.75
378.125	4392.75
378.35	4312.75
378.576	4378.75
378.802	4376.75
379.027	4308.75
379.253	4400.75
379.478	4306.75
379.704	4366.75
379.929	4423.75
380.155	4408.75
380.38	4398.75
380.606	4419.75
380.831	4367.75
381.057	4491.75
381.282	4498.75
381.507	4461.75
381.733	4520.75
381.958	4519.75
382.184	4571.75
382.409	4608.75
382.634	4627.75
382.86	4645.75
383.085	4694.75
383.31	4832.75
383.535	4844.75
383.761	4878.75
383.986	5011.75
384.211	5116.75
384.436	5140.75
384.662	5095.75
384.887	5217.75
385.112	5193.75
385.337	5344.75
385.562	5277.75
385.787	5405.75
386.013	5441.75
386.238	5461.75
386.463	5475.75
386.688	5472.75
386.913	5277.75
387.138	5267.75
387.363	5249.75
387.588	5165.75
387.813	5310.75
388.038	5199.75
388.263	5283.75
388.488	5248.75
388.713	5275.75
388.938	5268.75
389.163	5171.75
389.387	5183.75
389.612	5066.75
389.837	5142.75
390.062	5144.75
390.287	5174.75
390.512	5179.75
390.736	5250.75
390.961	5362.75
391.186	5376.75
391.411	5554.75
391.636	5677.75
391.86	5835.75
392.085	5866.75
392.31	5866.75
392.534	5706.75
392.759	5640.75
392.984	5515.75
393.208	5431.75
393.433	5383.75
393.658	5386.75
393.882	5531.75
394.107	5422.75
394.331	5527.75
394.556	5590.75
394.78	5534.75
395.005	5626.75
395.229	5709.75
395.454	5792.75
395.678	5955.75
395.903	5912.75
396.127	6044.75
396.352	5877.75
396.576	5563.75
396.801	5554.75
397.025	5665.75
397.249	5774.75
397.474	5906.75
397.698	5996.75
397.922	6115.75
398.147	6238.75
398.371	6347.75
398.595	6378.75
398.82	6724.75
399.044	7271.75
399.268	7967.75
399.492	9016.75
399.717	9742.75
399.941	9427.75
400.165	8858.75
400.389	8164.75
400.613	7419.75
400.837	6988.75
401.062	6744.75
401.286	6732.75
401.51	6626.75
401.734	6695.75
401.958	6851.75
402.182	6934.75
402.406	7014.75
402.63	7073.75
402.854	7245.75
403.078	7271.75
403.302	7368.75
403.526	7581.75
403.75	7594.75
403.974	7668.75
404.198	7592.75
404.422	7915.75
404.645	7959.75
404.869	8118.75
405.093	8718.75
405.317	9393.75
405.541	9270.75
405.765	8277.75
405.988	7899.75
406.212	7911.75
406.436	8004.75
406.66	7974.75
406.883	8031.75
407.107	8540.75
407.331	9143.75
407.555	9622.75
407.778	9223.75
408.002	8467.75
408.226	8055.75
408.449	7984.75
408.673	7873.75
408.896	8049.75
409.12	8119.75
409.344	7741.75
409.567	7411.75
409.791	7335.75
410.014	7172.75
410.238	7158.75
410.461	7191.75
410.685	7223.75
410.908	7331.75
411.132	7616.75
411.355	7617.75
411.578	7252.75
411.802	7183.75
412.025	7330.75
412.249	7858.75
412.472	8450.75
412.695	9052.75
412.919	8251.75
413.142	7862.75
413.365	7472.75
413.589	7222.75
413.812	6928.75
414.035	6753.75
414.258	6830.75
414.482	6773.75
414.705	6762.75
414.928	6707.75
415.151	6648.75
415.374	6689.75
415.597	6543.75
415.821	6553.75
416.044	6599.75
416.267	6590.75
416.49	6438.75
416.713	6431.75
416.936	6475.75
417.159	6501.75
417.382	6785.75
417.605	6842.75
417.828	6868.75
418.051	6948.75
418.274	6680.75
418.497	6612.75
418.72	6771.75
418.943	6722.75
419.166	7158.75
419.389	7651.75
419.611	7548.75
419.834	7446.75
420.057	7663.75
420.28	8084.75
420.503	7764.75
420.726	7503.75
420.948	7351.75
421.171	7651.75
421.394	7503.75
421.617	6814.75
421.839	6768.75
422.062	6897.75
422.285	7030.75
422.507	7746.75
422.73	8188.75
422.953	7565.75
423.175	7129.75
423.398	7166.75
423.621	7249.75
423.843	7411.75
424.066	7449.75
424.288	7265.75
424.511	7552.75
424.733	7899.75
424.956	8452.75
425.178	7976.75
425.401	8095.75
425.623	7942.75
425.846	6897.75
426.068	6812.75
426.291	6682.75
426.513	6647.75
426.735	6845.75
426.958	7394.75
427.18	8272.75
427.402	9493.75
427.625	9957.75
427.847	9049.75
428.069	8814.75
428.292	7426.75
428.514	6578.75
428.736	6234.75
428.958	6276.75
429.181	5988.75
429.403	6008.75
429.625	6123.75
429.847	6496.75
430.069	7055.75
430.292	6504.75
430.514	6024.75
430.736	5966.75
430.958	5898.75
431.18	5736.75
431.402	5774.75
431.624	5742.75
431.846	5862.75
432.068	5879.75
432.29	6034.75
432.512	5807.75
432.734	5947.75
432.956	5840.75
433.178	6004.75
433.4	5982.75
433.622	5809.75
433.844	5856.75
434.066	5956.75
434.287	6046.75
434.509	6195.75
434.731	6437.75
434.953	6643.75
435.175	6738.75
435.397	6822.75
435.618	6840.75
435.84	7116.75
436.062	8088.75
436.284	8070.75
436.505	6684.75
436.727	6429.75
436.949	6104.75
437.17	5936.75
437.392	5976.75
437.614	6127.75
437.835	6534.75
438.057	7584.75
438.278	8203.75
438.5	8098.75
438.721	9045.75
438.943	7786.75
439.165	6518.75
439.386	6377.75
439.608	6361.75
439.829	6556.75
440.05	7011.75
440.272	7459.75
440.493	6646.75
440.715	6317.75
440.936	6316.75
441.158	6229.75
441.379	6387.75
441.6	6811.75
441.822	6982.75
442.043	7414.75
442.264	8300.75
442.486	8017.75
442.707	7090.75
442.928	6891.75
443.149	7054.75
443.371	7269.75
443.592	7834.75
443.813	8954.75
444.034	8856.75
444.255	7634.75
444.476	7457.75
444.698	7600.75
444.919	7678.75
445.14	7551.75
445.361	7443.75
445.582	7736.75
445.803	8449.75
446.024	9175.75
446.245	8731.75
446.466	7624.75
446.687	6544.75
446.908	6287.75
447.129	5862.75
447.35	5778.75
447.571	5743.75
447.792	5664.75
448.013	5756.75
448.234	5981.75
448.455	6624.75
448.675	7892.75
448.896	8459.75
449.117	6888.75
449.338	7089.75
449.559	8550.75
449.779	8850.75
450	6670.75
450.221	5910.75
450.442	5606.75
450.662	5565.75
450.883	5699.75
451.104	5858.75
451.324	5643.75
451.545	5411.75
451.766	5362.75
451.986	5245.75
452.207	5127.75
452.428	5153.75
452.648	5247.75
452.869	5224.75
453.089	5276.75
453.31	5409.75
453.53	5226.75
453.751	5111.75
453.971	5141.75
454.192	5401.75
454.412	5119.75
454.633	5072.75
454.853	5034.75
455.073	5082.75
455.294	5525.75
455.514	6089.75
455.734	5470.75
455.955	4939.75
456.175	4871.75
456.395	4813.75
456.616	4818.75
456.836	4795.75
457.056	4833.75
457.276	4766.75
457.497	4876.75
457.717	4829.75
457.937	5002.75
458.157	5015.75
458.377	5144.75
458.598	5532.75
458.818	6339.75
459.038	7122.75
459.258	6977.75
459.478	6135.75
459.698	5997.75
459.918	6096.75
460.138	6297.75
460.358	6438.75
460.578	6477.75
460.798	6520.75
461.018	6507.75
461.238	6317.75
461.458	6396.75
461.678	6349.75
461.898	6510.75
462.118	6479.75
462.338	6860.75
462.558	6982.75
462.777	7272.75
462.997	7884.75
463.217	8268.75
463.437	7991.75
463.657	7540.75
463.876	7259.75
464.096	7405.75
464.316	7329.75
464.536	7392.75
464.755	7198.75
464.975	7025.75
465.195	7330.75
465.414	7488.75
465.634	6504.75
465.854	6084.75
466.073	5854.75
466.293	5714.75
466.512	5523.75
466.732	5413.75
466.951	5473.75
467.171	5491.75
467.391	5584.75
467.61	5723.75
467.829	5821.75
468.049	6429.75
468.268	7162.75
468.488	6200.75
468.707	5583.75
468.927	5431.75
469.146	5371.75
469.365	5396.75
469.585	5377.75
469.804	5584.75
470.023	5769.75
470.243	5694.75
470.462	5829.75
470.681	5977.75
470.901	5894.75
471.12	5781.75
471.339	5656.75
471.558	5767.75
471.777	5792.75
471.997	6038.75
472.216	7898.75
472.435	11396.75
472.654	8874.75
472.873	6790.75
473.092	6309.75
473.311	5839.75
473.53	5793.75
473.749	5774.75
473.968	6274.75
474.187	7384.75
474.406	6781.75
474.625	5764.75
474.844	5468.75
475.063	5354.75
475.282	5378.75
475.501	5403.75
475.72	5439.75
475.939	5471.75
476.158	5462.75
476.377	5554.75
476.596	5535.75
476.814	5660.75
477.033	5739.75
477.252	5767.75
477.471	5840.75
477.69	5895.75
477.908	6050.75
478.127	6231.75
478.346	6306.75
478.564	6453.75
478.783	6549.75
479.002	6679.75
479.22	6745.75
479.439	6880.75
479.658	7000.75
479.876	7039.75
480.095	7448.75
480.313	7879.75
480.532	7899.75
480.751	8345.75
480.969	10136.75
481.188	14856.75
481.406	15099.75
481.624	10769.75
481.843	8838.75
482.061	7978.75
482.28	7384.75
482.498	7080.75
482.717	6772.75
482.935	6809.75
483.153	6692.75
483.372	6620.75
483.59	6482.75
483.808	6544.75
484.027	6505.75
484.245	6569.75
484.463	6510.75
484.681	6622.75
484.9	6651.75
485.118	6638.75
485.336	6714.75
485.554	6711.75
485.772	6722.75
485.99	6722.75
486.209	6794.75
486.427	6856.75
486.645	6891.75
486.863	7082.75
487.081	6931.75
487.299	6896.75
487.517	6858.75
487.735	6767.75
