Data from Circ_2004_H10_HRD10591_00032.txt Node
Date: Wed Jan 03 10:33:20 EST 2024
User: Yrep
Spectrometer: HR+D1059
Trigger mode: 1
Integration Time (sec): 1.000000E-1
Scans to average: 1
Electric dark correction enabled: true
Nonlinearity correction enabled: false
Boxcar width: 0
XAxis mode: Wavelengths
Number of Pixels in Spectrum: 2048
>>>>>Begin Spectral Data<<<<<
223.165	-17.5
223.4	-17.5
223.635	-17.5
223.869	-21.5
224.104	-21.5
224.338	-7.5
224.573	-17.5
224.808	-5.5
225.042	-3.5
225.277	-8.5
225.511	-3.5
225.746	7.5
225.98	6.5
226.215	10.5
226.449	9.5
226.683	26.5
226.918	23.5
227.152	22.5
227.387	25.5
227.621	37.5
227.856	34.5
228.09	54.5
228.324	60.5
228.559	61.5
228.793	57.5
229.027	69.5
229.262	46.5
229.496	74.5
229.73	71.5
229.964	70.5
230.199	82.5
230.433	65.5
230.667	77.5
230.901	65.5
231.136	74.5
231.37	73.5
231.604	85.5
231.838	77.5
232.072	67.5
232.306	89.5
232.541	73.5
232.775	80.5
233.009	86.5
233.243	86.5
233.477	86.5
233.711	86.5
233.945	90.5
234.179	79.5
234.413	69.5
234.647	68.5
234.881	81.5
235.115	87.5
235.349	82.5
235.583	76.5
235.817	78.5
236.051	89.5
236.285	74.5
236.519	65.5
236.753	76.5
236.987	81.5
237.221	81.5
237.455	84.5
237.689	78.5
237.922	53.5
238.156	77.5
238.39	79.5
238.624	73.5
238.858	84.5
239.091	66.5
239.325	77.5
239.559	84.5
239.793	84.5
240.027	90.5
240.26	71.5
240.494	74.5
240.728	87.5
240.961	83.5
241.195	87.5
241.429	77.5
241.662	77.5
241.896	85.5
242.13	80.5
242.363	86.5
242.597	80.5
242.83	73.5
243.064	75.5
243.298	98.5
243.531	67.5
243.765	89.5
243.998	79.5
244.232	82.5
244.465	73.5
244.699	90.5
244.932	72.5
245.166	89.5
245.399	80.5
245.633	73.5
245.866	84.5
246.099	83.5
246.333	94.5
246.566	82.5
246.8	84.5
247.033	79.5
247.266	73.5
247.5	77.5
247.733	88.5
247.966	79.5
248.2	79.5
248.433	76.5
248.666	84.5
248.899	78.5
249.133	86.5
249.366	101.5
249.599	100.5
249.832	88.5
250.066	93.5
250.299	84.5
250.532	88.5
250.765	77.5
250.998	85.5
251.231	83.5
251.465	86.5
251.698	89.5
251.931	78.5
252.164	92.5
252.397	79.5
252.63	79.5
252.863	81.5
253.096	73.5
253.329	84.5
253.562	86.5
253.795	89.5
254.028	83.5
254.261	73.5
254.494	76.5
254.727	93.5
254.96	92.5
255.193	70.5
255.426	83.5
255.659	82.5
255.892	80.5
256.124	77.5
256.357	77.5
256.59	75.5
256.823	74.5
257.056	89.5
257.289	80.5
257.521	78.5
257.754	71.5
257.987	85.5
258.22	82.5
258.452	78.5
258.685	67.5
258.918	71.5
259.151	87.5
259.383	76.5
259.616	72.5
259.849	67.5
260.081	74.5
260.314	91.5
260.547	75.5
260.779	91.5
261.012	91.5
261.244	81.5
261.477	88.5
261.71	87.5
261.942	116.5
262.175	109.5
262.407	88.5
262.64	92.5
262.872	93.5
263.105	71.5
263.337	96.5
263.57	77.5
263.802	87.5
264.035	84.5
264.267	81.5
264.499	77.5
264.732	76.5
264.964	76.5
265.197	89.5
265.429	88.5
265.661	79.5
265.894	86.5
266.126	89.5
266.358	95.5
266.591	86.5
266.823	88.5
267.055	80.5
267.287	79.5
267.52	88.5
267.752	90.5
267.984	93.5
268.216	88.5
268.448	87.5
268.681	71.5
268.913	86.5
269.145	71.5
269.377	76.5
269.609	84.5
269.841	72.5
270.073	90.5
270.306	95.5
270.538	71.5
270.77	68.5
271.002	89.5
271.234	87.5
271.466	87.5
271.698	86.5
271.93	90.5
272.162	95.5
272.394	94.5
272.626	92.5
272.858	79.5
273.09	75.5
273.322	82.5
273.553	86.5
273.785	96.5
274.017	88.5
274.249	86.5
274.481	87.5
274.713	80.5
274.945	79.5
275.176	72.5
275.408	89.5
275.64	89.5
275.872	67.5
276.104	88.5
276.335	86.5
276.567	81.5
276.799	91.5
277.031	97.5
277.262	94.5
277.494	92.5
277.726	91.5
277.957	94.5
278.189	77.5
278.421	90.5
278.652	83.5
278.884	87.5
279.115	93.5
279.347	92.5
279.579	86.5
279.81	100.5
280.042	93.5
280.273	104.5
280.505	90.5
280.736	85.5
280.968	91.5
281.199	93.5
281.431	87.5
281.662	96.5
281.894	85.5
282.125	94.5
282.356	113.5
282.588	117.5
282.819	104.5
283.051	105.5
283.282	74.5
283.513	84.5
283.745	90.5
283.976	87.5
284.207	91.5
284.439	92.5
284.67	86.5
284.901	88.5
285.132	94.5
285.364	86.5
285.595	86.5
285.826	91.5
286.057	96.5
286.288	85.5
286.52	88.5
286.751	69.5
286.982	93.5
287.213	87.5
287.444	94.5
287.675	85.5
287.906	101.5
288.138	99.5
288.369	85.5
288.6	89.5
288.831	102.5
289.062	93.5
289.293	90.5
289.524	81.5
289.755	75.5
289.986	86.5
290.217	86.5
290.448	80.5
290.679	78.5
290.91	88.5
291.141	73.5
291.371	85.5
291.602	94.5
291.833	97.5
292.064	72.5
292.295	91.5
292.526	78.5
292.757	85.5
292.987	97.5
293.218	83.5
293.449	87.5
293.68	93.5
293.91	100.5
294.141	98.5
294.372	98.5
294.603	79.5
294.833	93.5
295.064	90.5
295.295	95.5
295.525	85.5
295.756	89.5
295.987	117.5
296.217	122.5
296.448	129.5
296.679	112.5
296.909	91.5
297.14	81.5
297.37	87.5
297.601	88.5
297.831	95.5
298.062	83.5
298.292	98.5
298.523	85.5
298.753	82.5
298.984	85.5
299.214	84.5
299.445	98.5
299.675	91.5
299.905	86.5
300.136	88.5
300.366	81.5
300.597	84.5
300.827	90.5
301.057	102.5
301.288	87.5
301.518	94.5
301.748	72.5
301.979	101.5
302.209	96.5
302.439	79.5
302.669	83.5
302.9	78.5
303.13	84.5
303.36	77.5
303.59	101.5
303.82	103.5
304.051	103.5
304.281	98.5
304.511	90.5
304.741	80.5
304.971	81.5
305.201	84.5
305.431	82.5
305.661	93.5
305.891	102.5
306.121	104.5
306.352	98.5
306.582	84.5
306.812	97.5
307.042	97.5
307.272	101.5
307.502	116.5
307.731	101.5
307.961	100.5
308.191	90.5
308.421	101.5
308.651	89.5
308.881	84.5
309.111	98.5
309.341	86.5
309.571	94.5
309.8	85.5
310.03	87.5
310.26	95.5
310.49	98.5
310.72	93.5
310.949	90.5
311.179	93.5
311.409	80.5
311.639	95.5
311.868	106.5
312.098	92.5
312.328	77.5
312.557	101.5
312.787	95.5
313.017	102.5
313.246	106.5
313.476	105.5
313.706	98.5
313.935	97.5
314.165	99.5
314.394	96.5
314.624	91.5
314.853	92.5
315.083	110.5
315.312	98.5
315.542	99.5
315.771	103.5
316.001	79.5
316.23	87.5
316.46	98.5
316.689	71.5
316.919	97.5
317.148	94.5
317.377	97.5
317.607	96.5
317.836	109.5
318.065	85.5
318.295	88.5
318.524	85.5
318.753	102.5
318.983	110.5
319.212	92.5
319.441	117.5
319.67	108.5
319.9	91.5
320.129	103.5
320.358	102.5
320.587	90.5
320.816	79.5
321.046	94.5
321.275	101.5
321.504	88.5
321.733	95.5
321.962	106.5
322.191	94.5
322.42	88.5
322.649	92.5
322.878	105.5
323.108	117.5
323.337	112.5
323.566	141.5
323.795	157.5
324.024	209.5
324.253	359.5
324.482	761.5
324.71	1525.5
324.939	2017.5
325.168	754.5
325.397	240.5
325.626	135.5
325.855	124.5
326.084	127.5
326.313	127.5
326.542	147.5
326.77	234.5
326.999	431.5
327.228	862.5
327.457	1584.5
327.686	1253.5
327.914	356.5
328.143	218.5
328.372	200.5
328.6	138.5
328.829	115.5
329.058	124.5
329.287	119.5
329.515	114.5
329.744	118.5
329.972	148.5
330.201	218.5
330.43	287.5
330.658	163.5
330.887	135.5
331.115	113.5
331.344	92.5
331.572	105.5
331.801	94.5
332.03	98.5
332.258	94.5
332.486	103.5
332.715	103.5
332.943	90.5
333.172	102.5
333.4	97.5
333.629	111.5
333.857	129.5
334.085	168.5
334.314	216.5
334.542	365.5
334.771	330.5
334.999	148.5
335.227	94.5
335.455	105.5
335.684	106.5
335.912	111.5
336.14	89.5
336.369	96.5
336.597	96.5
336.825	86.5
337.053	94.5
337.281	89.5
337.51	100.5
337.738	93.5
337.966	87.5
338.194	88.5
338.422	102.5
338.65	98.5
338.878	100.5
339.106	93.5
339.334	92.5
339.562	78.5
339.79	100.5
340.018	84.5
340.246	77.5
340.474	72.5
340.702	88.5
340.93	96.5
341.158	86.5
341.386	101.5
341.614	107.5
341.842	94.5
342.07	85.5
342.298	87.5
342.526	98.5
342.754	91.5
342.981	94.5
343.209	96.5
343.437	103.5
343.665	92.5
343.893	84.5
344.12	98.5
344.348	79.5
344.576	88.5
344.804	90.5
345.031	87.5
345.259	100.5
345.487	100.5
345.714	99.5
345.942	85.5
346.17	68.5
346.397	96.5
346.625	92.5
346.853	85.5
347.08	89.5
347.308	103.5
347.535	88.5
347.763	104.5
347.99	93.5
348.218	94.5
348.445	83.5
348.673	96.5
348.9	88.5
349.128	101.5
349.355	95.5
349.583	81.5
349.81	89.5
350.037	89.5
350.265	92.5
350.492	100.5
350.72	80.5
350.947	92.5
351.174	106.5
351.402	111.5
351.629	97.5
351.856	104.5
352.083	86.5
352.311	99.5
352.538	92.5
352.765	118.5
352.992	99.5
353.22	109.5
353.447	99.5
353.674	92.5
353.901	93.5
354.128	108.5
354.355	83.5
354.583	101.5
354.81	104.5
355.037	98.5
355.264	94.5
355.491	85.5
355.718	89.5
355.945	95.5
356.172	90.5
356.399	96.5
356.626	83.5
356.853	96.5
357.08	101.5
357.307	90.5
357.534	87.5
357.761	105.5
357.988	92.5
358.215	103.5
358.441	99.5
358.668	85.5
358.895	109.5
359.122	98.5
359.349	90.5
359.576	75.5
359.802	99.5
360.029	105.5
360.256	88.5
360.483	88.5
360.709	93.5
360.936	87.5
361.163	100.5
361.39	95.5
361.616	99.5
361.843	101.5
362.07	96.5
362.296	99.5
362.523	87.5
362.749	85.5
362.976	96.5
363.203	87.5
363.429	85.5
363.656	99.5
363.882	82.5
364.109	89.5
364.335	113.5
364.562	87.5
364.788	81.5
365.015	88.5
365.241	97.5
365.468	120.5
365.694	115.5
365.92	96.5
366.147	80.5
366.373	87.5
366.599	81.5
366.826	79.5
367.052	92.5
367.278	88.5
367.505	88.5
367.731	84.5
367.957	92.5
368.184	99.5
368.41	89.5
368.636	101.5
368.862	110.5
369.089	112.5
369.315	116.5
369.541	92.5
369.767	97.5
369.993	85.5
370.219	78.5
370.445	96.5
370.672	86.5
370.898	97.5
371.124	94.5
371.35	93.5
371.576	85.5
371.802	101.5
372.028	86.5
372.254	106.5
372.48	94.5
372.706	97.5
372.932	98.5
373.158	83.5
373.384	97.5
373.61	97.5
373.835	78.5
374.061	80.5
374.287	89.5
374.513	90.5
374.739	83.5
374.965	77.5
375.191	79.5
375.416	79.5
375.642	86.5
375.868	85.5
376.094	85.5
376.319	83.5
376.545	99.5
376.771	93.5
376.997	97.5
377.222	103.5
377.448	95.5
377.674	86.5
377.899	84.5
378.125	90.5
378.35	88.5
378.576	89.5
378.802	85.5
379.027	93.5
379.253	95.5
379.478	100.5
379.704	99.5
379.929	101.5
380.155	80.5
380.38	108.5
380.606	92.5
380.831	92.5
381.057	103.5
381.282	101.5
381.507	88.5
381.733	101.5
381.958	96.5
382.184	97.5
382.409	96.5
382.634	92.5
382.86	89.5
383.085	103.5
383.31	101.5
383.535	100.5
383.761	94.5
383.986	86.5
384.211	99.5
384.436	108.5
384.662	98.5
384.887	111.5
385.112	98.5
385.337	95.5
385.562	113.5
385.787	109.5
386.013	114.5
386.238	111.5
386.463	121.5
386.688	99.5
386.913	98.5
387.138	93.5
387.363	89.5
387.588	97.5
387.813	100.5
388.038	109.5
388.263	109.5
388.488	97.5
388.713	102.5
388.938	90.5
389.163	92.5
389.387	94.5
389.612	81.5
389.837	96.5
390.062	102.5
390.287	96.5
390.512	92.5
390.736	86.5
390.961	103.5
391.186	90.5
391.411	86.5
391.636	84.5
391.86	80.5
392.085	81.5
392.31	102.5
392.534	90.5
392.759	92.5
392.984	69.5
393.208	77.5
393.433	91.5
393.658	101.5
393.882	80.5
394.107	92.5
394.331	90.5
394.556	87.5
394.78	90.5
395.005	94.5
395.229	89.5
395.454	97.5
395.678	90.5
395.903	86.5
396.127	90.5
396.352	93.5
396.576	94.5
396.801	90.5
397.025	93.5
397.249	86.5
397.474	91.5
397.698	88.5
397.922	67.5
398.147	87.5
398.371	90.5
398.595	87.5
398.82	86.5
399.044	80.5
399.268	80.5
399.492	90.5
399.717	78.5
399.941	91.5
400.165	80.5
400.389	101.5
400.613	89.5
400.837	93.5
401.062	79.5
401.286	80.5
401.51	92.5
401.734	90.5
401.958	86.5
402.182	117.5
402.406	151.5
402.63	118.5
402.854	89.5
403.078	88.5
403.302	83.5
403.526	76.5
403.75	93.5
403.974	81.5
404.198	90.5
404.422	92.5
404.645	87.5
404.869	95.5
405.093	96.5
405.317	109.5
405.541	93.5
405.765	92.5
405.988	100.5
406.212	160.5
406.436	198.5
406.66	134.5
406.883	104.5
407.107	95.5
407.331	93.5
407.555	112.5
407.778	97.5
408.002	85.5
408.226	89.5
408.449	91.5
408.673	88.5
408.896	95.5
409.12	85.5
409.344	93.5
409.567	92.5
409.791	102.5
410.014	101.5
410.238	82.5
410.461	102.5
410.685	81.5
410.908	91.5
411.132	93.5
411.355	97.5
411.578	87.5
411.802	88.5
412.025	95.5
412.249	94.5
412.472	89.5
412.695	101.5
412.919	95.5
413.142	87.5
413.365	79.5
413.589	83.5
413.812	97.5
414.035	98.5
414.258	95.5
414.482	89.5
414.705	92.5
414.928	91.5
415.151	85.5
415.374	80.5
415.597	93.5
415.821	105.5
416.044	96.5
416.267	94.5
416.49	93.5
416.713	82.5
416.936	77.5
417.159	88.5
417.382	99.5
417.605	75.5
417.828	108.5
418.051	96.5
418.274	90.5
418.497	81.5
418.72	94.5
418.943	96.5
419.166	78.5
419.389	87.5
419.611	87.5
419.834	83.5
420.057	90.5
420.28	82.5
420.503	76.5
420.726	92.5
420.948	78.5
421.171	89.5
421.394	94.5
421.617	84.5
421.839	81.5
422.062	104.5
422.285	89.5
422.507	100.5
422.73	96.5
422.953	95.5
423.175	79.5
423.398	80.5
423.621	90.5
423.843	73.5
424.066	81.5
424.288	95.5
424.511	94.5
424.733	105.5
424.956	86.5
425.178	102.5
425.401	99.5
425.623	104.5
425.846	88.5
426.068	81.5
426.291	89.5
426.513	79.5
426.735	88.5
426.958	87.5
427.18	104.5
427.402	122.5
427.625	160.5
427.847	156.5
428.069	144.5
428.292	100.5
428.514	96.5
428.736	67.5
428.958	108.5
429.181	86.5
429.403	97.5
429.625	90.5
429.847	92.5
430.069	93.5
430.292	77.5
430.514	84.5
430.736	93.5
430.958	100.5
431.18	101.5
431.402	87.5
431.624	92.5
431.846	93.5
432.068	68.5
432.29	96.5
432.512	84.5
432.734	92.5
432.956	77.5
433.178	94.5
433.4	95.5
433.622	83.5
433.844	96.5
434.066	100.5
434.287	90.5
434.509	85.5
434.731	85.5
434.953	81.5
435.175	94.5
435.397	81.5
435.618	93.5
435.84	100.5
436.062	104.5
436.284	116.5
436.505	89.5
436.727	89.5
436.949	99.5
437.17	89.5
437.392	86.5
437.614	89.5
437.835	100.5
438.057	116.5
438.278	107.5
438.5	92.5
438.721	105.5
438.943	88.5
439.165	76.5
439.386	78.5
439.608	73.5
439.829	97.5
440.05	98.5
440.272	132.5
440.493	101.5
440.715	94.5
440.936	79.5
441.158	88.5
441.379	88.5
441.6	85.5
441.822	99.5
442.043	96.5
442.264	84.5
442.486	93.5
442.707	97.5
442.928	96.5
443.149	119.5
443.371	146.5
443.592	95.5
443.813	118.5
444.034	111.5
444.255	88.5
444.476	98.5
444.698	82.5
444.919	73.5
445.14	125.5
445.361	111.5
445.582	111.5
445.803	140.5
446.024	115.5
446.245	130.5
446.466	112.5
446.687	80.5
446.908	84.5
447.129	90.5
447.35	83.5
447.571	93.5
447.792	82.5
448.013	93.5
448.234	100.5
448.455	104.5
448.675	103.5
448.896	111.5
449.117	104.5
449.338	104.5
449.559	111.5
449.779	125.5
450	100.5
450.221	96.5
450.442	80.5
450.662	108.5
450.883	104.5
451.104	98.5
451.324	100.5
451.545	89.5
451.766	78.5
451.986	93.5
452.207	105.5
452.428	100.5
452.648	99.5
452.869	107.5
453.089	107.5
453.31	107.5
453.53	95.5
453.751	90.5
453.971	108.5
454.192	104.5
454.412	94.5
454.633	71.5
454.853	78.5
455.073	97.5
455.294	98.5
455.514	94.5
455.734	88.5
455.955	87.5
456.175	84.5
456.395	93.5
456.616	80.5
456.836	94.5
457.056	77.5
457.276	64.5
457.497	90.5
457.717	92.5
457.937	89.5
458.157	83.5
458.377	90.5
458.598	102.5
458.818	138.5
459.038	151.5
459.258	106.5
459.478	108.5
459.698	77.5
459.918	77.5
460.138	91.5
460.358	69.5
460.578	85.5
460.798	74.5
461.018	86.5
461.238	97.5
461.458	92.5
461.678	90.5
461.898	70.5
462.118	76.5
462.338	83.5
462.558	87.5
462.777	79.5
462.997	90.5
463.217	94.5
463.437	88.5
463.657	81.5
463.876	84.5
464.096	85.5
464.316	93.5
464.536	85.5
464.755	102.5
464.975	98.5
465.195	152.5
465.414	141.5
465.634	107.5
465.854	89.5
466.073	97.5
466.293	80.5
466.512	89.5
466.732	90.5
466.951	93.5
467.171	98.5
467.391	92.5
467.61	102.5
467.829	102.5
468.049	168.5
468.268	184.5
468.488	98.5
468.707	89.5
468.927	100.5
469.146	74.5
469.365	84.5
469.585	80.5
469.804	100.5
470.023	96.5
470.243	87.5
470.462	96.5
470.681	107.5
470.901	80.5
471.12	83.5
471.339	85.5
471.558	95.5
471.777	94.5
471.997	110.5
472.216	261.5
472.435	470.5
472.654	157.5
472.873	112.5
473.092	92.5
473.311	90.5
473.53	90.5
473.749	81.5
473.968	91.5
474.187	93.5
474.406	99.5
474.625	80.5
474.844	81.5
475.063	88.5
475.282	87.5
475.501	82.5
475.72	87.5
475.939	80.5
476.158	96.5
476.377	101.5
476.596	85.5
476.814	85.5
477.033	89.5
477.252	81.5
477.471	107.5
477.69	90.5
477.908	90.5
478.127	87.5
478.346	88.5
478.564	88.5
478.783	85.5
479.002	83.5
479.22	98.5
479.439	102.5
479.658	90.5
479.876	89.5
480.095	95.5
480.313	97.5
480.532	96.5
480.751	121.5
480.969	260.5
481.188	772.5
481.406	477.5
481.624	129.5
481.843	103.5
482.061	93.5
482.28	85.5
482.498	104.5
482.717	82.5
482.935	89.5
483.153	83.5
483.372	86.5
483.59	103.5
483.808	84.5
484.027	93.5
484.245	95.5
484.463	88.5
484.681	110.5
484.9	89.5
485.118	93.5
485.336	84.5
485.554	120.5
485.772	103.5
485.99	104.5
486.209	88.5
486.427	96.5
486.645	116.5
486.863	105.5
487.081	98.5
487.299	91.5
487.517	96.5
487.735	89.5
487.953	103.5
488.171	84.5
488.389	94.5
488.607	90.5
488.825	100.5
489.043	96.5
489.261	86.5
489.479	93.5
489.696	89.5
489.914	77.5
490.132	93.5
490.35	97.5
490.568	86.5
490.786	89.5
491.003	84.5
491.221	82.5
491.439	87.5
491.657	96.5
491.874	81.5
492.092	85.5
492.31	89.5
492.527	95.5
492.745	82.5
492.963	94.5
493.18	99.5
493.398	89.5
493.615	98.5
493.833	87.5
494.05	85.5
494.268	109.5
494.485	94.5
494.703	87.5
494.92	93.5
495.138	92.5
495.355	93.5
495.573	96.5
495.79	94.5
496.008	89.5
496.225	84.5
496.442	80.5
496.66	85.5
496.877	98.5
497.094	94.5
497.312	84.5
497.529	79.5
497.746	89.5
497.963	86.5
498.181	88.5
498.398	93.5
498.615	100.5
498.832	103.5
499.049	94.5
499.267	88.5
499.484	91.5
499.701	89.5
499.918	87.5
500.135	88.5
500.352	73.5
500.569	87.5
500.786	104.5
501.003	84.5
501.22	83.5
501.437	81.5
501.654	102.5
501.871	105.5
502.088	87.5
502.305	101.5
502.522	92.5
502.739	87.5
502.956	78.5
503.172	80.5
503.389	85.5
503.606	92.5
503.823	90.5
504.04	99.5
504.256	97.5
504.473	85.5
504.69	95.5
504.907	105.5
505.123	95.5
505.34	102.5
505.557	105.5
505.773	91.5
505.99	87.5
506.207	89.5
506.423	86.5
506.64	100.5
506.856	84.5
507.073	92.5
507.289	90.5
507.506	96.5
507.722	112.5
507.939	86.5
508.155	99.5
508.372	91.5
508.588	95.5
508.805	82.5
509.021	90.5
509.238	113.5
509.454	101.5
509.67	109.5
509.887	112.5
510.103	135.5
510.319	189.5
510.536	667.5
510.752	2064.5
510.968	612.5
511.184	144.5
511.401	102.5
511.617	97.5
511.833	94.5
512.049	94.5
512.265	95.5
512.481	93.5
512.698	101.5
512.914	88.5
513.13	80.5
513.346	88.5
513.562	73.5
513.778	87.5
513.994	94.5
514.21	96.5
514.426	113.5
514.642	127.5
514.858	121.5
515.074	164.5
515.29	428.5
515.506	1312.5
515.721	481.5
515.937	137.5
516.153	107.5
516.369	100.5
516.585	100.5
516.801	87.5
517.016	93.5
517.232	99.5
517.448	100.5
517.664	93.5
517.879	97.5
518.095	97.5
518.311	94.5
518.527	89.5
518.742	88.5
518.958	86.5
519.173	89.5
519.389	95.5
519.605	90.5
519.82	100.5
520.036	108.5
520.251	118.5
520.467	112.5
520.682	112.5
520.898	106.5
521.113	113.5
521.329	119.5
521.544	199.5
521.76	520.5
521.975	2155.5
522.19	1304.5
522.406	289.5
522.621	128.5
522.836	100.5
523.052	102.5
523.267	104.5
523.482	103.5
523.698	90.5
523.913	92.5
524.128	104.5
524.343	95.5
524.559	93.5
524.774	85.5
524.989	90.5
525.204	90.5
525.419	97.5
525.634	115.5
525.849	84.5
526.064	82.5
526.28	89.5
526.495	86.5
526.71	97.5
526.925	85.5
527.14	80.5
527.355	94.5
527.57	78.5
527.785	92.5
527.999	86.5
528.214	78.5
528.429	89.5
528.644	84.5
528.859	97.5
529.074	87.5
529.289	129.5
529.503	161.5
529.718	107.5
529.933	89.5
530.148	101.5
530.363	82.5
530.577	68.5
530.792	82.5
531.007	106.5
531.221	104.5
531.436	93.5
531.651	90.5
531.865	115.5
532.08	87.5
532.295	86.5
532.509	82.5
532.724	86.5
532.938	106.5
533.153	94.5
533.367	90.5
533.582	84.5
533.796	93.5
534.011	95.5
534.225	82.5
534.44	92.5
534.654	97.5
534.868	95.5
535.083	88.5
535.297	94.5
