Data from Circ_2004_H10_HRD10591_00034.txt Node
Date: Wed Jan 03 10:33:21 EST 2024
User: Yrep
Spectrometer: HR+D1059
Trigger mode: 1
Integration Time (sec): 1.000000E-1
Scans to average: 1
Electric dark correction enabled: true
Nonlinearity correction enabled: false
Boxcar width: 0
XAxis mode: Wavelengths
Number of Pixels in Spectrum: 2048
>>>>>Begin Spectral Data<<<<<
223.165	-16.12
223.4	-16.12
223.635	-16.12
223.869	-24.12
224.104	-23.12
224.338	-15.12
224.573	-3.12
224.808	-0.12
225.042	-6.12
225.277	-4.12
225.511	-6.12
225.746	0.88
225.98	-1.12
226.215	-2.12
226.449	18.88
226.683	25.88
226.918	37.88
227.152	17.88
227.387	35.88
227.621	29.88
227.856	24.88
228.09	43.88
228.324	44.88
228.559	46.88
228.793	43.88
229.027	69.88
229.262	55.88
229.496	63.88
229.73	72.88
229.964	73.88
230.199	74.88
230.433	64.88
230.667	63.88
230.901	80.88
231.136	83.88
231.37	68.88
231.604	65.88
231.838	70.88
232.072	71.88
232.306	78.88
232.541	82.88
232.775	67.88
233.009	82.88
233.243	80.88
233.477	74.88
233.711	85.88
233.945	87.88
234.179	71.88
234.413	79.88
234.647	61.88
234.881	59.88
235.115	69.88
235.349	73.88
235.583	80.88
235.817	84.88
236.051	72.88
236.285	79.88
236.519	78.88
236.753	76.88
236.987	73.88
237.221	65.88
237.455	96.88
237.689	83.88
237.922	71.88
238.156	70.88
238.39	71.88
238.624	80.88
238.858	71.88
239.091	63.88
239.325	75.88
239.559	77.88
239.793	79.88
240.027	46.88
240.26	82.88
240.494	72.88
240.728	71.88
240.961	69.88
241.195	79.88
241.429	88.88
241.662	73.88
241.896	80.88
242.13	69.88
242.363	73.88
242.597	76.88
242.83	71.88
243.064	67.88
243.298	74.88
243.531	81.88
243.765	70.88
243.998	75.88
244.232	77.88
244.465	99.88
244.699	71.88
244.932	66.88
245.166	76.88
245.399	71.88
245.633	71.88
245.866	65.88
246.099	82.88
246.333	67.88
246.566	60.88
246.8	63.88
247.033	85.88
247.266	52.88
247.5	72.88
247.733	72.88
247.966	73.88
248.2	70.88
248.433	62.88
248.666	74.88
248.899	72.88
249.133	77.88
249.366	88.88
249.599	97.88
249.832	82.88
250.066	78.88
250.299	60.88
250.532	70.88
250.765	77.88
250.998	74.88
251.231	77.88
251.465	61.88
251.698	76.88
251.931	77.88
252.164	84.88
252.397	89.88
252.63	68.88
252.863	82.88
253.096	77.88
253.329	83.88
253.562	75.88
253.795	76.88
254.028	63.88
254.261	62.88
254.494	68.88
254.727	73.88
254.96	69.88
255.193	75.88
255.426	73.88
255.659	89.88
255.892	87.88
256.124	79.88
256.357	82.88
256.59	83.88
256.823	67.88
257.056	75.88
257.289	89.88
257.521	73.88
257.754	68.88
257.987	89.88
258.22	79.88
258.452	68.88
258.685	74.88
258.918	67.88
259.151	78.88
259.383	77.88
259.616	78.88
259.849	62.88
260.081	87.88
260.314	58.88
260.547	86.88
260.779	86.88
261.012	80.88
261.244	87.88
261.477	80.88
261.71	97.88
261.942	107.88
262.175	91.88
262.407	88.88
262.64	71.88
262.872	74.88
263.105	65.88
263.337	73.88
263.57	75.88
263.802	71.88
264.035	70.88
264.267	63.88
264.499	57.88
264.732	78.88
264.964	71.88
265.197	80.88
265.429	70.88
265.661	79.88
265.894	74.88
266.126	70.88
266.358	79.88
266.591	60.88
266.823	63.88
267.055	82.88
267.287	76.88
267.52	84.88
267.752	73.88
267.984	82.88
268.216	68.88
268.448	75.88
268.681	71.88
268.913	77.88
269.145	89.88
269.377	83.88
269.609	85.88
269.841	83.88
270.073	71.88
270.306	91.88
270.538	81.88
270.77	78.88
271.002	79.88
271.234	76.88
271.466	85.88
271.698	75.88
271.93	78.88
272.162	77.88
272.394	87.88
272.626	75.88
272.858	69.88
273.09	90.88
273.322	78.88
273.553	80.88
273.785	92.88
274.017	68.88
274.249	61.88
274.481	79.88
274.713	79.88
274.945	91.88
275.176	90.88
275.408	62.88
275.64	76.88
275.872	84.88
276.104	79.88
276.335	85.88
276.567	93.88
276.799	113.88
277.031	95.88
277.262	99.88
277.494	96.88
277.726	83.88
277.957	82.88
278.189	96.88
278.421	77.88
278.652	81.88
278.884	67.88
279.115	73.88
279.347	81.88
279.579	95.88
279.81	84.88
280.042	92.88
280.273	130.88
280.505	95.88
280.736	75.88
280.968	84.88
281.199	81.88
281.431	81.88
281.662	85.88
281.894	88.88
282.125	94.88
282.356	117.88
282.588	133.88
282.819	97.88
283.051	82.88
283.282	75.88
283.513	90.88
283.745	79.88
283.976	76.88
284.207	73.88
284.439	82.88
284.67	77.88
284.901	79.88
285.132	76.88
285.364	85.88
285.595	93.88
285.826	80.88
286.057	80.88
286.288	80.88
286.52	83.88
286.751	72.88
286.982	78.88
287.213	95.88
287.444	72.88
287.675	83.88
287.906	82.88
288.138	92.88
288.369	70.88
288.6	87.88
288.831	76.88
289.062	73.88
289.293	83.88
289.524	80.88
289.755	83.88
289.986	82.88
290.217	83.88
290.448	79.88
290.679	83.88
290.91	85.88
291.141	81.88
291.371	70.88
291.602	83.88
291.833	80.88
292.064	87.88
292.295	85.88
292.526	86.88
292.757	91.88
292.987	78.88
293.218	85.88
293.449	80.88
293.68	92.88
293.91	82.88
294.141	84.88
294.372	86.88
294.603	88.88
294.833	85.88
295.064	77.88
295.295	86.88
295.525	87.88
295.756	85.88
295.987	113.88
296.217	133.88
296.448	108.88
296.679	84.88
296.909	85.88
297.14	76.88
297.37	81.88
297.601	69.88
297.831	80.88
298.062	84.88
298.292	81.88
298.523	83.88
298.753	88.88
298.984	84.88
299.214	90.88
299.445	80.88
299.675	77.88
299.905	83.88
300.136	89.88
300.366	83.88
300.597	77.88
300.827	85.88
301.057	82.88
301.288	107.88
301.518	80.88
301.748	77.88
301.979	92.88
302.209	87.88
302.439	86.88
302.669	78.88
302.9	85.88
303.13	74.88
303.36	79.88
303.59	91.88
303.82	97.88
304.051	93.88
304.281	89.88
304.511	93.88
304.741	84.88
304.971	85.88
305.201	85.88
305.431	80.88
305.661	87.88
305.891	92.88
306.121	86.88
306.352	95.88
306.582	108.88
306.812	86.88
307.042	109.88
307.272	96.88
307.502	106.88
307.731	98.88
307.961	109.88
308.191	85.88
308.421	75.88
308.651	91.88
308.881	80.88
309.111	80.88
309.341	85.88
309.571	98.88
309.8	79.88
310.03	96.88
310.26	91.88
310.49	85.88
310.72	80.88
310.949	94.88
311.179	92.88
311.409	96.88
311.639	104.88
311.868	84.88
312.098	95.88
312.328	73.88
312.557	73.88
312.787	106.88
313.017	98.88
313.246	93.88
313.476	79.88
313.706	84.88
313.935	86.88
314.165	84.88
314.394	105.88
314.624	84.88
314.853	92.88
315.083	94.88
315.312	92.88
315.542	88.88
315.771	81.88
316.001	94.88
316.23	82.88
316.46	76.88
316.689	71.88
316.919	75.88
317.148	90.88
317.377	91.88
317.607	92.88
317.836	96.88
318.065	84.88
318.295	81.88
318.524	83.88
318.753	88.88
318.983	85.88
319.212	92.88
319.441	103.88
319.67	98.88
319.9	87.88
320.129	84.88
320.358	93.88
320.587	103.88
320.816	101.88
321.046	100.88
321.275	89.88
321.504	89.88
321.733	99.88
321.962	92.88
322.191	90.88
322.42	97.88
322.649	102.88
322.878	98.88
323.108	122.88
323.337	123.88
323.566	132.88
323.795	150.88
324.024	222.88
324.253	396.88
324.482	889.88
324.71	1829.88
324.939	2412.88
325.168	868.88
325.397	256.88
325.626	141.88
325.855	127.88
326.084	115.88
326.313	108.88
326.542	145.88
326.77	247.88
326.999	478.88
327.228	1033.88
327.457	1831.88
327.686	1433.88
327.914	417.88
328.143	264.88
328.372	261.88
328.6	185.88
328.829	114.88
329.058	113.88
329.287	125.88
329.515	125.88
329.744	137.88
329.972	203.88
330.201	335.88
330.43	420.88
330.658	260.88
330.887	156.88
331.115	125.88
331.344	94.88
331.572	86.88
331.801	97.88
332.03	92.88
332.258	92.88
332.486	90.88
332.715	83.88
332.943	92.88
333.172	89.88
333.4	109.88
333.629	125.88
333.857	154.88
334.085	197.88
334.314	336.88
334.542	597.88
334.771	541.88
334.999	178.88
335.227	121.88
335.455	93.88
335.684	112.88
335.912	88.88
336.14	82.88
336.369	93.88
336.597	80.88
336.825	92.88
337.053	84.88
337.281	98.88
337.51	98.88
337.738	101.88
337.966	93.88
338.194	89.88
338.422	78.88
338.65	85.88
338.878	95.88
339.106	90.88
339.334	76.88
339.562	88.88
339.79	64.88
340.018	81.88
340.246	84.88
340.474	91.88
340.702	87.88
340.93	79.88
341.158	94.88
341.386	91.88
341.614	104.88
341.842	84.88
342.07	81.88
342.298	88.88
342.526	82.88
342.754	82.88
342.981	92.88
343.209	83.88
343.437	91.88
343.665	92.88
343.893	80.88
344.12	83.88
344.348	62.88
344.576	85.88
344.804	76.88
345.031	87.88
345.259	91.88
345.487	96.88
345.714	84.88
345.942	94.88
346.17	79.88
346.397	77.88
346.625	88.88
346.853	93.88
347.08	96.88
347.308	74.88
347.535	100.88
347.763	90.88
347.99	84.88
348.218	120.88
348.445	103.88
348.673	84.88
348.9	97.88
349.128	91.88
349.355	84.88
349.583	78.88
349.81	93.88
350.037	98.88
350.265	96.88
350.492	90.88
350.72	102.88
350.947	91.88
351.174	95.88
351.402	97.88
351.629	90.88
351.856	97.88
352.083	90.88
352.311	96.88
352.538	97.88
352.765	97.88
352.992	111.88
353.22	96.88
353.447	85.88
353.674	84.88
353.901	88.88
354.128	95.88
354.355	93.88
354.583	90.88
354.81	96.88
355.037	89.88
355.264	88.88
355.491	88.88
355.718	73.88
355.945	82.88
356.172	82.88
356.399	92.88
356.626	107.88
356.853	95.88
357.08	94.88
357.307	81.88
357.534	79.88
357.761	84.88
357.988	99.88
358.215	93.88
358.441	78.88
358.668	85.88
358.895	88.88
359.122	95.88
359.349	91.88
359.576	81.88
359.802	93.88
360.029	101.88
360.256	108.88
360.483	91.88
360.709	79.88
360.936	115.88
361.163	93.88
361.39	97.88
361.616	83.88
361.843	82.88
362.07	91.88
362.296	89.88
362.523	81.88
362.749	88.88
362.976	90.88
363.203	91.88
363.429	79.88
363.656	90.88
363.882	91.88
364.109	93.88
364.335	105.88
364.562	96.88
364.788	97.88
365.015	92.88
365.241	100.88
365.468	95.88
365.694	109.88
365.92	94.88
366.147	94.88
366.373	84.88
366.599	85.88
366.826	83.88
367.052	87.88
367.278	73.88
367.505	93.88
367.731	96.88
367.957	87.88
368.184	75.88
368.41	92.88
368.636	104.88
368.862	110.88
369.089	110.88
369.315	94.88
369.541	81.88
369.767	102.88
369.993	87.88
370.219	84.88
370.445	77.88
370.672	80.88
370.898	92.88
371.124	81.88
371.35	69.88
371.576	82.88
371.802	82.88
372.028	85.88
372.254	80.88
372.48	77.88
372.706	72.88
372.932	73.88
373.158	80.88
373.384	80.88
373.61	80.88
373.835	87.88
374.061	78.88
374.287	93.88
374.513	84.88
374.739	85.88
374.965	82.88
375.191	98.88
375.416	87.88
375.642	91.88
375.868	82.88
376.094	84.88
376.319	97.88
376.545	90.88
376.771	80.88
376.997	91.88
377.222	79.88
377.448	93.88
377.674	80.88
377.899	91.88
378.125	81.88
378.35	87.88
378.576	91.88
378.802	91.88
379.027	88.88
379.253	84.88
379.478	88.88
379.704	90.88
379.929	86.88
380.155	86.88
380.38	97.88
380.606	87.88
380.831	71.88
381.057	94.88
381.282	86.88
381.507	91.88
381.733	84.88
381.958	77.88
382.184	89.88
382.409	84.88
382.634	84.88
382.86	79.88
383.085	103.88
383.31	73.88
383.535	93.88
383.761	107.88
383.986	90.88
384.211	98.88
384.436	100.88
384.662	83.88
384.887	109.88
385.112	76.88
385.337	91.88
385.562	105.88
385.787	101.88
386.013	91.88
386.238	108.88
386.463	105.88
386.688	100.88
386.913	85.88
387.138	88.88
387.363	110.88
387.588	102.88
387.813	98.88
388.038	88.88
388.263	108.88
388.488	119.88
388.713	79.88
388.938	91.88
389.163	93.88
389.387	89.88
389.612	83.88
389.837	92.88
390.062	71.88
390.287	84.88
390.512	95.88
390.736	84.88
390.961	65.88
391.186	84.88
391.411	81.88
391.636	91.88
391.86	79.88
392.085	89.88
392.31	99.88
392.534	84.88
392.759	84.88
392.984	84.88
393.208	82.88
393.433	89.88
393.658	81.88
393.882	92.88
394.107	80.88
394.331	79.88
394.556	69.88
394.78	83.88
395.005	72.88
395.229	76.88
395.454	75.88
395.678	68.88
395.903	78.88
396.127	82.88
396.352	79.88
396.576	74.88
396.801	92.88
397.025	83.88
397.249	102.88
397.474	78.88
397.698	82.88
397.922	70.88
398.147	84.88
398.371	86.88
398.595	76.88
398.82	90.88
399.044	77.88
399.268	72.88
399.492	80.88
399.717	88.88
399.941	81.88
400.165	97.88
400.389	92.88
400.613	75.88
400.837	90.88
401.062	83.88
401.286	90.88
401.51	73.88
401.734	84.88
401.958	95.88
402.182	124.88
402.406	152.88
402.63	105.88
402.854	90.88
403.078	76.88
403.302	76.88
403.526	77.88
403.75	88.88
403.974	78.88
404.198	76.88
404.422	90.88
404.645	92.88
404.869	70.88
405.093	91.88
405.317	114.88
405.541	107.88
405.765	96.88
405.988	106.88
406.212	154.88
406.436	226.88
406.66	147.88
406.883	80.88
407.107	101.88
407.331	90.88
407.555	104.88
407.778	96.88
408.002	93.88
408.226	81.88
408.449	109.88
408.673	93.88
408.896	83.88
409.12	101.88
409.344	77.88
409.567	88.88
409.791	95.88
410.014	82.88
410.238	85.88
410.461	89.88
410.685	90.88
410.908	89.88
411.132	99.88
411.355	103.88
411.578	85.88
411.802	89.88
412.025	94.88
412.249	90.88
412.472	96.88
412.695	124.88
412.919	98.88
413.142	90.88
413.365	93.88
413.589	94.88
413.812	90.88
414.035	102.88
414.258	95.88
414.482	101.88
414.705	81.88
414.928	87.88
415.151	87.88
415.374	93.88
415.597	79.88
415.821	96.88
416.044	81.88
416.267	75.88
416.49	85.88
416.713	81.88
416.936	87.88
417.159	89.88
417.382	90.88
417.605	87.88
417.828	90.88
418.051	86.88
418.274	88.88
418.497	94.88
418.72	91.88
418.943	88.88
419.166	84.88
419.389	99.88
419.611	85.88
419.834	82.88
420.057	91.88
420.28	85.88
420.503	73.88
420.726	82.88
420.948	78.88
421.171	88.88
421.394	96.88
421.617	83.88
421.839	90.88
422.062	81.88
422.285	76.88
422.507	90.88
422.73	94.88
422.953	97.88
423.175	79.88
423.398	83.88
423.621	75.88
423.843	72.88
424.066	98.88
424.288	79.88
424.511	91.88
424.733	95.88
424.956	98.88
425.178	97.88
425.401	111.88
425.623	92.88
425.846	71.88
426.068	77.88
426.291	90.88
426.513	74.88
426.735	79.88
426.958	114.88
427.18	103.88
427.402	149.88
427.625	181.88
427.847	167.88
428.069	152.88
428.292	99.88
428.514	84.88
428.736	74.88
428.958	98.88
429.181	75.88
429.403	65.88
429.625	79.88
429.847	93.88
430.069	94.88
430.292	94.88
430.514	81.88
430.736	66.88
430.958	97.88
431.18	76.88
431.402	74.88
431.624	88.88
431.846	69.88
432.068	71.88
432.29	81.88
432.512	102.88
432.734	96.88
432.956	95.88
433.178	88.88
433.4	107.88
433.622	102.88
433.844	85.88
434.066	77.88
434.287	82.88
434.509	98.88
434.731	96.88
434.953	92.88
435.175	94.88
435.397	84.88
435.618	75.88
435.84	99.88
436.062	124.88
436.284	97.88
436.505	97.88
436.727	93.88
436.949	89.88
437.17	83.88
437.392	76.88
437.614	89.88
437.835	105.88
438.057	122.88
438.278	107.88
438.5	115.88
438.721	130.88
438.943	95.88
439.165	75.88
439.386	71.88
439.608	72.88
439.829	98.88
440.05	121.88
440.272	133.88
440.493	107.88
440.715	71.88
440.936	69.88
441.158	79.88
441.379	79.88
441.6	90.88
441.822	89.88
442.043	88.88
442.264	90.88
442.486	93.88
442.707	94.88
442.928	107.88
443.149	123.88
443.371	118.88
443.592	115.88
443.813	109.88
444.034	112.88
444.255	77.88
444.476	87.88
444.698	105.88
444.919	81.88
445.14	114.88
445.361	122.88
445.582	105.88
445.803	132.88
446.024	126.88
446.245	130.88
446.466	99.88
446.687	85.88
446.908	82.88
447.129	85.88
447.35	76.88
447.571	77.88
447.792	84.88
448.013	92.88
448.234	104.88
448.455	106.88
448.675	111.88
448.896	92.88
449.117	93.88
449.338	98.88
449.559	133.88
449.779	119.88
450	97.88
450.221	83.88
450.442	82.88
450.662	76.88
450.883	101.88
451.104	107.88
451.324	84.88
451.545	84.88
451.766	88.88
451.986	72.88
452.207	81.88
452.428	105.88
452.648	74.88
452.869	98.88
453.089	120.88
453.31	117.88
453.53	87.88
453.751	100.88
453.971	97.88
454.192	97.88
454.412	103.88
454.633	94.88
454.853	73.88
455.073	81.88
455.294	91.88
455.514	87.88
455.734	94.88
455.955	89.88
456.175	89.88
456.395	78.88
456.616	80.88
456.836	75.88
457.056	80.88
457.276	85.88
457.497	86.88
457.717	70.88
457.937	79.88
458.157	83.88
458.377	89.88
458.598	101.88
458.818	141.88
459.038	154.88
459.258	111.88
459.478	86.88
459.698	82.88
459.918	96.88
460.138	69.88
460.358	87.88
460.578	88.88
460.798	100.88
461.018	79.88
461.238	77.88
461.458	77.88
461.678	79.88
461.898	80.88
462.118	73.88
462.338	74.88
462.558	89.88
462.777	71.88
462.997	80.88
463.217	94.88
463.437	81.88
463.657	85.88
463.876	103.88
464.096	98.88
464.316	89.88
464.536	105.88
464.755	111.88
464.975	103.88
465.195	171.88
465.414	172.88
465.634	97.88
465.854	89.88
466.073	80.88
466.293	86.88
466.512	82.88
466.732	71.88
466.951	93.88
467.171	94.88
467.391	96.88
467.61	98.88
467.829	123.88
468.049	219.88
468.268	264.88
468.488	109.88
468.707	81.88
468.927	97.88
469.146	78.88
469.365	81.88
469.585	81.88
469.804	91.88
470.023	94.88
470.243	75.88
470.462	89.88
470.681	98.88
470.901	94.88
471.12	84.88
471.339	95.88
471.558	103.88
471.777	94.88
471.997	140.88
472.216	405.88
472.435	755.88
472.654	236.88
472.873	100.88
473.092	91.88
473.311	74.88
473.53	83.88
473.749	84.88
473.968	91.88
474.187	103.88
474.406	83.88
474.625	75.88
474.844	81.88
475.063	71.88
475.282	74.88
475.501	92.88
475.72	85.88
475.939	69.88
476.158	76.88
476.377	84.88
476.596	96.88
476.814	93.88
477.033	89.88
477.252	91.88
477.471	91.88
477.69	74.88
477.908	94.88
478.127	92.88
478.346	80.88
478.564	89.88
478.783	102.88
479.002	96.88
479.22	89.88
479.439	93.88
479.658	97.88
479.876	95.88
480.095	89.88
480.313	95.88
480.532	116.88
480.751	147.88
480.969	391.88
481.188	1347.88
481.406	815.88
481.624	164.88
481.843	107.88
482.061	82.88
482.28	85.88
482.498	84.88
482.717	82.88
482.935	95.88
483.153	84.88
483.372	74.88
483.59	85.88
483.808	83.88
484.027	88.88
484.245	79.88
484.463	80.88
484.681	84.88
484.9	89.88
485.118	80.88
485.336	92.88
485.554	93.88
485.772	95.88
485.99	92.88
486.209	104.88
486.427	83.88
486.645	100.88
486.863	98.88
487.081	87.88
487.299	103.88
487.517	94.88
487.735	96.88
487.953	77.88
488.171	86.88
488.389	81.88
488.607	93.88
488.825	94.88
489.043	78.88
489.261	81.88
489.479	81.88
489.696	80.88
489.914	78.88
490.132	97.88
490.35	90.88
490.568	80.88
490.786	97.88
491.003	80.88
491.221	84.88
491.439	89.88
491.657	95.88
491.874	81.88
492.092	93.88
492.31	99.88
492.527	84.88
492.745	88.88
492.963	102.88
493.18	84.88
493.398	93.88
493.615	95.88
493.833	106.88
494.05	81.88
494.268	94.88
494.485	64.88
494.703	73.88
494.92	81.88
495.138	77.88
495.355	94.88
495.573	86.88
495.79	78.88
496.008	93.88
496.225	67.88
496.442	80.88
496.66	89.88
496.877	90.88
497.094	88.88
497.312	72.88
497.529	79.88
497.746	78.88
497.963	83.88
498.181	89.88
498.398	74.88
498.615	91.88
498.832	98.88
499.049	85.88
499.267	90.88
499.484	97.88
499.701	76.88
499.918	87.88
500.135	85.88
500.352	95.88
500.569	91.88
500.786	81.88
501.003	85.88
501.22	84.88
501.437	86.88
501.654	94.88
501.871	92.88
502.088	105.88
502.305	95.88
502.522	85.88
502.739	107.88
502.956	88.88
503.172	79.88
503.389	96.88
503.606	104.88
503.823	80.88
504.04	84.88
504.256	85.88
504.473	83.88
504.69	88.88
504.907	87.88
505.123	89.88
505.34	86.88
505.557	75.88
505.773	85.88
505.99	103.88
506.207	73.88
506.423	82.88
506.64	77.88
506.856	83.88
507.073	82.88
507.289	87.88
507.506	99.88
507.722	115.88
507.939	95.88
508.155	80.88
508.372	74.88
508.588	88.88
508.805	84.88
509.021	88.88
509.238	89.88
509.454	95.88
509.67	107.88
509.887	105.88
510.103	118.88
510.319	191.88
510.536	703.88
510.752	2257.88
510.968	646.88
511.184	156.88
511.401	111.88
511.617	91.88
511.833	90.88
512.049	85.88
512.265	89.88
512.481	87.88
512.698	88.88
512.914	84.88
513.13	94.88
513.346	75.88
513.562	89.88
513.778	99.88
513.994	98.88
514.21	99.88
514.426	105.88
514.642	126.88
514.858	112.88
515.074	175.88
515.29	468.88
515.506	1508.88
515.721	564.88
515.937	146.88
516.153	108.88
516.369	98.88
516.585	93.88
516.801	92.88
517.016	83.88
