Data from Circ_2004_H10_HRD10591_00049.txt Node
Date: Wed Jan 03 10:33:24 EST 2024
User: Yrep
Spectrometer: HR+D1059
Trigger mode: 1
Integration Time (sec): 1.000000E-1
Scans to average: 1
Electric dark correction enabled: true
Nonlinearity correction enabled: false
Boxcar width: 0
XAxis mode: Wavelengths
Number of Pixels in Spectrum: 2048
>>>>>Begin Spectral Data<<<<<
223.165	-27.19
223.4	-27.19
223.635	-27.19
223.869	-19.19
224.104	-9.19
224.338	-15.19
224.573	-15.19
224.808	-9.19
225.042	-1.19
225.277	-8.19
225.511	-5.19
225.746	-2.19
225.98	5.81
226.215	7.81
226.449	17.81
226.683	29.81
226.918	27.81
227.152	22.81
227.387	31.81
227.621	48.81
227.856	48.81
228.09	56.81
228.324	43.81
228.559	44.81
228.793	57.81
229.027	73.81
229.262	68.81
229.496	81.81
229.73	78.81
229.964	76.81
230.199	73.81
230.433	72.81
230.667	78.81
230.901	66.81
231.136	81.81
231.37	74.81
231.604	82.81
231.838	87.81
232.072	80.81
232.306	78.81
232.541	65.81
232.775	80.81
233.009	76.81
233.243	90.81
233.477	77.81
233.711	77.81
233.945	75.81
234.179	64.81
234.413	79.81
234.647	81.81
234.881	77.81
235.115	85.81
235.349	81.81
235.583	72.81
235.817	68.81
236.051	97.81
236.285	68.81
236.519	85.81
236.753	90.81
236.987	84.81
237.221	94.81
237.455	79.81
237.689	78.81
237.922	69.81
238.156	70.81
238.39	81.81
238.624	81.81
238.858	71.81
239.091	79.81
239.325	81.81
239.559	88.81
239.793	75.81
240.027	86.81
240.26	91.81
240.494	70.81
240.728	80.81
240.961	79.81
241.195	72.81
241.429	84.81
241.662	87.81
241.896	83.81
242.13	85.81
242.363	83.81
242.597	79.81
242.83	77.81
243.064	80.81
243.298	87.81
243.531	76.81
243.765	87.81
243.998	86.81
244.232	73.81
244.465	90.81
244.699	84.81
244.932	81.81
245.166	78.81
245.399	80.81
245.633	59.81
245.866	86.81
246.099	69.81
246.333	97.81
246.566	78.81
246.8	75.81
247.033	72.81
247.266	76.81
247.5	72.81
247.733	65.81
247.966	85.81
248.2	81.81
248.433	83.81
248.666	76.81
248.899	87.81
249.133	89.81
249.366	86.81
249.599	95.81
249.832	88.81
250.066	85.81
250.299	87.81
250.532	82.81
250.765	72.81
250.998	83.81
251.231	82.81
251.465	88.81
251.698	85.81
251.931	82.81
252.164	92.81
252.397	84.81
252.63	86.81
252.863	79.81
253.096	93.81
253.329	91.81
253.562	72.81
253.795	71.81
254.028	85.81
254.261	81.81
254.494	85.81
254.727	77.81
254.96	77.81
255.193	84.81
255.426	96.81
255.659	73.81
255.892	84.81
256.124	76.81
256.357	62.81
256.59	68.81
256.823	78.81
257.056	81.81
257.289	93.81
257.521	85.81
257.754	71.81
257.987	73.81
258.22	93.81
258.452	86.81
258.685	105.81
258.918	96.81
259.151	74.81
259.383	80.81
259.616	80.81
259.849	86.81
260.081	86.81
260.314	81.81
260.547	77.81
260.779	88.81
261.012	90.81
261.244	81.81
261.477	87.81
261.71	94.81
261.942	114.81
262.175	114.81
262.407	97.81
262.64	95.81
262.872	90.81
263.105	88.81
263.337	70.81
263.57	82.81
263.802	72.81
264.035	82.81
264.267	84.81
264.499	90.81
264.732	85.81
264.964	75.81
265.197	73.81
265.429	71.81
265.661	73.81
265.894	80.81
266.126	78.81
266.358	79.81
266.591	77.81
266.823	91.81
267.055	85.81
267.287	79.81
267.52	84.81
267.752	75.81
267.984	100.81
268.216	86.81
268.448	101.81
268.681	94.81
268.913	72.81
269.145	81.81
269.377	86.81
269.609	66.81
269.841	110.81
270.073	84.81
270.306	86.81
270.538	74.81
270.77	78.81
271.002	86.81
271.234	87.81
271.466	78.81
271.698	82.81
271.93	83.81
272.162	89.81
272.394	93.81
272.626	85.81
272.858	81.81
273.09	78.81
273.322	79.81
273.553	87.81
273.785	73.81
274.017	68.81
274.249	89.81
274.481	96.81
274.713	83.81
274.945	88.81
275.176	86.81
275.408	75.81
275.64	100.81
275.872	100.81
276.104	93.81
276.335	82.81
276.567	90.81
276.799	99.81
277.031	107.81
277.262	111.81
277.494	110.81
277.726	87.81
277.957	90.81
278.189	94.81
278.421	90.81
278.652	94.81
278.884	79.81
279.115	81.81
279.347	76.81
279.579	89.81
279.81	91.81
280.042	106.81
280.273	122.81
280.505	104.81
280.736	85.81
280.968	78.81
281.199	93.81
281.431	96.81
281.662	79.81
281.894	86.81
282.125	87.81
282.356	106.81
282.588	124.81
282.819	120.81
283.051	91.81
283.282	77.81
283.513	91.81
283.745	79.81
283.976	85.81
284.207	83.81
284.439	96.81
284.67	97.81
284.901	96.81
285.132	89.81
285.364	70.81
285.595	86.81
285.826	85.81
286.057	89.81
286.288	84.81
286.52	90.81
286.751	74.81
286.982	89.81
287.213	86.81
287.444	81.81
287.675	83.81
287.906	78.81
288.138	78.81
288.369	96.81
288.6	88.81
288.831	77.81
289.062	79.81
289.293	81.81
289.524	89.81
289.755	80.81
289.986	84.81
290.217	73.81
290.448	82.81
290.679	96.81
290.91	87.81
291.141	83.81
291.371	84.81
291.602	86.81
291.833	87.81
292.064	96.81
292.295	87.81
292.526	89.81
292.757	83.81
292.987	82.81
293.218	83.81
293.449	71.81
293.68	87.81
293.91	95.81
294.141	93.81
294.372	84.81
294.603	81.81
294.833	93.81
295.064	96.81
295.295	93.81
295.525	75.81
295.756	94.81
295.987	112.81
296.217	119.81
296.448	118.81
296.679	96.81
296.909	85.81
297.14	89.81
297.37	102.81
297.601	89.81
297.831	80.81
298.062	98.81
298.292	101.81
298.523	97.81
298.753	101.81
298.984	90.81
299.214	86.81
299.445	88.81
299.675	105.81
299.905	97.81
300.136	81.81
300.366	96.81
300.597	84.81
300.827	89.81
301.057	109.81
301.288	85.81
301.518	94.81
301.748	84.81
301.979	106.81
302.209	89.81
302.439	90.81
302.669	88.81
302.9	85.81
303.13	78.81
303.36	95.81
303.59	96.81
303.82	121.81
304.051	96.81
304.281	94.81
304.511	89.81
304.741	85.81
304.971	86.81
305.201	86.81
305.431	95.81
305.661	98.81
305.891	80.81
306.121	93.81
306.352	86.81
306.582	104.81
306.812	91.81
307.042	118.81
307.272	105.81
307.502	101.81
307.731	102.81
307.961	99.81
308.191	101.81
308.421	105.81
308.651	86.81
308.881	89.81
309.111	84.81
309.341	98.81
309.571	98.81
309.8	86.81
310.03	81.81
310.26	100.81
310.49	92.81
310.72	113.81
310.949	94.81
311.179	96.81
311.409	82.81
311.639	80.81
311.868	91.81
312.098	98.81
312.328	108.81
312.557	108.81
312.787	90.81
313.017	90.81
313.246	97.81
313.476	77.81
313.706	91.81
313.935	82.81
314.165	98.81
314.394	94.81
314.624	104.81
314.853	94.81
315.083	79.81
315.312	88.81
315.542	105.81
315.771	79.81
316.001	94.81
316.23	104.81
316.46	89.81
316.689	98.81
316.919	100.81
317.148	109.81
317.377	102.81
317.607	90.81
317.836	98.81
318.065	85.81
318.295	99.81
318.524	93.81
318.753	77.81
318.983	92.81
319.212	86.81
319.441	110.81
319.67	98.81
319.9	92.81
320.129	90.81
320.358	89.81
320.587	98.81
320.816	113.81
321.046	91.81
321.275	84.81
321.504	95.81
321.733	94.81
321.962	101.81
322.191	96.81
322.42	116.81
322.649	102.81
322.878	116.81
323.108	135.81
323.337	129.81
323.566	127.81
323.795	141.81
324.024	232.81
324.253	407.81
324.482	857.81
324.71	1782.81
324.939	2391.81
325.168	838.81
325.397	229.81
325.626	161.81
325.855	141.81
326.084	125.81
326.313	139.81
326.542	149.81
326.77	233.81
326.999	458.81
327.228	981.81
327.457	1792.81
327.686	1464.81
327.914	392.81
328.143	264.81
328.372	264.81
328.6	199.81
328.829	129.81
329.058	134.81
329.287	129.81
329.515	120.81
329.744	151.81
329.972	209.81
330.201	360.81
330.43	476.81
330.658	255.81
330.887	168.81
331.115	135.81
331.344	113.81
331.572	97.81
331.801	111.81
332.03	108.81
332.258	89.81
332.486	95.81
332.715	100.81
332.943	83.81
333.172	101.81
333.4	103.81
333.629	121.81
333.857	149.81
334.085	206.81
334.314	342.81
334.542	564.81
334.771	557.81
334.999	188.81
335.227	94.81
335.455	107.81
335.684	104.81
335.912	90.81
336.14	104.81
336.369	96.81
336.597	98.81
336.825	100.81
337.053	103.81
337.281	82.81
337.51	72.81
337.738	92.81
337.966	88.81
338.194	101.81
338.422	88.81
338.65	93.81
338.878	87.81
339.106	94.81
339.334	99.81
339.562	90.81
339.79	93.81
340.018	109.81
340.246	79.81
340.474	85.81
340.702	90.81
340.93	84.81
341.158	97.81
341.386	96.81
341.614	86.81
341.842	93.81
342.07	91.81
342.298	77.81
342.526	90.81
342.754	80.81
342.981	94.81
343.209	100.81
343.437	124.81
343.665	89.81
343.893	106.81
344.12	98.81
344.348	98.81
344.576	93.81
344.804	89.81
345.031	99.81
345.259	87.81
345.487	95.81
345.714	100.81
345.942	88.81
346.17	93.81
346.397	100.81
346.625	78.81
346.853	92.81
347.08	86.81
347.308	107.81
347.535	98.81
347.763	95.81
347.99	98.81
348.218	96.81
348.445	110.81
348.673	98.81
348.9	92.81
349.128	90.81
349.355	101.81
349.583	92.81
349.81	95.81
350.037	90.81
350.265	93.81
350.492	103.81
350.72	92.81
350.947	103.81
351.174	105.81
351.402	116.81
351.629	102.81
351.856	92.81
352.083	97.81
352.311	101.81
352.538	97.81
352.765	98.81
352.992	105.81
353.22	101.81
353.447	116.81
353.674	106.81
353.901	89.81
354.128	112.81
354.355	94.81
354.583	95.81
354.81	101.81
355.037	98.81
355.264	103.81
355.491	90.81
355.718	95.81
355.945	105.81
356.172	83.81
356.399	100.81
356.626	89.81
356.853	93.81
357.08	101.81
357.307	85.81
357.534	92.81
357.761	78.81
357.988	85.81
358.215	79.81
358.441	101.81
358.668	100.81
358.895	96.81
359.122	80.81
359.349	92.81
359.576	88.81
359.802	103.81
360.029	106.81
360.256	115.81
360.483	108.81
360.709	100.81
360.936	89.81
361.163	96.81
361.39	108.81
361.616	95.81
361.843	92.81
362.07	101.81
362.296	102.81
362.523	79.81
362.749	91.81
362.976	104.81
363.203	89.81
363.429	86.81
363.656	97.81
363.882	84.81
364.109	98.81
364.335	96.81
364.562	88.81
364.788	96.81
365.015	94.81
365.241	105.81
365.468	94.81
365.694	99.81
365.92	108.81
366.147	84.81
366.373	80.81
366.599	89.81
366.826	97.81
367.052	98.81
367.278	89.81
367.505	73.81
367.731	96.81
367.957	82.81
368.184	86.81
368.41	93.81
368.636	114.81
368.862	117.81
369.089	102.81
369.315	111.81
369.541	104.81
369.767	80.81
369.993	92.81
370.219	89.81
370.445	84.81
370.672	95.81
370.898	87.81
371.124	84.81
371.35	104.81
371.576	91.81
371.802	85.81
372.028	73.81
372.254	94.81
372.48	89.81
372.706	88.81
372.932	89.81
373.158	109.81
373.384	85.81
373.61	102.81
373.835	99.81
374.061	84.81
374.287	75.81
374.513	90.81
374.739	95.81
374.965	94.81
375.191	97.81
375.416	82.81
375.642	90.81
375.868	90.81
376.094	101.81
376.319	81.81
376.545	99.81
376.771	89.81
376.997	80.81
377.222	95.81
377.448	101.81
377.674	90.81
377.899	91.81
378.125	100.81
378.35	97.81
378.576	90.81
378.802	82.81
379.027	82.81
379.253	103.81
379.478	94.81
379.704	83.81
379.929	79.81
380.155	87.81
380.38	94.81
380.606	101.81
380.831	96.81
381.057	111.81
381.282	99.81
381.507	99.81
381.733	93.81
381.958	100.81
382.184	108.81
382.409	89.81
382.634	97.81
382.86	110.81
383.085	99.81
383.31	109.81
383.535	98.81
383.761	98.81
383.986	85.81
384.211	89.81
384.436	96.81
384.662	93.81
384.887	101.81
385.112	97.81
385.337	101.81
385.562	96.81
385.787	98.81
386.013	102.81
386.238	113.81
386.463	97.81
386.688	96.81
386.913	87.81
387.138	94.81
387.363	93.81
387.588	82.81
387.813	95.81
388.038	92.81
388.263	100.81
388.488	94.81
388.713	94.81
388.938	113.81
389.163	104.81
389.387	98.81
389.612	112.81
389.837	90.81
390.062	85.81
390.287	92.81
390.512	95.81
390.736	99.81
390.961	81.81
391.186	88.81
391.411	97.81
391.636	96.81
391.86	89.81
392.085	90.81
392.31	102.81
392.534	81.81
392.759	93.81
392.984	96.81
393.208	99.81
393.433	84.81
393.658	81.81
393.882	87.81
394.107	88.81
394.331	82.81
394.556	92.81
394.78	80.81
395.005	88.81
395.229	77.81
395.454	84.81
395.678	80.81
395.903	88.81
396.127	88.81
396.352	86.81
396.576	93.81
396.801	93.81
397.025	88.81
397.249	97.81
397.474	96.81
397.698	89.81
397.922	87.81
398.147	88.81
398.371	87.81
398.595	87.81
398.82	86.81
399.044	89.81
399.268	78.81
399.492	87.81
399.717	94.81
399.941	98.81
400.165	103.81
400.389	80.81
400.613	88.81
400.837	90.81
401.062	93.81
401.286	100.81
401.51	91.81
401.734	99.81
401.958	98.81
402.182	135.81
402.406	171.81
402.63	122.81
402.854	88.81
403.078	88.81
403.302	82.81
403.526	80.81
403.75	80.81
403.974	82.81
404.198	92.81
404.422	85.81
404.645	102.81
404.869	98.81
405.093	113.81
405.317	102.81
405.541	108.81
405.765	107.81
405.988	111.81
406.212	172.81
406.436	210.81
406.66	158.81
406.883	101.81
407.107	91.81
407.331	96.81
407.555	96.81
407.778	100.81
408.002	86.81
408.226	88.81
408.449	93.81
408.673	94.81
408.896	98.81
409.12	98.81
409.344	87.81
409.567	93.81
409.791	102.81
410.014	89.81
410.238	92.81
410.461	89.81
410.685	80.81
410.908	98.81
411.132	117.81
411.355	98.81
411.578	87.81
411.802	88.81
412.025	85.81
412.249	101.81
412.472	110.81
412.695	97.81
412.919	103.81
413.142	88.81
413.365	87.81
413.589	94.81
413.812	85.81
414.035	89.81
414.258	90.81
414.482	97.81
414.705	90.81
414.928	80.81
415.151	107.81
415.374	85.81
415.597	88.81
415.821	84.81
416.044	86.81
416.267	86.81
416.49	92.81
416.713	91.81
416.936	96.81
417.159	88.81
417.382	92.81
417.605	96.81
417.828	85.81
418.051	102.81
418.274	85.81
418.497	98.81
418.72	92.81
418.943	87.81
419.166	94.81
419.389	96.81
419.611	104.81
419.834	80.81
420.057	99.81
420.28	89.81
420.503	94.81
420.726	100.81
420.948	88.81
421.171	86.81
421.394	81.81
421.617	102.81
421.839	94.81
422.062	92.81
422.285	81.81
422.507	89.81
422.73	89.81
422.953	100.81
423.175	98.81
423.398	87.81
423.621	92.81
423.843	94.81
424.066	77.81
424.288	97.81
424.511	87.81
424.733	95.81
424.956	106.81
425.178	96.81
425.401	111.81
425.623	99.81
425.846	101.81
426.068	103.81
426.291	75.81
426.513	102.81
426.735	83.81
426.958	100.81
427.18	109.81
427.402	146.81
427.625	190.81
427.847	160.81
428.069	154.81
428.292	116.81
428.514	90.81
428.736	88.81
428.958	87.81
429.181	82.81
429.403	83.81
429.625	87.81
429.847	96.81
430.069	95.81
430.292	85.81
430.514	87.81
430.736	84.81
430.958	88.81
431.18	93.81
431.402	104.81
431.624	76.81
431.846	85.81
432.068	88.81
432.29	86.81
432.512	82.81
432.734	88.81
432.956	78.81
433.178	104.81
433.4	97.81
433.622	101.81
433.844	85.81
434.066	85.81
434.287	96.81
434.509	86.81
434.731	89.81
434.953	77.81
435.175	89.81
435.397	85.81
435.618	77.81
435.84	94.81
436.062	105.81
436.284	120.81
436.505	103.81
436.727	84.81
436.949	103.81
437.17	88.81
437.392	96.81
437.614	91.81
437.835	96.81
438.057	110.81
438.278	105.81
438.5	92.81
438.721	132.81
438.943	117.81
439.165	89.81
439.386	105.81
439.608	94.81
439.829	98.81
440.05	135.81
440.272	133.81
440.493	101.81
440.715	97.81
440.936	96.81
441.158	105.81
441.379	108.81
441.6	93.81
441.822	96.81
442.043	90.81
442.264	112.81
442.486	99.81
442.707	93.81
442.928	99.81
443.149	131.81
443.371	136.81
443.592	98.81
443.813	113.81
444.034	103.81
444.255	93.81
444.476	88.81
444.698	101.81
444.919	101.81
445.14	127.81
445.361	124.81
445.582	112.81
445.803	151.81
446.024	146.81
446.245	135.81
446.466	115.81
446.687	82.81
446.908	84.81
447.129	79.81
447.35	81.81
447.571	87.81
447.792	101.81
448.013	105.81
448.234	106.81
448.455	91.81
448.675	103.81
448.896	125.81
449.117	104.81
449.338	113.81
449.559	132.81
449.779	132.81
450	93.81
450.221	89.81
450.442	86.81
450.662	104.81
450.883	111.81
451.104	122.81
451.324	86.81
451.545	94.81
451.766	91.81
451.986	80.81
452.207	86.81
452.428	80.81
452.648	110.81
452.869	109.81
453.089	116.81
453.31	109.81
453.53	90.81
453.751	98.81
453.971	102.81
454.192	105.81
454.412	93.81
454.633	84.81
454.853	81.81
455.073	111.81
455.294	95.81
455.514	91.81
455.734	90.81
455.955	76.81
456.175	75.81
456.395	75.81
456.616	76.81
456.836	92.81
457.056	83.81
457.276	93.81
457.497	87.81
457.717	79.81
457.937	81.81
458.157	86.81
458.377	100.81
458.598	125.81
458.818	132.81
459.038	166.81
459.258	120.81
459.478	92.81
459.698	96.81
459.918	84.81
460.138	82.81
460.358	84.81
460.578	86.81
460.798	99.81
461.018	92.81
461.238	82.81
461.458	92.81
461.678	77.81
461.898	91.81
462.118	101.81
462.338	82.81
462.558	90.81
462.777	85.81
462.997	83.81
463.217	80.81
463.437	85.81
463.657	88.81
463.876	91.81
464.096	91.81
464.316	99.81
464.536	94.81
464.755	86.81
464.975	108.81
465.195	166.81
465.414	154.81
465.634	91.81
465.854	88.81
466.073	84.81
466.293	92.81
466.512	83.81
466.732	82.81
466.951	90.81
467.171	88.81
467.391	100.81
467.61	131.81
467.829	126.81
468.049	237.81
468.268	305.81
468.488	131.81
468.707	100.81
468.927	80.81
469.146	97.81
469.365	101.81
469.585	98.81
469.804	95.81
470.023	109.81
470.243	85.81
470.462	92.81
470.681	113.81
470.901	105.81
471.12	85.81
471.339	88.81
471.558	106.81
471.777	108.81
471.997	152.81
472.216	374.81
472.435	812.81
472.654	237.81
472.873	101.81
473.092	105.81
473.311	81.81
473.53	86.81
473.749	83.81
473.968	90.81
474.187	96.81
474.406	111.81
474.625	87.81
474.844	93.81
475.063	88.81
475.282	98.81
475.501	86.81
475.72	80.81
475.939	89.81
476.158	90.81
476.377	90.81
476.596	77.81
476.814	85.81
477.033	98.81
477.252	83.81
477.471	81.81
477.69	83.81
477.908	72.81
478.127	98.81
478.346	91.81
478.564	89.81
478.783	104.81
479.002	94.81
479.22	95.81
479.439	99.81
479.658	116.81
479.876	92.81
480.095	109.81
480.313	109.81
480.532	110.81
480.751	167.81
480.969	383.81
481.188	1357.81
481.406	862.81
481.624	188.81
481.843	99.81
482.061	98.81
482.28	90.81
482.498	104.81
482.717	100.81
482.935	100.81
483.153	96.81
483.372	93.81
483.59	97.81
483.808	85.81
484.027	101.81
484.245	89.81
484.463	94.81
484.681	88.81
484.9	89.81
485.118	107.81
485.336	96.81
485.554	98.81
485.772	90.81
485.99	100.81
486.209	100.81
486.427	110.81
486.645	108.81
486.863	101.81
487.081	108.81
487.299	94.81
487.517	93.81
487.735	93.81
487.953	89.81
488.171	101.81
488.389	85.81
488.607	113.81
488.825	99.81
489.043	92.81
489.261	105.81
489.479	97.81
489.696	77.81
489.914	90.81
490.132	92.81
490.35	97.81
490.568	86.81
490.786	83.81
491.003	95.81
491.221	78.81
491.439	82.81
491.657	102.81
491.874	93.81
492.092	79.81
492.31	93.81
492.527	80.81
492.745	91.81
492.963	90.81
493.18	108.81
493.398	89.81
493.615	89.81
493.833	89.81
494.05	86.81
494.268	87.81
494.485	96.81
494.703	93.81
494.92	87.81
495.138	74.81
495.355	92.81
495.573	92.81
495.79	90.81
496.008	102.81
496.225	97.81
496.442	105.81
496.66	97.81
496.877	98.81
497.094	88.81
497.312	85.81
497.529	88.81
497.746	81.81
497.963	89.81
498.181	85.81
498.398	89.81
498.615	97.81
498.832	93.81
499.049	97.81
499.267	86.81
499.484	93.81
499.701	87.81
499.918	88.81
500.135	99.81
500.352	80.81
500.569	83.81
500.786	71.81
501.003	93.81
501.22	81.81
501.437	86.81
501.654	94.81
501.871	101.81
502.088	92.81
502.305	96.81
502.522	84.81
502.739	95.81
502.956	85.81
503.172	88.81
503.389	105.81
503.606	105.81
503.823	98.81
504.04	100.81
504.256	97.81
504.473	98.81
504.69	96.81
504.907	89.81
505.123	90.81
505.34	83.81
505.557	100.81
505.773	87.81
505.99	89.81
506.207	90.81
506.423	83.81
506.64	101.81
506.856	96.81
507.073	85.81
507.289	92.81
507.506	97.81
507.722	110.81
507.939	116.81
508.155	96.81
508.372	98.81
508.588	93.81
508.805	96.81
509.021	102.81
509.238	113.81
509.454	105.81
509.67	88.81
509.887	96.81
510.103	121.81
510.319	205.81
510.536	695.81
510.752	2118.81
510.968	620.81
511.184	137.81
511.401	106.81
511.617	107.81
511.833	92.81
512.049	93.81
512.265	79.81
512.481	102.81
512.698	96.81
512.914	96.81
513.13	84.81
513.346	93.81
513.562	90.81
513.778	103.81
513.994	90.81
514.21	87.81
514.426	112.81
514.642	138.81
514.858	132.81
515.074	178.81
515.29	463.81
