Data from Circ_2004_H10_HRD10591_00005.txt Node
Date: Wed Jan 03 10:33:15 EST 2024
User: Yrep
Spectrometer: HR+D1059
Trigger mode: 1
Integration Time (sec): 1.000000E-1
Scans to average: 1
Electric dark correction enabled: true
Nonlinearity correction enabled: false
Boxcar width: 0
XAxis mode: Wavelengths
Number of Pixels in Spectrum: 2048
>>>>>Begin Spectral Data<<<<<
223.165	-18.69
223.4	-18.69
223.635	-18.69
223.869	-17.69
224.104	-31.69
224.338	-22.69
224.573	-17.69
224.808	-28.69
225.042	-6.69
225.277	6.31
225.511	-0.69
225.746	4.31
225.98	10.31
226.215	16.31
226.449	32.31
226.683	24.31
226.918	18.31
227.152	32.31
227.387	41.31
227.621	28.31
227.856	42.31
228.09	62.31
228.324	53.31
228.559	55.31
228.793	75.31
229.027	69.31
229.262	74.31
229.496	68.31
229.73	89.31
229.964	69.31
230.199	80.31
230.433	74.31
230.667	81.31
230.901	91.31
231.136	68.31
231.37	82.31
231.604	81.31
231.838	79.31
232.072	82.31
232.306	92.31
232.541	78.31
232.775	88.31
233.009	72.31
233.243	76.31
233.477	96.31
233.711	75.31
233.945	78.31
234.179	86.31
234.413	79.31
234.647	86.31
234.881	77.31
235.115	81.31
235.349	87.31
235.583	72.31
235.817	94.31
236.051	83.31
236.285	90.31
236.519	75.31
236.753	74.31
236.987	77.31
237.221	86.31
237.455	89.31
237.689	78.31
237.922	79.31
238.156	79.31
238.39	76.31
238.624	86.31
238.858	87.31
239.091	85.31
239.325	84.31
239.559	85.31
239.793	72.31
240.027	85.31
240.26	87.31
240.494	76.31
240.728	75.31
240.961	87.31
241.195	88.31
241.429	69.31
241.662	74.31
241.896	85.31
242.13	89.31
242.363	77.31
242.597	74.31
242.83	81.31
243.064	70.31
243.298	88.31
243.531	83.31
243.765	79.31
243.998	79.31
244.232	93.31
244.465	82.31
244.699	80.31
244.932	90.31
245.166	75.31
245.399	82.31
245.633	84.31
245.866	89.31
246.099	85.31
246.333	84.31
246.566	85.31
246.8	98.31
247.033	76.31
247.266	82.31
247.5	89.31
247.733	86.31
247.966	68.31
248.2	79.31
248.433	90.31
248.666	84.31
248.899	81.31
249.133	94.31
249.366	93.31
249.599	88.31
249.832	95.31
250.066	91.31
250.299	80.31
250.532	83.31
250.765	79.31
250.998	80.31
251.231	73.31
251.465	95.31
251.698	85.31
251.931	84.31
252.164	80.31
252.397	93.31
252.63	86.31
252.863	84.31
253.096	85.31
253.329	81.31
253.562	85.31
253.795	81.31
254.028	74.31
254.261	64.31
254.494	83.31
254.727	85.31
254.96	81.31
255.193	69.31
255.426	84.31
255.659	91.31
255.892	78.31
256.124	72.31
256.357	80.31
256.59	80.31
256.823	74.31
257.056	74.31
257.289	79.31
257.521	89.31
257.754	69.31
257.987	82.31
258.22	90.31
258.452	74.31
258.685	89.31
258.918	83.31
259.151	102.31
259.383	75.31
259.616	79.31
259.849	83.31
260.081	89.31
260.314	86.31
260.547	73.31
260.779	89.31
261.012	87.31
261.244	95.31
261.477	88.31
261.71	79.31
261.942	104.31
262.175	110.31
262.407	77.31
262.64	85.31
262.872	76.31
263.105	88.31
263.337	84.31
263.57	85.31
263.802	89.31
264.035	76.31
264.267	77.31
264.499	84.31
264.732	72.31
264.964	92.31
265.197	90.31
265.429	78.31
265.661	72.31
265.894	82.31
266.126	83.31
266.358	84.31
266.591	85.31
266.823	89.31
267.055	79.31
267.287	89.31
267.52	92.31
267.752	97.31
267.984	94.31
268.216	85.31
268.448	71.31
268.681	83.31
268.913	100.31
269.145	97.31
269.377	95.31
269.609	83.31
269.841	86.31
270.073	96.31
270.306	70.31
270.538	71.31
270.77	89.31
271.002	83.31
271.234	86.31
271.466	83.31
271.698	89.31
271.93	78.31
272.162	81.31
272.394	94.31
272.626	73.31
272.858	81.31
273.09	74.31
273.322	99.31
273.553	80.31
273.785	92.31
274.017	82.31
274.249	83.31
274.481	88.31
274.713	84.31
274.945	91.31
275.176	82.31
275.408	83.31
275.64	98.31
275.872	91.31
276.104	78.31
276.335	88.31
276.567	83.31
276.799	99.31
277.031	90.31
277.262	91.31
277.494	113.31
277.726	93.31
277.957	89.31
278.189	89.31
278.421	83.31
278.652	94.31
278.884	104.31
279.115	85.31
279.347	91.31
279.579	92.31
279.81	83.31
280.042	84.31
280.273	87.31
280.505	89.31
280.736	66.31
280.968	82.31
281.199	89.31
281.431	78.31
281.662	102.31
281.894	77.31
282.125	97.31
282.356	104.31
282.588	126.31
282.819	104.31
283.051	93.31
283.282	91.31
283.513	100.31
283.745	96.31
283.976	89.31
284.207	79.31
284.439	89.31
284.67	87.31
284.901	83.31
285.132	99.31
285.364	64.31
285.595	70.31
285.826	83.31
286.057	78.31
286.288	100.31
286.52	103.31
286.751	73.31
286.982	80.31
287.213	82.31
287.444	95.31
287.675	82.31
287.906	99.31
288.138	80.31
288.369	95.31
288.6	91.31
288.831	75.31
289.062	87.31
289.293	109.31
289.524	97.31
289.755	96.31
289.986	71.31
290.217	85.31
290.448	87.31
290.679	76.31
290.91	89.31
291.141	82.31
291.371	71.31
291.602	90.31
291.833	95.31
292.064	91.31
292.295	91.31
292.526	95.31
292.757	91.31
292.987	86.31
293.218	88.31
293.449	82.31
293.68	94.31
293.91	80.31
294.141	100.31
294.372	96.31
294.603	91.31
294.833	86.31
295.064	77.31
295.295	92.31
295.525	95.31
295.756	96.31
295.987	95.31
296.217	129.31
296.448	110.31
296.679	78.31
296.909	87.31
297.14	89.31
297.37	101.31
297.601	96.31
297.831	88.31
298.062	81.31
298.292	92.31
298.523	84.31
298.753	83.31
298.984	84.31
299.214	91.31
299.445	85.31
299.675	110.31
299.905	105.31
300.136	93.31
300.366	82.31
300.597	86.31
300.827	85.31
301.057	90.31
301.288	100.31
301.518	75.31
301.748	90.31
301.979	100.31
302.209	98.31
302.439	87.31
302.669	83.31
302.9	92.31
303.13	97.31
303.36	92.31
303.59	103.31
303.82	106.31
304.051	113.31
304.281	94.31
304.511	102.31
304.741	96.31
304.971	81.31
305.201	97.31
305.431	92.31
305.661	97.31
305.891	95.31
306.121	106.31
306.352	95.31
306.582	107.31
306.812	91.31
307.042	114.31
307.272	109.31
307.502	98.31
307.731	100.31
307.961	83.31
308.191	94.31
308.421	84.31
308.651	83.31
308.881	109.31
309.111	93.31
309.341	92.31
309.571	98.31
309.8	99.31
310.03	98.31
310.26	100.31
310.49	108.31
310.72	88.31
310.949	96.31
311.179	91.31
311.409	95.31
311.639	92.31
311.868	100.31
312.098	102.31
312.328	88.31
312.557	104.31
312.787	102.31
313.017	97.31
313.246	102.31
313.476	91.31
313.706	90.31
313.935	95.31
314.165	86.31
314.394	83.31
314.624	95.31
314.853	105.31
315.083	105.31
315.312	100.31
315.542	91.31
315.771	92.31
316.001	88.31
316.23	99.31
316.46	95.31
316.689	89.31
316.919	97.31
317.148	96.31
317.377	89.31
317.607	100.31
317.836	84.31
318.065	90.31
318.295	92.31
318.524	93.31
318.753	92.31
318.983	84.31
319.212	88.31
319.441	100.31
319.67	105.31
319.9	81.31
320.129	98.31
320.358	97.31
320.587	91.31
320.816	84.31
321.046	106.31
321.275	103.31
321.504	92.31
321.733	90.31
321.962	94.31
322.191	95.31
322.42	97.31
322.649	111.31
322.878	108.31
323.108	102.31
323.337	109.31
323.566	117.31
323.795	115.31
324.024	176.31
324.253	324.31
324.482	662.31
324.71	1326.31
324.939	1769.31
325.168	670.31
325.397	199.31
325.626	128.31
325.855	111.31
326.084	115.31
326.313	114.31
326.542	132.31
326.77	184.31
326.999	404.31
327.228	768.31
327.457	1386.31
327.686	1090.31
327.914	330.31
328.143	189.31
328.372	162.31
328.6	118.31
328.829	110.31
329.058	113.31
329.287	132.31
329.515	111.31
329.744	104.31
329.972	120.31
330.201	168.31
330.43	175.31
330.658	144.31
330.887	127.31
331.115	110.31
331.344	92.31
331.572	98.31
331.801	94.31
332.03	98.31
332.258	106.31
332.486	104.31
332.715	93.31
332.943	100.31
333.172	100.31
333.4	95.31
333.629	98.31
333.857	107.31
334.085	119.31
334.314	149.31
334.542	229.31
334.771	210.31
334.999	132.31
335.227	91.31
335.455	102.31
335.684	89.31
335.912	102.31
336.14	111.31
336.369	97.31
336.597	94.31
336.825	100.31
337.053	87.31
337.281	88.31
337.51	83.31
337.738	90.31
337.966	83.31
338.194	87.31
338.422	81.31
338.65	95.31
338.878	92.31
339.106	92.31
339.334	101.31
339.562	83.31
339.79	84.31
340.018	92.31
340.246	87.31
340.474	89.31
340.702	91.31
340.93	82.31
341.158	86.31
341.386	86.31
341.614	97.31
341.842	83.31
342.07	94.31
342.298	98.31
342.526	90.31
342.754	84.31
342.981	91.31
343.209	86.31
343.437	86.31
343.665	85.31
343.893	91.31
344.12	86.31
344.348	89.31
344.576	94.31
344.804	86.31
345.031	98.31
345.259	102.31
345.487	98.31
345.714	105.31
345.942	90.31
346.17	98.31
346.397	98.31
346.625	86.31
346.853	96.31
347.08	99.31
347.308	75.31
347.535	98.31
347.763	98.31
347.99	95.31
348.218	110.31
348.445	107.31
348.673	104.31
348.9	88.31
349.128	79.31
349.355	86.31
349.583	94.31
349.81	101.31
350.037	82.31
350.265	92.31
350.492	113.31
350.72	97.31
350.947	101.31
351.174	108.31
351.402	106.31
351.629	96.31
351.856	110.31
352.083	104.31
352.311	104.31
352.538	97.31
352.765	103.31
352.992	112.31
353.22	99.31
353.447	102.31
353.674	111.31
353.901	95.31
354.128	97.31
354.355	104.31
354.583	94.31
354.81	88.31
355.037	87.31
355.264	88.31
355.491	98.31
355.718	92.31
355.945	87.31
356.172	109.31
356.399	90.31
356.626	108.31
356.853	103.31
357.08	91.31
357.307	100.31
357.534	81.31
357.761	94.31
357.988	101.31
358.215	108.31
358.441	84.31
358.668	100.31
358.895	91.31
359.122	100.31
359.349	91.31
359.576	91.31
359.802	117.31
360.029	116.31
360.256	110.31
360.483	81.31
360.709	97.31
360.936	94.31
361.163	86.31
361.39	90.31
361.616	85.31
361.843	89.31
362.07	96.31
362.296	91.31
362.523	90.31
362.749	83.31
362.976	113.31
363.203	102.31
363.429	98.31
363.656	95.31
363.882	95.31
364.109	95.31
364.335	87.31
364.562	81.31
364.788	76.31
365.015	99.31
365.241	98.31
365.468	113.31
365.694	91.31
365.92	91.31
366.147	92.31
366.373	95.31
366.599	92.31
366.826	71.31
367.052	74.31
367.278	111.31
367.505	85.31
367.731	84.31
367.957	79.31
368.184	91.31
368.41	111.31
368.636	105.31
368.862	107.31
369.089	86.31
369.315	97.31
369.541	90.31
369.767	102.31
369.993	87.31
370.219	103.31
370.445	91.31
370.672	84.31
370.898	86.31
371.124	86.31
371.35	83.31
371.576	99.31
371.802	82.31
372.028	81.31
372.254	91.31
372.48	83.31
372.706	81.31
372.932	104.31
373.158	103.31
373.384	102.31
373.61	95.31
373.835	95.31
374.061	92.31
374.287	97.31
374.513	104.31
374.739	94.31
374.965	81.31
375.191	97.31
375.416	92.31
375.642	99.31
375.868	94.31
376.094	88.31
376.319	99.31
376.545	86.31
376.771	95.31
376.997	81.31
377.222	94.31
377.448	99.31
377.674	83.31
377.899	79.31
378.125	92.31
378.35	95.31
378.576	96.31
378.802	103.31
379.027	92.31
379.253	79.31
379.478	88.31
379.704	96.31
379.929	97.31
380.155	97.31
380.38	90.31
380.606	95.31
380.831	101.31
381.057	97.31
381.282	97.31
381.507	106.31
381.733	107.31
381.958	95.31
382.184	118.31
382.409	96.31
382.634	99.31
382.86	99.31
383.085	99.31
383.31	101.31
383.535	105.31
383.761	101.31
383.986	107.31
384.211	102.31
384.436	107.31
384.662	96.31
384.887	110.31
385.112	119.31
385.337	106.31
385.562	111.31
385.787	119.31
386.013	109.31
386.238	131.31
386.463	116.31
386.688	113.31
386.913	130.31
387.138	121.31
387.363	121.31
387.588	96.31
387.813	117.31
388.038	113.31
388.263	119.31
388.488	107.31
388.713	106.31
388.938	98.31
389.163	83.31
389.387	105.31
389.612	91.31
389.837	87.31
390.062	95.31
390.287	90.31
390.512	106.31
390.736	93.31
390.961	85.31
391.186	85.31
391.411	96.31
391.636	100.31
391.86	99.31
392.085	96.31
392.31	91.31
392.534	74.31
392.759	92.31
392.984	110.31
393.208	89.31
393.433	89.31
393.658	106.31
393.882	75.31
394.107	94.31
394.331	76.31
394.556	84.31
394.78	86.31
395.005	82.31
395.229	83.31
395.454	96.31
395.678	85.31
395.903	97.31
396.127	103.31
396.352	83.31
396.576	89.31
396.801	86.31
397.025	102.31
397.249	100.31
397.474	106.31
397.698	73.31
397.922	76.31
398.147	92.31
398.371	79.31
398.595	103.31
398.82	74.31
399.044	84.31
399.268	85.31
399.492	84.31
399.717	98.31
399.941	102.31
400.165	83.31
400.389	86.31
400.613	79.31
400.837	94.31
401.062	87.31
401.286	83.31
401.51	80.31
401.734	88.31
401.958	95.31
402.182	120.31
402.406	125.31
402.63	104.31
402.854	84.31
403.078	92.31
403.302	100.31
403.526	87.31
403.75	90.31
403.974	83.31
404.198	101.31
404.422	83.31
404.645	88.31
404.869	88.31
405.093	95.31
405.317	109.31
405.541	99.31
405.765	92.31
405.988	119.31
406.212	138.31
406.436	192.31
406.66	129.31
406.883	85.31
407.107	94.31
407.331	90.31
407.555	97.31
407.778	99.31
408.002	76.31
408.226	87.31
408.449	94.31
408.673	88.31
408.896	94.31
409.12	87.31
409.344	86.31
409.567	85.31
409.791	90.31
410.014	92.31
410.238	88.31
410.461	100.31
410.685	83.31
410.908	108.31
411.132	113.31
411.355	101.31
411.578	93.31
411.802	83.31
412.025	81.31
412.249	76.31
412.472	94.31
412.695	108.31
412.919	98.31
413.142	101.31
413.365	83.31
413.589	93.31
413.812	89.31
414.035	81.31
414.258	97.31
414.482	91.31
414.705	88.31
414.928	89.31
415.151	96.31
415.374	94.31
415.597	103.31
415.821	99.31
416.044	89.31
416.267	74.31
416.49	97.31
416.713	93.31
416.936	98.31
417.159	87.31
417.382	92.31
417.605	90.31
417.828	100.31
418.051	103.31
418.274	99.31
418.497	76.31
418.72	82.31
418.943	78.31
419.166	105.31
419.389	105.31
419.611	94.31
419.834	99.31
420.057	97.31
420.28	79.31
420.503	83.31
420.726	92.31
420.948	95.31
421.171	97.31
421.394	86.31
421.617	102.31
421.839	96.31
422.062	91.31
422.285	92.31
422.507	100.31
422.73	105.31
422.953	110.31
423.175	91.31
423.398	89.31
423.621	89.31
423.843	97.31
424.066	85.31
424.288	89.31
424.511	75.31
424.733	94.31
424.956	89.31
425.178	92.31
425.401	92.31
425.623	99.31
425.846	99.31
426.068	85.31
426.291	91.31
426.513	87.31
426.735	94.31
426.958	101.31
427.18	93.31
427.402	116.31
427.625	150.31
427.847	125.31
428.069	130.31
428.292	95.31
428.514	90.31
428.736	80.31
428.958	83.31
429.181	87.31
429.403	101.31
429.625	87.31
429.847	92.31
430.069	109.31
430.292	95.31
430.514	84.31
430.736	98.31
430.958	82.31
431.18	68.31
431.402	78.31
431.624	92.31
431.846	82.31
432.068	95.31
432.29	97.31
432.512	102.31
432.734	88.31
432.956	102.31
433.178	90.31
433.4	100.31
433.622	98.31
433.844	100.31
434.066	100.31
434.287	93.31
434.509	95.31
434.731	83.31
434.953	80.31
435.175	88.31
435.397	92.31
435.618	105.31
435.84	92.31
436.062	114.31
436.284	105.31
436.505	96.31
436.727	95.31
436.949	108.31
437.17	82.31
437.392	89.31
437.614	96.31
437.835	118.31
438.057	119.31
438.278	106.31
438.5	89.31
438.721	113.31
438.943	98.31
439.165	78.31
439.386	79.31
439.608	101.31
439.829	100.31
440.05	105.31
440.272	126.31
440.493	96.31
440.715	92.31
440.936	80.31
441.158	83.31
441.379	82.31
441.6	82.31
441.822	94.31
442.043	94.31
442.264	94.31
442.486	98.31
442.707	92.31
442.928	102.31
443.149	113.31
443.371	118.31
443.592	119.31
443.813	100.31
444.034	91.31
444.255	96.31
444.476	79.31
444.698	91.31
444.919	88.31
445.14	114.31
445.361	115.31
445.582	112.31
445.803	124.31
446.024	122.31
446.245	113.31
446.466	100.31
446.687	97.31
446.908	90.31
447.129	94.31
447.35	76.31
447.571	72.31
447.792	106.31
448.013	92.31
448.234	113.31
448.455	91.31
448.675	101.31
448.896	106.31
449.117	92.31
449.338	110.31
449.559	102.31
449.779	118.31
450	101.31
450.221	59.31
450.442	83.31
450.662	98.31
450.883	112.31
451.104	113.31
451.324	89.31
451.545	82.31
451.766	87.31
451.986	96.31
452.207	99.31
452.428	91.31
452.648	93.31
452.869	113.31
453.089	103.31
453.31	119.31
453.53	98.31
453.751	83.31
453.971	93.31
454.192	84.31
454.412	96.31
454.633	86.31
454.853	80.31
455.073	81.31
455.294	95.31
455.514	96.31
455.734	103.31
455.955	91.31
456.175	86.31
456.395	85.31
456.616	85.31
456.836	89.31
457.056	95.31
457.276	86.31
457.497	89.31
457.717	86.31
457.937	101.31
458.157	90.31
458.377	98.31
458.598	105.31
458.818	135.31
459.038	131.31
459.258	116.31
459.478	96.31
459.698	91.31
459.918	91.31
460.138	92.31
460.358	90.31
460.578	95.31
460.798	97.31
461.018	81.31
461.238	88.31
461.458	89.31
461.678	92.31
461.898	85.31
462.118	85.31
462.338	87.31
462.558	91.31
462.777	91.31
462.997	92.31
463.217	90.31
463.437	91.31
463.657	72.31
463.876	97.31
464.096	95.31
464.316	96.31
464.536	88.31
464.755	104.31
464.975	102.31
465.195	152.31
465.414	130.31
465.634	78.31
465.854	96.31
466.073	91.31
466.293	74.31
466.512	83.31
466.732	94.31
466.951	80.31
467.171	88.31
467.391	95.31
467.61	98.31
467.829	116.31
468.049	134.31
468.268	154.31
468.488	82.31
468.707	95.31
468.927	88.31
469.146	77.31
469.365	94.31
469.585	83.31
469.804	97.31
470.023	102.31
470.243	92.31
470.462	97.31
470.681	114.31
470.901	94.31
471.12	84.31
471.339	97.31
471.558	91.31
471.777	96.31
471.997	108.31
472.216	192.31
472.435	302.31
472.654	147.31
472.873	104.31
473.092	87.31
473.311	96.31
473.53	92.31
473.749	87.31
473.968	95.31
474.187	94.31
474.406	87.31
474.625	84.31
474.844	93.31
475.063	90.31
475.282	85.31
475.501	100.31
475.72	93.31
475.939	82.31
476.158	86.31
476.377	90.31
476.596	84.31
476.814	78.31
477.033	91.31
477.252	78.31
477.471	88.31
477.69	100.31
477.908	84.31
478.127	104.31
478.346	91.31
478.564	89.31
478.783	96.31
479.002	92.31
479.22	96.31
479.439	98.31
479.658	89.31
479.876	88.31
480.095	99.31
480.313	96.31
480.532	112.31
480.751	103.31
480.969	166.31
481.188	465.31
481.406	313.31
481.624	116.31
481.843	94.31
482.061	92.31
482.28	99.31
482.498	101.31
482.717	98.31
482.935	98.31
483.153	87.31
483.372	87.31
483.59	106.31
483.808	99.31
484.027	96.31
484.245	95.31
484.463	96.31
484.681	99.31
484.9	96.31
485.118	103.31
485.336	101.31
485.554	114.31
485.772	111.31
485.99	101.31
486.209	102.31
486.427	85.31
486.645	105.31
486.863	102.31
487.081	109.31
487.299	97.31
487.517	103.31
487.735	83.31
487.953	98.31
488.171	88.31
488.389	94.31
488.607	100.31
488.825	97.31
489.043	86.31
489.261	92.31
489.479	90.31
489.696	83.31
489.914	71.31
490.132	92.31
490.35	86.31
490.568	84.31
490.786	91.31
491.003	87.31
491.221	111.31
491.439	107.31
491.657	78.31
491.874	86.31
492.092	92.31
492.31	95.31
492.527	79.31
492.745	96.31
492.963	90.31
493.18	87.31
493.398	88.31
493.615	93.31
493.833	91.31
494.05	70.31
494.268	79.31
494.485	94.31
494.703	94.31
494.92	99.31
495.138	97.31
495.355	102.31
495.573	96.31
495.79	87.31
496.008	90.31
496.225	80.31
496.442	92.31
496.66	94.31
496.877	102.31
497.094	91.31
497.312	97.31
497.529	78.31
497.746	90.31
497.963	98.31
498.181	76.31
498.398	95.31
498.615	105.31
498.832	93.31
499.049	86.31
499.267	89.31
499.484	107.31
499.701	82.31
499.918	83.31
500.135	93.31
500.352	82.31
500.569	87.31
500.786	92.31
501.003	77.31
501.22	94.31
501.437	102.31
501.654	97.31
501.871	95.31
502.088	74.31
502.305	102.31
502.522	89.31
502.739	96.31
502.956	81.31
503.172	82.31
503.389	98.31
503.606	96.31
503.823	79.31
504.04	92.31
504.256	103.31
504.473	95.31
504.69	86.31
504.907	90.31
505.123	88.31
505.34	82.31
505.557	90.31
505.773	88.31
505.99	83.31
506.207	100.31
506.423	91.31
506.64	95.31
506.856	97.31
507.073	98.31
507.289	98.31
507.506	110.31
507.722	102.31
507.939	102.31
508.155	92.31
508.372	84.31
508.588	98.31
508.805	97.31
509.021	86.31
509.238	99.31
509.454	96.31
509.67	103.31
509.887	92.31
510.103	121.31
510.319	180.31
510.536	583.31
510.752	1712.31
510.968	504.31
511.184	116.31
511.401	101.31
511.617	97.31
511.833	98.31
512.049	92.31
512.265	83.31
512.481	81.31
512.698	92.31
512.914	99.31
513.13	97.31
513.346	83.31
513.562	104.31
513.778	90.31
513.994	88.31
514.21	88.31
514.426	117.31
514.642	123.31
514.858	110.31
515.074	142.31
515.29	358.31
515.506	1058.31
