Data from Circ_2004_H10_HRD10591_00077.txt Node
Date: Wed Jan 03 10:33:29 EST 2024
User: Yrep
Spectrometer: HR+D1059
Trigger mode: 1
Integration Time (sec): 1.000000E-1
Scans to average: 1
Electric dark correction enabled: true
Nonlinearity correction enabled: false
Boxcar width: 0
XAxis mode: Wavelengths
Number of Pixels in Spectrum: 2048
>>>>>Begin Spectral Data<<<<<
223.165	-20.94
223.4	-20.94
223.635	-20.94
223.869	-24.94
224.104	-20.94
224.338	-19.94
224.573	-17.94
224.808	-11.94
225.042	-5.94
225.277	-2.94
225.511	-10.94
225.746	8.06
225.98	18.06
226.215	20.06
226.449	8.06
226.683	24.06
226.918	36.06
227.152	22.06
227.387	28.06
227.621	34.06
227.856	53.06
228.09	45.06
228.324	40.06
228.559	44.06
228.793	51.06
229.027	69.06
229.262	58.06
229.496	75.06
229.73	95.06
229.964	78.06
230.199	86.06
230.433	86.06
230.667	67.06
230.901	84.06
231.136	71.06
231.37	68.06
231.604	75.06
231.838	71.06
232.072	86.06
232.306	99.06
232.541	75.06
232.775	83.06
233.009	77.06
233.243	70.06
233.477	60.06
233.711	78.06
233.945	67.06
234.179	81.06
234.413	71.06
234.647	96.06
234.881	71.06
235.115	78.06
235.349	71.06
235.583	73.06
235.817	74.06
236.051	84.06
236.285	75.06
236.519	84.06
236.753	84.06
236.987	82.06
237.221	106.06
237.455	84.06
237.689	68.06
237.922	63.06
238.156	73.06
238.39	79.06
238.624	76.06
238.858	85.06
239.091	74.06
239.325	70.06
239.559	82.06
239.793	75.06
240.027	85.06
240.26	76.06
240.494	68.06
240.728	83.06
240.961	65.06
241.195	81.06
241.429	68.06
241.662	67.06
241.896	83.06
242.13	65.06
242.363	73.06
242.597	71.06
242.83	69.06
243.064	69.06
243.298	86.06
243.531	75.06
243.765	87.06
243.998	77.06
244.232	71.06
244.465	88.06
244.699	85.06
244.932	86.06
245.166	87.06
245.399	70.06
245.633	69.06
245.866	70.06
246.099	88.06
246.333	76.06
246.566	78.06
246.8	81.06
247.033	75.06
247.266	75.06
247.5	89.06
247.733	76.06
247.966	92.06
248.2	82.06
248.433	76.06
248.666	69.06
248.899	75.06
249.133	86.06
249.366	108.06
249.599	106.06
249.832	78.06
250.066	92.06
250.299	82.06
250.532	97.06
250.765	98.06
250.998	66.06
251.231	74.06
251.465	88.06
251.698	77.06
251.931	85.06
252.164	75.06
252.397	83.06
252.63	83.06
252.863	94.06
253.096	82.06
253.329	83.06
253.562	75.06
253.795	71.06
254.028	84.06
254.261	87.06
254.494	79.06
254.727	87.06
254.96	72.06
255.193	66.06
255.426	69.06
255.659	91.06
255.892	99.06
256.124	82.06
256.357	77.06
256.59	85.06
256.823	84.06
257.056	83.06
257.289	91.06
257.521	90.06
257.754	92.06
257.987	67.06
258.22	88.06
258.452	90.06
258.685	85.06
258.918	80.06
259.151	88.06
259.383	89.06
259.616	68.06
259.849	72.06
260.081	87.06
260.314	79.06
260.547	84.06
260.779	88.06
261.012	81.06
261.244	91.06
261.477	98.06
261.71	87.06
261.942	118.06
262.175	117.06
262.407	87.06
262.64	90.06
262.872	82.06
263.105	102.06
263.337	106.06
263.57	91.06
263.802	88.06
264.035	77.06
264.267	75.06
264.499	68.06
264.732	84.06
264.964	82.06
265.197	91.06
265.429	81.06
265.661	82.06
265.894	80.06
266.126	73.06
266.358	95.06
266.591	109.06
266.823	87.06
267.055	80.06
267.287	91.06
267.52	78.06
267.752	89.06
267.984	87.06
268.216	80.06
268.448	83.06
268.681	94.06
268.913	86.06
269.145	75.06
269.377	77.06
269.609	77.06
269.841	72.06
270.073	78.06
270.306	83.06
270.538	91.06
270.77	75.06
271.002	93.06
271.234	84.06
271.466	93.06
271.698	77.06
271.93	82.06
272.162	87.06
272.394	87.06
272.626	88.06
272.858	76.06
273.09	92.06
273.322	89.06
273.553	85.06
273.785	85.06
274.017	82.06
274.249	78.06
274.481	88.06
274.713	91.06
274.945	91.06
275.176	82.06
275.408	80.06
275.64	95.06
275.872	108.06
276.104	90.06
276.335	102.06
276.567	106.06
276.799	141.06
277.031	118.06
277.262	146.06
277.494	119.06
277.726	99.06
277.957	92.06
278.189	107.06
278.421	86.06
278.652	96.06
278.884	87.06
279.115	89.06
279.347	95.06
279.579	91.06
279.81	100.06
280.042	153.06
280.273	202.06
280.505	131.06
280.736	100.06
280.968	83.06
281.199	84.06
281.431	81.06
281.662	78.06
281.894	103.06
282.125	91.06
282.356	119.06
282.588	136.06
282.819	122.06
283.051	85.06
283.282	82.06
283.513	80.06
283.745	83.06
283.976	75.06
284.207	79.06
284.439	72.06
284.67	95.06
284.901	88.06
285.132	109.06
285.364	75.06
285.595	75.06
285.826	86.06
286.057	87.06
286.288	82.06
286.52	72.06
286.751	83.06
286.982	81.06
287.213	92.06
287.444	89.06
287.675	83.06
287.906	98.06
288.138	101.06
288.369	94.06
288.6	83.06
288.831	90.06
289.062	93.06
289.293	91.06
289.524	88.06
289.755	74.06
289.986	77.06
290.217	79.06
290.448	79.06
290.679	84.06
290.91	78.06
291.141	80.06
291.371	81.06
291.602	95.06
291.833	88.06
292.064	91.06
292.295	85.06
292.526	92.06
292.757	101.06
292.987	77.06
293.218	88.06
293.449	91.06
293.68	80.06
293.91	86.06
294.141	88.06
294.372	92.06
294.603	92.06
294.833	94.06
295.064	95.06
295.295	92.06
295.525	83.06
295.756	111.06
295.987	113.06
296.217	156.06
296.448	131.06
296.679	102.06
296.909	95.06
297.14	94.06
297.37	95.06
297.601	80.06
297.831	83.06
298.062	85.06
298.292	83.06
298.523	98.06
298.753	90.06
298.984	91.06
299.214	96.06
299.445	87.06
299.675	90.06
299.905	90.06
300.136	80.06
300.366	82.06
300.597	93.06
300.827	97.06
301.057	94.06
301.288	99.06
301.518	85.06
301.748	85.06
301.979	112.06
302.209	98.06
302.439	87.06
302.669	88.06
302.9	74.06
303.13	84.06
303.36	101.06
303.59	114.06
303.82	120.06
304.051	87.06
304.281	85.06
304.511	74.06
304.741	72.06
304.971	97.06
305.201	84.06
305.431	84.06
305.661	87.06
305.891	94.06
306.121	98.06
306.352	91.06
306.582	98.06
306.812	100.06
307.042	110.06
307.272	125.06
307.502	148.06
307.731	122.06
307.961	104.06
308.191	78.06
308.421	94.06
308.651	85.06
308.881	98.06
309.111	79.06
309.341	90.06
309.571	89.06
309.8	96.06
310.03	91.06
310.26	112.06
310.49	84.06
310.72	102.06
310.949	107.06
311.179	103.06
311.409	87.06
311.639	97.06
311.868	99.06
312.098	86.06
312.328	94.06
312.557	108.06
312.787	101.06
313.017	106.06
313.246	98.06
313.476	92.06
313.706	92.06
313.935	94.06
314.165	99.06
314.394	114.06
314.624	82.06
314.853	102.06
315.083	100.06
315.312	92.06
315.542	80.06
315.771	95.06
316.001	96.06
316.23	99.06
316.46	87.06
316.689	84.06
316.919	86.06
317.148	90.06
317.377	96.06
317.607	91.06
317.836	78.06
318.065	93.06
318.295	88.06
318.524	94.06
318.753	96.06
318.983	100.06
319.212	111.06
319.441	100.06
319.67	113.06
319.9	99.06
320.129	88.06
320.358	98.06
320.587	107.06
320.816	98.06
321.046	96.06
321.275	97.06
321.504	93.06
321.733	100.06
321.962	122.06
322.191	92.06
322.42	94.06
322.649	108.06
322.878	113.06
323.108	127.06
323.337	125.06
323.566	144.06
323.795	181.06
324.024	255.06
324.253	470.06
324.482	1044.06
324.71	2223.06
324.939	2959.06
325.168	1053.06
325.397	300.06
325.626	164.06
325.855	146.06
326.084	130.06
326.313	128.06
326.542	168.06
326.77	274.06
326.999	530.06
327.228	1176.06
327.457	2192.06
327.686	1773.06
327.914	507.06
328.143	398.06
328.372	458.06
328.6	283.06
328.829	166.06
329.058	156.06
329.287	167.06
329.515	149.06
329.744	203.06
329.972	334.06
330.201	621.06
330.43	911.06
330.658	440.06
330.887	236.06
331.115	161.06
331.344	107.06
331.572	117.06
331.801	116.06
332.03	101.06
332.258	98.06
332.486	100.06
332.715	88.06
332.943	103.06
333.172	90.06
333.4	111.06
333.629	132.06
333.857	156.06
334.085	298.06
334.314	611.06
334.542	1163.06
334.771	1138.06
334.999	336.06
335.227	149.06
335.455	103.06
335.684	98.06
335.912	111.06
336.14	107.06
336.369	95.06
336.597	96.06
336.825	100.06
337.053	88.06
337.281	91.06
337.51	77.06
337.738	78.06
337.966	90.06
338.194	107.06
338.422	110.06
338.65	83.06
338.878	87.06
339.106	89.06
339.334	90.06
339.562	84.06
339.79	100.06
340.018	98.06
340.246	88.06
340.474	105.06
340.702	89.06
340.93	88.06
341.158	97.06
341.386	92.06
341.614	83.06
341.842	96.06
342.07	96.06
342.298	92.06
342.526	98.06
342.754	81.06
342.981	78.06
343.209	84.06
343.437	91.06
343.665	83.06
343.893	88.06
344.12	92.06
344.348	85.06
344.576	99.06
344.804	110.06
345.031	89.06
345.259	100.06
345.487	93.06
345.714	95.06
345.942	98.06
346.17	82.06
346.397	99.06
346.625	91.06
346.853	92.06
347.08	81.06
347.308	98.06
347.535	96.06
347.763	98.06
347.99	94.06
348.218	105.06
348.445	86.06
348.673	106.06
348.9	110.06
349.128	94.06
349.355	86.06
349.583	96.06
349.81	97.06
350.037	98.06
350.265	96.06
350.492	84.06
350.72	94.06
350.947	94.06
351.174	106.06
351.402	108.06
351.629	98.06
351.856	95.06
352.083	95.06
352.311	94.06
352.538	109.06
352.765	111.06
352.992	107.06
353.22	111.06
353.447	105.06
353.674	95.06
353.901	99.06
354.128	88.06
354.355	96.06
354.583	97.06
354.81	100.06
355.037	111.06
355.264	91.06
355.491	75.06
355.718	92.06
355.945	83.06
356.172	92.06
356.399	94.06
356.626	93.06
356.853	88.06
357.08	100.06
357.307	101.06
357.534	85.06
357.761	106.06
357.988	96.06
358.215	84.06
358.441	88.06
358.668	92.06
358.895	85.06
359.122	89.06
359.349	83.06
359.576	103.06
359.802	108.06
360.029	114.06
360.256	110.06
360.483	106.06
360.709	73.06
360.936	100.06
361.163	91.06
361.39	86.06
361.616	87.06
361.843	84.06
362.07	97.06
362.296	94.06
362.523	83.06
362.749	112.06
362.976	93.06
363.203	99.06
363.429	92.06
363.656	98.06
363.882	85.06
364.109	104.06
364.335	99.06
364.562	84.06
364.788	80.06
365.015	77.06
365.241	100.06
365.468	116.06
365.694	117.06
365.92	92.06
366.147	87.06
366.373	78.06
366.599	71.06
366.826	92.06
367.052	74.06
367.278	93.06
367.505	93.06
367.731	100.06
367.957	97.06
368.184	86.06
368.41	112.06
368.636	112.06
368.862	119.06
369.089	111.06
369.315	88.06
369.541	86.06
369.767	107.06
369.993	96.06
370.219	74.06
370.445	79.06
370.672	83.06
370.898	73.06
371.124	83.06
371.35	79.06
371.576	78.06
371.802	83.06
372.028	80.06
372.254	77.06
372.48	87.06
372.706	76.06
372.932	101.06
373.158	84.06
373.384	98.06
373.61	81.06
373.835	95.06
374.061	95.06
374.287	89.06
374.513	102.06
374.739	90.06
374.965	77.06
375.191	87.06
375.416	80.06
375.642	94.06
375.868	103.06
376.094	92.06
376.319	87.06
376.545	92.06
376.771	91.06
376.997	69.06
377.222	93.06
377.448	77.06
377.674	98.06
377.899	83.06
378.125	83.06
378.35	94.06
378.576	92.06
378.802	90.06
379.027	78.06
379.253	82.06
379.478	101.06
379.704	94.06
379.929	94.06
380.155	86.06
380.38	91.06
380.606	94.06
380.831	76.06
381.057	87.06
381.282	85.06
381.507	81.06
381.733	90.06
381.958	93.06
382.184	97.06
382.409	92.06
382.634	88.06
382.86	85.06
383.085	97.06
383.31	110.06
383.535	99.06
383.761	102.06
383.986	109.06
384.211	102.06
384.436	82.06
384.662	92.06
384.887	88.06
385.112	87.06
385.337	114.06
385.562	94.06
385.787	94.06
386.013	114.06
386.238	104.06
386.463	81.06
386.688	94.06
386.913	96.06
387.138	101.06
387.363	94.06
387.588	98.06
387.813	84.06
388.038	94.06
388.263	111.06
388.488	94.06
388.713	74.06
388.938	85.06
389.163	98.06
389.387	97.06
389.612	90.06
389.837	92.06
390.062	76.06
390.287	97.06
390.512	104.06
390.736	90.06
390.961	97.06
391.186	110.06
391.411	100.06
391.636	93.06
391.86	99.06
392.085	83.06
392.31	80.06
392.534	93.06
392.759	70.06
392.984	81.06
393.208	80.06
393.433	96.06
393.658	79.06
393.882	87.06
394.107	88.06
394.331	79.06
394.556	70.06
394.78	97.06
395.005	65.06
395.229	75.06
395.454	82.06
395.678	70.06
395.903	105.06
396.127	94.06
396.352	85.06
396.576	108.06
396.801	94.06
397.025	75.06
397.249	103.06
397.474	102.06
397.698	79.06
397.922	81.06
398.147	77.06
398.371	81.06
398.595	90.06
398.82	78.06
399.044	94.06
399.268	85.06
399.492	86.06
399.717	98.06
399.941	92.06
400.165	86.06
400.389	91.06
400.613	84.06
400.837	99.06
401.062	81.06
401.286	84.06
401.51	92.06
401.734	83.06
401.958	100.06
402.182	126.06
402.406	165.06
402.63	128.06
402.854	97.06
403.078	92.06
403.302	99.06
403.526	100.06
403.75	94.06
403.974	96.06
404.198	84.06
404.422	74.06
404.645	86.06
404.869	90.06
405.093	92.06
405.317	127.06
405.541	131.06
405.765	113.06
405.988	130.06
406.212	196.06
406.436	252.06
406.66	173.06
406.883	113.06
407.107	80.06
407.331	95.06
407.555	109.06
407.778	102.06
408.002	69.06
408.226	85.06
408.449	83.06
408.673	89.06
408.896	101.06
409.12	100.06
409.344	83.06
409.567	98.06
409.791	91.06
410.014	76.06
410.238	82.06
410.461	78.06
410.685	82.06
410.908	101.06
411.132	106.06
411.355	101.06
411.578	98.06
411.802	94.06
412.025	88.06
412.249	88.06
412.472	96.06
412.695	144.06
412.919	106.06
413.142	108.06
413.365	89.06
413.589	83.06
413.812	83.06
414.035	94.06
414.258	83.06
414.482	89.06
414.705	84.06
414.928	82.06
415.151	94.06
415.374	94.06
415.597	86.06
415.821	102.06
416.044	85.06
416.267	78.06
416.49	91.06
416.713	92.06
416.936	80.06
417.159	92.06
417.382	92.06
417.605	93.06
417.828	106.06
418.051	85.06
418.274	85.06
418.497	88.06
418.72	63.06
418.943	82.06
419.166	95.06
419.389	89.06
419.611	106.06
419.834	96.06
420.057	86.06
420.28	88.06
420.503	111.06
420.726	88.06
420.948	89.06
421.171	100.06
421.394	96.06
421.617	87.06
421.839	88.06
422.062	88.06
422.285	98.06
422.507	99.06
422.73	109.06
422.953	105.06
423.175	86.06
423.398	86.06
423.621	88.06
423.843	92.06
424.066	80.06
424.288	85.06
424.511	97.06
424.733	96.06
424.956	122.06
425.178	117.06
425.401	110.06
425.623	106.06
425.846	82.06
426.068	98.06
426.291	98.06
426.513	81.06
426.735	98.06
426.958	94.06
427.18	114.06
427.402	160.06
427.625	228.06
427.847	224.06
428.069	205.06
428.292	129.06
428.514	80.06
428.736	94.06
428.958	85.06
429.181	82.06
429.403	86.06
429.625	83.06
429.847	93.06
430.069	114.06
430.292	96.06
430.514	76.06
430.736	80.06
430.958	100.06
431.18	79.06
431.402	87.06
431.624	60.06
431.846	92.06
432.068	88.06
432.29	83.06
432.512	95.06
432.734	103.06
432.956	91.06
433.178	101.06
433.4	109.06
433.622	92.06
433.844	85.06
434.066	89.06
434.287	96.06
434.509	85.06
434.731	84.06
434.953	92.06
435.175	72.06
435.397	88.06
435.618	94.06
435.84	102.06
436.062	156.06
436.284	140.06
436.505	122.06
436.727	110.06
436.949	94.06
437.17	97.06
437.392	89.06
437.614	106.06
437.835	118.06
438.057	142.06
438.278	133.06
438.5	131.06
438.721	136.06
438.943	110.06
439.165	94.06
439.386	80.06
439.608	94.06
439.829	108.06
440.05	138.06
440.272	176.06
440.493	105.06
440.715	106.06
440.936	101.06
441.158	86.06
441.379	91.06
441.6	92.06
441.822	104.06
442.043	93.06
442.264	107.06
442.486	100.06
442.707	109.06
442.928	116.06
443.149	158.06
443.371	165.06
443.592	126.06
443.813	122.06
444.034	123.06
444.255	97.06
444.476	99.06
444.698	74.06
444.919	89.06
445.14	138.06
445.361	135.06
445.582	128.06
445.803	163.06
446.024	180.06
446.245	176.06
446.466	132.06
446.687	85.06
446.908	91.06
447.129	86.06
447.35	88.06
447.571	94.06
447.792	80.06
448.013	98.06
448.234	114.06
448.455	96.06
448.675	99.06
448.896	138.06
449.117	117.06
449.338	112.06
449.559	154.06
449.779	150.06
450	100.06
450.221	75.06
450.442	86.06
450.662	87.06
450.883	111.06
451.104	120.06
451.324	89.06
451.545	83.06
451.766	93.06
451.986	85.06
452.207	88.06
452.428	101.06
452.648	101.06
452.869	123.06
453.089	118.06
453.31	118.06
453.53	85.06
453.751	107.06
453.971	112.06
454.192	125.06
454.412	94.06
454.633	90.06
454.853	92.06
455.073	90.06
455.294	86.06
455.514	106.06
455.734	102.06
455.955	103.06
456.175	87.06
456.395	84.06
456.616	88.06
456.836	87.06
457.056	93.06
457.276	78.06
457.497	87.06
457.717	79.06
457.937	95.06
458.157	83.06
458.377	81.06
458.598	101.06
458.818	187.06
459.038	197.06
459.258	132.06
459.478	87.06
459.698	87.06
459.918	77.06
460.138	92.06
460.358	88.06
460.578	93.06
460.798	76.06
461.018	92.06
461.238	84.06
461.458	99.06
461.678	91.06
461.898	96.06
462.118	88.06
462.338	93.06
462.558	90.06
462.777	89.06
462.997	88.06
463.217	83.06
463.437	84.06
463.657	76.06
463.876	87.06
464.096	89.06
464.316	101.06
464.536	95.06
464.755	100.06
464.975	123.06
465.195	194.06
465.414	188.06
465.634	96.06
465.854	78.06
466.073	96.06
466.293	88.06
466.512	86.06
466.732	102.06
466.951	99.06
467.171	100.06
467.391	101.06
467.61	117.06
467.829	168.06
468.049	353.06
468.268	519.06
468.488	178.06
468.707	93.06
468.927	88.06
469.146	99.06
469.365	83.06
469.585	81.06
469.804	98.06
470.023	115.06
470.243	99.06
470.462	106.06
470.681	117.06
470.901	98.06
471.12	85.06
471.339	102.06
471.558	106.06
471.777	126.06
471.997	215.06
472.216	669.06
472.435	1551.06
472.654	408.06
472.873	127.06
473.092	104.06
473.311	95.06
473.53	90.06
473.749	87.06
473.968	99.06
474.187	114.06
474.406	106.06
474.625	91.06
474.844	95.06
475.063	76.06
475.282	87.06
475.501	69.06
475.72	95.06
475.939	96.06
476.158	101.06
476.377	99.06
476.596	96.06
476.814	103.06
477.033	84.06
477.252	87.06
477.471	95.06
477.69	82.06
477.908	98.06
478.127	92.06
478.346	88.06
478.564	95.06
478.783	92.06
479.002	96.06
479.22	101.06
479.439	103.06
479.658	112.06
479.876	103.06
480.095	108.06
480.313	123.06
480.532	137.06
480.751	208.06
480.969	645.06
481.188	2605.06
481.406	1615.06
481.624	271.06
481.843	128.06
482.061	99.06
482.28	90.06
482.498	94.06
482.717	97.06
482.935	84.06
483.153	83.06
483.372	84.06
483.59	84.06
483.808	71.06
484.027	102.06
484.245	82.06
484.463	79.06
484.681	97.06
484.9	88.06
485.118	95.06
485.336	86.06
485.554	89.06
485.772	93.06
485.99	106.06
486.209	91.06
486.427	94.06
486.645	109.06
486.863	113.06
487.081	96.06
487.299	84.06
487.517	106.06
487.735	86.06
487.953	88.06
488.171	95.06
488.389	91.06
488.607	97.06
488.825	87.06
489.043	100.06
489.261	87.06
489.479	80.06
489.696	84.06
489.914	86.06
490.132	79.06
490.35	76.06
490.568	92.06
490.786	91.06
491.003	79.06
491.221	91.06
491.439	99.06
491.657	83.06
491.874	90.06
492.092	84.06
492.31	97.06
492.527	94.06
492.745	93.06
492.963	97.06
493.18	93.06
493.398	93.06
493.615	94.06
493.833	95.06
494.05	90.06
494.268	80.06
494.485	84.06
494.703	71.06
494.92	82.06
495.138	95.06
495.355	98.06
495.573	86.06
495.79	96.06
496.008	89.06
496.225	92.06
496.442	77.06
496.66	85.06
496.877	77.06
497.094	93.06
497.312	83.06
497.529	84.06
497.746	118.06
497.963	87.06
498.181	79.06
498.398	99.06
498.615	112.06
498.832	102.06
499.049	92.06
499.267	97.06
499.484	91.06
499.701	92.06
499.918	85.06
500.135	87.06
500.352	86.06
500.569	102.06
500.786	81.06
501.003	93.06
501.22	86.06
501.437	96.06
501.654	99.06
501.871	105.06
502.088	103.06
502.305	103.06
502.522	99.06
502.739	69.06
502.956	91.06
503.172	80.06
503.389	97.06
503.606	117.06
503.823	86.06
504.04	78.06
504.256	110.06
504.473	87.06
504.69	82.06
504.907	80.06
505.123	79.06
505.34	82.06
505.557	84.06
505.773	90.06
505.99	92.06
506.207	83.06
506.423	84.06
506.64	100.06
506.856	98.06
507.073	82.06
507.289	96.06
507.506	95.06
507.722	119.06
507.939	127.06
508.155	104.06
508.372	104.06
508.588	104.06
508.805	93.06
509.021	82.06
509.238	100.06
509.454	95.06
509.67	95.06
509.887	111.06
510.103	143.06
510.319	211.06
510.536	780.06
510.752	2586.06
510.968	709.06
511.184	163.06
511.401	114.06
511.617	102.06
511.833	109.06
512.049	93.06
512.265	106.06
512.481	95.06
512.698	91.06
512.914	99.06
513.13	91.06
513.346	87.06
513.562	90.06
513.778	92.06
513.994	94.06
514.21	95.06
514.426	124.06
514.642	151.06
514.858	127.06
