Data from Circ_2004_H10_HRD10591_00047.txt Node
Date: Wed Jan 03 10:33:23 EST 2024
User: Yrep
Spectrometer: HR+D1059
Trigger mode: 1
Integration Time (sec): 1.000000E-1
Scans to average: 1
Electric dark correction enabled: true
Nonlinearity correction enabled: false
Boxcar width: 0
XAxis mode: Wavelengths
Number of Pixels in Spectrum: 2048
>>>>>Begin Spectral Data<<<<<
223.165	-25.94
223.4	-25.94
223.635	-25.94
223.869	-14.94
224.104	-34.94
224.338	-6.94
224.573	-13.94
224.808	-17.94
225.042	-11.94
225.277	2.06
225.511	5.06
225.746	-0.94
225.98	10.06
226.215	17.06
226.449	3.06
226.683	20.06
226.918	36.06
227.152	34.06
227.387	26.06
227.621	38.06
227.856	37.06
228.09	39.06
228.324	54.06
228.559	50.06
228.793	61.06
229.027	56.06
229.262	67.06
229.496	65.06
229.73	86.06
229.964	80.06
230.199	78.06
230.433	89.06
230.667	74.06
230.901	76.06
231.136	77.06
231.37	80.06
231.604	82.06
231.838	93.06
232.072	90.06
232.306	75.06
232.541	80.06
232.775	83.06
233.009	71.06
233.243	91.06
233.477	76.06
233.711	76.06
233.945	83.06
234.179	84.06
234.413	73.06
234.647	74.06
234.881	87.06
235.115	81.06
235.349	79.06
235.583	72.06
235.817	83.06
236.051	70.06
236.285	86.06
236.519	81.06
236.753	78.06
236.987	93.06
237.221	76.06
237.455	84.06
237.689	73.06
237.922	76.06
238.156	64.06
238.39	67.06
238.624	76.06
238.858	72.06
239.091	71.06
239.325	89.06
239.559	71.06
239.793	78.06
240.027	77.06
240.26	66.06
240.494	70.06
240.728	73.06
240.961	62.06
241.195	77.06
241.429	78.06
241.662	77.06
241.896	73.06
242.13	70.06
242.363	71.06
242.597	66.06
242.83	75.06
243.064	82.06
243.298	80.06
243.531	67.06
243.765	74.06
243.998	77.06
244.232	69.06
244.465	91.06
244.699	79.06
244.932	83.06
245.166	70.06
245.399	88.06
245.633	65.06
245.866	65.06
246.099	62.06
246.333	67.06
246.566	74.06
246.8	70.06
247.033	68.06
247.266	61.06
247.5	77.06
247.733	92.06
247.966	77.06
248.2	93.06
248.433	75.06
248.666	80.06
248.899	83.06
249.133	76.06
249.366	83.06
249.599	88.06
249.832	77.06
250.066	84.06
250.299	74.06
250.532	78.06
250.765	66.06
250.998	76.06
251.231	68.06
251.465	77.06
251.698	70.06
251.931	76.06
252.164	73.06
252.397	79.06
252.63	74.06
252.863	78.06
253.096	83.06
253.329	83.06
253.562	98.06
253.795	83.06
254.028	74.06
254.261	71.06
254.494	72.06
254.727	77.06
254.96	77.06
255.193	54.06
255.426	73.06
255.659	74.06
255.892	86.06
256.124	94.06
256.357	100.06
256.59	86.06
256.823	72.06
257.056	84.06
257.289	73.06
257.521	67.06
257.754	85.06
257.987	83.06
258.22	69.06
258.452	79.06
258.685	81.06
258.918	75.06
259.151	82.06
259.383	74.06
259.616	78.06
259.849	82.06
260.081	82.06
260.314	89.06
260.547	80.06
260.779	80.06
261.012	89.06
261.244	91.06
261.477	86.06
261.71	93.06
261.942	105.06
262.175	111.06
262.407	106.06
262.64	81.06
262.872	63.06
263.105	89.06
263.337	88.06
263.57	78.06
263.802	68.06
264.035	70.06
264.267	76.06
264.499	83.06
264.732	100.06
264.964	87.06
265.197	61.06
265.429	75.06
265.661	81.06
265.894	75.06
266.126	86.06
266.358	79.06
266.591	73.06
266.823	84.06
267.055	95.06
267.287	83.06
267.52	81.06
267.752	83.06
267.984	66.06
268.216	68.06
268.448	87.06
268.681	89.06
268.913	68.06
269.145	82.06
269.377	82.06
269.609	76.06
269.841	86.06
270.073	74.06
270.306	84.06
270.538	81.06
270.77	77.06
271.002	79.06
271.234	83.06
271.466	84.06
271.698	90.06
271.93	86.06
272.162	82.06
272.394	77.06
272.626	72.06
272.858	90.06
273.09	92.06
273.322	90.06
273.553	81.06
273.785	81.06
274.017	85.06
274.249	78.06
274.481	83.06
274.713	84.06
274.945	91.06
275.176	85.06
275.408	109.06
275.64	84.06
275.872	87.06
276.104	98.06
276.335	91.06
276.567	106.06
276.799	111.06
277.031	116.06
277.262	125.06
277.494	95.06
277.726	88.06
277.957	77.06
278.189	75.06
278.421	86.06
278.652	86.06
278.884	80.06
279.115	112.06
279.347	75.06
279.579	95.06
279.81	97.06
280.042	99.06
280.273	125.06
280.505	108.06
280.736	92.06
280.968	92.06
281.199	81.06
281.431	84.06
281.662	80.06
281.894	88.06
282.125	87.06
282.356	107.06
282.588	119.06
282.819	102.06
283.051	90.06
283.282	86.06
283.513	81.06
283.745	74.06
283.976	77.06
284.207	85.06
284.439	82.06
284.67	83.06
284.901	74.06
285.132	86.06
285.364	79.06
285.595	72.06
285.826	81.06
286.057	71.06
286.288	78.06
286.52	86.06
286.751	85.06
286.982	83.06
287.213	80.06
287.444	100.06
287.675	75.06
287.906	91.06
288.138	87.06
288.369	92.06
288.6	87.06
288.831	87.06
289.062	89.06
289.293	91.06
289.524	88.06
289.755	82.06
289.986	78.06
290.217	91.06
290.448	97.06
290.679	74.06
290.91	93.06
291.141	105.06
291.371	83.06
291.602	99.06
291.833	92.06
292.064	76.06
292.295	69.06
292.526	96.06
292.757	87.06
292.987	82.06
293.218	81.06
293.449	73.06
293.68	87.06
293.91	83.06
294.141	76.06
294.372	79.06
294.603	86.06
294.833	80.06
295.064	102.06
295.295	93.06
295.525	83.06
295.756	91.06
295.987	114.06
296.217	138.06
296.448	109.06
296.679	101.06
296.909	91.06
297.14	91.06
297.37	105.06
297.601	86.06
297.831	94.06
298.062	89.06
298.292	79.06
298.523	90.06
298.753	78.06
298.984	83.06
299.214	90.06
299.445	97.06
299.675	82.06
299.905	93.06
300.136	89.06
300.366	90.06
300.597	96.06
300.827	75.06
301.057	91.06
301.288	108.06
301.518	90.06
301.748	83.06
301.979	91.06
302.209	93.06
302.439	74.06
302.669	77.06
302.9	95.06
303.13	99.06
303.36	89.06
303.59	94.06
303.82	110.06
304.051	94.06
304.281	82.06
304.511	97.06
304.741	87.06
304.971	90.06
305.201	97.06
305.431	97.06
305.661	84.06
305.891	88.06
306.121	82.06
306.352	85.06
306.582	106.06
306.812	99.06
307.042	100.06
307.272	114.06
307.502	95.06
307.731	98.06
307.961	94.06
308.191	92.06
308.421	75.06
308.651	99.06
308.881	89.06
309.111	92.06
309.341	90.06
309.571	98.06
309.8	79.06
310.03	83.06
310.26	93.06
310.49	87.06
310.72	98.06
310.949	98.06
311.179	91.06
311.409	86.06
311.639	94.06
311.868	92.06
312.098	84.06
312.328	90.06
312.557	100.06
312.787	113.06
313.017	94.06
313.246	107.06
313.476	90.06
313.706	100.06
313.935	79.06
314.165	93.06
314.394	98.06
314.624	82.06
314.853	93.06
315.083	75.06
315.312	86.06
315.542	90.06
315.771	87.06
316.001	85.06
316.23	85.06
316.46	84.06
316.689	89.06
316.919	76.06
317.148	90.06
317.377	96.06
317.607	89.06
317.836	83.06
318.065	95.06
318.295	84.06
318.524	97.06
318.753	92.06
318.983	88.06
319.212	95.06
319.441	95.06
319.67	114.06
319.9	81.06
320.129	78.06
320.358	97.06
320.587	92.06
320.816	104.06
321.046	100.06
321.275	100.06
321.504	97.06
321.733	94.06
321.962	91.06
322.191	93.06
322.42	101.06
322.649	118.06
322.878	108.06
323.108	123.06
323.337	133.06
323.566	134.06
323.795	135.06
324.024	217.06
324.253	388.06
324.482	825.06
324.71	1767.06
324.939	2341.06
325.168	824.06
325.397	262.06
325.626	141.06
325.855	126.06
326.084	120.06
326.313	128.06
326.542	144.06
326.77	239.06
326.999	469.06
327.228	945.06
327.457	1797.06
327.686	1395.06
327.914	405.06
328.143	279.06
328.372	266.06
328.6	197.06
328.829	147.06
329.058	137.06
329.287	135.06
329.515	107.06
329.744	139.06
329.972	194.06
330.201	325.06
330.43	473.06
330.658	257.06
330.887	170.06
331.115	133.06
331.344	96.06
331.572	104.06
331.801	118.06
332.03	112.06
332.258	94.06
332.486	95.06
332.715	93.06
332.943	100.06
333.172	101.06
333.4	120.06
333.629	115.06
333.857	133.06
334.085	200.06
334.314	324.06
334.542	568.06
334.771	556.06
334.999	192.06
335.227	127.06
335.455	100.06
335.684	103.06
335.912	95.06
336.14	91.06
336.369	98.06
336.597	85.06
336.825	112.06
337.053	87.06
337.281	94.06
337.51	83.06
337.738	95.06
337.966	88.06
338.194	90.06
338.422	92.06
338.65	76.06
338.878	77.06
339.106	91.06
339.334	83.06
339.562	97.06
339.79	67.06
340.018	85.06
340.246	91.06
340.474	86.06
340.702	82.06
340.93	96.06
341.158	101.06
341.386	100.06
341.614	85.06
341.842	93.06
342.07	97.06
342.298	90.06
342.526	81.06
342.754	79.06
342.981	73.06
343.209	91.06
343.437	95.06
343.665	82.06
343.893	79.06
344.12	84.06
344.348	87.06
344.576	87.06
344.804	89.06
345.031	90.06
345.259	99.06
345.487	105.06
345.714	80.06
345.942	90.06
346.17	86.06
346.397	84.06
346.625	94.06
346.853	89.06
347.08	93.06
347.308	113.06
347.535	95.06
347.763	105.06
347.99	88.06
348.218	86.06
348.445	103.06
348.673	95.06
348.9	99.06
349.128	101.06
349.355	98.06
349.583	71.06
349.81	78.06
350.037	80.06
350.265	92.06
350.492	89.06
350.72	88.06
350.947	102.06
351.174	102.06
351.402	104.06
351.629	95.06
351.856	100.06
352.083	87.06
352.311	107.06
352.538	97.06
352.765	105.06
352.992	95.06
353.22	101.06
353.447	94.06
353.674	82.06
353.901	88.06
354.128	84.06
354.355	80.06
354.583	85.06
354.81	97.06
355.037	90.06
355.264	80.06
355.491	94.06
355.718	94.06
355.945	82.06
356.172	91.06
356.399	96.06
356.626	93.06
356.853	92.06
357.08	93.06
357.307	100.06
357.534	75.06
357.761	91.06
357.988	86.06
358.215	91.06
358.441	90.06
358.668	95.06
358.895	86.06
359.122	85.06
359.349	73.06
359.576	93.06
359.802	93.06
360.029	117.06
360.256	110.06
360.483	87.06
360.709	90.06
360.936	94.06
361.163	92.06
361.39	99.06
361.616	81.06
361.843	92.06
362.07	93.06
362.296	77.06
362.523	95.06
362.749	98.06
362.976	89.06
363.203	88.06
363.429	81.06
363.656	68.06
363.882	72.06
364.109	76.06
364.335	89.06
364.562	87.06
364.788	80.06
365.015	97.06
365.241	99.06
365.468	113.06
365.694	95.06
365.92	103.06
366.147	83.06
366.373	92.06
366.599	86.06
366.826	85.06
367.052	82.06
367.278	80.06
367.505	91.06
367.731	91.06
367.957	84.06
368.184	91.06
368.41	112.06
368.636	103.06
368.862	117.06
369.089	107.06
369.315	97.06
369.541	83.06
369.767	88.06
369.993	90.06
370.219	84.06
370.445	80.06
370.672	84.06
370.898	89.06
371.124	84.06
371.35	92.06
371.576	78.06
371.802	88.06
372.028	96.06
372.254	85.06
372.48	87.06
372.706	87.06
372.932	87.06
373.158	89.06
373.384	86.06
373.61	97.06
373.835	86.06
374.061	89.06
374.287	83.06
374.513	80.06
374.739	77.06
374.965	109.06
375.191	81.06
375.416	90.06
375.642	94.06
375.868	92.06
376.094	87.06
376.319	98.06
376.545	86.06
376.771	81.06
376.997	86.06
377.222	87.06
377.448	80.06
377.674	98.06
377.899	87.06
378.125	103.06
378.35	98.06
378.576	102.06
378.802	80.06
379.027	87.06
379.253	88.06
379.478	80.06
379.704	94.06
379.929	91.06
380.155	88.06
380.38	100.06
380.606	83.06
380.831	85.06
381.057	89.06
381.282	86.06
381.507	87.06
381.733	100.06
381.958	89.06
382.184	102.06
382.409	87.06
382.634	110.06
382.86	106.06
383.085	103.06
383.31	107.06
383.535	99.06
383.761	91.06
383.986	107.06
384.211	97.06
384.436	111.06
384.662	101.06
384.887	87.06
385.112	108.06
385.337	98.06
385.562	93.06
385.787	103.06
386.013	101.06
386.238	106.06
386.463	97.06
386.688	107.06
386.913	94.06
387.138	101.06
387.363	94.06
387.588	88.06
387.813	102.06
388.038	102.06
388.263	111.06
388.488	107.06
388.713	100.06
388.938	90.06
389.163	85.06
389.387	100.06
389.612	89.06
389.837	90.06
390.062	86.06
390.287	93.06
390.512	89.06
390.736	99.06
390.961	106.06
391.186	96.06
391.411	82.06
391.636	91.06
391.86	76.06
392.085	78.06
392.31	83.06
392.534	84.06
392.759	84.06
392.984	80.06
393.208	86.06
393.433	86.06
393.658	97.06
393.882	87.06
394.107	79.06
394.331	89.06
394.556	75.06
394.78	90.06
395.005	98.06
395.229	69.06
395.454	86.06
395.678	78.06
395.903	83.06
396.127	86.06
396.352	92.06
396.576	66.06
396.801	93.06
397.025	98.06
397.249	75.06
397.474	95.06
397.698	86.06
397.922	85.06
398.147	90.06
398.371	90.06
398.595	84.06
398.82	82.06
399.044	79.06
399.268	86.06
399.492	83.06
399.717	79.06
399.941	92.06
400.165	91.06
400.389	86.06
400.613	98.06
400.837	79.06
401.062	95.06
401.286	72.06
401.51	81.06
401.734	100.06
401.958	90.06
402.182	126.06
402.406	144.06
402.63	101.06
402.854	86.06
403.078	98.06
403.302	95.06
403.526	85.06
403.75	89.06
403.974	79.06
404.198	82.06
404.422	81.06
404.645	96.06
404.869	94.06
405.093	108.06
405.317	118.06
405.541	125.06
405.765	97.06
405.988	112.06
406.212	159.06
406.436	219.06
406.66	145.06
406.883	92.06
407.107	97.06
407.331	92.06
407.555	90.06
407.778	102.06
408.002	95.06
408.226	98.06
408.449	84.06
408.673	89.06
408.896	87.06
409.12	104.06
409.344	100.06
409.567	90.06
409.791	86.06
410.014	92.06
410.238	74.06
410.461	73.06
410.685	86.06
410.908	85.06
411.132	102.06
411.355	94.06
411.578	86.06
411.802	85.06
412.025	85.06
412.249	89.06
412.472	101.06
412.695	108.06
412.919	99.06
413.142	89.06
413.365	93.06
413.589	84.06
413.812	95.06
414.035	78.06
414.258	78.06
414.482	94.06
414.705	100.06
414.928	83.06
415.151	76.06
415.374	87.06
415.597	76.06
415.821	83.06
416.044	89.06
416.267	96.06
416.49	77.06
416.713	99.06
416.936	84.06
417.159	78.06
417.382	67.06
417.605	101.06
417.828	98.06
418.051	84.06
418.274	101.06
418.497	80.06
418.72	86.06
418.943	81.06
419.166	82.06
419.389	90.06
419.611	90.06
419.834	75.06
420.057	82.06
420.28	87.06
420.503	86.06
420.726	83.06
420.948	88.06
421.171	89.06
421.394	69.06
421.617	79.06
421.839	76.06
422.062	87.06
422.285	82.06
422.507	91.06
422.73	84.06
422.953	76.06
423.175	87.06
423.398	96.06
423.621	96.06
423.843	82.06
424.066	87.06
424.288	84.06
424.511	83.06
424.733	86.06
424.956	101.06
425.178	86.06
425.401	87.06
425.623	101.06
425.846	91.06
426.068	82.06
426.291	77.06
426.513	90.06
426.735	89.06
426.958	101.06
427.18	103.06
427.402	148.06
427.625	176.06
427.847	152.06
428.069	147.06
428.292	87.06
428.514	93.06
428.736	89.06
428.958	78.06
429.181	97.06
429.403	69.06
429.625	96.06
429.847	92.06
430.069	88.06
430.292	97.06
430.514	87.06
430.736	76.06
430.958	94.06
431.18	85.06
431.402	82.06
431.624	84.06
431.846	79.06
432.068	71.06
432.29	70.06
432.512	75.06
432.734	94.06
432.956	89.06
433.178	92.06
433.4	90.06
433.622	85.06
433.844	84.06
434.066	101.06
434.287	87.06
434.509	91.06
434.731	90.06
434.953	80.06
435.175	79.06
435.397	85.06
435.618	95.06
435.84	93.06
436.062	114.06
436.284	122.06
436.505	102.06
436.727	101.06
436.949	95.06
437.17	88.06
437.392	92.06
437.614	87.06
437.835	105.06
438.057	126.06
438.278	116.06
438.5	105.06
438.721	118.06
438.943	98.06
439.165	78.06
439.386	80.06
439.608	83.06
439.829	91.06
440.05	131.06
440.272	157.06
440.493	97.06
440.715	83.06
440.936	85.06
441.158	92.06
441.379	98.06
441.6	87.06
441.822	91.06
442.043	97.06
442.264	104.06
442.486	94.06
442.707	86.06
442.928	95.06
443.149	143.06
443.371	127.06
443.592	103.06
443.813	102.06
444.034	102.06
444.255	77.06
444.476	81.06
444.698	67.06
444.919	92.06
445.14	132.06
445.361	107.06
445.582	95.06
445.803	127.06
446.024	128.06
446.245	140.06
446.466	121.06
446.687	88.06
446.908	90.06
447.129	74.06
447.35	83.06
447.571	87.06
447.792	83.06
448.013	97.06
448.234	108.06
448.455	102.06
448.675	123.06
448.896	130.06
449.117	100.06
449.338	106.06
449.559	126.06
449.779	126.06
450	110.06
450.221	85.06
450.442	79.06
450.662	100.06
450.883	97.06
451.104	97.06
451.324	94.06
451.545	85.06
451.766	77.06
451.986	85.06
452.207	89.06
452.428	73.06
452.648	97.06
452.869	109.06
453.089	117.06
453.31	108.06
453.53	99.06
453.751	75.06
453.971	95.06
454.192	110.06
454.412	96.06
454.633	97.06
454.853	72.06
455.073	80.06
455.294	96.06
455.514	85.06
455.734	83.06
455.955	80.06
456.175	85.06
456.395	82.06
456.616	81.06
456.836	93.06
457.056	99.06
457.276	86.06
457.497	84.06
457.717	85.06
457.937	76.06
458.157	82.06
458.377	93.06
458.598	104.06
458.818	154.06
459.038	151.06
459.258	118.06
459.478	91.06
459.698	82.06
459.918	75.06
460.138	77.06
460.358	79.06
460.578	95.06
460.798	107.06
461.018	92.06
461.238	88.06
461.458	78.06
461.678	87.06
461.898	94.06
462.118	81.06
462.338	73.06
462.558	76.06
462.777	92.06
462.997	83.06
463.217	84.06
463.437	92.06
463.657	80.06
463.876	71.06
464.096	77.06
464.316	83.06
464.536	100.06
464.755	95.06
464.975	89.06
465.195	164.06
465.414	157.06
465.634	105.06
465.854	81.06
466.073	68.06
466.293	87.06
466.512	82.06
466.732	79.06
466.951	92.06
467.171	98.06
467.391	95.06
467.61	116.06
467.829	118.06
468.049	206.06
468.268	304.06
468.488	124.06
468.707	100.06
468.927	109.06
469.146	67.06
469.365	86.06
469.585	78.06
469.804	77.06
470.023	77.06
470.243	87.06
470.462	106.06
470.681	110.06
470.901	91.06
471.12	98.06
471.339	89.06
471.558	84.06
471.777	91.06
471.997	135.06
472.216	401.06
472.435	796.06
472.654	218.06
472.873	93.06
473.092	85.06
473.311	86.06
473.53	82.06
473.749	95.06
473.968	78.06
474.187	93.06
474.406	113.06
474.625	92.06
474.844	85.06
475.063	80.06
475.282	79.06
475.501	83.06
475.72	90.06
475.939	84.06
476.158	93.06
476.377	87.06
476.596	84.06
476.814	97.06
477.033	84.06
477.252	68.06
477.471	99.06
477.69	76.06
477.908	91.06
478.127	87.06
478.346	94.06
478.564	99.06
478.783	106.06
479.002	90.06
479.22	98.06
479.439	106.06
479.658	109.06
479.876	105.06
480.095	103.06
480.313	94.06
480.532	117.06
480.751	133.06
480.969	379.06
481.188	1321.06
481.406	819.06
481.624	167.06
481.843	102.06
482.061	95.06
482.28	91.06
482.498	92.06
482.717	82.06
482.935	73.06
483.153	82.06
483.372	78.06
483.59	77.06
483.808	83.06
484.027	90.06
484.245	91.06
484.463	86.06
484.681	79.06
484.9	109.06
485.118	101.06
485.336	98.06
485.554	100.06
485.772	86.06
485.99	101.06
486.209	109.06
486.427	95.06
486.645	97.06
486.863	99.06
487.081	107.06
487.299	112.06
487.517	103.06
487.735	106.06
487.953	99.06
488.171	98.06
488.389	102.06
488.607	90.06
488.825	89.06
489.043	70.06
489.261	97.06
489.479	74.06
489.696	93.06
489.914	85.06
490.132	91.06
490.35	90.06
490.568	83.06
490.786	94.06
491.003	89.06
491.221	76.06
491.439	83.06
491.657	90.06
491.874	98.06
492.092	89.06
492.31	96.06
492.527	97.06
492.745	82.06
492.963	75.06
493.18	81.06
493.398	91.06
493.615	99.06
493.833	94.06
494.05	103.06
494.268	98.06
494.485	76.06
494.703	91.06
494.92	90.06
495.138	98.06
495.355	92.06
495.573	87.06
495.79	91.06
496.008	89.06
496.225	106.06
496.442	93.06
496.66	72.06
496.877	103.06
497.094	87.06
497.312	93.06
497.529	90.06
497.746	88.06
497.963	87.06
498.181	85.06
498.398	90.06
498.615	96.06
498.832	100.06
499.049	84.06
499.267	86.06
499.484	84.06
499.701	76.06
499.918	84.06
500.135	83.06
500.352	84.06
500.569	94.06
500.786	91.06
501.003	93.06
501.22	76.06
501.437	98.06
501.654	89.06
501.871	108.06
502.088	82.06
502.305	92.06
502.522	94.06
502.739	85.06
502.956	99.06
503.172	84.06
503.389	103.06
503.606	108.06
503.823	88.06
504.04	78.06
504.256	67.06
504.473	91.06
504.69	83.06
504.907	91.06
505.123	86.06
505.34	83.06
505.557	91.06
505.773	93.06
505.99	92.06
506.207	91.06
506.423	85.06
506.64	95.06
506.856	97.06
507.073	95.06
507.289	68.06
507.506	101.06
507.722	112.06
507.939	114.06
508.155	106.06
508.372	99.06
508.588	94.06
508.805	90.06
509.021	89.06
509.238	101.06
509.454	101.06
509.67	106.06
509.887	98.06
510.103	125.06
510.319	219.06
510.536	724.06
510.752	2260.06
510.968	629.06
511.184	154.06
511.401	142.06
511.617	87.06
511.833	111.06
512.049	98.06
512.265	82.06
512.481	90.06
512.698	94.06
512.914	82.06
513.13	85.06
513.346	90.06
513.562	94.06
513.778	79.06
513.994	93.06
514.21	106.06
514.426	117.06
514.642	137.06
514.858	122.06
515.074	165.06
515.29	456.06
515.506	1581.06
515.721	575.06
515.937	173.06
