Data from Circ_2004_H10_HRD10591_00090.txt Node
Date: Wed Jan 03 10:33:32 EST 2024
User: Yrep
Spectrometer: HR+D1059
Trigger mode: 1
Integration Time (sec): 1.000000E-1
Scans to average: 1
Electric dark correction enabled: true
Nonlinearity correction enabled: false
Boxcar width: 0
XAxis mode: Wavelengths
Number of Pixels in Spectrum: 2048
>>>>>Begin Spectral Data<<<<<
223.165	-15.25
223.4	-15.25
223.635	-15.25
223.869	-10.25
224.104	-22.25
224.338	4.75
224.573	-9.25
224.808	-10.25
225.042	-6.25
225.277	-8.25
225.511	-9.25
225.746	-5.25
225.98	9.75
226.215	7.75
226.449	11.75
226.683	15.75
226.918	22.75
227.152	23.75
227.387	34.75
227.621	38.75
227.856	49.75
228.09	46.75
228.324	53.75
228.559	55.75
228.793	61.75
229.027	60.75
229.262	50.75
229.496	74.75
229.73	98.75
229.964	82.75
230.199	71.75
230.433	66.75
230.667	80.75
230.901	78.75
231.136	70.75
231.37	70.75
231.604	76.75
231.838	71.75
232.072	81.75
232.306	84.75
232.541	78.75
232.775	83.75
233.009	89.75
233.243	71.75
233.477	83.75
233.711	98.75
233.945	87.75
234.179	92.75
234.413	66.75
234.647	78.75
234.881	72.75
235.115	74.75
235.349	79.75
235.583	83.75
235.817	82.75
236.051	86.75
236.285	79.75
236.519	83.75
236.753	79.75
236.987	80.75
237.221	95.75
237.455	107.75
237.689	77.75
237.922	80.75
238.156	76.75
238.39	61.75
238.624	76.75
238.858	70.75
239.091	71.75
239.325	75.75
239.559	72.75
239.793	88.75
240.027	75.75
240.26	75.75
240.494	80.75
240.728	65.75
240.961	71.75
241.195	79.75
241.429	78.75
241.662	77.75
241.896	73.75
242.13	70.75
242.363	87.75
242.597	83.75
242.83	86.75
243.064	82.75
243.298	73.75
243.531	85.75
243.765	74.75
243.998	82.75
244.232	78.75
244.465	82.75
244.699	92.75
244.932	71.75
245.166	60.75
245.399	80.75
245.633	70.75
245.866	79.75
246.099	83.75
246.333	92.75
246.566	66.75
246.8	87.75
247.033	86.75
247.266	86.75
247.5	78.75
247.733	91.75
247.966	101.75
248.2	76.75
248.433	81.75
248.666	94.75
248.899	68.75
249.133	97.75
249.366	97.75
249.599	111.75
249.832	78.75
250.066	77.75
250.299	96.75
250.532	72.75
250.765	77.75
250.998	77.75
251.231	82.75
251.465	61.75
251.698	82.75
251.931	85.75
252.164	96.75
252.397	79.75
252.63	101.75
252.863	62.75
253.096	83.75
253.329	86.75
253.562	69.75
253.795	77.75
254.028	79.75
254.261	82.75
254.494	71.75
254.727	68.75
254.96	76.75
255.193	71.75
255.426	92.75
255.659	86.75
255.892	79.75
256.124	100.75
256.357	85.75
256.59	77.75
256.823	90.75
257.056	83.75
257.289	87.75
257.521	85.75
257.754	84.75
257.987	85.75
258.22	81.75
258.452	92.75
258.685	108.75
258.918	87.75
259.151	86.75
259.383	79.75
259.616	80.75
259.849	80.75
260.081	94.75
260.314	84.75
260.547	90.75
260.779	84.75
261.012	108.75
261.244	102.75
261.477	91.75
261.71	108.75
261.942	131.75
262.175	133.75
262.407	105.75
262.64	80.75
262.872	93.75
263.105	84.75
263.337	86.75
263.57	79.75
263.802	82.75
264.035	71.75
264.267	79.75
264.499	85.75
264.732	93.75
264.964	72.75
265.197	89.75
265.429	72.75
265.661	79.75
265.894	75.75
266.126	75.75
266.358	90.75
266.591	94.75
266.823	94.75
267.055	87.75
267.287	84.75
267.52	90.75
267.752	70.75
267.984	73.75
268.216	71.75
268.448	79.75
268.681	79.75
268.913	86.75
269.145	78.75
269.377	82.75
269.609	79.75
269.841	82.75
270.073	89.75
270.306	81.75
270.538	87.75
270.77	80.75
271.002	98.75
271.234	86.75
271.466	88.75
271.698	86.75
271.93	102.75
272.162	82.75
272.394	95.75
272.626	77.75
272.858	87.75
273.09	74.75
273.322	78.75
273.553	67.75
273.785	85.75
274.017	67.75
274.249	80.75
274.481	90.75
274.713	97.75
274.945	82.75
275.176	88.75
275.408	94.75
275.64	111.75
275.872	114.75
276.104	114.75
276.335	108.75
276.567	110.75
276.799	134.75
277.031	153.75
277.262	167.75
277.494	141.75
277.726	95.75
277.957	76.75
278.189	93.75
278.421	90.75
278.652	87.75
278.884	95.75
279.115	86.75
279.347	81.75
279.579	100.75
279.81	111.75
280.042	164.75
280.273	198.75
280.505	150.75
280.736	104.75
280.968	79.75
281.199	90.75
281.431	96.75
281.662	102.75
281.894	87.75
282.125	103.75
282.356	120.75
282.588	167.75
282.819	120.75
283.051	82.75
283.282	84.75
283.513	87.75
283.745	96.75
283.976	85.75
284.207	83.75
284.439	91.75
284.67	78.75
284.901	94.75
285.132	92.75
285.364	94.75
285.595	84.75
285.826	86.75
286.057	103.75
286.288	89.75
286.52	80.75
286.751	99.75
286.982	79.75
287.213	70.75
287.444	84.75
287.675	60.75
287.906	94.75
288.138	88.75
288.369	83.75
288.6	88.75
288.831	74.75
289.062	82.75
289.293	74.75
289.524	96.75
289.755	82.75
289.986	88.75
290.217	86.75
290.448	86.75
290.679	81.75
290.91	94.75
291.141	108.75
291.371	72.75
291.602	78.75
291.833	78.75
292.064	78.75
292.295	84.75
292.526	79.75
292.757	86.75
292.987	93.75
293.218	101.75
293.449	95.75
293.68	83.75
293.91	82.75
294.141	92.75
294.372	76.75
294.603	82.75
294.833	84.75
295.064	85.75
295.295	91.75
295.525	84.75
295.756	90.75
295.987	127.75
296.217	166.75
296.448	148.75
296.679	107.75
296.909	85.75
297.14	87.75
297.37	94.75
297.601	92.75
297.831	80.75
298.062	79.75
298.292	80.75
298.523	91.75
298.753	87.75
298.984	84.75
299.214	82.75
299.445	111.75
299.675	95.75
299.905	98.75
300.136	87.75
300.366	95.75
300.597	86.75
300.827	115.75
301.057	101.75
301.288	111.75
301.518	110.75
301.748	108.75
301.979	101.75
302.209	110.75
302.439	93.75
302.669	87.75
302.9	91.75
303.13	71.75
303.36	102.75
303.59	136.75
303.82	139.75
304.051	102.75
304.281	103.75
304.511	106.75
304.741	88.75
304.971	91.75
305.201	86.75
305.431	87.75
305.661	80.75
305.891	88.75
306.121	95.75
306.352	90.75
306.582	91.75
306.812	112.75
307.042	122.75
307.272	138.75
307.502	165.75
307.731	142.75
307.961	118.75
308.191	100.75
308.421	84.75
308.651	93.75
308.881	97.75
309.111	104.75
309.341	99.75
309.571	94.75
309.8	95.75
310.03	111.75
310.26	103.75
310.49	99.75
310.72	102.75
310.949	102.75
311.179	103.75
311.409	99.75
311.639	94.75
311.868	107.75
312.098	101.75
312.328	110.75
312.557	126.75
312.787	119.75
313.017	105.75
313.246	99.75
313.476	106.75
313.706	91.75
313.935	74.75
314.165	100.75
314.394	103.75
314.624	108.75
314.853	110.75
315.083	88.75
315.312	93.75
315.542	78.75
315.771	82.75
316.001	98.75
316.23	91.75
316.46	103.75
316.689	88.75
316.919	100.75
317.148	99.75
317.377	91.75
317.607	90.75
317.836	99.75
318.065	83.75
318.295	86.75
318.524	89.75
318.753	98.75
318.983	103.75
319.212	113.75
319.441	116.75
319.67	108.75
319.9	89.75
320.129	97.75
320.358	88.75
320.587	79.75
320.816	107.75
321.046	107.75
321.275	103.75
321.504	106.75
321.733	93.75
321.962	104.75
322.191	98.75
322.42	118.75
322.649	122.75
322.878	112.75
323.108	128.75
323.337	125.75
323.566	149.75
323.795	189.75
324.024	253.75
324.253	483.75
324.482	1064.75
324.71	2177.75
324.939	2924.75
325.168	1038.75
325.397	296.75
325.626	178.75
325.855	140.75
326.084	136.75
326.313	128.75
326.542	172.75
326.77	270.75
326.999	538.75
327.228	1148.75
327.457	2112.75
327.686	1694.75
327.914	517.75
328.143	431.75
328.372	540.75
328.6	332.75
328.829	177.75
329.058	178.75
329.287	175.75
329.515	161.75
329.744	195.75
329.972	359.75
330.201	734.75
330.43	1098.75
330.658	509.75
330.887	256.75
331.115	188.75
331.344	130.75
331.572	108.75
331.801	115.75
332.03	128.75
332.258	111.75
332.486	104.75
332.715	106.75
332.943	117.75
333.172	115.75
333.4	128.75
333.629	142.75
333.857	193.75
334.085	334.75
334.314	675.75
334.542	1324.75
334.771	1326.75
334.999	367.75
335.227	157.75
335.455	102.75
335.684	117.75
335.912	104.75
336.14	106.75
336.369	110.75
336.597	110.75
336.825	94.75
337.053	82.75
337.281	100.75
337.51	82.75
337.738	103.75
337.966	87.75
338.194	101.75
338.422	91.75
338.65	106.75
338.878	98.75
339.106	84.75
339.334	98.75
339.562	90.75
339.79	80.75
340.018	99.75
340.246	93.75
340.474	91.75
340.702	97.75
340.93	87.75
341.158	90.75
341.386	84.75
341.614	105.75
341.842	108.75
342.07	93.75
342.298	93.75
342.526	86.75
342.754	94.75
342.981	91.75
343.209	80.75
343.437	103.75
343.665	80.75
343.893	88.75
344.12	82.75
344.348	90.75
344.576	96.75
344.804	106.75
345.031	106.75
345.259	100.75
345.487	104.75
345.714	93.75
345.942	103.75
346.17	95.75
346.397	92.75
346.625	86.75
346.853	96.75
347.08	98.75
347.308	94.75
347.535	91.75
347.763	105.75
347.99	89.75
348.218	107.75
348.445	113.75
348.673	102.75
348.9	83.75
349.128	107.75
349.355	90.75
349.583	86.75
349.81	84.75
350.037	99.75
350.265	93.75
350.492	84.75
350.72	76.75
350.947	102.75
351.174	104.75
351.402	110.75
351.629	111.75
351.856	107.75
352.083	99.75
352.311	114.75
352.538	117.75
352.765	119.75
352.992	130.75
353.22	134.75
353.447	96.75
353.674	101.75
353.901	90.75
354.128	87.75
354.355	103.75
354.583	104.75
354.81	83.75
355.037	97.75
355.264	86.75
355.491	111.75
355.718	97.75
355.945	89.75
356.172	86.75
356.399	94.75
356.626	77.75
356.853	92.75
357.08	94.75
357.307	106.75
357.534	94.75
357.761	81.75
357.988	96.75
358.215	92.75
358.441	100.75
358.668	93.75
358.895	76.75
359.122	77.75
359.349	87.75
359.576	95.75
359.802	100.75
360.029	119.75
360.256	151.75
360.483	111.75
360.709	91.75
360.936	92.75
361.163	84.75
361.39	100.75
361.616	103.75
361.843	92.75
362.07	102.75
362.296	108.75
362.523	103.75
362.749	101.75
362.976	82.75
363.203	76.75
363.429	85.75
363.656	90.75
363.882	76.75
364.109	99.75
364.335	112.75
364.562	99.75
364.788	93.75
365.015	95.75
365.241	97.75
365.468	119.75
365.694	95.75
365.92	98.75
366.147	111.75
366.373	95.75
366.599	91.75
366.826	88.75
367.052	90.75
367.278	84.75
367.505	94.75
367.731	96.75
367.957	96.75
368.184	99.75
368.41	119.75
368.636	113.75
368.862	117.75
369.089	118.75
369.315	100.75
369.541	88.75
369.767	91.75
369.993	100.75
370.219	84.75
370.445	82.75
370.672	89.75
370.898	93.75
371.124	88.75
371.35	96.75
371.576	90.75
371.802	83.75
372.028	92.75
372.254	77.75
372.48	88.75
372.706	73.75
372.932	70.75
373.158	98.75
373.384	86.75
373.61	97.75
373.835	88.75
374.061	94.75
374.287	83.75
374.513	86.75
374.739	85.75
374.965	85.75
375.191	93.75
375.416	77.75
375.642	84.75
375.868	102.75
376.094	88.75
376.319	92.75
376.545	81.75
376.771	76.75
376.997	89.75
377.222	93.75
377.448	94.75
377.674	84.75
377.899	97.75
378.125	83.75
378.35	84.75
378.576	90.75
378.802	71.75
379.027	82.75
379.253	90.75
379.478	81.75
379.704	98.75
379.929	87.75
380.155	97.75
380.38	83.75
380.606	92.75
380.831	93.75
381.057	93.75
381.282	86.75
381.507	94.75
381.733	83.75
381.958	88.75
382.184	99.75
382.409	85.75
382.634	94.75
382.86	103.75
383.085	90.75
383.31	90.75
383.535	96.75
383.761	94.75
383.986	97.75
384.211	89.75
384.436	81.75
384.662	102.75
384.887	82.75
385.112	89.75
385.337	94.75
385.562	96.75
385.787	103.75
386.013	85.75
386.238	103.75
386.463	100.75
386.688	102.75
386.913	95.75
387.138	99.75
387.363	90.75
387.588	91.75
387.813	97.75
388.038	101.75
388.263	99.75
388.488	98.75
388.713	92.75
388.938	87.75
389.163	94.75
389.387	93.75
389.612	91.75
389.837	89.75
390.062	88.75
390.287	98.75
390.512	92.75
390.736	95.75
390.961	82.75
391.186	89.75
391.411	85.75
391.636	75.75
391.86	94.75
392.085	92.75
392.31	81.75
392.534	86.75
392.759	72.75
392.984	78.75
393.208	96.75
393.433	104.75
393.658	86.75
393.882	84.75
394.107	76.75
394.331	94.75
394.556	92.75
394.78	84.75
395.005	80.75
395.229	74.75
395.454	76.75
395.678	76.75
395.903	88.75
396.127	103.75
396.352	82.75
396.576	78.75
396.801	96.75
397.025	89.75
397.249	72.75
397.474	81.75
397.698	79.75
397.922	79.75
398.147	70.75
398.371	80.75
398.595	87.75
398.82	87.75
399.044	70.75
399.268	86.75
399.492	84.75
399.717	83.75
399.941	87.75
400.165	101.75
400.389	81.75
400.613	82.75
400.837	86.75
401.062	82.75
401.286	87.75
401.51	88.75
401.734	100.75
401.958	101.75
402.182	146.75
402.406	176.75
402.63	140.75
402.854	94.75
403.078	99.75
403.302	87.75
403.526	96.75
403.75	78.75
403.974	71.75
404.198	79.75
404.422	82.75
404.645	92.75
404.869	97.75
405.093	128.75
405.317	136.75
405.541	121.75
405.765	118.75
405.988	146.75
406.212	219.75
406.436	289.75
406.66	200.75
406.883	118.75
407.107	95.75
407.331	92.75
407.555	107.75
407.778	102.75
408.002	94.75
408.226	84.75
408.449	82.75
408.673	87.75
408.896	90.75
409.12	98.75
409.344	88.75
409.567	84.75
409.791	83.75
410.014	79.75
410.238	94.75
410.461	85.75
410.685	88.75
410.908	98.75
411.132	104.75
411.355	94.75
411.578	92.75
411.802	91.75
412.025	87.75
412.249	102.75
412.472	103.75
412.695	124.75
412.919	102.75
413.142	100.75
413.365	86.75
413.589	86.75
413.812	89.75
414.035	90.75
414.258	87.75
414.482	98.75
414.705	85.75
414.928	88.75
415.151	91.75
415.374	92.75
415.597	87.75
415.821	86.75
416.044	84.75
416.267	92.75
416.49	83.75
416.713	94.75
416.936	92.75
417.159	87.75
417.382	89.75
417.605	99.75
417.828	102.75
418.051	96.75
418.274	82.75
418.497	78.75
418.72	82.75
418.943	78.75
419.166	72.75
419.389	79.75
419.611	83.75
419.834	95.75
420.057	101.75
420.28	87.75
420.503	80.75
420.726	77.75
420.948	90.75
421.171	114.75
421.394	89.75
421.617	75.75
421.839	100.75
422.062	97.75
422.285	93.75
422.507	111.75
422.73	107.75
422.953	99.75
423.175	79.75
423.398	92.75
423.621	91.75
423.843	89.75
424.066	89.75
424.288	92.75
424.511	86.75
424.733	100.75
424.956	126.75
425.178	81.75
425.401	115.75
425.623	98.75
425.846	96.75
426.068	98.75
426.291	91.75
426.513	84.75
426.735	101.75
426.958	107.75
427.18	111.75
427.402	172.75
427.625	246.75
427.847	210.75
428.069	201.75
428.292	114.75
428.514	87.75
428.736	92.75
428.958	93.75
429.181	99.75
429.403	89.75
429.625	87.75
429.847	94.75
430.069	98.75
430.292	89.75
430.514	91.75
430.736	80.75
430.958	92.75
431.18	94.75
431.402	92.75
431.624	79.75
431.846	78.75
432.068	66.75
432.29	84.75
432.512	84.75
432.734	85.75
432.956	90.75
433.178	94.75
433.4	92.75
433.622	96.75
433.844	78.75
434.066	97.75
434.287	89.75
434.509	93.75
434.731	97.75
434.953	87.75
435.175	86.75
435.397	94.75
435.618	86.75
435.84	109.75
436.062	134.75
436.284	129.75
436.505	103.75
436.727	93.75
436.949	90.75
437.17	92.75
437.392	91.75
437.614	101.75
437.835	122.75
438.057	141.75
438.278	145.75
438.5	104.75
438.721	119.75
438.943	101.75
439.165	86.75
439.386	92.75
439.608	110.75
439.829	124.75
440.05	150.75
440.272	167.75
440.493	105.75
440.715	83.75
440.936	94.75
441.158	100.75
441.379	93.75
441.6	89.75
441.822	104.75
442.043	102.75
442.264	124.75
442.486	118.75
442.707	82.75
442.928	114.75
443.149	173.75
443.371	153.75
443.592	125.75
443.813	126.75
444.034	116.75
444.255	103.75
444.476	95.75
444.698	79.75
444.919	88.75
445.14	147.75
445.361	130.75
445.582	127.75
445.803	200.75
446.024	164.75
446.245	160.75
446.466	109.75
446.687	94.75
446.908	87.75
447.129	92.75
447.35	85.75
447.571	94.75
447.792	90.75
448.013	108.75
448.234	106.75
448.455	115.75
448.675	122.75
448.896	127.75
449.117	110.75
449.338	100.75
449.559	138.75
449.779	148.75
450	91.75
450.221	90.75
450.442	81.75
450.662	85.75
450.883	112.75
451.104	134.75
451.324	119.75
451.545	90.75
451.766	87.75
451.986	91.75
452.207	74.75
452.428	87.75
452.648	85.75
452.869	139.75
453.089	127.75
453.31	144.75
453.53	91.75
453.751	93.75
453.971	112.75
454.192	139.75
454.412	98.75
454.633	81.75
454.853	88.75
455.073	99.75
455.294	90.75
455.514	95.75
455.734	99.75
455.955	81.75
456.175	84.75
456.395	92.75
456.616	84.75
456.836	87.75
457.056	83.75
457.276	94.75
457.497	91.75
457.717	80.75
457.937	76.75
458.157	87.75
458.377	86.75
458.598	114.75
458.818	190.75
459.038	208.75
459.258	151.75
459.478	97.75
459.698	87.75
459.918	89.75
460.138	88.75
460.358	83.75
460.578	92.75
460.798	114.75
461.018	93.75
461.238	68.75
461.458	86.75
461.678	71.75
461.898	79.75
462.118	81.75
462.338	89.75
462.558	95.75
462.777	101.75
462.997	91.75
463.217	106.75
463.437	97.75
463.657	98.75
463.876	88.75
464.096	91.75
464.316	103.75
464.536	95.75
464.755	96.75
464.975	129.75
465.195	218.75
465.414	234.75
465.634	100.75
465.854	98.75
466.073	86.75
466.293	65.75
466.512	92.75
466.732	76.75
466.951	83.75
467.171	99.75
467.391	95.75
467.61	142.75
467.829	182.75
468.049	407.75
468.268	638.75
468.488	175.75
468.707	102.75
468.927	84.75
469.146	68.75
469.365	76.75
469.585	80.75
469.804	90.75
470.023	104.75
470.243	93.75
470.462	111.75
470.681	139.75
470.901	92.75
471.12	66.75
471.339	94.75
471.558	102.75
471.777	128.75
471.997	224.75
472.216	786.75
472.435	1842.75
472.654	451.75
472.873	143.75
473.092	106.75
473.311	102.75
473.53	94.75
473.749	85.75
473.968	99.75
474.187	119.75
474.406	100.75
474.625	91.75
474.844	81.75
475.063	75.75
475.282	77.75
475.501	87.75
475.72	94.75
475.939	93.75
476.158	94.75
476.377	87.75
476.596	93.75
476.814	110.75
477.033	86.75
477.252	95.75
477.471	101.75
477.69	87.75
477.908	87.75
478.127	106.75
478.346	98.75
478.564	99.75
478.783	98.75
479.002	102.75
479.22	99.75
479.439	123.75
479.658	127.75
479.876	119.75
480.095	106.75
480.313	104.75
480.532	143.75
480.751	238.75
480.969	735.75
481.188	3038.75
481.406	1895.75
481.624	299.75
481.843	128.75
482.061	115.75
482.28	99.75
482.498	95.75
482.717	98.75
482.935	95.75
483.153	87.75
483.372	92.75
483.59	100.75
483.808	92.75
484.027	89.75
484.245	98.75
484.463	101.75
484.681	94.75
484.9	86.75
485.118	92.75
485.336	92.75
485.554	98.75
485.772	84.75
485.99	104.75
486.209	95.75
486.427	110.75
486.645	122.75
486.863	128.75
487.081	88.75
487.299	80.75
487.517	91.75
487.735	105.75
487.953	95.75
488.171	92.75
488.389	96.75
488.607	86.75
488.825	86.75
489.043	88.75
489.261	93.75
489.479	91.75
489.696	93.75
489.914	86.75
490.132	96.75
490.35	97.75
490.568	92.75
490.786	100.75
491.003	94.75
491.221	91.75
491.439	92.75
491.657	93.75
491.874	82.75
492.092	80.75
492.31	90.75
492.527	97.75
492.745	92.75
492.963	98.75
493.18	94.75
493.398	88.75
493.615	85.75
493.833	90.75
494.05	84.75
494.268	80.75
494.485	87.75
494.703	87.75
494.92	94.75
495.138	90.75
495.355	84.75
495.573	103.75
495.79	83.75
496.008	95.75
496.225	91.75
496.442	81.75
496.66	90.75
496.877	93.75
497.094	83.75
497.312	83.75
497.529	79.75
497.746	85.75
497.963	89.75
498.181	94.75
498.398	98.75
498.615	115.75
498.832	110.75
499.049	87.75
499.267	90.75
499.484	92.75
499.701	89.75
499.918	92.75
500.135	98.75
500.352	88.75
500.569	93.75
500.786	99.75
501.003	89.75
501.22	103.75
501.437	93.75
501.654	100.75
501.871	128.75
502.088	91.75
502.305	104.75
502.522	83.75
502.739	97.75
502.956	80.75
503.172	91.75
503.389	102.75
503.606	117.75
503.823	95.75
504.04	103.75
504.256	95.75
504.473	86.75
504.69	98.75
504.907	96.75
505.123	96.75
505.34	79.75
505.557	86.75
505.773	83.75
505.99	98.75
506.207	98.75
506.423	101.75
506.64	77.75
506.856	94.75
507.073	108.75
507.289	85.75
507.506	111.75
507.722	128.75
507.939	119.75
508.155	99.75
508.372	90.75
508.588	92.75
508.805	83.75
509.021	92.75
509.238	94.75
509.454	98.75
509.67	101.75
509.887	97.75
510.103	143.75
510.319	240.75
510.536	875.75
510.752	2917.75
510.968	802.75
511.184	169.75
511.401	116.75
511.617	99.75
511.833	110.75
512.049	103.75
512.265	94.75
512.481	94.75
512.698	88.75
512.914	83.75
513.13	96.75
513.346	112.75
513.562	97.75
513.778	95.75
513.994	83.75
514.21	100.75
514.426	139.75
