Data from Circ_2004_H10_HRD10591_00010.txt Node
Date: Wed Jan 03 10:33:16 EST 2024
User: Yrep
Spectrometer: HR+D1059
Trigger mode: 1
Integration Time (sec): 1.000000E-1
Scans to average: 1
Electric dark correction enabled: true
Nonlinearity correction enabled: false
Boxcar width: 0
XAxis mode: Wavelengths
Number of Pixels in Spectrum: 2048
>>>>>Begin Spectral Data<<<<<
223.165	-10.12
223.4	-10.12
223.635	-10.12
223.869	-17.12
224.104	-12.12
224.338	-3.12
224.573	-18.12
224.808	-14.12
225.042	-18.12
225.277	-2.12
225.511	8.88
225.746	6.88
225.98	1.88
226.215	7.88
226.449	8.88
226.683	13.88
226.918	17.88
227.152	28.88
227.387	30.88
227.621	28.88
227.856	46.88
228.09	48.88
228.324	63.88
228.559	65.88
228.793	161.88
229.027	403.88
229.262	489.88
229.496	551.88
229.73	737.88
229.964	736.88
230.199	493.88
230.433	442.88
230.667	446.88
230.901	438.88
231.136	423.88
231.37	427.88
231.604	429.88
231.838	441.88
232.072	439.88
232.306	451.88
232.541	447.88
232.775	460.88
233.009	431.88
233.243	455.88
233.477	448.88
233.711	466.88
233.945	479.88
234.179	482.88
234.413	484.88
234.647	485.88
234.881	493.88
235.115	517.88
235.349	533.88
235.583	532.88
235.817	561.88
236.051	601.88
236.285	584.88
236.519	588.88
236.753	663.88
236.987	816.88
237.221	1242.88
237.455	1360.88
237.689	818.88
237.922	704.88
238.156	660.88
238.39	648.88
238.624	628.88
238.858	616.88
239.091	638.88
239.325	644.88
239.559	668.88
239.793	669.88
240.027	735.88
240.26	857.88
240.494	856.88
240.728	904.88
240.961	820.88
241.195	781.88
241.429	753.88
241.662	755.88
241.896	748.88
242.13	759.88
242.363	762.88
242.597	787.88
242.83	800.88
243.064	782.88
243.298	818.88
243.531	826.88
243.765	808.88
243.998	840.88
244.232	830.88
244.465	847.88
244.699	876.88
244.932	872.88
245.166	859.88
245.399	862.88
245.633	882.88
245.866	917.88
246.099	935.88
246.333	918.88
246.566	937.88
246.8	966.88
247.033	984.88
247.266	1011.88
247.5	1034.88
247.733	1128.88
247.966	1105.88
248.2	1124.88
248.433	1112.88
248.666	1192.88
248.899	1260.88
249.133	1394.88
249.366	1348.88
249.599	1289.88
249.832	1269.88
250.066	1380.88
250.299	1669.88
250.532	2066.88
250.765	2116.88
250.998	1911.88
251.231	1644.88
251.465	1477.88
251.698	1444.88
251.931	1421.88
252.164	1373.88
252.397	1400.88
252.63	1412.88
252.863	1498.88
253.096	1591.88
253.329	1643.88
253.562	1545.88
253.795	1504.88
254.028	1484.88
254.261	1563.88
254.494	1772.88
254.727	2041.88
254.96	2092.88
255.193	1973.88
255.426	1849.88
255.659	2085.88
255.892	2725.88
256.124	3449.88
256.357	2980.88
256.59	2276.88
256.823	1935.88
257.056	1719.88
257.289	1649.88
257.521	1633.88
257.754	1628.88
257.987	1577.88
258.22	1521.88
258.452	1574.88
258.685	1542.88
258.918	1552.88
259.151	1601.88
259.383	1647.88
259.616	1674.88
259.849	1691.88
260.081	1807.88
260.314	1956.88
260.547	1932.88
260.779	1777.88
261.012	1692.88
261.244	1649.88
261.477	1623.88
261.71	1655.88
261.942	1639.88
262.175	1708.88
262.407	1624.88
262.64	1585.88
262.872	1588.88
263.105	1556.88
263.337	1594.88
263.57	1664.88
263.802	1617.88
264.035	1620.88
264.267	1634.88
264.499	1626.88
264.732	1647.88
264.964	1628.88
265.197	1641.88
265.429	1692.88
265.661	1678.88
265.894	1648.88
266.126	1698.88
266.358	1712.88
266.591	1745.88
266.823	1813.88
267.055	1800.88
267.287	1799.88
267.52	1754.88
267.752	1803.88
267.984	1809.88
268.216	1840.88
268.448	1853.88
268.681	1914.88
268.913	2022.88
269.145	2188.88
269.377	2252.88
269.609	2169.88
269.841	2124.88
270.073	2198.88
270.306	2448.88
270.538	2596.88
270.77	2477.88
271.002	2314.88
271.234	2287.88
271.466	2438.88
271.698	2547.88
271.93	2595.88
272.162	2579.88
272.394	2474.88
272.626	2364.88
272.858	2226.88
273.09	2193.88
273.322	2252.88
273.553	2151.88
273.785	2126.88
274.017	2177.88
274.249	2208.88
274.481	2201.88
274.713	2217.88
274.945	2196.88
275.176	2243.88
275.408	2249.88
275.64	2286.88
275.872	2250.88
276.104	2316.88
276.335	2281.88
276.567	2418.88
276.799	2525.88
277.031	2775.88
277.262	2834.88
277.494	2768.88
277.726	2574.88
277.957	2474.88
278.189	2477.88
278.421	2412.88
278.652	2405.88
278.884	2380.88
279.115	2378.88
279.347	2406.88
279.579	2409.88
279.81	2458.88
280.042	2517.88
280.273	2584.88
280.505	2614.88
280.736	2481.88
280.968	2454.88
281.199	2436.88
281.431	2468.88
281.662	2467.88
281.894	2495.88
282.125	2514.88
282.356	2664.88
282.588	2740.88
282.819	2656.88
283.051	2540.88
283.282	2464.88
283.513	2517.88
283.745	2597.88
283.976	2575.88
284.207	2582.88
284.439	2622.88
284.67	2602.88
284.901	2590.88
285.132	2574.88
285.364	2578.88
285.595	2564.88
285.826	2614.88
286.057	2567.88
286.288	2624.88
286.52	2612.88
286.751	2638.88
286.982	2675.88
287.213	2700.88
287.444	2707.88
287.675	2788.88
287.906	2800.88
288.138	2901.88
288.369	2852.88
288.6	2812.88
288.831	2736.88
289.062	2764.88
289.293	2777.88
289.524	2779.88
289.755	2732.88
289.986	2770.88
290.217	2743.88
290.448	2724.88
290.679	2783.88
290.91	2727.88
291.141	2746.88
291.371	2714.88
291.602	2782.88
291.833	2698.88
292.064	2765.88
292.295	2735.88
292.526	2758.88
292.757	2760.88
292.987	2751.88
293.218	2753.88
293.449	2768.88
293.68	2764.88
293.91	2737.88
294.141	2798.88
294.372	2734.88
294.603	2807.88
294.833	2789.88
295.064	2845.88
295.295	2792.88
295.525	2791.88
295.756	2865.88
295.987	2958.88
296.217	3105.88
296.448	3033.88
296.679	2937.88
296.909	2863.88
297.14	2901.88
297.37	2930.88
297.601	2939.88
297.831	2940.88
298.062	2944.88
298.292	3003.88
298.523	2996.88
298.753	3051.88
298.984	3055.88
299.214	3029.88
299.445	3032.88
299.675	3025.88
299.905	3122.88
300.136	3022.88
300.366	3096.88
300.597	3102.88
300.827	3221.88
301.057	3257.88
301.288	3280.88
301.518	3208.88
301.748	3223.88
301.979	3324.88
302.209	3291.88
302.439	3272.88
302.669	3255.88
302.9	3233.88
303.13	3210.88
303.36	3293.88
303.59	3287.88
303.82	3369.88
304.051	3320.88
304.281	3214.88
304.511	3188.88
304.741	3232.88
304.971	3207.88
305.201	3233.88
305.431	3182.88
305.661	3282.88
305.891	3165.88
306.121	3227.88
306.352	3288.88
306.582	3281.88
306.812	3199.88
307.042	3216.88
307.272	3292.88
307.502	3324.88
307.731	3312.88
307.961	3237.88
308.191	3219.88
308.421	3257.88
308.651	3298.88
308.881	3251.88
309.111	3281.88
309.341	3282.88
309.571	3374.88
309.8	3420.88
310.03	3458.88
310.26	3561.88
310.49	3478.88
310.72	3607.88
310.949	3687.88
311.179	3659.88
311.409	3584.88
311.639	3576.88
311.868	3528.88
312.098	3573.88
312.328	3746.88
312.557	3790.88
312.787	3841.88
313.017	3775.88
313.246	3687.88
313.476	3665.88
313.706	3684.88
313.935	3734.88
314.165	3878.88
314.394	3840.88
314.624	3754.88
314.853	3689.88
315.083	3664.88
315.312	3632.88
315.542	3625.88
315.771	3588.88
316.001	3622.88
316.23	3604.88
316.46	3614.88
316.689	3701.88
316.919	3665.88
317.148	3707.88
317.377	3671.88
317.607	3683.88
317.836	3656.88
318.065	3649.88
318.295	3584.88
318.524	3594.88
318.753	3524.88
318.983	3595.88
319.212	3576.88
319.441	3712.88
319.67	3700.88
319.9	3608.88
320.129	3613.88
320.358	3606.88
320.587	3691.88
320.816	3745.88
321.046	3722.88
321.275	3738.88
321.504	3737.88
321.733	3840.88
321.962	3850.88
322.191	3953.88
322.42	4058.88
322.649	4108.88
322.878	4165.88
323.108	4265.88
323.337	4457.88
323.566	4639.88
323.795	4933.88
324.024	5385.88
324.253	6940.88
324.482	10132.88
324.71	14601.88
324.939	15610.88
325.168	11774.88
325.397	6361.88
325.626	5258.88
325.855	4885.88
326.084	4800.88
326.313	4850.88
326.542	4978.88
326.77	5530.88
326.999	6800.88
327.228	9677.88
327.457	13719.88
327.686	13187.88
327.914	7726.88
328.143	6887.88
328.372	6901.88
328.6	6149.88
328.829	5710.88
329.058	5831.88
329.287	5774.88
329.515	5689.88
329.744	5922.88
329.972	6837.88
330.201	8174.88
330.43	9038.88
330.658	7390.88
330.887	6648.88
331.115	5925.88
331.344	5400.88
331.572	5239.88
331.801	5304.88
332.03	5302.88
332.258	5248.88
332.486	5275.88
332.715	5424.88
332.943	5594.88
333.172	5815.88
333.4	6149.88
333.629	6511.88
333.857	7110.88
334.085	8067.88
334.314	9598.88
334.542	11270.88
334.771	10638.88
334.999	7482.88
335.227	6374.88
335.455	5818.88
335.684	5603.88
335.912	5257.88
336.14	5091.88
336.369	5069.88
336.597	5172.88
336.825	5022.88
337.053	4960.88
337.281	4865.88
337.51	4775.88
337.738	4793.88
337.966	4698.88
338.194	4636.88
338.422	4633.88
338.65	4552.88
338.878	4448.88
339.106	4502.88
339.334	4532.88
339.562	4400.88
339.79	4382.88
340.018	4337.88
340.246	4358.88
340.474	4354.88
340.702	4346.88
340.93	4329.88
341.158	4332.88
341.386	4331.88
341.614	4329.88
341.842	4330.88
342.07	4225.88
342.298	4251.88
342.526	4208.88
342.754	4245.88
342.981	4186.88
343.209	4262.88
343.437	4544.88
343.665	4751.88
343.893	5014.88
344.12	5017.88
344.348	4832.88
344.576	4723.88
344.804	4607.88
345.031	4527.88
345.259	4533.88
345.487	4327.88
345.714	4236.88
345.942	4079.88
346.17	4124.88
346.397	4066.88
346.625	4081.88
346.853	4067.88
347.08	4095.88
347.308	4110.88
347.535	4199.88
347.763	4208.88
347.99	4207.88
348.218	4189.88
348.445	4149.88
348.673	4076.88
348.9	4063.88
349.128	4003.88
349.355	3987.88
349.583	3993.88
349.81	3943.88
350.037	3949.88
350.265	3942.88
350.492	3940.88
350.72	3922.88
350.947	3971.88
351.174	4108.88
351.402	4158.88
351.629	4098.88
351.856	4054.88
352.083	4118.88
352.311	4160.88
352.538	4112.88
352.765	4114.88
352.992	4114.88
353.22	3973.88
353.447	3972.88
353.674	3932.88
353.901	3923.88
354.128	3890.88
354.355	3840.88
354.583	3914.88
354.81	3817.88
355.037	3875.88
355.264	3830.88
355.491	3874.88
355.718	3874.88
355.945	3911.88
356.172	3909.88
356.399	3850.88
356.626	3863.88
356.853	3897.88
357.08	3895.88
357.307	3923.88
357.534	3852.88
357.761	3897.88
357.988	3856.88
358.215	3925.88
358.441	3923.88
358.668	3934.88
358.895	3918.88
359.122	3958.88
359.349	4077.88
359.576	4108.88
359.802	4361.88
360.029	4494.88
360.256	4443.88
360.483	4292.88
360.709	4137.88
360.936	4099.88
361.163	4129.88
361.39	4135.88
361.616	4120.88
361.843	4026.88
362.07	4153.88
362.296	4133.88
362.523	4097.88
362.749	4033.88
362.976	4032.88
363.203	3948.88
363.429	3996.88
363.656	3935.88
363.882	4003.88
364.109	3961.88
364.335	3936.88
364.562	4014.88
364.788	3960.88
365.015	3982.88
365.241	3990.88
365.468	4000.88
365.694	3982.88
365.92	4014.88
366.147	4016.88
366.373	3988.88
366.599	3934.88
366.826	3927.88
367.052	3938.88
367.278	3961.88
367.505	3978.88
367.731	4009.88
367.957	3987.88
368.184	3991.88
368.41	4065.88
368.636	4127.88
368.862	4116.88
369.089	4041.88
369.315	4036.88
369.541	4080.88
369.767	4120.88
369.993	4037.88
370.219	4057.88
370.445	4130.88
370.672	4082.88
370.898	4082.88
371.124	4174.88
371.35	4238.88
371.576	4192.88
371.802	4180.88
372.028	4202.88
372.254	4247.88
372.48	4230.88
372.706	4349.88
372.932	4306.88
373.158	4328.88
373.384	4269.88
373.61	4267.88
373.835	4219.88
374.061	4268.88
374.287	4364.88
374.513	4375.88
374.739	4492.88
374.965	4614.88
375.191	4582.88
375.416	4500.88
375.642	4400.88
375.868	4383.88
376.094	4257.88
376.319	4242.88
376.545	4271.88
376.771	4260.88
376.997	4249.88
377.222	4206.88
377.448	4140.88
377.674	4206.88
377.899	4185.88
378.125	4133.88
378.35	4180.88
378.576	4169.88
378.802	4112.88
379.027	4174.88
379.253	4174.88
379.478	4167.88
379.704	4112.88
379.929	4216.88
380.155	4217.88
380.38	4173.88
380.606	4177.88
380.831	4198.88
381.057	4245.88
381.282	4165.88
381.507	4221.88
381.733	4282.88
381.958	4286.88
382.184	4372.88
382.409	4398.88
382.634	4403.88
382.86	4440.88
383.085	4506.88
383.31	4514.88
383.535	4661.88
383.761	4664.88
383.986	4812.88
384.211	4863.88
384.436	4912.88
384.662	4937.88
384.887	5109.88
385.112	5024.88
385.337	5112.88
385.562	5086.88
385.787	5096.88
386.013	5154.88
386.238	5210.88
386.463	5104.88
386.688	5142.88
386.913	5080.88
387.138	5046.88
387.363	5076.88
387.588	5032.88
387.813	5009.88
388.038	4999.88
388.263	5092.88
388.488	5015.88
388.713	5047.88
388.938	5020.88
389.163	5000.88
389.387	4937.88
389.612	4904.88
389.837	4926.88
390.062	4907.88
390.287	4975.88
390.512	4943.88
390.736	4973.88
390.961	5104.88
391.186	5171.88
391.411	5340.88
391.636	5445.88
391.86	5678.88
392.085	5644.88
392.31	5548.88
392.534	5460.88
392.759	5301.88
392.984	5231.88
393.208	5216.88
393.433	5279.88
393.658	5254.88
393.882	5286.88
394.107	5271.88
394.331	5286.88
394.556	5305.88
394.78	5367.88
395.005	5388.88
395.229	5386.88
395.454	5615.88
395.678	5654.88
395.903	5652.88
396.127	5710.88
396.352	5565.88
396.576	5363.88
396.801	5349.88
397.025	5414.88
397.249	5540.88
397.474	5678.88
397.698	5660.88
397.922	5841.88
398.147	5872.88
398.371	6018.88
398.595	6141.88
398.82	6390.88
399.044	6938.88
399.268	7685.88
399.492	8721.88
399.717	9370.88
399.941	9143.88
400.165	8478.88
400.389	7812.88
400.613	7066.88
400.837	6697.88
401.062	6487.88
401.286	6448.88
401.51	6343.88
401.734	6252.88
401.958	6514.88
402.182	6567.88
402.406	6685.88
402.63	6686.88
402.854	6827.88
403.078	6869.88
403.302	6985.88
403.526	7136.88
403.75	7134.88
403.974	7272.88
404.198	7299.88
404.422	7513.88
404.645	7522.88
404.869	7634.88
405.093	8032.88
405.317	8504.88
405.541	8420.88
405.765	7657.88
405.988	7349.88
406.212	7328.88
406.436	7423.88
406.66	7539.88
406.883	7566.88
407.107	8167.88
407.331	8648.88
407.555	9022.88
407.778	8738.88
408.002	7998.88
408.226	7706.88
408.449	7579.88
408.673	7409.88
408.896	7630.88
409.12	7774.88
409.344	7271.88
409.567	6959.88
409.791	6968.88
410.014	6920.88
410.238	6857.88
410.461	6881.88
410.685	6861.88
410.908	6950.88
411.132	7198.88
411.355	7206.88
411.578	6824.88
411.802	6705.88
412.025	6788.88
412.249	7190.88
412.472	7701.88
412.695	8142.88
412.919	7526.88
413.142	7166.88
413.365	6904.88
413.589	6724.88
413.812	6509.88
414.035	6380.88
414.258	6394.88
414.482	6384.88
414.705	6436.88
414.928	6345.88
415.151	6348.88
415.374	6337.88
415.597	6196.88
415.821	6102.88
416.044	6229.88
416.267	6147.88
416.49	6147.88
416.713	6125.88
416.936	6218.88
417.159	6231.88
417.382	6344.88
417.605	6385.88
417.828	6581.88
418.051	6492.88
418.274	6384.88
418.497	6309.88
418.72	6438.88
418.943	6340.88
419.166	6829.88
419.389	7201.88
419.611	7217.88
419.834	7066.88
420.057	7175.88
420.28	7305.88
420.503	7100.88
420.726	6943.88
420.948	6890.88
421.171	7078.88
421.394	7005.88
421.617	6435.88
421.839	6501.88
422.062	6517.88
422.285	6633.88
422.507	7187.88
422.73	7641.88
422.953	7115.88
423.175	6790.88
423.398	6800.88
423.621	6801.88
423.843	6957.88
424.066	6982.88
424.288	6895.88
424.511	7074.88
424.733	7474.88
424.956	7841.88
425.178	7372.88
425.401	7582.88
425.623	7472.88
425.846	6559.88
426.068	6414.88
426.291	6340.88
426.513	6336.88
426.735	6421.88
426.958	6932.88
427.18	7626.88
427.402	8738.88
427.625	8872.88
427.847	8032.88
428.069	7719.88
428.292	6748.88
428.514	6147.88
428.736	5933.88
428.958	5869.88
429.181	5653.88
429.403	5700.88
429.625	5825.88
429.847	6132.88
430.069	6526.88
430.292	6114.88
430.514	5705.88
430.736	5628.88
430.958	5521.88
431.18	5493.88
431.402	5496.88
431.624	5481.88
431.846	5555.88
432.068	5523.88
432.29	5613.88
432.512	5509.88
432.734	5714.88
432.956	5528.88
433.178	5615.88
433.4	5697.88
433.622	5562.88
433.844	5594.88
434.066	5588.88
434.287	5720.88
434.509	5912.88
434.731	6172.88
434.953	6315.88
435.175	6403.88
435.397	6496.88
435.618	6358.88
435.84	6778.88
436.062	7503.88
436.284	7462.88
436.505	6297.88
436.727	6038.88
436.949	5750.88
437.17	5719.88
437.392	5619.88
437.614	5739.88
437.835	6086.88
438.057	7002.88
438.278	7621.88
438.5	7514.88
438.721	8286.88
438.943	7297.88
439.165	6190.88
439.386	6057.88
439.608	5994.88
439.829	6179.88
440.05	6401.88
440.272	6680.88
440.493	6198.88
440.715	5981.88
440.936	5865.88
441.158	5994.88
441.379	6162.88
441.6	6332.88
441.822	6558.88
442.043	7056.88
442.264	7677.88
442.486	7456.88
442.707	6644.88
442.928	6515.88
443.149	6735.88
443.371	6853.88
443.592	7350.88
443.813	8252.88
444.034	8286.88
444.255	7192.88
444.476	7158.88
444.698	7328.88
444.919	7244.88
445.14	7109.88
445.361	6981.88
445.582	7121.88
445.803	7688.88
446.024	8269.88
446.245	7852.88
446.466	7070.88
446.687	6206.88
446.908	5897.88
447.129	5619.88
447.35	5467.88
447.571	5467.88
447.792	5289.88
448.013	5510.88
448.234	5633.88
448.455	6248.88
448.675	7344.88
448.896	7821.88
449.117	6446.88
449.338	6570.88
449.559	7780.88
449.779	8030.88
450	6154.88
450.221	5541.88
450.442	5353.88
450.662	5246.88
450.883	5320.88
451.104	5437.88
451.324	5338.88
451.545	5139.88
451.766	5055.88
451.986	4952.88
452.207	4874.88
452.428	4910.88
452.648	4930.88
452.869	4910.88
453.089	4964.88
453.31	5076.88
453.53	4943.88
453.751	4908.88
453.971	4916.88
454.192	4996.88
454.412	4809.88
454.633	4810.88
454.853	4718.88
455.073	4851.88
455.294	5118.88
455.514	5604.88
455.734	5172.88
455.955	4710.88
456.175	4633.88
456.395	4564.88
456.616	4544.88
456.836	4528.88
457.056	4514.88
457.276	4517.88
457.497	4657.88
457.717	4628.88
457.937	4693.88
458.157	4727.88
458.377	4791.88
458.598	5176.88
458.818	5733.88
459.038	6436.88
459.258	6388.88
459.478	5774.88
459.698	5690.88
459.918	5737.88
460.138	5902.88
460.358	6160.88
460.578	6173.88
460.798	6252.88
461.018	6214.88
461.238	6090.88
461.458	6106.88
461.678	6071.88
461.898	6205.88
462.118	6223.88
462.338	6616.88
462.558	6654.88
462.777	7018.88
462.997	7595.88
463.217	7944.88
463.437	7635.88
463.657	7158.88
463.876	7007.88
464.096	7027.88
464.316	7009.88
464.536	7083.88
464.755	6815.88
464.975	6666.88
465.195	6840.88
465.414	6897.88
465.634	6112.88
465.854	5723.88
466.073	5550.88
466.293	5421.88
466.512	5189.88
466.732	5177.88
466.951	5085.88
467.171	5171.88
467.391	5238.88
467.61	5319.88
467.829	5375.88
468.049	5615.88
468.268	5999.88
468.488	5471.88
468.707	5146.88
468.927	5075.88
469.146	5039.88
469.365	5141.88
469.585	5059.88
469.804	5250.88
470.023	5373.88
470.243	5346.88
470.462	5440.88
470.681	5538.88
470.901	5443.88
471.12	5349.88
471.339	5377.88
471.558	5384.88
471.777	5331.88
471.997	5396.88
472.216	6360.88
472.435	8263.88
472.654	7076.88
472.873	5963.88
473.092	5577.88
473.311	5348.88
473.53	5326.88
473.749	5351.88
473.968	5750.88
474.187	6617.88
474.406	6206.88
474.625	5331.88
474.844	5087.88
475.063	5049.88
475.282	5048.88
475.501	5117.88
475.72	5153.88
475.939	5129.88
476.158	5196.88
476.377	5246.88
476.596	5155.88
476.814	5303.88
477.033	5290.88
477.252	5400.88
477.471	5508.88
477.69	5684.88
477.908	5765.88
478.127	5825.88
478.346	5913.88
478.564	6001.88
478.783	6104.88
479.002	6284.88
479.22	6260.88
479.439	6358.88
479.658	6465.88
479.876	6570.88
480.095	6782.88
480.313	7308.88
480.532	7244.88
480.751	7472.88
480.969	8244.88
481.188	11454.88
481.406	12050.88
481.624	8964.88
481.843	7593.88
482.061	6937.88
482.28	6645.88
482.498	6423.88
482.717	6193.88
482.935	6176.88
483.153	6099.88
483.372	6036.88
483.59	6065.88
483.808	6020.88
484.027	5982.88
484.245	6017.88
484.463	6078.88
484.681	6165.88
484.9	6204.88
485.118	6163.88
485.336	6111.88
485.554	6261.88
485.772	6379.88
485.99	6338.88
486.209	6391.88
486.427	6361.88
486.645	6413.88
486.863	6524.88
487.081	6494.88
487.299	6536.88
487.517	6325.88
487.735	6384.88
487.953	6393.88
