Data from Circ_2004_H10_HRD10591_00050.txt Node
Date: Wed Jan 03 10:33:24 EST 2024
User: Yrep
Spectrometer: HR+D1059
Trigger mode: 1
Integration Time (sec): 1.000000E-1
Scans to average: 1
Electric dark correction enabled: true
Nonlinearity correction enabled: false
Boxcar width: 0
XAxis mode: Wavelengths
Number of Pixels in Spectrum: 2048
>>>>>Begin Spectral Data<<<<<
223.165	-10.25
223.4	-10.25
223.635	-10.25
223.869	-36.25
224.104	-32.25
224.338	-7.25
224.573	-17.25
224.808	6.75
225.042	-10.25
225.277	-11.25
225.511	-16.25
225.746	5.75
225.98	11.75
226.215	9.75
226.449	24.75
226.683	19.75
226.918	20.75
227.152	41.75
227.387	21.75
227.621	34.75
227.856	39.75
228.09	27.75
228.324	37.75
228.559	65.75
228.793	44.75
229.027	45.75
229.262	71.75
229.496	78.75
229.73	85.75
229.964	86.75
230.199	77.75
230.433	80.75
230.667	77.75
230.901	70.75
231.136	75.75
231.37	68.75
231.604	79.75
231.838	75.75
232.072	87.75
232.306	85.75
232.541	76.75
232.775	79.75
233.009	70.75
233.243	74.75
233.477	83.75
233.711	57.75
233.945	64.75
234.179	83.75
234.413	84.75
234.647	78.75
234.881	60.75
235.115	83.75
235.349	68.75
235.583	79.75
235.817	77.75
236.051	84.75
236.285	65.75
236.519	71.75
236.753	60.75
236.987	78.75
237.221	81.75
237.455	71.75
237.689	71.75
237.922	66.75
238.156	67.75
238.39	62.75
238.624	74.75
238.858	71.75
239.091	75.75
239.325	79.75
239.559	67.75
239.793	77.75
240.027	71.75
240.26	66.75
240.494	78.75
240.728	61.75
240.961	70.75
241.195	77.75
241.429	82.75
241.662	78.75
241.896	63.75
242.13	72.75
242.363	63.75
242.597	73.75
242.83	67.75
243.064	68.75
243.298	84.75
243.531	52.75
243.765	84.75
243.998	73.75
244.232	80.75
244.465	75.75
244.699	63.75
244.932	86.75
245.166	75.75
245.399	71.75
245.633	71.75
245.866	66.75
246.099	70.75
246.333	68.75
246.566	71.75
246.8	72.75
247.033	72.75
247.266	69.75
247.5	81.75
247.733	68.75
247.966	75.75
248.2	74.75
248.433	73.75
248.666	75.75
248.899	75.75
249.133	81.75
249.366	81.75
249.599	96.75
249.832	62.75
250.066	81.75
250.299	76.75
250.532	84.75
250.765	75.75
250.998	68.75
251.231	69.75
251.465	77.75
251.698	76.75
251.931	68.75
252.164	71.75
252.397	83.75
252.63	73.75
252.863	69.75
253.096	67.75
253.329	85.75
253.562	71.75
253.795	69.75
254.028	69.75
254.261	67.75
254.494	89.75
254.727	82.75
254.96	80.75
255.193	81.75
255.426	80.75
255.659	80.75
255.892	74.75
256.124	82.75
256.357	52.75
256.59	72.75
256.823	78.75
257.056	75.75
257.289	79.75
257.521	82.75
257.754	72.75
257.987	76.75
258.22	76.75
258.452	87.75
258.685	65.75
258.918	74.75
259.151	71.75
259.383	64.75
259.616	85.75
259.849	75.75
260.081	90.75
260.314	100.75
260.547	88.75
260.779	82.75
261.012	79.75
261.244	76.75
261.477	80.75
261.71	100.75
261.942	91.75
262.175	106.75
262.407	83.75
262.64	91.75
262.872	65.75
263.105	75.75
263.337	84.75
263.57	80.75
263.802	83.75
264.035	71.75
264.267	91.75
264.499	67.75
264.732	85.75
264.964	59.75
265.197	86.75
265.429	66.75
265.661	83.75
265.894	80.75
266.126	73.75
266.358	78.75
266.591	81.75
266.823	72.75
267.055	75.75
267.287	73.75
267.52	80.75
267.752	77.75
267.984	73.75
268.216	91.75
268.448	67.75
268.681	77.75
268.913	69.75
269.145	75.75
269.377	84.75
269.609	74.75
269.841	67.75
270.073	78.75
270.306	76.75
270.538	82.75
270.77	83.75
271.002	58.75
271.234	68.75
271.466	71.75
271.698	76.75
271.93	88.75
272.162	82.75
272.394	85.75
272.626	65.75
272.858	73.75
273.09	69.75
273.322	80.75
273.553	85.75
273.785	83.75
274.017	82.75
274.249	82.75
274.481	75.75
274.713	79.75
274.945	69.75
275.176	80.75
275.408	80.75
275.64	81.75
275.872	84.75
276.104	75.75
276.335	84.75
276.567	90.75
276.799	92.75
277.031	106.75
277.262	95.75
277.494	81.75
277.726	72.75
277.957	96.75
278.189	82.75
278.421	81.75
278.652	76.75
278.884	80.75
279.115	81.75
279.347	74.75
279.579	74.75
279.81	81.75
280.042	97.75
280.273	101.75
280.505	87.75
280.736	90.75
280.968	75.75
281.199	86.75
281.431	79.75
281.662	84.75
281.894	74.75
282.125	83.75
282.356	100.75
282.588	116.75
282.819	87.75
283.051	84.75
283.282	79.75
283.513	79.75
283.745	80.75
283.976	89.75
284.207	96.75
284.439	79.75
284.67	75.75
284.901	82.75
285.132	76.75
285.364	74.75
285.595	83.75
285.826	84.75
286.057	84.75
286.288	81.75
286.52	79.75
286.751	90.75
286.982	85.75
287.213	75.75
287.444	75.75
287.675	72.75
287.906	91.75
288.138	93.75
288.369	93.75
288.6	97.75
288.831	84.75
289.062	78.75
289.293	79.75
289.524	89.75
289.755	81.75
289.986	88.75
290.217	77.75
290.448	69.75
290.679	81.75
290.91	86.75
291.141	88.75
291.371	85.75
291.602	92.75
291.833	91.75
292.064	76.75
292.295	78.75
292.526	77.75
292.757	76.75
292.987	75.75
293.218	84.75
293.449	80.75
293.68	77.75
293.91	81.75
294.141	61.75
294.372	81.75
294.603	83.75
294.833	89.75
295.064	80.75
295.295	83.75
295.525	80.75
295.756	99.75
295.987	108.75
296.217	105.75
296.448	107.75
296.679	85.75
296.909	91.75
297.14	79.75
297.37	84.75
297.601	74.75
297.831	79.75
298.062	90.75
298.292	92.75
298.523	75.75
298.753	80.75
298.984	82.75
299.214	96.75
299.445	84.75
299.675	83.75
299.905	78.75
300.136	85.75
300.366	53.75
300.597	82.75
300.827	89.75
301.057	100.75
301.288	90.75
301.518	93.75
301.748	85.75
301.979	82.75
302.209	96.75
302.439	92.75
302.669	86.75
302.9	85.75
303.13	86.75
303.36	85.75
303.59	85.75
303.82	94.75
304.051	81.75
304.281	89.75
304.511	87.75
304.741	79.75
304.971	81.75
305.201	82.75
305.431	73.75
305.661	82.75
305.891	80.75
306.121	88.75
306.352	111.75
306.582	93.75
306.812	93.75
307.042	76.75
307.272	93.75
307.502	108.75
307.731	107.75
307.961	83.75
308.191	85.75
308.421	78.75
308.651	80.75
308.881	83.75
309.111	95.75
309.341	91.75
309.571	81.75
309.8	95.75
310.03	93.75
310.26	82.75
310.49	82.75
310.72	66.75
310.949	99.75
311.179	72.75
311.409	90.75
311.639	84.75
311.868	88.75
312.098	90.75
312.328	84.75
312.557	91.75
312.787	106.75
313.017	81.75
313.246	94.75
313.476	98.75
313.706	88.75
313.935	90.75
314.165	85.75
314.394	84.75
314.624	78.75
314.853	94.75
315.083	80.75
315.312	92.75
315.542	90.75
315.771	107.75
316.001	84.75
316.23	88.75
316.46	95.75
316.689	99.75
316.919	66.75
317.148	75.75
317.377	82.75
317.607	89.75
317.836	83.75
318.065	83.75
318.295	83.75
318.524	73.75
318.753	75.75
318.983	91.75
319.212	92.75
319.441	96.75
319.67	100.75
319.9	89.75
320.129	84.75
320.358	86.75
320.587	92.75
320.816	89.75
321.046	100.75
321.275	84.75
321.504	88.75
321.733	81.75
321.962	87.75
322.191	109.75
322.42	84.75
322.649	92.75
322.878	110.75
323.108	108.75
323.337	123.75
323.566	120.75
323.795	131.75
324.024	208.75
324.253	378.75
324.482	820.75
324.71	1671.75
324.939	2251.75
325.168	813.75
325.397	243.75
325.626	146.75
325.855	137.75
326.084	107.75
326.313	128.75
326.542	130.75
326.77	223.75
326.999	434.75
327.228	946.75
327.457	1720.75
327.686	1342.75
327.914	365.75
328.143	235.75
328.372	220.75
328.6	154.75
328.829	108.75
329.058	127.75
329.287	119.75
329.515	109.75
329.744	126.75
329.972	169.75
330.201	274.75
330.43	367.75
330.658	206.75
330.887	145.75
331.115	112.75
331.344	103.75
331.572	103.75
331.801	88.75
332.03	97.75
332.258	80.75
332.486	98.75
332.715	80.75
332.943	67.75
333.172	89.75
333.4	68.75
333.629	110.75
333.857	131.75
334.085	177.75
334.314	281.75
334.542	460.75
334.771	424.75
334.999	170.75
335.227	114.75
335.455	81.75
335.684	85.75
335.912	98.75
336.14	93.75
336.369	107.75
336.597	95.75
336.825	79.75
337.053	98.75
337.281	95.75
337.51	78.75
337.738	89.75
337.966	82.75
338.194	79.75
338.422	92.75
338.65	89.75
338.878	95.75
339.106	90.75
339.334	85.75
339.562	83.75
339.79	81.75
340.018	94.75
340.246	81.75
340.474	86.75
340.702	90.75
340.93	82.75
341.158	88.75
341.386	101.75
341.614	82.75
341.842	95.75
342.07	102.75
342.298	98.75
342.526	66.75
342.754	94.75
342.981	93.75
343.209	87.75
343.437	82.75
343.665	82.75
343.893	90.75
344.12	85.75
344.348	80.75
344.576	79.75
344.804	82.75
345.031	100.75
345.259	86.75
345.487	93.75
345.714	91.75
345.942	95.75
346.17	88.75
346.397	88.75
346.625	95.75
346.853	101.75
347.08	83.75
347.308	93.75
347.535	90.75
347.763	97.75
347.99	93.75
348.218	83.75
348.445	87.75
348.673	97.75
348.9	94.75
349.128	102.75
349.355	86.75
349.583	80.75
349.81	91.75
350.037	94.75
350.265	98.75
350.492	96.75
350.72	98.75
350.947	95.75
351.174	107.75
351.402	95.75
351.629	91.75
351.856	104.75
352.083	88.75
352.311	93.75
352.538	91.75
352.765	109.75
352.992	116.75
353.22	104.75
353.447	99.75
353.674	91.75
353.901	80.75
354.128	84.75
354.355	93.75
354.583	92.75
354.81	89.75
355.037	88.75
355.264	98.75
355.491	88.75
355.718	82.75
355.945	82.75
356.172	82.75
356.399	84.75
356.626	92.75
356.853	100.75
357.08	77.75
357.307	82.75
357.534	96.75
357.761	97.75
357.988	73.75
358.215	88.75
358.441	93.75
358.668	77.75
358.895	88.75
359.122	90.75
359.349	76.75
359.576	89.75
359.802	100.75
360.029	102.75
360.256	108.75
360.483	102.75
360.709	91.75
360.936	87.75
361.163	95.75
361.39	76.75
361.616	93.75
361.843	68.75
362.07	79.75
362.296	99.75
362.523	103.75
362.749	86.75
362.976	91.75
363.203	89.75
363.429	76.75
363.656	89.75
363.882	85.75
364.109	89.75
364.335	89.75
364.562	85.75
364.788	75.75
365.015	74.75
365.241	91.75
365.468	87.75
365.694	101.75
365.92	85.75
366.147	98.75
366.373	83.75
366.599	74.75
366.826	88.75
367.052	90.75
367.278	81.75
367.505	90.75
367.731	91.75
367.957	77.75
368.184	95.75
368.41	89.75
368.636	103.75
368.862	99.75
369.089	100.75
369.315	96.75
369.541	91.75
369.767	90.75
369.993	90.75
370.219	85.75
370.445	83.75
370.672	92.75
370.898	88.75
371.124	91.75
371.35	66.75
371.576	71.75
371.802	79.75
372.028	82.75
372.254	89.75
372.48	96.75
372.706	86.75
372.932	74.75
373.158	92.75
373.384	76.75
373.61	91.75
373.835	84.75
374.061	82.75
374.287	84.75
374.513	90.75
374.739	75.75
374.965	88.75
375.191	79.75
375.416	83.75
375.642	72.75
375.868	98.75
376.094	82.75
376.319	90.75
376.545	92.75
376.771	76.75
376.997	90.75
377.222	88.75
377.448	89.75
377.674	79.75
377.899	96.75
378.125	83.75
378.35	80.75
378.576	87.75
378.802	85.75
379.027	95.75
379.253	82.75
379.478	76.75
379.704	91.75
379.929	97.75
380.155	96.75
380.38	84.75
380.606	80.75
380.831	100.75
381.057	107.75
381.282	81.75
381.507	94.75
381.733	75.75
381.958	87.75
382.184	89.75
382.409	89.75
382.634	87.75
382.86	89.75
383.085	85.75
383.31	96.75
383.535	98.75
383.761	91.75
383.986	95.75
384.211	82.75
384.436	100.75
384.662	102.75
384.887	89.75
385.112	92.75
385.337	87.75
385.562	85.75
385.787	112.75
386.013	93.75
386.238	113.75
386.463	93.75
386.688	107.75
386.913	88.75
387.138	84.75
387.363	104.75
387.588	98.75
387.813	90.75
388.038	95.75
388.263	112.75
388.488	80.75
388.713	100.75
388.938	95.75
389.163	97.75
389.387	84.75
389.612	79.75
389.837	92.75
390.062	93.75
390.287	90.75
390.512	99.75
390.736	88.75
390.961	91.75
391.186	78.75
391.411	85.75
391.636	91.75
391.86	83.75
392.085	78.75
392.31	73.75
392.534	82.75
392.759	82.75
392.984	82.75
393.208	71.75
393.433	92.75
393.658	84.75
393.882	73.75
394.107	82.75
394.331	83.75
394.556	82.75
394.78	82.75
395.005	64.75
395.229	83.75
395.454	75.75
395.678	75.75
395.903	87.75
396.127	84.75
396.352	81.75
396.576	77.75
396.801	84.75
397.025	76.75
397.249	79.75
397.474	84.75
397.698	80.75
397.922	79.75
398.147	87.75
398.371	80.75
398.595	81.75
398.82	77.75
399.044	83.75
399.268	86.75
399.492	92.75
399.717	76.75
399.941	76.75
400.165	78.75
400.389	92.75
400.613	69.75
400.837	78.75
401.062	78.75
401.286	75.75
401.51	85.75
401.734	84.75
401.958	74.75
402.182	107.75
402.406	132.75
402.63	91.75
402.854	82.75
403.078	83.75
403.302	81.75
403.526	85.75
403.75	95.75
403.974	65.75
404.198	79.75
404.422	93.75
404.645	81.75
404.869	98.75
405.093	95.75
405.317	107.75
405.541	107.75
405.765	91.75
405.988	101.75
406.212	139.75
406.436	193.75
406.66	126.75
406.883	98.75
407.107	83.75
407.331	85.75
407.555	105.75
407.778	101.75
408.002	82.75
408.226	82.75
408.449	86.75
408.673	84.75
408.896	89.75
409.12	89.75
409.344	93.75
409.567	93.75
409.791	82.75
410.014	73.75
410.238	76.75
410.461	82.75
410.685	90.75
410.908	88.75
411.132	89.75
411.355	75.75
411.578	93.75
411.802	85.75
412.025	85.75
412.249	94.75
412.472	98.75
412.695	105.75
412.919	93.75
413.142	94.75
413.365	92.75
413.589	90.75
413.812	77.75
414.035	83.75
414.258	81.75
414.482	81.75
414.705	79.75
414.928	78.75
415.151	76.75
415.374	78.75
415.597	65.75
415.821	75.75
416.044	76.75
416.267	59.75
416.49	65.75
416.713	89.75
416.936	81.75
417.159	87.75
417.382	84.75
417.605	96.75
417.828	96.75
418.051	76.75
418.274	74.75
418.497	80.75
418.72	86.75
418.943	83.75
419.166	84.75
419.389	81.75
419.611	76.75
419.834	83.75
420.057	75.75
420.28	95.75
420.503	96.75
420.726	86.75
420.948	92.75
421.171	84.75
421.394	83.75
421.617	74.75
421.839	100.75
422.062	94.75
422.285	86.75
422.507	92.75
422.73	104.75
422.953	84.75
423.175	95.75
423.398	78.75
423.621	77.75
423.843	89.75
424.066	81.75
424.288	79.75
424.511	87.75
424.733	89.75
424.956	106.75
425.178	89.75
425.401	96.75
425.623	89.75
425.846	93.75
426.068	105.75
426.291	95.75
426.513	82.75
426.735	88.75
426.958	84.75
427.18	115.75
427.402	146.75
427.625	170.75
427.847	129.75
428.069	145.75
428.292	84.75
428.514	78.75
428.736	79.75
428.958	85.75
429.181	88.75
429.403	78.75
429.625	93.75
429.847	85.75
430.069	106.75
430.292	98.75
430.514	77.75
430.736	85.75
430.958	82.75
431.18	77.75
431.402	84.75
431.624	84.75
431.846	83.75
432.068	81.75
432.29	73.75
432.512	81.75
432.734	83.75
432.956	85.75
433.178	85.75
433.4	93.75
433.622	90.75
433.844	89.75
434.066	80.75
434.287	95.75
434.509	94.75
434.731	80.75
434.953	95.75
435.175	68.75
435.397	78.75
435.618	78.75
435.84	97.75
436.062	95.75
436.284	118.75
436.505	99.75
436.727	92.75
436.949	80.75
437.17	89.75
437.392	77.75
437.614	80.75
437.835	98.75
438.057	96.75
438.278	107.75
438.5	93.75
438.721	97.75
438.943	91.75
439.165	80.75
439.386	68.75
439.608	76.75
439.829	92.75
440.05	121.75
440.272	139.75
440.493	88.75
440.715	102.75
440.936	83.75
441.158	93.75
441.379	72.75
441.6	86.75
441.822	91.75
442.043	93.75
442.264	109.75
442.486	88.75
442.707	86.75
442.928	100.75
443.149	108.75
443.371	108.75
443.592	105.75
443.813	95.75
444.034	101.75
444.255	91.75
444.476	90.75
444.698	93.75
444.919	76.75
445.14	115.75
445.361	108.75
445.582	110.75
445.803	123.75
446.024	114.75
446.245	133.75
446.466	87.75
446.687	69.75
446.908	104.75
447.129	81.75
447.35	76.75
447.571	80.75
447.792	83.75
448.013	95.75
448.234	107.75
448.455	97.75
448.675	122.75
448.896	98.75
449.117	95.75
449.338	100.75
449.559	123.75
449.779	121.75
450	92.75
450.221	92.75
450.442	69.75
450.662	91.75
450.883	77.75
451.104	106.75
451.324	75.75
451.545	91.75
451.766	87.75
451.986	84.75
452.207	85.75
452.428	89.75
452.648	95.75
452.869	95.75
453.089	97.75
453.31	96.75
453.53	80.75
453.751	76.75
453.971	93.75
454.192	100.75
454.412	78.75
454.633	83.75
454.853	80.75
455.073	75.75
455.294	73.75
455.514	80.75
455.734	74.75
455.955	83.75
456.175	80.75
456.395	75.75
456.616	82.75
456.836	79.75
457.056	80.75
457.276	85.75
457.497	83.75
457.717	87.75
457.937	110.75
458.157	91.75
458.377	64.75
458.598	80.75
458.818	130.75
459.038	147.75
459.258	97.75
459.478	72.75
459.698	78.75
459.918	81.75
460.138	81.75
460.358	76.75
460.578	81.75
460.798	73.75
461.018	93.75
461.238	84.75
461.458	62.75
461.678	75.75
461.898	81.75
462.118	83.75
462.338	81.75
462.558	85.75
462.777	77.75
462.997	68.75
463.217	84.75
463.437	83.75
463.657	81.75
463.876	85.75
464.096	75.75
464.316	88.75
464.536	81.75
464.755	77.75
464.975	98.75
465.195	152.75
465.414	148.75
465.634	85.75
465.854	78.75
466.073	81.75
466.293	84.75
466.512	83.75
466.732	87.75
466.951	89.75
467.171	84.75
467.391	88.75
467.61	95.75
467.829	115.75
468.049	184.75
468.268	233.75
468.488	98.75
468.707	83.75
468.927	88.75
469.146	81.75
469.365	96.75
469.585	86.75
469.804	80.75
470.023	75.75
470.243	91.75
470.462	81.75
470.681	90.75
470.901	83.75
471.12	76.75
471.339	82.75
471.558	79.75
471.777	94.75
471.997	141.75
472.216	331.75
472.435	587.75
472.654	189.75
472.873	94.75
473.092	83.75
473.311	90.75
473.53	83.75
473.749	84.75
473.968	95.75
474.187	102.75
474.406	97.75
474.625	91.75
474.844	89.75
475.063	76.75
475.282	91.75
475.501	93.75
475.72	79.75
475.939	89.75
476.158	90.75
476.377	73.75
476.596	88.75
476.814	77.75
477.033	85.75
477.252	77.75
477.471	82.75
477.69	78.75
477.908	80.75
478.127	74.75
478.346	91.75
478.564	93.75
478.783	95.75
479.002	80.75
479.22	71.75
479.439	95.75
479.658	95.75
479.876	85.75
480.095	94.75
480.313	79.75
480.532	112.75
480.751	137.75
480.969	304.75
481.188	1020.75
481.406	607.75
481.624	139.75
481.843	95.75
482.061	88.75
482.28	103.75
482.498	90.75
482.717	73.75
482.935	81.75
483.153	72.75
483.372	77.75
483.59	81.75
483.808	94.75
484.027	91.75
484.245	84.75
484.463	88.75
484.681	95.75
484.9	98.75
485.118	86.75
485.336	101.75
485.554	82.75
485.772	84.75
485.99	107.75
486.209	87.75
486.427	98.75
486.645	90.75
486.863	101.75
487.081	82.75
487.299	86.75
487.517	93.75
487.735	79.75
487.953	83.75
488.171	92.75
488.389	84.75
488.607	96.75
488.825	83.75
489.043	81.75
489.261	82.75
489.479	92.75
489.696	83.75
489.914	94.75
490.132	94.75
490.35	93.75
490.568	77.75
490.786	90.75
491.003	89.75
491.221	94.75
491.439	81.75
491.657	82.75
491.874	79.75
492.092	88.75
492.31	84.75
492.527	78.75
492.745	94.75
492.963	88.75
493.18	95.75
493.398	84.75
493.615	90.75
493.833	89.75
494.05	82.75
494.268	90.75
494.485	83.75
494.703	94.75
494.92	77.75
495.138	94.75
495.355	90.75
495.573	90.75
495.79	74.75
496.008	81.75
496.225	83.75
496.442	80.75
496.66	90.75
496.877	93.75
497.094	78.75
497.312	84.75
497.529	88.75
497.746	74.75
497.963	84.75
498.181	94.75
498.398	85.75
498.615	88.75
498.832	96.75
499.049	102.75
499.267	76.75
499.484	84.75
499.701	82.75
499.918	83.75
500.135	91.75
500.352	80.75
500.569	81.75
500.786	83.75
501.003	77.75
501.22	77.75
501.437	87.75
501.654	84.75
501.871	106.75
502.088	92.75
502.305	80.75
502.522	86.75
502.739	85.75
502.956	79.75
503.172	84.75
503.389	85.75
503.606	73.75
503.823	90.75
504.04	106.75
504.256	83.75
504.473	73.75
504.69	82.75
504.907	89.75
505.123	80.75
505.34	77.75
505.557	68.75
505.773	72.75
505.99	97.75
506.207	84.75
506.423	87.75
506.64	90.75
506.856	89.75
507.073	88.75
507.289	92.75
507.506	73.75
507.722	91.75
507.939	100.75
508.155	99.75
508.372	92.75
508.588	82.75
508.805	98.75
509.021	105.75
509.238	75.75
509.454	84.75
509.67	97.75
509.887	96.75
510.103	107.75
510.319	173.75
510.536	605.75
510.752	1853.75
510.968	546.75
511.184	134.75
511.401	107.75
511.617	81.75
511.833	88.75
512.049	72.75
512.265	91.75
512.481	75.75
512.698	92.75
512.914	101.75
513.13	83.75
513.346	69.75
513.562	93.75
513.778	109.75
513.994	97.75
514.21	89.75
514.426	107.75
514.642	119.75
514.858	105.75
515.074	130.75
515.29	372.75
515.506	1201.75
515.721	458.75
515.937	127.75
516.153	97.75
516.369	96.75
516.585	107.75
516.801	85.75
517.016	95.75
517.232	95.75
517.448	87.75
