Data from Circ_2004_H10_HRD10591_00037.txt Node
Date: Wed Jan 03 10:33:21 EST 2024
User: Yrep
Spectrometer: HR+D1059
Trigger mode: 1
Integration Time (sec): 1.000000E-1
Scans to average: 1
Electric dark correction enabled: true
Nonlinearity correction enabled: false
Boxcar width: 0
XAxis mode: Wavelengths
Number of Pixels in Spectrum: 2048
>>>>>Begin Spectral Data<<<<<
223.165	-14
223.4	-14
223.635	-14
223.869	-26
224.104	-14
224.338	-14
224.573	-19
224.808	-7
225.042	-4
225.277	-10
225.511	-4
225.746	7
225.98	13
226.215	12
226.449	20
226.683	13
226.918	18
227.152	29
227.387	38
227.621	49
227.856	55
228.09	45
228.324	54
228.559	39
228.793	68
229.027	77
229.262	70
229.496	80
229.73	70
229.964	92
230.199	76
230.433	64
230.667	84
230.901	90
231.136	80
231.37	88
231.604	87
231.838	71
232.072	90
232.306	85
232.541	87
232.775	79
233.009	81
233.243	90
233.477	81
233.711	65
233.945	79
234.179	77
234.413	97
234.647	80
234.881	77
235.115	84
235.349	87
235.583	65
235.817	76
236.051	71
236.285	99
236.519	86
236.753	61
236.987	77
237.221	80
237.455	88
237.689	71
237.922	81
238.156	90
238.39	67
238.624	62
238.858	77
239.091	72
239.325	72
239.559	86
239.793	76
240.027	78
240.26	65
240.494	66
240.728	87
240.961	71
241.195	67
241.429	75
241.662	76
241.896	77
242.13	78
242.363	81
242.597	82
242.83	84
243.064	82
243.298	77
243.531	63
243.765	81
243.998	68
244.232	73
244.465	76
244.699	88
244.932	72
245.166	69
245.399	90
245.633	82
245.866	78
246.099	93
246.333	85
246.566	66
246.8	94
247.033	84
247.266	85
247.5	87
247.733	78
247.966	71
248.2	79
248.433	80
248.666	79
248.899	78
249.133	96
249.366	98
249.599	92
249.832	77
250.066	93
250.299	72
250.532	89
250.765	79
250.998	77
251.231	73
251.465	101
251.698	80
251.931	70
252.164	78
252.397	84
252.63	85
252.863	87
253.096	81
253.329	76
253.562	65
253.795	75
254.028	77
254.261	81
254.494	73
254.727	81
254.96	85
255.193	92
255.426	80
255.659	79
255.892	94
256.124	80
256.357	90
256.59	76
256.823	69
257.056	79
257.289	86
257.521	93
257.754	72
257.987	80
258.22	76
258.452	84
258.685	86
258.918	73
259.151	81
259.383	86
259.616	76
259.849	95
260.081	76
260.314	78
260.547	84
260.779	83
261.012	94
261.244	84
261.477	85
261.71	108
261.942	118
262.175	126
262.407	79
262.64	74
262.872	94
263.105	89
263.337	88
263.57	98
263.802	74
264.035	80
264.267	83
264.499	67
264.732	86
264.964	73
265.197	87
265.429	79
265.661	80
265.894	81
266.126	87
266.358	86
266.591	90
266.823	85
267.055	76
267.287	92
267.52	89
267.752	99
267.984	100
268.216	69
268.448	82
268.681	69
268.913	83
269.145	82
269.377	78
269.609	90
269.841	75
270.073	89
270.306	90
270.538	76
270.77	84
271.002	82
271.234	82
271.466	86
271.698	89
271.93	78
272.162	87
272.394	93
272.626	84
272.858	89
273.09	89
273.322	88
273.553	75
273.785	74
274.017	100
274.249	76
274.481	65
274.713	82
274.945	98
275.176	95
275.408	94
275.64	91
275.872	92
276.104	80
276.335	81
276.567	81
276.799	118
277.031	108
277.262	103
277.494	108
277.726	99
277.957	79
278.189	81
278.421	79
278.652	97
278.884	92
279.115	90
279.347	82
279.579	88
279.81	82
280.042	111
280.273	128
280.505	121
280.736	100
280.968	65
281.199	83
281.431	91
281.662	98
281.894	100
282.125	96
282.356	104
282.588	135
282.819	107
283.051	103
283.282	97
283.513	96
283.745	84
283.976	86
284.207	88
284.439	92
284.67	76
284.901	86
285.132	89
285.364	80
285.595	85
285.826	98
286.057	78
286.288	89
286.52	93
286.751	88
286.982	94
287.213	101
287.444	98
287.675	95
287.906	94
288.138	101
288.369	93
288.6	92
288.831	87
289.062	88
289.293	81
289.524	80
289.755	78
289.986	90
290.217	83
290.448	88
290.679	86
290.91	93
291.141	73
291.371	86
291.602	76
291.833	81
292.064	76
292.295	93
292.526	101
292.757	92
292.987	100
293.218	97
293.449	94
293.68	84
293.91	94
294.141	97
294.372	91
294.603	87
294.833	85
295.064	93
295.295	78
295.525	91
295.756	82
295.987	121
296.217	132
296.448	110
296.679	99
296.909	90
297.14	105
297.37	94
297.601	86
297.831	91
298.062	86
298.292	81
298.523	89
298.753	74
298.984	96
299.214	95
299.445	100
299.675	98
299.905	94
300.136	89
300.366	97
300.597	101
300.827	93
301.057	99
301.288	95
301.518	85
301.748	100
301.979	106
302.209	90
302.439	88
302.669	101
302.9	92
303.13	80
303.36	89
303.59	102
303.82	114
304.051	94
304.281	86
304.511	94
304.741	100
304.971	97
305.201	102
305.431	92
305.661	84
305.891	103
306.121	97
306.352	96
306.582	92
306.812	87
307.042	82
307.272	113
307.502	120
307.731	117
307.961	102
308.191	93
308.421	94
308.651	95
308.881	91
309.111	90
309.341	95
309.571	94
309.8	98
310.03	86
310.26	96
310.49	93
310.72	85
310.949	91
311.179	116
311.409	88
311.639	97
311.868	94
312.098	113
312.328	93
312.557	97
312.787	100
313.017	105
313.246	87
313.476	103
313.706	94
313.935	100
314.165	101
314.394	87
314.624	97
314.853	91
315.083	95
315.312	100
315.542	104
315.771	96
316.001	92
316.23	94
316.46	86
316.689	90
316.919	94
317.148	100
317.377	105
317.607	93
317.836	86
318.065	97
318.295	84
318.524	78
318.753	98
318.983	93
319.212	102
319.441	102
319.67	97
319.9	86
320.129	104
320.358	93
320.587	99
320.816	82
321.046	116
321.275	95
321.504	104
321.733	108
321.962	88
322.191	104
322.42	113
322.649	112
322.878	102
323.108	121
323.337	133
323.566	151
323.795	152
324.024	225
324.253	408
324.482	863
324.71	1794
324.939	2374
325.168	870
325.397	237
325.626	151
325.855	120
326.084	112
326.313	118
326.542	158
326.77	249
326.999	481
327.228	998
327.457	1805
327.686	1438
327.914	426
328.143	269
328.372	258
328.6	181
328.829	127
329.058	149
329.287	157
329.515	122
329.744	147
329.972	212
330.201	351
330.43	466
330.658	275
330.887	181
331.115	119
331.344	104
331.572	105
331.801	98
332.03	108
332.258	100
332.486	104
332.715	112
332.943	96
333.172	105
333.4	110
333.629	135
333.857	154
334.085	204
334.314	324
334.542	575
334.771	560
334.999	189
335.227	125
335.455	102
335.684	104
335.912	97
336.14	99
336.369	104
336.597	114
336.825	100
337.053	96
337.281	99
337.51	100
337.738	86
337.966	86
338.194	101
338.422	100
338.65	92
338.878	93
339.106	89
339.334	99
339.562	78
339.79	84
340.018	89
340.246	86
340.474	102
340.702	109
340.93	84
341.158	93
341.386	92
341.614	101
341.842	92
342.07	89
342.298	97
342.526	93
342.754	89
342.981	93
343.209	87
343.437	96
343.665	80
343.893	83
344.12	96
344.348	102
344.576	92
344.804	91
345.031	90
345.259	114
345.487	84
345.714	95
345.942	106
346.17	90
346.397	90
346.625	89
346.853	92
347.08	91
347.308	85
347.535	111
347.763	97
347.99	94
348.218	94
348.445	104
348.673	95
348.9	83
349.128	100
349.355	92
349.583	95
349.81	82
350.037	78
350.265	81
350.492	102
350.72	96
350.947	127
351.174	116
351.402	109
351.629	103
351.856	100
352.083	101
352.311	110
352.538	103
352.765	100
352.992	117
353.22	126
353.447	93
353.674	101
353.901	87
354.128	110
354.355	93
354.583	101
354.81	97
355.037	96
355.264	87
355.491	92
355.718	99
355.945	94
356.172	100
356.399	102
356.626	83
356.853	86
357.08	80
357.307	85
357.534	96
357.761	97
357.988	91
358.215	98
358.441	101
358.668	94
358.895	74
359.122	89
359.349	87
359.576	94
359.802	113
360.029	116
360.256	105
360.483	95
360.709	94
360.936	89
361.163	84
361.39	90
361.616	90
361.843	95
362.07	95
362.296	95
362.523	86
362.749	89
362.976	80
363.203	100
363.429	98
363.656	79
363.882	77
364.109	87
364.335	84
364.562	101
364.788	89
365.015	88
365.241	109
365.468	94
365.694	105
365.92	94
366.147	79
366.373	80
366.599	95
366.826	99
367.052	104
367.278	93
367.505	93
367.731	102
367.957	103
368.184	93
368.41	101
368.636	112
368.862	136
369.089	101
369.315	95
369.541	87
369.767	86
369.993	95
370.219	79
370.445	96
370.672	75
370.898	90
371.124	87
371.35	85
371.576	93
371.802	84
372.028	92
372.254	90
372.48	86
372.706	87
372.932	95
373.158	84
373.384	71
373.61	82
373.835	94
374.061	100
374.287	89
374.513	82
374.739	89
374.965	100
375.191	90
375.416	88
375.642	82
375.868	91
376.094	101
376.319	89
376.545	92
376.771	81
376.997	88
377.222	95
377.448	92
377.674	93
377.899	81
378.125	103
378.35	98
378.576	90
378.802	98
379.027	87
379.253	72
379.478	79
379.704	84
379.929	87
380.155	89
380.38	103
380.606	94
380.831	94
381.057	98
381.282	90
381.507	90
381.733	97
381.958	96
382.184	97
382.409	86
382.634	112
382.86	99
383.085	102
383.31	101
383.535	105
383.761	82
383.986	100
384.211	85
384.436	111
384.662	91
384.887	105
385.112	79
385.337	101
385.562	114
385.787	90
386.013	106
386.238	118
386.463	112
386.688	110
386.913	101
387.138	105
387.363	109
387.588	97
387.813	104
388.038	112
388.263	103
388.488	110
388.713	87
388.938	92
389.163	89
389.387	97
389.612	84
389.837	100
390.062	93
390.287	88
390.512	91
390.736	84
390.961	83
391.186	96
391.411	88
391.636	89
391.86	80
392.085	98
392.31	94
392.534	69
392.759	78
392.984	82
393.208	88
393.433	95
393.658	89
393.882	99
394.107	96
394.331	90
394.556	94
394.78	100
395.005	85
395.229	87
395.454	79
395.678	77
395.903	82
396.127	85
396.352	87
396.576	87
396.801	88
397.025	96
397.249	87
397.474	106
397.698	85
397.922	96
398.147	88
398.371	99
398.595	82
398.82	62
399.044	89
399.268	89
399.492	78
399.717	88
399.941	90
400.165	93
400.389	76
400.613	77
400.837	81
401.062	100
401.286	79
401.51	86
401.734	101
401.958	104
402.182	122
402.406	161
402.63	104
402.854	74
403.078	85
403.302	99
403.526	97
403.75	90
403.974	102
404.198	79
404.422	90
404.645	102
404.869	100
405.093	101
405.317	116
405.541	109
405.765	118
405.988	121
406.212	169
406.436	212
406.66	148
406.883	101
407.107	112
407.331	78
407.555	99
407.778	95
408.002	89
408.226	76
408.449	82
408.673	90
408.896	88
409.12	85
409.344	97
409.567	93
409.791	96
410.014	100
410.238	91
410.461	90
410.685	94
410.908	88
411.132	108
411.355	97
411.578	84
411.802	82
412.025	93
412.249	89
412.472	104
412.695	105
412.919	108
413.142	93
413.365	92
413.589	87
413.812	81
414.035	83
414.258	96
414.482	89
414.705	86
414.928	106
415.151	78
415.374	89
415.597	102
415.821	91
416.044	94
416.267	92
416.49	74
416.713	87
416.936	103
417.159	92
417.382	75
417.605	89
417.828	97
418.051	99
418.274	88
418.497	92
418.72	88
418.943	93
419.166	94
419.389	88
419.611	90
419.834	83
420.057	78
420.28	92
420.503	100
420.726	76
420.948	105
421.171	105
421.394	99
421.617	88
421.839	76
422.062	83
422.285	85
422.507	104
422.73	90
422.953	97
423.175	99
423.398	92
423.621	90
423.843	97
424.066	99
424.288	81
424.511	94
424.733	102
424.956	95
425.178	89
425.401	106
425.623	102
425.846	100
426.068	106
426.291	96
426.513	98
426.735	90
426.958	82
427.18	103
427.402	149
427.625	185
427.847	174
428.069	136
428.292	109
428.514	98
428.736	93
428.958	79
429.181	93
429.403	80
429.625	78
429.847	105
430.069	102
430.292	79
430.514	92
430.736	88
430.958	75
431.18	87
431.402	87
431.624	93
431.846	84
432.068	93
432.29	89
432.512	94
432.734	96
432.956	100
433.178	97
433.4	92
433.622	87
433.844	91
434.066	88
434.287	78
434.509	94
434.731	83
434.953	82
435.175	95
435.397	84
435.618	85
435.84	104
436.062	112
436.284	104
436.505	97
436.727	120
436.949	101
437.17	80
437.392	89
437.614	100
437.835	110
438.057	113
438.278	124
438.5	109
438.721	127
438.943	106
439.165	82
439.386	84
439.608	87
439.829	105
440.05	118
440.272	151
440.493	95
440.715	102
440.936	94
441.158	80
441.379	81
441.6	82
441.822	103
442.043	106
442.264	103
442.486	126
442.707	101
442.928	112
443.149	129
443.371	152
443.592	106
443.813	117
444.034	110
444.255	83
444.476	83
444.698	86
444.919	94
445.14	137
445.361	129
445.582	125
445.803	139
446.024	133
446.245	160
446.466	120
446.687	87
446.908	90
447.129	79
447.35	82
447.571	90
447.792	96
448.013	99
448.234	98
448.455	93
448.675	117
448.896	137
449.117	100
449.338	99
449.559	130
449.779	138
450	98
450.221	88
450.442	82
450.662	118
450.883	119
451.104	103
451.324	101
451.545	85
451.766	88
451.986	92
452.207	86
452.428	86
452.648	96
452.869	124
453.089	110
453.31	117
453.53	105
453.751	101
453.971	109
454.192	111
454.412	88
454.633	89
454.853	93
455.073	80
455.294	68
455.514	96
455.734	86
455.955	80
456.175	90
456.395	69
456.616	89
456.836	100
457.056	101
457.276	93
457.497	94
457.717	88
457.937	94
458.157	95
458.377	90
458.598	110
458.818	162
459.038	174
459.258	117
459.478	92
459.698	96
459.918	95
460.138	82
460.358	85
460.578	79
460.798	93
461.018	94
461.238	89
461.458	96
461.678	98
461.898	82
462.118	83
462.338	95
462.558	81
462.777	88
462.997	90
463.217	89
463.437	94
463.657	74
463.876	87
464.096	79
464.316	86
464.536	92
464.755	88
464.975	95
465.195	182
465.414	172
465.634	102
465.854	100
466.073	100
466.293	82
466.512	79
466.732	92
466.951	103
467.171	93
467.391	78
467.61	113
467.829	140
468.049	220
468.268	286
468.488	113
468.707	90
468.927	82
469.146	76
469.365	90
469.585	85
469.804	96
470.023	102
470.243	103
470.462	101
470.681	99
470.901	92
471.12	90
471.339	98
471.558	93
471.777	96
471.997	132
472.216	394
472.435	788
472.654	224
472.873	114
473.092	108
473.311	93
473.53	92
473.749	85
473.968	109
474.187	119
474.406	108
474.625	80
474.844	99
475.063	83
475.282	85
475.501	88
475.72	84
475.939	93
476.158	82
476.377	98
476.596	92
476.814	93
477.033	102
477.252	98
477.471	82
477.69	75
477.908	90
478.127	115
478.346	78
478.564	84
478.783	107
479.002	98
479.22	101
479.439	90
479.658	97
479.876	98
480.095	89
480.313	90
480.532	105
480.751	159
480.969	376
481.188	1315
481.406	815
481.624	173
481.843	99
482.061	87
482.28	85
482.498	78
482.717	76
482.935	83
483.153	81
483.372	90
483.59	93
483.808	93
484.027	95
484.245	108
484.463	95
484.681	90
484.9	94
485.118	101
485.336	79
485.554	82
485.772	94
485.99	92
486.209	101
486.427	96
486.645	117
486.863	113
487.081	113
487.299	100
487.517	97
487.735	95
487.953	104
488.171	90
488.389	93
488.607	100
488.825	82
489.043	82
489.261	92
489.479	81
489.696	89
489.914	103
490.132	85
490.35	100
490.568	78
490.786	86
491.003	72
491.221	93
491.439	92
491.657	69
491.874	82
492.092	82
492.31	88
492.527	104
492.745	96
492.963	95
493.18	80
493.398	89
493.615	101
493.833	106
494.05	90
494.268	84
494.485	105
494.703	90
494.92	98
495.138	92
495.355	83
495.573	97
495.79	81
496.008	90
496.225	87
496.442	90
496.66	97
496.877	80
497.094	101
497.312	100
497.529	86
497.746	87
497.963	91
498.181	80
498.398	107
498.615	104
498.832	100
499.049	79
499.267	89
499.484	82
499.701	87
499.918	89
500.135	83
500.352	90
500.569	95
500.786	102
501.003	90
501.22	86
501.437	84
501.654	83
501.871	113
502.088	88
502.305	78
502.522	79
502.739	83
502.956	82
503.172	95
503.389	90
503.606	102
503.823	98
504.04	95
504.256	103
504.473	101
504.69	95
504.907	97
505.123	94
505.34	90
505.557	87
505.773	88
505.99	91
506.207	94
506.423	83
506.64	97
506.856	90
507.073	97
507.289	95
507.506	96
507.722	113
507.939	105
508.155	95
508.372	94
508.588	92
508.805	84
509.021	101
509.238	94
509.454	103
509.67	101
509.887	119
510.103	144
510.319	210
510.536	761
510.752	2349
510.968	652
511.184	165
511.401	106
511.617	97
511.833	88
512.049	89
512.265	98
512.481	93
512.698	94
512.914	101
513.13	85
513.346	96
513.562	93
513.778	86
513.994	99
514.21	103
514.426	120
514.642	140
514.858	134
515.074	176
515.29	490
515.506	1648
515.721	593
515.937	161
516.153	107
516.369	87
516.585	98
516.801	88
517.016	88
517.232	80
517.448	94
517.664	103
517.879	104
518.095	89
518.311	101
518.527	98
518.742	100
518.958	97
519.173	97
519.389	85
519.605	89
519.82	92
520.036	117
520.251	127
520.467	110
520.682	107
520.898	112
521.113	123
521.329	131
521.544	220
521.76	616
521.975	2686
522.19	1618
522.406	338
522.621	134
522.836	98
523.052	87
523.267	96
523.482	97
523.698	104
523.913	115
524.128	106
524.343	98
524.559	98
524.774	90
524.989	90
525.204	109
525.419	104
525.634	94
525.849	84
526.064	93
526.28	100
526.495	90
526.71	88
526.925	96
527.14	97
527.355	94
527.57	100
527.785	89
527.999	98
528.214	95
528.429	99
528.644	102
528.859	105
529.074	101
529.289	120
529.503	197
529.718	108
529.933	100
530.148	87
530.363	84
530.577	98
530.792	89
531.007	90
531.221	88
531.436	96
531.651	89
531.865	82
532.08	83
532.295	98
532.509	94
532.724	108
532.938	80
533.153	106
533.367	91
533.582	94
533.796	93
534.011	93
534.225	92
534.44	83
534.654	92
534.868	94
535.083	99
535.297	86
535.511	95
535.726	98
535.94	99
536.154	96
536.369	102
536.583	96
536.797	101
537.011	94
537.225	81
537.44	86
537.654	98
537.868	92
538.082	85
538.296	80
538.51	94
538.724	109
538.938	98
539.153	97
539.367	101
539.581	87
539.795	94
540.009	76
540.222	83
540.436	91
540.65	96
540.864	79
541.078	92
541.292	91
541.506	97
541.72	104
541.934	90
542.147	85
542.361	86
542.575	84
542.789	87
543.002	70
543.216	89
543.43	89
543.644	101
543.857	86
544.071	85
544.285	80
544.498	94
544.712	90
544.925	91
545.139	88
545.352	102
545.566	81
545.779	84
545.993	98
546.206	78
546.42	92
546.633	92
546.847	90
547.06	98
547.274	105
547.487	99
547.7	83
547.914	89
548.127	87
548.34	71
548.554	83
548.767	79
548.98	94
549.193	84
549.407	89
549.62	92
549.833	70
550.046	85
550.259	98
550.473	92
550.686	90
550.899	101
551.112	86
551.325	94
551.538	87
551.751	88
551.964	80
552.177	94
552.39	83
552.603	90
552.816	87
553.029	98
553.242	85
553.455	85
553.667	117
553.88	101
554.093	88
554.306	104
554.519	97
554.732	93
554.944	89
555.157	100
555.37	95
555.583	105
555.795	104
556.008	95
556.221	97
556.433	86
556.646	89
556.859	76
557.071	89
557.284	97
557.496	90
557.709	86
557.921	69
558.134	97
558.346	92
558.559	92
558.771	78
558.984	97
559.196	102
559.409	74
559.621	79
559.833	90
560.046	77
560.258	86
560.47	106
560.683	99
560.895	90
561.107	92
561.32	95
561.532	98
561.744	96
561.956	84
562.168	94
562.381	96
562.593	109
562.805	94
563.017	97
563.229	105
563.441	93
563.653	87
563.865	80
564.077	86
564.289	91
564.501	83
564.713	95
564.925	89
565.137	83
565.349	94
565.561	94
565.773	85
565.985	90
566.197	96
566.408	84
566.62	89
566.832	83
567.044	85
567.255	81
567.467	82
567.679	89
567.891	87
568.102	98
568.314	85
568.526	86
568.737	83
568.949	84
569.161	84
569.372	97
569.584	73
569.795	92
570.007	115
570.218	239
570.43	121
570.641	94
570.853	90
571.064	91
571.276	95
571.487	84
571.698	93
571.91	81
572.121	81
572.333	87
572.544	88
572.755	94
572.966	90
573.178	88
573.389	109
573.6	98
573.811	92
574.023	81
574.234	89
574.445	97
574.656	92
574.867	79
575.078	89
575.289	97
575.501	97
575.712	87
575.923	86
576.134	82
576.345	88
576.556	88
576.767	90
576.978	78
577.188	74
577.399	92
577.61	94
577.821	104
578.032	122
578.243	252
578.454	766
578.665	215
578.875	109
579.086	98
579.297	83
579.508	84
579.718	89
579.929	97
580.14	84
580.35	80
580.561	74
580.772	78
580.982	90
581.193	93
581.403	92
581.614	102
581.825	87
582.035	89
582.246	99
582.456	85
582.667	86
582.877	87
583.087	84
