Data from Circ_2004_H10_HRD10591_00009.txt Node
Date: Wed Jan 03 10:33:16 EST 2024
User: Yrep
Spectrometer: HR+D1059
Trigger mode: 1
Integration Time (sec): 1.000000E-1
Scans to average: 1
Electric dark correction enabled: true
Nonlinearity correction enabled: false
Boxcar width: 0
XAxis mode: Wavelengths
Number of Pixels in Spectrum: 2048
>>>>>Begin Spectral Data<<<<<
223.165	-16.06
223.4	-16.06
223.635	-16.06
223.869	-13.06
224.104	-22.06
224.338	-4.06
224.573	-17.06
224.808	-7.06
225.042	-7.06
225.277	7.94
225.511	-2.06
225.746	0.94
225.98	6.94
226.215	4.94
226.449	6.94
226.683	15.94
226.918	20.94
227.152	23.94
227.387	28.94
227.621	33.94
227.856	21.94
228.09	52.94
228.324	46.94
228.559	44.94
228.793	48.94
229.027	56.94
229.262	55.94
229.496	76.94
229.73	83.94
229.964	83.94
230.199	77.94
230.433	80.94
230.667	67.94
230.901	67.94
231.136	67.94
231.37	56.94
231.604	64.94
231.838	80.94
232.072	78.94
232.306	77.94
232.541	85.94
232.775	86.94
233.009	86.94
233.243	85.94
233.477	67.94
233.711	66.94
233.945	69.94
234.179	76.94
234.413	66.94
234.647	85.94
234.881	73.94
235.115	82.94
235.349	72.94
235.583	68.94
235.817	78.94
236.051	78.94
236.285	84.94
236.519	68.94
236.753	70.94
236.987	70.94
237.221	69.94
237.455	77.94
237.689	61.94
237.922	77.94
238.156	79.94
238.39	74.94
238.624	76.94
238.858	62.94
239.091	72.94
239.325	73.94
239.559	69.94
239.793	73.94
240.027	73.94
240.26	71.94
240.494	77.94
240.728	71.94
240.961	61.94
241.195	70.94
241.429	76.94
241.662	70.94
241.896	76.94
242.13	68.94
242.363	68.94
242.597	75.94
242.83	75.94
243.064	64.94
243.298	76.94
243.531	81.94
243.765	81.94
243.998	59.94
244.232	81.94
244.465	80.94
244.699	61.94
244.932	67.94
245.166	78.94
245.399	78.94
245.633	73.94
245.866	78.94
246.099	67.94
246.333	78.94
246.566	71.94
246.8	83.94
247.033	90.94
247.266	82.94
247.5	82.94
247.733	78.94
247.966	75.94
248.2	81.94
248.433	85.94
248.666	72.94
248.899	74.94
249.133	85.94
249.366	92.94
249.599	90.94
249.832	84.94
250.066	97.94
250.299	81.94
250.532	81.94
250.765	66.94
250.998	62.94
251.231	69.94
251.465	74.94
251.698	69.94
251.931	58.94
252.164	83.94
252.397	78.94
252.63	79.94
252.863	69.94
253.096	63.94
253.329	80.94
253.562	72.94
253.795	82.94
254.028	84.94
254.261	82.94
254.494	72.94
254.727	82.94
254.96	86.94
255.193	77.94
255.426	81.94
255.659	76.94
255.892	71.94
256.124	77.94
256.357	61.94
256.59	71.94
256.823	83.94
257.056	70.94
257.289	86.94
257.521	94.94
257.754	93.94
257.987	81.94
258.22	82.94
258.452	78.94
258.685	74.94
258.918	70.94
259.151	73.94
259.383	73.94
259.616	79.94
259.849	62.94
260.081	82.94
260.314	78.94
260.547	89.94
260.779	76.94
261.012	92.94
261.244	87.94
261.477	79.94
261.71	97.94
261.942	112.94
262.175	115.94
262.407	88.94
262.64	78.94
262.872	70.94
263.105	59.94
263.337	77.94
263.57	93.94
263.802	79.94
264.035	83.94
264.267	78.94
264.499	81.94
264.732	88.94
264.964	84.94
265.197	90.94
265.429	86.94
265.661	74.94
265.894	71.94
266.126	66.94
266.358	76.94
266.591	92.94
266.823	81.94
267.055	77.94
267.287	76.94
267.52	84.94
267.752	88.94
267.984	67.94
268.216	80.94
268.448	75.94
268.681	82.94
268.913	88.94
269.145	77.94
269.377	83.94
269.609	73.94
269.841	64.94
270.073	101.94
270.306	79.94
270.538	81.94
270.77	78.94
271.002	67.94
271.234	96.94
271.466	95.94
271.698	94.94
271.93	75.94
272.162	87.94
272.394	84.94
272.626	78.94
272.858	76.94
273.09	72.94
273.322	78.94
273.553	86.94
273.785	82.94
274.017	75.94
274.249	73.94
274.481	78.94
274.713	78.94
274.945	88.94
275.176	86.94
275.408	67.94
275.64	83.94
275.872	93.94
276.104	90.94
276.335	70.94
276.567	93.94
276.799	107.94
277.031	87.94
277.262	107.94
277.494	86.94
277.726	87.94
277.957	93.94
278.189	86.94
278.421	73.94
278.652	77.94
278.884	77.94
279.115	81.94
279.347	91.94
279.579	89.94
279.81	105.94
280.042	87.94
280.273	107.94
280.505	105.94
280.736	76.94
280.968	75.94
281.199	69.94
281.431	91.94
281.662	79.94
281.894	94.94
282.125	105.94
282.356	113.94
282.588	132.94
282.819	107.94
283.051	88.94
283.282	84.94
283.513	81.94
283.745	75.94
283.976	85.94
284.207	91.94
284.439	81.94
284.67	72.94
284.901	78.94
285.132	85.94
285.364	81.94
285.595	87.94
285.826	95.94
286.057	79.94
286.288	86.94
286.52	89.94
286.751	84.94
286.982	67.94
287.213	85.94
287.444	74.94
287.675	70.94
287.906	89.94
288.138	81.94
288.369	80.94
288.6	75.94
288.831	83.94
289.062	71.94
289.293	93.94
289.524	89.94
289.755	94.94
289.986	89.94
290.217	85.94
290.448	94.94
290.679	82.94
290.91	80.94
291.141	95.94
291.371	90.94
291.602	92.94
291.833	91.94
292.064	89.94
292.295	89.94
292.526	81.94
292.757	89.94
292.987	89.94
293.218	89.94
293.449	80.94
293.68	95.94
293.91	75.94
294.141	84.94
294.372	85.94
294.603	76.94
294.833	86.94
295.064	77.94
295.295	92.94
295.525	103.94
295.756	84.94
295.987	101.94
296.217	114.94
296.448	100.94
296.679	83.94
296.909	70.94
297.14	73.94
297.37	78.94
297.601	79.94
297.831	90.94
298.062	92.94
298.292	89.94
298.523	69.94
298.753	83.94
298.984	77.94
299.214	81.94
299.445	88.94
299.675	86.94
299.905	78.94
300.136	79.94
300.366	92.94
300.597	88.94
300.827	90.94
301.057	86.94
301.288	94.94
301.518	79.94
301.748	90.94
301.979	97.94
302.209	89.94
302.439	86.94
302.669	86.94
302.9	89.94
303.13	71.94
303.36	82.94
303.59	85.94
303.82	89.94
304.051	93.94
304.281	83.94
304.511	82.94
304.741	86.94
304.971	87.94
305.201	92.94
305.431	82.94
305.661	91.94
305.891	95.94
306.121	87.94
306.352	89.94
306.582	96.94
306.812	101.94
307.042	86.94
307.272	99.94
307.502	110.94
307.731	110.94
307.961	100.94
308.191	88.94
308.421	99.94
308.651	92.94
308.881	92.94
309.111	91.94
309.341	94.94
309.571	83.94
309.8	93.94
310.03	92.94
310.26	86.94
310.49	81.94
310.72	98.94
310.949	85.94
311.179	97.94
311.409	93.94
311.639	97.94
311.868	81.94
312.098	91.94
312.328	86.94
312.557	106.94
312.787	101.94
313.017	98.94
313.246	85.94
313.476	72.94
313.706	87.94
313.935	94.94
314.165	78.94
314.394	91.94
314.624	93.94
314.853	79.94
315.083	84.94
315.312	94.94
315.542	80.94
315.771	74.94
316.001	94.94
316.23	95.94
316.46	84.94
316.689	76.94
316.919	90.94
317.148	96.94
317.377	98.94
317.607	94.94
317.836	84.94
318.065	73.94
318.295	92.94
318.524	91.94
318.753	91.94
318.983	87.94
319.212	94.94
319.441	96.94
319.67	98.94
319.9	96.94
320.129	87.94
320.358	93.94
320.587	98.94
320.816	70.94
321.046	86.94
321.275	81.94
321.504	105.94
321.733	86.94
321.962	95.94
322.191	96.94
322.42	98.94
322.649	98.94
322.878	108.94
323.108	104.94
323.337	110.94
323.566	105.94
323.795	130.94
324.024	184.94
324.253	341.94
324.482	765.94
324.71	1512.94
324.939	1960.94
325.168	740.94
325.397	217.94
325.626	133.94
325.855	130.94
326.084	123.94
326.313	137.94
326.542	140.94
326.77	215.94
326.999	422.94
327.228	858.94
327.457	1544.94
327.686	1236.94
327.914	357.94
328.143	228.94
328.372	227.94
328.6	160.94
328.829	131.94
329.058	121.94
329.287	138.94
329.515	112.94
329.744	128.94
329.972	177.94
330.201	262.94
330.43	356.94
330.658	194.94
330.887	146.94
331.115	121.94
331.344	74.94
331.572	94.94
331.801	89.94
332.03	100.94
332.258	103.94
332.486	77.94
332.715	81.94
332.943	93.94
333.172	86.94
333.4	89.94
333.629	94.94
333.857	126.94
334.085	173.94
334.314	262.94
334.542	431.94
334.771	390.94
334.999	149.94
335.227	112.94
335.455	92.94
335.684	115.94
335.912	95.94
336.14	96.94
336.369	92.94
336.597	101.94
336.825	86.94
337.053	89.94
337.281	96.94
337.51	93.94
337.738	90.94
337.966	84.94
338.194	93.94
338.422	84.94
338.65	94.94
338.878	73.94
339.106	84.94
339.334	88.94
339.562	85.94
339.79	92.94
340.018	108.94
340.246	101.94
340.474	86.94
340.702	85.94
340.93	84.94
341.158	79.94
341.386	79.94
341.614	93.94
341.842	84.94
342.07	83.94
342.298	82.94
342.526	77.94
342.754	96.94
342.981	86.94
343.209	77.94
343.437	100.94
343.665	83.94
343.893	96.94
344.12	88.94
344.348	77.94
344.576	94.94
344.804	87.94
345.031	80.94
345.259	83.94
345.487	97.94
345.714	84.94
345.942	93.94
346.17	108.94
346.397	88.94
346.625	85.94
346.853	79.94
347.08	95.94
347.308	89.94
347.535	93.94
347.763	93.94
347.99	93.94
348.218	94.94
348.445	108.94
348.673	91.94
348.9	88.94
349.128	84.94
349.355	83.94
349.583	96.94
349.81	83.94
350.037	88.94
350.265	94.94
350.492	83.94
350.72	97.94
350.947	88.94
351.174	100.94
351.402	102.94
351.629	98.94
351.856	89.94
352.083	91.94
352.311	85.94
352.538	114.94
352.765	97.94
352.992	110.94
353.22	111.94
353.447	96.94
353.674	109.94
353.901	90.94
354.128	95.94
354.355	93.94
354.583	92.94
354.81	85.94
355.037	92.94
355.264	85.94
355.491	81.94
355.718	92.94
355.945	95.94
356.172	89.94
356.399	100.94
356.626	105.94
356.853	82.94
357.08	94.94
357.307	87.94
357.534	89.94
357.761	92.94
357.988	104.94
358.215	85.94
358.441	80.94
358.668	78.94
358.895	83.94
359.122	85.94
359.349	83.94
359.576	90.94
359.802	98.94
360.029	109.94
360.256	97.94
360.483	80.94
360.709	83.94
360.936	92.94
361.163	95.94
361.39	92.94
361.616	87.94
361.843	92.94
362.07	86.94
362.296	81.94
362.523	85.94
362.749	94.94
362.976	75.94
363.203	89.94
363.429	78.94
363.656	104.94
363.882	81.94
364.109	94.94
364.335	82.94
364.562	72.94
364.788	91.94
365.015	87.94
365.241	93.94
365.468	88.94
365.694	83.94
365.92	104.94
366.147	78.94
366.373	94.94
366.599	91.94
366.826	83.94
367.052	98.94
367.278	91.94
367.505	88.94
367.731	93.94
367.957	88.94
368.184	65.94
368.41	86.94
368.636	97.94
368.862	120.94
369.089	105.94
369.315	104.94
369.541	102.94
369.767	75.94
369.993	85.94
370.219	84.94
370.445	82.94
370.672	81.94
370.898	74.94
371.124	73.94
371.35	82.94
371.576	88.94
371.802	95.94
372.028	86.94
372.254	93.94
372.48	80.94
372.706	78.94
372.932	78.94
373.158	83.94
373.384	87.94
373.61	95.94
373.835	101.94
374.061	82.94
374.287	80.94
374.513	93.94
374.739	82.94
374.965	81.94
375.191	95.94
375.416	92.94
375.642	85.94
375.868	80.94
376.094	91.94
376.319	92.94
376.545	102.94
376.771	94.94
376.997	95.94
377.222	80.94
377.448	94.94
377.674	87.94
377.899	80.94
378.125	76.94
378.35	84.94
378.576	85.94
378.802	78.94
379.027	90.94
379.253	93.94
379.478	96.94
379.704	78.94
379.929	89.94
380.155	84.94
380.38	95.94
380.606	90.94
380.831	86.94
381.057	87.94
381.282	83.94
381.507	80.94
381.733	85.94
381.958	85.94
382.184	81.94
382.409	91.94
382.634	93.94
382.86	94.94
383.085	97.94
383.31	111.94
383.535	100.94
383.761	96.94
383.986	96.94
384.211	92.94
384.436	106.94
384.662	102.94
384.887	87.94
385.112	95.94
385.337	100.94
385.562	91.94
385.787	108.94
386.013	109.94
386.238	122.94
386.463	115.94
386.688	106.94
386.913	95.94
387.138	110.94
387.363	106.94
387.588	97.94
387.813	94.94
388.038	96.94
388.263	120.94
388.488	107.94
388.713	104.94
388.938	75.94
389.163	102.94
389.387	95.94
389.612	82.94
389.837	94.94
390.062	100.94
390.287	101.94
390.512	96.94
390.736	93.94
390.961	81.94
391.186	86.94
391.411	96.94
391.636	68.94
391.86	76.94
392.085	78.94
392.31	79.94
392.534	88.94
392.759	79.94
392.984	90.94
393.208	93.94
393.433	105.94
393.658	90.94
393.882	93.94
394.107	85.94
394.331	76.94
394.556	92.94
394.78	81.94
395.005	93.94
395.229	79.94
395.454	76.94
395.678	94.94
395.903	81.94
396.127	83.94
396.352	94.94
396.576	98.94
396.801	97.94
397.025	73.94
397.249	97.94
397.474	96.94
397.698	76.94
397.922	102.94
398.147	82.94
398.371	85.94
398.595	77.94
398.82	85.94
399.044	81.94
399.268	86.94
399.492	81.94
399.717	80.94
399.941	88.94
400.165	94.94
400.389	78.94
400.613	73.94
400.837	88.94
401.062	89.94
401.286	85.94
401.51	78.94
401.734	95.94
401.958	94.94
402.182	110.94
402.406	142.94
402.63	98.94
402.854	86.94
403.078	88.94
403.302	83.94
403.526	89.94
403.75	95.94
403.974	79.94
404.198	82.94
404.422	81.94
404.645	82.94
404.869	87.94
405.093	98.94
405.317	87.94
405.541	109.94
405.765	96.94
405.988	110.94
406.212	154.94
406.436	211.94
406.66	130.94
406.883	94.94
407.107	89.94
407.331	93.94
407.555	84.94
407.778	88.94
408.002	84.94
408.226	88.94
408.449	90.94
408.673	85.94
408.896	81.94
409.12	104.94
409.344	78.94
409.567	78.94
409.791	98.94
410.014	80.94
410.238	94.94
410.461	67.94
410.685	88.94
410.908	86.94
411.132	118.94
411.355	85.94
411.578	97.94
411.802	87.94
412.025	94.94
412.249	89.94
412.472	109.94
412.695	94.94
412.919	82.94
413.142	77.94
413.365	72.94
413.589	72.94
413.812	86.94
414.035	99.94
414.258	95.94
414.482	105.94
414.705	93.94
414.928	76.94
415.151	78.94
415.374	79.94
415.597	96.94
415.821	97.94
416.044	86.94
416.267	89.94
416.49	83.94
416.713	81.94
416.936	80.94
417.159	86.94
417.382	83.94
417.605	89.94
417.828	91.94
418.051	85.94
418.274	80.94
418.497	93.94
418.72	78.94
418.943	97.94
419.166	88.94
419.389	84.94
419.611	86.94
419.834	81.94
420.057	84.94
420.28	75.94
420.503	85.94
420.726	72.94
420.948	75.94
421.171	91.94
421.394	102.94
421.617	95.94
421.839	76.94
422.062	85.94
422.285	94.94
422.507	96.94
422.73	104.94
422.953	105.94
423.175	87.94
423.398	95.94
423.621	91.94
423.843	78.94
424.066	105.94
424.288	80.94
424.511	77.94
424.733	101.94
424.956	93.94
425.178	92.94
425.401	88.94
425.623	95.94
425.846	75.94
426.068	92.94
426.291	99.94
426.513	77.94
426.735	87.94
426.958	91.94
427.18	110.94
427.402	138.94
427.625	154.94
427.847	129.94
428.069	132.94
428.292	106.94
428.514	72.94
428.736	70.94
428.958	88.94
429.181	67.94
429.403	89.94
429.625	89.94
429.847	88.94
430.069	92.94
430.292	96.94
430.514	77.94
430.736	80.94
430.958	94.94
431.18	72.94
431.402	73.94
431.624	76.94
431.846	88.94
432.068	82.94
432.29	77.94
432.512	90.94
432.734	82.94
432.956	78.94
433.178	103.94
433.4	100.94
433.622	100.94
433.844	78.94
434.066	95.94
434.287	97.94
434.509	102.94
434.731	81.94
434.953	88.94
435.175	85.94
435.397	85.94
435.618	86.94
435.84	90.94
436.062	123.94
436.284	113.94
436.505	114.94
436.727	84.94
436.949	74.94
437.17	76.94
437.392	98.94
437.614	82.94
437.835	92.94
438.057	107.94
438.278	118.94
438.5	113.94
438.721	113.94
438.943	105.94
439.165	86.94
439.386	93.94
439.608	81.94
439.829	85.94
440.05	108.94
440.272	132.94
440.493	91.94
440.715	79.94
440.936	98.94
441.158	90.94
441.379	92.94
441.6	91.94
441.822	103.94
442.043	93.94
442.264	85.94
442.486	92.94
442.707	85.94
442.928	107.94
443.149	142.94
443.371	134.94
443.592	111.94
443.813	116.94
444.034	105.94
444.255	76.94
444.476	84.94
444.698	83.94
444.919	102.94
445.14	125.94
445.361	110.94
445.582	100.94
445.803	138.94
446.024	124.94
446.245	136.94
446.466	118.94
446.687	81.94
446.908	91.94
447.129	91.94
447.35	82.94
447.571	90.94
447.792	81.94
448.013	72.94
448.234	97.94
448.455	90.94
448.675	111.94
448.896	117.94
449.117	100.94
449.338	89.94
449.559	124.94
449.779	126.94
450	110.94
450.221	87.94
450.442	69.94
450.662	93.94
450.883	93.94
451.104	104.94
451.324	96.94
451.545	72.94
451.766	84.94
451.986	97.94
452.207	84.94
452.428	75.94
452.648	94.94
452.869	93.94
453.089	90.94
453.31	99.94
453.53	81.94
453.751	90.94
453.971	97.94
454.192	98.94
454.412	98.94
454.633	80.94
454.853	76.94
455.073	81.94
455.294	85.94
455.514	95.94
455.734	94.94
455.955	72.94
456.175	79.94
456.395	101.94
456.616	78.94
456.836	80.94
457.056	80.94
457.276	86.94
457.497	78.94
457.717	72.94
457.937	83.94
458.157	83.94
458.377	81.94
458.598	99.94
458.818	132.94
459.038	146.94
459.258	97.94
459.478	76.94
459.698	95.94
459.918	85.94
460.138	81.94
460.358	90.94
460.578	88.94
460.798	71.94
461.018	83.94
461.238	80.94
461.458	73.94
461.678	68.94
461.898	90.94
462.118	89.94
462.338	79.94
462.558	91.94
462.777	85.94
462.997	80.94
463.217	97.94
463.437	75.94
463.657	81.94
463.876	88.94
464.096	68.94
464.316	93.94
464.536	108.94
464.755	98.94
464.975	98.94
465.195	154.94
465.414	168.94
465.634	107.94
465.854	86.94
466.073	72.94
466.293	92.94
466.512	94.94
466.732	85.94
466.951	93.94
467.171	80.94
467.391	93.94
467.61	102.94
467.829	105.94
468.049	164.94
468.268	225.94
468.488	97.94
468.707	85.94
468.927	76.94
469.146	88.94
469.365	80.94
469.585	84.94
469.804	80.94
470.023	81.94
470.243	95.94
470.462	94.94
470.681	85.94
470.901	78.94
471.12	89.94
471.339	89.94
471.558	80.94
471.777	92.94
471.997	113.94
472.216	276.94
472.435	554.94
472.654	196.94
472.873	95.94
473.092	89.94
473.311	98.94
473.53	64.94
473.749	84.94
473.968	84.94
474.187	86.94
474.406	84.94
474.625	81.94
474.844	86.94
475.063	86.94
475.282	93.94
475.501	87.94
475.72	61.94
475.939	101.94
476.158	87.94
476.377	83.94
476.596	90.94
476.814	99.94
477.033	85.94
477.252	92.94
477.471	88.94
477.69	80.94
477.908	91.94
478.127	91.94
478.346	81.94
478.564	100.94
478.783	94.94
479.002	96.94
479.22	101.94
479.439	99.94
479.658	94.94
479.876	86.94
480.095	95.94
480.313	87.94
480.532	105.94
480.751	107.94
480.969	265.94
481.188	883.94
481.406	572.94
481.624	137.94
481.843	86.94
482.061	94.94
482.28	84.94
482.498	96.94
482.717	77.94
482.935	92.94
483.153	80.94
483.372	81.94
483.59	74.94
483.808	66.94
484.027	86.94
484.245	91.94
484.463	88.94
484.681	91.94
484.9	110.94
485.118	76.94
485.336	100.94
485.554	92.94
485.772	93.94
485.99	86.94
486.209	85.94
486.427	103.94
486.645	103.94
486.863	108.94
487.081	110.94
487.299	104.94
487.517	87.94
487.735	80.94
487.953	91.94
488.171	81.94
488.389	99.94
488.607	82.94
488.825	84.94
489.043	83.94
489.261	68.94
489.479	79.94
489.696	81.94
489.914	83.94
490.132	78.94
490.35	91.94
490.568	89.94
490.786	89.94
491.003	85.94
491.221	89.94
491.439	97.94
491.657	84.94
491.874	72.94
492.092	93.94
492.31	93.94
492.527	93.94
492.745	72.94
492.963	100.94
493.18	77.94
493.398	84.94
493.615	91.94
493.833	95.94
494.05	86.94
494.268	82.94
494.485	79.94
494.703	101.94
494.92	89.94
495.138	91.94
495.355	89.94
495.573	93.94
495.79	83.94
496.008	85.94
496.225	87.94
496.442	84.94
496.66	79.94
496.877	93.94
497.094	88.94
497.312	75.94
497.529	91.94
497.746	90.94
497.963	95.94
498.181	106.94
498.398	94.94
498.615	91.94
498.832	98.94
499.049	94.94
499.267	83.94
499.484	79.94
499.701	83.94
499.918	83.94
500.135	78.94
500.352	76.94
500.569	79.94
500.786	91.94
501.003	97.94
501.22	78.94
501.437	85.94
501.654	81.94
501.871	94.94
502.088	89.94
502.305	86.94
502.522	101.94
502.739	74.94
502.956	94.94
503.172	91.94
503.389	91.94
503.606	100.94
503.823	78.94
504.04	77.94
504.256	87.94
504.473	90.94
504.69	96.94
504.907	86.94
505.123	84.94
505.34	84.94
505.557	106.94
505.773	89.94
505.99	76.94
506.207	85.94
506.423	73.94
506.64	82.94
506.856	79.94
507.073	89.94
507.289	86.94
507.506	91.94
507.722	101.94
507.939	100.94
508.155	99.94
508.372	89.94
508.588	94.94
508.805	86.94
509.021	92.94
509.238	92.94
509.454	96.94
509.67	94.94
509.887	101.94
510.103	121.94
510.319	213.94
510.536	661.94
510.752	2085.94
510.968	573.94
511.184	147.94
511.401	118.94
511.617	86.94
511.833	90.94
512.049	98.94
512.265	75.94
512.481	75.94
512.698	85.94
512.914	93.94
513.13	89.94
513.346	84.94
513.562	83.94
513.778	75.94
513.994	79.94
514.21	85.94
514.426	102.94
514.642	130.94
514.858	113.94
515.074	144.94
515.29	418.94
515.506	1378.94
515.721	485.94
515.937	139.94
516.153	100.94
516.369	98.94
516.585	92.94
516.801	82.94
517.016	87.94
