Data from Circ_2004_H10_HRD10591_00087.txt Node
Date: Wed Jan 03 10:33:31 EST 2024
User: Yrep
Spectrometer: HR+D1059
Trigger mode: 1
Integration Time (sec): 1.000000E-1
Scans to average: 1
Electric dark correction enabled: true
Nonlinearity correction enabled: false
Boxcar width: 0
XAxis mode: Wavelengths
Number of Pixels in Spectrum: 2048
>>>>>Begin Spectral Data<<<<<
223.165	-28.25
223.4	-28.25
223.635	-28.25
223.869	-19.25
224.104	-10.25
224.338	-22.25
224.573	-28.25
224.808	-10.25
225.042	-13.25
225.277	-8.25
225.511	-10.25
225.746	4.75
225.98	18.75
226.215	8.75
226.449	18.75
226.683	23.75
226.918	40.75
227.152	34.75
227.387	40.75
227.621	28.75
227.856	47.75
228.09	47.75
228.324	51.75
228.559	46.75
228.793	146.75
229.027	448.75
229.262	516.75
229.496	607.75
229.73	810.75
229.964	810.75
230.199	553.75
230.433	468.75
230.667	481.75
230.901	474.75
231.136	438.75
231.37	442.75
231.604	457.75
231.838	471.75
232.072	444.75
232.306	456.75
232.541	473.75
232.775	472.75
233.009	465.75
233.243	483.75
233.477	464.75
233.711	486.75
233.945	520.75
234.179	524.75
234.413	501.75
234.647	518.75
234.881	518.75
235.115	529.75
235.349	518.75
235.583	565.75
235.817	595.75
236.051	620.75
236.285	616.75
236.519	607.75
236.753	716.75
236.987	918.75
237.221	1340.75
237.455	1483.75
237.689	884.75
237.922	759.75
238.156	737.75
238.39	684.75
238.624	672.75
238.858	634.75
239.091	684.75
239.325	676.75
239.559	706.75
239.793	720.75
240.027	776.75
240.26	918.75
240.494	958.75
240.728	979.75
240.961	914.75
241.195	828.75
241.429	786.75
241.662	773.75
241.896	804.75
242.13	809.75
242.363	778.75
242.597	835.75
242.83	884.75
243.064	854.75
243.298	842.75
243.531	899.75
243.765	857.75
243.998	903.75
244.232	912.75
244.465	915.75
244.699	911.75
244.932	944.75
245.166	939.75
245.399	928.75
245.633	977.75
245.866	924.75
246.099	972.75
246.333	959.75
246.566	998.75
246.8	1034.75
247.033	1024.75
247.266	1083.75
247.5	1145.75
247.733	1170.75
247.966	1168.75
248.2	1163.75
248.433	1212.75
248.666	1246.75
248.899	1368.75
249.133	1508.75
249.366	1514.75
249.599	1458.75
249.832	1429.75
250.066	1628.75
250.299	2081.75
250.532	2674.75
250.765	2634.75
250.998	2283.75
251.231	1943.75
251.465	1694.75
251.698	1589.75
251.931	1504.75
252.164	1480.75
252.397	1548.75
252.63	1544.75
252.863	1580.75
253.096	1730.75
253.329	1791.75
253.562	1692.75
253.795	1609.75
254.028	1615.75
254.261	1698.75
254.494	1910.75
254.727	2256.75
254.96	2315.75
255.193	2159.75
255.426	2155.75
255.659	2530.75
255.892	3638.75
256.124	4784.75
256.357	4061.75
256.59	2868.75
256.823	2325.75
257.056	2046.75
257.289	1921.75
257.521	1863.75
257.754	1830.75
257.987	1761.75
258.22	1734.75
258.452	1697.75
258.685	1728.75
258.918	1720.75
259.151	1730.75
259.383	1802.75
259.616	1769.75
259.849	1830.75
260.081	2029.75
260.314	2148.75
260.547	2048.75
260.779	1889.75
261.012	1850.75
261.244	1786.75
261.477	1757.75
261.71	1753.75
261.942	1883.75
262.175	1858.75
262.407	1753.75
262.64	1732.75
262.872	1717.75
263.105	1718.75
263.337	1733.75
263.57	1724.75
263.802	1735.75
264.035	1728.75
264.267	1741.75
264.499	1742.75
264.732	1770.75
264.964	1752.75
265.197	1792.75
265.429	1782.75
265.661	1771.75
265.894	1790.75
266.126	1829.75
266.358	1839.75
266.591	1864.75
266.823	1936.75
267.055	1942.75
267.287	1874.75
267.52	1903.75
267.752	1918.75
267.984	1886.75
268.216	1938.75
268.448	1976.75
268.681	1999.75
268.913	2137.75
269.145	2298.75
269.377	2370.75
269.609	2292.75
269.841	2254.75
270.073	2303.75
270.306	2618.75
270.538	2739.75
270.77	2585.75
271.002	2467.75
271.234	2438.75
271.466	2588.75
271.698	2727.75
271.93	2772.75
272.162	2719.75
272.394	2624.75
272.626	2544.75
272.858	2412.75
273.09	2316.75
273.322	2323.75
273.553	2294.75
273.785	2299.75
274.017	2320.75
274.249	2335.75
274.481	2331.75
274.713	2378.75
274.945	2452.75
275.176	2393.75
275.408	2458.75
275.64	2494.75
275.872	2524.75
276.104	2562.75
276.335	2537.75
276.567	2647.75
276.799	2866.75
277.031	3186.75
277.262	3345.75
277.494	3116.75
277.726	2879.75
277.957	2760.75
278.189	2693.75
278.421	2626.75
278.652	2554.75
278.884	2639.75
279.115	2571.75
279.347	2603.75
279.579	2606.75
279.81	2781.75
280.042	2906.75
280.273	3034.75
280.505	3008.75
280.736	2813.75
280.968	2711.75
281.199	2673.75
281.431	2654.75
281.662	2661.75
281.894	2675.75
282.125	2695.75
282.356	2918.75
282.588	3056.75
282.819	2861.75
283.051	2723.75
283.282	2669.75
283.513	2710.75
283.745	2758.75
283.976	2747.75
284.207	2802.75
284.439	2730.75
284.67	2739.75
284.901	2732.75
285.132	2769.75
285.364	2749.75
285.595	2756.75
285.826	2799.75
286.057	2861.75
286.288	2806.75
286.52	2815.75
286.751	2820.75
286.982	2852.75
287.213	2822.75
287.444	2840.75
287.675	2971.75
287.906	2986.75
288.138	3050.75
288.369	3064.75
288.6	3075.75
288.831	2940.75
289.062	2946.75
289.293	2952.75
289.524	2903.75
289.755	2917.75
289.986	2917.75
290.217	2880.75
290.448	2893.75
290.679	2894.75
290.91	2927.75
291.141	2904.75
291.371	2930.75
291.602	2943.75
291.833	2886.75
292.064	2887.75
292.295	2877.75
292.526	2940.75
292.757	2892.75
292.987	2883.75
293.218	2877.75
293.449	2932.75
293.68	2918.75
293.91	2935.75
294.141	2853.75
294.372	2885.75
294.603	2941.75
294.833	2930.75
295.064	2977.75
295.295	2949.75
295.525	2926.75
295.756	3014.75
295.987	3100.75
296.217	3323.75
296.448	3174.75
296.679	2982.75
296.909	2991.75
297.14	3034.75
297.37	3095.75
297.601	3084.75
297.831	3093.75
298.062	3120.75
298.292	3174.75
298.523	3173.75
298.753	3157.75
298.984	3191.75
299.214	3166.75
299.445	3175.75
299.675	3247.75
299.905	3244.75
300.136	3168.75
300.366	3231.75
300.597	3230.75
300.827	3354.75
301.057	3504.75
301.288	3490.75
301.518	3434.75
301.748	3435.75
301.979	3550.75
302.209	3562.75
302.439	3472.75
302.669	3451.75
302.9	3415.75
303.13	3418.75
303.36	3491.75
303.59	3521.75
303.82	3635.75
304.051	3534.75
304.281	3429.75
304.511	3374.75
304.741	3404.75
304.971	3382.75
305.201	3386.75
305.431	3395.75
305.661	3341.75
305.891	3322.75
306.121	3376.75
306.352	3450.75
306.582	3443.75
306.812	3383.75
307.042	3454.75
307.272	3585.75
307.502	3653.75
307.731	3619.75
307.961	3503.75
308.191	3444.75
308.421	3400.75
308.651	3441.75
308.881	3452.75
309.111	3491.75
309.341	3460.75
309.571	3622.75
309.8	3608.75
310.03	3684.75
310.26	3683.75
310.49	3692.75
310.72	3795.75
310.949	3903.75
311.179	3889.75
311.409	3765.75
311.639	3754.75
311.868	3812.75
312.098	3798.75
312.328	3923.75
312.557	4053.75
312.787	4166.75
313.017	4040.75
313.246	3893.75
313.476	3826.75
313.706	3894.75
313.935	3990.75
314.165	4125.75
314.394	4138.75
314.624	4103.75
314.853	3980.75
315.083	3916.75
315.312	3855.75
315.542	3800.75
315.771	3794.75
316.001	3811.75
316.23	3758.75
316.46	3791.75
316.689	3879.75
316.919	3866.75
317.148	3913.75
317.377	3934.75
317.607	3894.75
317.836	3878.75
318.065	3756.75
318.295	3817.75
318.524	3803.75
318.753	3829.75
318.983	3842.75
319.212	3816.75
319.441	3890.75
319.67	3954.75
319.9	3799.75
320.129	3876.75
320.358	3949.75
320.587	3945.75
320.816	3952.75
321.046	4063.75
321.275	3992.75
321.504	4027.75
321.733	4081.75
321.962	4142.75
322.191	4224.75
322.42	4365.75
322.649	4439.75
322.878	4503.75
323.108	4589.75
323.337	4845.75
323.566	5079.75
323.795	5358.75
324.024	5934.75
324.253	7860.75
324.482	11641.75
324.71	15608.75
324.939	15608.75
325.168	13595.75
325.397	6933.75
325.626	5650.75
325.855	5343.75
326.084	5215.75
326.313	5234.75
326.542	5452.75
326.77	6153.75
326.999	7826.75
327.228	11186.75
327.457	15018.75
327.686	14543.75
327.914	9180.75
328.143	8680.75
328.372	9187.75
328.6	7665.75
328.829	6670.75
329.058	6768.75
329.287	6954.75
329.515	6962.75
329.744	7724.75
329.972	9478.75
330.201	12120.75
330.43	13476.75
330.658	10186.75
330.887	8183.75
331.115	7069.75
331.344	6230.75
331.572	5980.75
331.801	5996.75
332.03	5972.75
332.258	5927.75
332.486	5979.75
332.715	6083.75
332.943	6383.75
333.172	6709.75
333.4	7162.75
333.629	7768.75
333.857	8842.75
334.085	10768.75
334.314	13506.75
334.542	15484.75
334.771	14846.75
334.999	9818.75
335.227	7773.75
335.455	6816.75
335.684	6302.75
335.912	6068.75
336.14	5764.75
336.369	5617.75
336.597	5663.75
336.825	5481.75
337.053	5289.75
337.281	5188.75
337.51	5116.75
337.738	5131.75
337.966	5053.75
338.194	5039.75
338.422	4981.75
338.65	4902.75
338.878	4834.75
339.106	4723.75
339.334	4730.75
339.562	4735.75
339.79	4583.75
340.018	4660.75
340.246	4604.75
340.474	4608.75
340.702	4637.75
340.93	4567.75
341.158	4656.75
341.386	4563.75
341.614	4559.75
341.842	4490.75
342.07	4525.75
342.298	4464.75
342.526	4430.75
342.754	4448.75
342.981	4472.75
343.209	4503.75
343.437	4749.75
343.665	5018.75
343.893	5262.75
344.12	5234.75
344.348	5077.75
344.576	4896.75
344.804	4863.75
345.031	4739.75
345.259	4787.75
345.487	4496.75
345.714	4502.75
345.942	4403.75
346.17	4348.75
346.397	4358.75
346.625	4338.75
346.853	4292.75
347.08	4256.75
347.308	4342.75
347.535	4412.75
347.763	4447.75
347.99	4429.75
348.218	4449.75
348.445	4450.75
348.673	4390.75
348.9	4272.75
349.128	4240.75
349.355	4191.75
349.583	4178.75
349.81	4156.75
350.037	4078.75
350.265	4138.75
350.492	4110.75
350.72	4221.75
350.947	4261.75
351.174	4265.75
351.402	4389.75
351.629	4303.75
351.856	4215.75
352.083	4311.75
352.311	4390.75
352.538	4446.75
352.765	4386.75
352.992	4259.75
353.22	4238.75
353.447	4236.75
353.674	4188.75
353.901	4118.75
354.128	4083.75
354.355	4026.75
354.583	4034.75
354.81	4106.75
355.037	4074.75
355.264	4032.75
355.491	3987.75
355.718	3978.75
355.945	4026.75
356.172	4024.75
356.399	4050.75
356.626	4095.75
356.853	4038.75
357.08	4034.75
357.307	4030.75
357.534	4074.75
357.761	4051.75
357.988	4055.75
358.215	4000.75
358.441	4130.75
358.668	4084.75
358.895	4159.75
359.122	4187.75
359.349	4199.75
359.576	4338.75
359.802	4559.75
360.029	4752.75
360.256	4716.75
360.483	4539.75
360.709	4327.75
360.936	4281.75
361.163	4349.75
361.39	4329.75
361.616	4349.75
361.843	4201.75
362.07	4347.75
362.296	4323.75
362.523	4226.75
362.749	4304.75
362.976	4284.75
363.203	4187.75
363.429	4109.75
363.656	4149.75
363.882	4180.75
364.109	4102.75
364.335	4080.75
364.562	4154.75
364.788	4128.75
365.015	4209.75
365.241	4151.75
365.468	4188.75
365.694	4226.75
365.92	4266.75
366.147	4119.75
366.373	4176.75
366.599	4162.75
366.826	4113.75
367.052	4087.75
367.278	4202.75
367.505	4143.75
367.731	4137.75
367.957	4171.75
368.184	4246.75
368.41	4292.75
368.636	4379.75
368.862	4305.75
369.089	4292.75
369.315	4251.75
369.541	4227.75
369.767	4277.75
369.993	4297.75
370.219	4316.75
370.445	4332.75
370.672	4263.75
370.898	4340.75
371.124	4366.75
371.35	4392.75
371.576	4349.75
371.802	4380.75
372.028	4337.75
372.254	4393.75
372.48	4392.75
372.706	4523.75
372.932	4518.75
373.158	4483.75
373.384	4419.75
373.61	4351.75
373.835	4452.75
374.061	4437.75
374.287	4529.75
374.513	4618.75
374.739	4680.75
374.965	4797.75
375.191	4750.75
375.416	4701.75
375.642	4564.75
375.868	4570.75
376.094	4458.75
376.319	4412.75
376.545	4490.75
376.771	4384.75
376.997	4335.75
377.222	4381.75
377.448	4320.75
377.674	4330.75
377.899	4329.75
378.125	4287.75
378.35	4301.75
378.576	4297.75
378.802	4262.75
379.027	4291.75
379.253	4296.75
379.478	4333.75
379.704	4396.75
379.929	4347.75
380.155	4334.75
380.38	4360.75
380.606	4459.75
380.831	4316.75
381.057	4392.75
381.282	4362.75
381.507	4339.75
381.733	4451.75
381.958	4408.75
382.184	4515.75
382.409	4608.75
382.634	4544.75
382.86	4622.75
383.085	4716.75
383.31	4740.75
383.535	4785.75
383.761	4884.75
383.986	4975.75
384.211	5047.75
384.436	5043.75
384.662	5088.75
384.887	5153.75
385.112	5220.75
385.337	5205.75
385.562	5223.75
385.787	5303.75
386.013	5365.75
386.238	5338.75
386.463	5327.75
386.688	5245.75
386.913	5212.75
387.138	5178.75
387.363	5234.75
387.588	5127.75
387.813	5189.75
388.038	5193.75
388.263	5199.75
388.488	5235.75
388.713	5198.75
388.938	5170.75
389.163	5114.75
389.387	5180.75
389.612	5076.75
389.837	5091.75
390.062	5051.75
390.287	5174.75
390.512	5120.75
390.736	5185.75
390.961	5315.75
391.186	5317.75
391.411	5491.75
391.636	5628.75
391.86	5715.75
392.085	5784.75
392.31	5782.75
392.534	5564.75
392.759	5509.75
392.984	5395.75
393.208	5345.75
393.433	5412.75
393.658	5419.75
393.882	5468.75
394.107	5414.75
394.331	5476.75
394.556	5413.75
394.78	5508.75
395.005	5574.75
395.229	5609.75
395.454	5719.75
395.678	5820.75
395.903	5888.75
396.127	5927.75
396.352	5708.75
396.576	5606.75
396.801	5524.75
397.025	5549.75
397.249	5766.75
397.474	5887.75
397.698	5848.75
397.922	6069.75
398.147	6147.75
398.371	6267.75
398.595	6254.75
398.82	6658.75
399.044	7156.75
399.268	7882.75
399.492	8923.75
399.717	9511.75
399.941	9304.75
400.165	8772.75
400.389	8149.75
400.613	7260.75
400.837	6895.75
401.062	6807.75
401.286	6597.75
401.51	6673.75
401.734	6589.75
401.958	6734.75
402.182	6810.75
402.406	7004.75
402.63	6916.75
402.854	7040.75
403.078	7183.75
403.302	7273.75
403.526	7378.75
403.75	7492.75
403.974	7597.75
404.198	7583.75
404.422	7790.75
404.645	7880.75
404.869	8095.75
405.093	8654.75
405.317	9192.75
405.541	9060.75
405.765	8198.75
405.988	7901.75
406.212	7748.75
406.436	7930.75
406.66	7967.75
406.883	7926.75
407.107	8467.75
407.331	9004.75
407.555	9494.75
407.778	9109.75
408.002	8361.75
408.226	8007.75
408.449	7839.75
408.673	7644.75
408.896	7884.75
409.12	8109.75
409.344	7565.75
409.567	7276.75
409.791	7243.75
410.014	7088.75
410.238	7079.75
410.461	7144.75
410.685	7162.75
410.908	7261.75
411.132	7455.75
411.355	7492.75
411.578	7208.75
411.802	7080.75
412.025	7332.75
412.249	7787.75
412.472	8466.75
412.695	9000.75
412.919	8399.75
413.142	7900.75
413.365	7533.75
413.589	7151.75
413.812	6826.75
414.035	6790.75
414.258	6794.75
414.482	6740.75
414.705	6670.75
414.928	6657.75
415.151	6662.75
415.374	6654.75
415.597	6607.75
415.821	6494.75
416.044	6501.75
416.267	6476.75
416.49	6404.75
416.713	6273.75
416.936	6444.75
417.159	6479.75
417.382	6724.75
417.605	6888.75
417.828	6952.75
418.051	6895.75
418.274	6666.75
418.497	6527.75
418.72	6684.75
418.943	6637.75
419.166	7123.75
419.389	7484.75
419.611	7542.75
419.834	7500.75
420.057	7626.75
420.28	7983.75
420.503	7783.75
420.726	7506.75
420.948	7379.75
421.171	7648.75
421.394	7348.75
421.617	6886.75
421.839	6784.75
422.062	6833.75
422.285	6985.75
422.507	7511.75
422.73	8076.75
422.953	7461.75
423.175	7111.75
423.398	7064.75
423.621	7133.75
423.843	7395.75
424.066	7265.75
424.288	7024.75
424.511	7288.75
424.733	7861.75
424.956	8285.75
425.178	7722.75
425.401	7864.75
425.623	7805.75
425.846	6797.75
426.068	6711.75
426.291	6670.75
426.513	6599.75
426.735	6739.75
426.958	7327.75
427.18	8106.75
427.402	9261.75
427.625	9722.75
427.847	8966.75
428.069	8715.75
428.292	7432.75
428.514	6411.75
428.736	6204.75
428.958	6247.75
429.181	6001.75
429.403	5941.75
429.625	6064.75
429.847	6420.75
430.069	6975.75
430.292	6448.75
430.514	5927.75
430.736	5899.75
430.958	5749.75
431.18	5782.75
431.402	5805.75
431.624	5738.75
431.846	5703.75
432.068	5765.75
432.29	5935.75
432.512	5781.75
432.734	5875.75
432.956	5775.75
433.178	5904.75
433.4	5858.75
433.622	5821.75
433.844	5823.75
434.066	5807.75
434.287	5942.75
434.509	6139.75
434.731	6350.75
434.953	6462.75
435.175	6560.75
435.397	6701.75
435.618	6551.75
435.84	6954.75
436.062	7903.75
436.284	7832.75
436.505	6628.75
436.727	6272.75
436.949	6034.75
437.17	5858.75
437.392	5838.75
437.614	5994.75
437.835	6441.75
438.057	7470.75
438.278	8036.75
438.5	7900.75
438.721	8818.75
438.943	7705.75
439.165	6413.75
439.386	6322.75
439.608	6286.75
439.829	6443.75
440.05	6808.75
440.272	7297.75
440.493	6554.75
440.715	6125.75
440.936	6116.75
441.158	6245.75
441.379	6232.75
441.6	6667.75
441.822	6847.75
442.043	7332.75
442.264	7994.75
442.486	7720.75
442.707	6998.75
442.928	6760.75
443.149	7071.75
443.371	7259.75
443.592	7832.75
443.813	8689.75
444.034	8664.75
444.255	7515.75
444.476	7313.75
444.698	7534.75
444.919	7554.75
445.14	7397.75
445.361	7308.75
445.582	7542.75
445.803	8190.75
446.024	8873.75
446.245	8444.75
446.466	7532.75
446.687	6424.75
446.908	6132.75
447.129	5814.75
447.35	5732.75
447.571	5780.75
447.792	5591.75
448.013	5702.75
448.234	5870.75
448.455	6480.75
448.675	7738.75
448.896	8233.75
449.117	6748.75
449.338	6940.75
449.559	8292.75
449.779	8514.75
450	6452.75
450.221	5714.75
450.442	5536.75
450.662	5484.75
450.883	5639.75
451.104	5707.75
451.324	5507.75
451.545	5387.75
451.766	5281.75
451.986	5165.75
452.207	5109.75
452.428	5127.75
452.648	5083.75
452.869	5171.75
453.089	5188.75
453.31	5265.75
453.53	5074.75
453.751	5078.75
453.971	5167.75
454.192	5299.75
454.412	5014.75
454.633	4961.75
454.853	4910.75
455.073	4995.75
455.294	5394.75
455.514	5932.75
455.734	5437.75
455.955	4871.75
456.175	4818.75
456.395	4681.75
456.616	4716.75
456.836	4767.75
457.056	4710.75
457.276	4693.75
457.497	4820.75
457.717	4810.75
457.937	4957.75
458.157	4942.75
458.377	5108.75
458.598	5403.75
458.818	6140.75
459.038	7056.75
459.258	6799.75
459.478	6065.75
459.698	5900.75
459.918	5910.75
460.138	6093.75
460.358	6324.75
460.578	6366.75
460.798	6467.75
461.018	6496.75
461.238	6218.75
461.458	6288.75
461.678	6256.75
461.898	6397.75
462.118	6474.75
462.338	6816.75
462.558	6978.75
462.777	7264.75
462.997	7762.75
463.217	8110.75
463.437	7996.75
463.657	7412.75
463.876	7131.75
464.096	7284.75
464.316	7207.75
464.536	7275.75
464.755	7133.75
464.975	7027.75
465.195	7261.75
465.414	7304.75
465.634	6437.75
465.854	6032.75
466.073	5805.75
466.293	5610.75
466.512	5471.75
466.732	5391.75
466.951	5389.75
467.171	5409.75
467.391	5455.75
467.61	5655.75
467.829	5807.75
468.049	6753.75
468.268	7808.75
468.488	6331.75
468.707	5700.75
468.927	5465.75
469.146	5354.75
469.365	5365.75
469.585	5378.75
469.804	5532.75
470.023	5662.75
470.243	5690.75
470.462	5785.75
470.681	5885.75
470.901	5891.75
471.12	5725.75
471.339	5678.75
471.558	5786.75
471.777	5794.75
471.997	6261.75
472.216	8513.75
472.435	12870.75
472.654	9486.75
472.873	7061.75
473.092	6375.75
473.311	6085.75
473.53	5800.75
473.749	5742.75
473.968	6285.75
474.187	7249.75
474.406	6771.75
474.625	5749.75
474.844	5458.75
475.063	5351.75
475.282	5345.75
475.501	5466.75
475.72	5436.75
475.939	5508.75
476.158	5475.75
476.377	5445.75
476.596	5436.75
476.814	5619.75
477.033	5708.75
477.252	5726.75
477.471	5888.75
477.69	5973.75
477.908	6088.75
478.127	6183.75
478.346	6190.75
478.564	6331.75
478.783	6465.75
479.002	6631.75
479.22	6694.75
479.439	6776.75
479.658	6994.75
479.876	6975.75
480.095	7259.75
480.313	7898.75
480.532	7914.75
480.751	8422.75
480.969	10535.75
481.188	15608.75
481.406	15608.75
481.624	11502.75
481.843	9199.75
482.061	8230.75
482.28	7715.75
482.498	7267.75
482.717	6980.75
482.935	6829.75
483.153	6693.75
483.372	6627.75
483.59	6524.75
483.808	6524.75
484.027	6516.75
484.245	6519.75
484.463	6533.75
484.681	6574.75
484.9	6632.75
485.118	6635.75
485.336	6676.75
485.554	6710.75
485.772	6804.75
485.99	6773.75
486.209	6826.75
486.427	6754.75
486.645	6869.75
486.863	7047.75
487.081	6936.75
487.299	6852.75
487.517	6890.75
487.735	6730.75
