Data from Circ_2004_H10_HRD10591_00089.txt Node
Date: Wed Jan 03 10:33:32 EST 2024
User: Yrep
Spectrometer: HR+D1059
Trigger mode: 1
Integration Time (sec): 1.000000E-1
Scans to average: 1
Electric dark correction enabled: true
Nonlinearity correction enabled: false
Boxcar width: 0
XAxis mode: Wavelengths
Number of Pixels in Spectrum: 2048
>>>>>Begin Spectral Data<<<<<
223.165	-18.94
223.4	-18.94
223.635	-18.94
223.869	-15.94
224.104	-24.94
224.338	-1.94
224.573	-18.94
224.808	-17.94
225.042	0.06
225.277	-3.94
225.511	-4.94
225.746	5.06
225.98	4.06
226.215	6.06
226.449	6.06
226.683	14.06
226.918	36.06
227.152	36.06
227.387	49.06
227.621	46.06
227.856	52.06
228.09	45.06
228.324	62.06
228.559	57.06
228.793	68.06
229.027	77.06
229.262	70.06
229.496	86.06
229.73	99.06
229.964	87.06
230.199	77.06
230.433	56.06
230.667	69.06
230.901	83.06
231.136	84.06
231.37	78.06
231.604	79.06
231.838	69.06
232.072	72.06
232.306	81.06
232.541	83.06
232.775	80.06
233.009	80.06
233.243	75.06
233.477	82.06
233.711	95.06
233.945	110.06
234.179	94.06
234.413	76.06
234.647	84.06
234.881	92.06
235.115	81.06
235.349	70.06
235.583	86.06
235.817	85.06
236.051	83.06
236.285	79.06
236.519	80.06
236.753	100.06
236.987	69.06
237.221	76.06
237.455	83.06
237.689	88.06
237.922	85.06
238.156	71.06
238.39	72.06
238.624	77.06
238.858	88.06
239.091	84.06
239.325	83.06
239.559	77.06
239.793	90.06
240.027	92.06
240.26	86.06
240.494	99.06
240.728	76.06
240.961	94.06
241.195	78.06
241.429	87.06
241.662	87.06
241.896	87.06
242.13	82.06
242.363	86.06
242.597	94.06
242.83	98.06
243.064	90.06
243.298	64.06
243.531	76.06
243.765	70.06
243.998	89.06
244.232	82.06
244.465	94.06
244.699	77.06
244.932	83.06
245.166	71.06
245.399	72.06
245.633	83.06
245.866	78.06
246.099	82.06
246.333	75.06
246.566	85.06
246.8	83.06
247.033	69.06
247.266	91.06
247.5	75.06
247.733	94.06
247.966	82.06
248.2	69.06
248.433	74.06
248.666	92.06
248.899	90.06
249.133	88.06
249.366	98.06
249.599	90.06
249.832	81.06
250.066	91.06
250.299	89.06
250.532	91.06
250.765	80.06
250.998	70.06
251.231	69.06
251.465	103.06
251.698	91.06
251.931	75.06
252.164	92.06
252.397	84.06
252.63	95.06
252.863	74.06
253.096	72.06
253.329	72.06
253.562	80.06
253.795	85.06
254.028	87.06
254.261	80.06
254.494	81.06
254.727	81.06
254.96	93.06
255.193	86.06
255.426	94.06
255.659	81.06
255.892	97.06
256.124	93.06
256.357	93.06
256.59	80.06
256.823	86.06
257.056	81.06
257.289	94.06
257.521	89.06
257.754	92.06
257.987	88.06
258.22	91.06
258.452	94.06
258.685	89.06
258.918	81.06
259.151	89.06
259.383	98.06
259.616	90.06
259.849	84.06
260.081	91.06
260.314	94.06
260.547	86.06
260.779	92.06
261.012	97.06
261.244	103.06
261.477	98.06
261.71	101.06
261.942	121.06
262.175	143.06
262.407	104.06
262.64	102.06
262.872	88.06
263.105	83.06
263.337	92.06
263.57	97.06
263.802	84.06
264.035	68.06
264.267	86.06
264.499	95.06
264.732	88.06
264.964	81.06
265.197	92.06
265.429	107.06
265.661	99.06
265.894	87.06
266.126	86.06
266.358	90.06
266.591	99.06
266.823	84.06
267.055	84.06
267.287	89.06
267.52	86.06
267.752	97.06
267.984	93.06
268.216	93.06
268.448	97.06
268.681	86.06
268.913	88.06
269.145	94.06
269.377	89.06
269.609	90.06
269.841	105.06
270.073	85.06
270.306	89.06
270.538	84.06
270.77	87.06
271.002	77.06
271.234	91.06
271.466	86.06
271.698	73.06
271.93	82.06
272.162	89.06
272.394	96.06
272.626	82.06
272.858	96.06
273.09	86.06
273.322	88.06
273.553	85.06
273.785	88.06
274.017	87.06
274.249	105.06
274.481	96.06
274.713	85.06
274.945	97.06
275.176	112.06
275.408	89.06
275.64	110.06
275.872	104.06
276.104	100.06
276.335	107.06
276.567	117.06
276.799	133.06
277.031	137.06
277.262	145.06
277.494	128.06
277.726	100.06
277.957	90.06
278.189	86.06
278.421	81.06
278.652	90.06
278.884	82.06
279.115	93.06
279.347	87.06
279.579	94.06
279.81	100.06
280.042	133.06
280.273	156.06
280.505	131.06
280.736	93.06
280.968	81.06
281.199	102.06
281.431	87.06
281.662	94.06
281.894	87.06
282.125	93.06
282.356	125.06
282.588	153.06
282.819	132.06
283.051	94.06
283.282	82.06
283.513	90.06
283.745	94.06
283.976	87.06
284.207	87.06
284.439	88.06
284.67	85.06
284.901	95.06
285.132	100.06
285.364	86.06
285.595	86.06
285.826	80.06
286.057	91.06
286.288	90.06
286.52	89.06
286.751	97.06
286.982	100.06
287.213	100.06
287.444	93.06
287.675	83.06
287.906	100.06
288.138	92.06
288.369	99.06
288.6	95.06
288.831	102.06
289.062	93.06
289.293	92.06
289.524	94.06
289.755	92.06
289.986	83.06
290.217	84.06
290.448	93.06
290.679	87.06
290.91	106.06
291.141	84.06
291.371	97.06
291.602	95.06
291.833	89.06
292.064	98.06
292.295	98.06
292.526	93.06
292.757	93.06
292.987	87.06
293.218	90.06
293.449	104.06
293.68	77.06
293.91	90.06
294.141	96.06
294.372	85.06
294.603	92.06
294.833	88.06
295.064	101.06
295.295	101.06
295.525	82.06
295.756	106.06
295.987	135.06
296.217	148.06
296.448	142.06
296.679	106.06
296.909	104.06
297.14	85.06
297.37	107.06
297.601	93.06
297.831	92.06
298.062	104.06
298.292	100.06
298.523	91.06
298.753	87.06
298.984	93.06
299.214	92.06
299.445	98.06
299.675	127.06
299.905	106.06
300.136	93.06
300.366	105.06
300.597	103.06
300.827	101.06
301.057	120.06
301.288	113.06
301.518	103.06
301.748	94.06
301.979	101.06
302.209	104.06
302.439	111.06
302.669	105.06
302.9	94.06
303.13	104.06
303.36	106.06
303.59	122.06
303.82	140.06
304.051	102.06
304.281	89.06
304.511	94.06
304.741	100.06
304.971	106.06
305.201	101.06
305.431	101.06
305.661	95.06
305.891	98.06
306.121	94.06
306.352	104.06
306.582	114.06
306.812	113.06
307.042	110.06
307.272	125.06
307.502	148.06
307.731	130.06
307.961	102.06
308.191	118.06
308.421	94.06
308.651	101.06
308.881	112.06
309.111	92.06
309.341	94.06
309.571	108.06
309.8	109.06
310.03	102.06
310.26	121.06
310.49	105.06
310.72	114.06
310.949	107.06
311.179	119.06
311.409	93.06
311.639	114.06
311.868	92.06
312.098	99.06
312.328	118.06
312.557	109.06
312.787	115.06
313.017	117.06
313.246	106.06
313.476	91.06
313.706	96.06
313.935	89.06
314.165	99.06
314.394	106.06
314.624	102.06
314.853	116.06
315.083	103.06
315.312	104.06
315.542	81.06
315.771	91.06
316.001	106.06
316.23	89.06
316.46	91.06
316.689	90.06
316.919	88.06
317.148	96.06
317.377	106.06
317.607	99.06
317.836	100.06
318.065	75.06
318.295	81.06
318.524	97.06
318.753	96.06
318.983	98.06
319.212	94.06
319.441	120.06
319.67	124.06
319.9	103.06
320.129	98.06
320.358	117.06
320.587	107.06
320.816	112.06
321.046	113.06
321.275	107.06
321.504	112.06
321.733	105.06
321.962	97.06
322.191	117.06
322.42	105.06
322.649	125.06
322.878	124.06
323.108	125.06
323.337	134.06
323.566	149.06
323.795	186.06
324.024	220.06
324.253	460.06
324.482	930.06
324.71	1899.06
324.939	2534.06
325.168	938.06
325.397	269.06
325.626	172.06
325.855	152.06
326.084	138.06
326.313	148.06
326.542	169.06
326.77	253.06
326.999	517.06
327.228	1041.06
327.457	1853.06
327.686	1547.06
327.914	473.06
328.143	366.06
328.372	409.06
328.6	243.06
328.829	176.06
329.058	150.06
329.287	172.06
329.515	146.06
329.744	188.06
329.972	286.06
330.201	529.06
330.43	763.06
330.658	384.06
330.887	202.06
331.115	157.06
331.344	109.06
331.572	104.06
331.801	128.06
332.03	110.06
332.258	122.06
332.486	101.06
332.715	105.06
332.943	93.06
333.172	116.06
333.4	115.06
333.629	128.06
333.857	170.06
334.085	276.06
334.314	481.06
334.542	923.06
334.771	887.06
334.999	292.06
335.227	136.06
335.455	98.06
335.684	109.06
335.912	109.06
336.14	104.06
336.369	119.06
336.597	120.06
336.825	105.06
337.053	112.06
337.281	105.06
337.51	103.06
337.738	117.06
337.966	118.06
338.194	99.06
338.422	102.06
338.65	88.06
338.878	111.06
339.106	97.06
339.334	98.06
339.562	96.06
339.79	103.06
340.018	94.06
340.246	93.06
340.474	107.06
340.702	110.06
340.93	104.06
341.158	101.06
341.386	99.06
341.614	113.06
341.842	106.06
342.07	85.06
342.298	93.06
342.526	95.06
342.754	104.06
342.981	98.06
343.209	110.06
343.437	112.06
343.665	94.06
343.893	98.06
344.12	105.06
344.348	98.06
344.576	100.06
344.804	94.06
345.031	105.06
345.259	96.06
345.487	108.06
345.714	99.06
345.942	99.06
346.17	98.06
346.397	96.06
346.625	84.06
346.853	114.06
347.08	100.06
347.308	99.06
347.535	113.06
347.763	99.06
347.99	117.06
348.218	109.06
348.445	119.06
348.673	122.06
348.9	99.06
349.128	98.06
349.355	84.06
349.583	93.06
349.81	98.06
350.037	107.06
350.265	107.06
350.492	102.06
350.72	105.06
350.947	112.06
351.174	134.06
351.402	112.06
351.629	98.06
351.856	104.06
352.083	104.06
352.311	109.06
352.538	127.06
352.765	122.06
352.992	119.06
353.22	124.06
353.447	112.06
353.674	105.06
353.901	108.06
354.128	105.06
354.355	105.06
354.583	99.06
354.81	106.06
355.037	98.06
355.264	105.06
355.491	95.06
355.718	96.06
355.945	97.06
356.172	100.06
356.399	98.06
356.626	97.06
356.853	88.06
357.08	86.06
357.307	105.06
357.534	92.06
357.761	105.06
357.988	87.06
358.215	102.06
358.441	88.06
358.668	90.06
358.895	104.06
359.122	87.06
359.349	103.06
359.576	82.06
359.802	120.06
360.029	119.06
360.256	113.06
360.483	104.06
360.709	95.06
360.936	98.06
361.163	99.06
361.39	90.06
361.616	93.06
361.843	110.06
362.07	100.06
362.296	106.06
362.523	95.06
362.749	93.06
362.976	101.06
363.203	104.06
363.429	101.06
363.656	97.06
363.882	95.06
364.109	93.06
364.335	89.06
364.562	98.06
364.788	101.06
365.015	107.06
365.241	105.06
365.468	117.06
365.694	111.06
365.92	118.06
366.147	113.06
366.373	93.06
366.599	95.06
366.826	94.06
367.052	93.06
367.278	105.06
367.505	94.06
367.731	87.06
367.957	82.06
368.184	99.06
368.41	115.06
368.636	104.06
368.862	123.06
369.089	110.06
369.315	108.06
369.541	89.06
369.767	89.06
369.993	88.06
370.219	102.06
370.445	98.06
370.672	91.06
370.898	81.06
371.124	92.06
371.35	98.06
371.576	94.06
371.802	89.06
372.028	83.06
372.254	102.06
372.48	100.06
372.706	77.06
372.932	86.06
373.158	83.06
373.384	92.06
373.61	96.06
373.835	101.06
374.061	88.06
374.287	111.06
374.513	85.06
374.739	83.06
374.965	93.06
375.191	94.06
375.416	82.06
375.642	93.06
375.868	90.06
376.094	100.06
376.319	96.06
376.545	88.06
376.771	78.06
376.997	105.06
377.222	92.06
377.448	98.06
377.674	100.06
377.899	78.06
378.125	97.06
378.35	104.06
378.576	97.06
378.802	94.06
379.027	85.06
379.253	105.06
379.478	108.06
379.704	85.06
379.929	114.06
380.155	102.06
380.38	89.06
380.606	101.06
380.831	84.06
381.057	97.06
381.282	88.06
381.507	96.06
381.733	100.06
381.958	94.06
382.184	98.06
382.409	93.06
382.634	109.06
382.86	105.06
383.085	113.06
383.31	93.06
383.535	116.06
383.761	81.06
383.986	104.06
384.211	106.06
384.436	108.06
384.662	102.06
384.887	104.06
385.112	97.06
385.337	109.06
385.562	124.06
385.787	96.06
386.013	106.06
386.238	105.06
386.463	104.06
386.688	98.06
386.913	106.06
387.138	108.06
387.363	102.06
387.588	109.06
387.813	101.06
388.038	101.06
388.263	113.06
388.488	98.06
388.713	102.06
388.938	97.06
389.163	101.06
389.387	102.06
389.612	99.06
389.837	96.06
390.062	104.06
390.287	92.06
390.512	90.06
390.736	92.06
390.961	94.06
391.186	89.06
391.411	92.06
391.636	91.06
391.86	103.06
392.085	85.06
392.31	80.06
392.534	101.06
392.759	101.06
392.984	87.06
393.208	92.06
393.433	96.06
393.658	100.06
393.882	77.06
394.107	92.06
394.331	90.06
394.556	92.06
394.78	97.06
395.005	86.06
395.229	83.06
395.454	88.06
395.678	74.06
395.903	92.06
396.127	106.06
396.352	103.06
396.576	93.06
396.801	98.06
397.025	91.06
397.249	86.06
397.474	86.06
397.698	93.06
397.922	106.06
398.147	77.06
398.371	82.06
398.595	101.06
398.82	71.06
399.044	78.06
399.268	92.06
399.492	82.06
399.717	97.06
399.941	83.06
400.165	100.06
400.389	103.06
400.613	95.06
400.837	93.06
401.062	86.06
401.286	89.06
401.51	93.06
401.734	81.06
401.958	108.06
402.182	154.06
402.406	189.06
402.63	120.06
402.854	94.06
403.078	96.06
403.302	91.06
403.526	85.06
403.75	88.06
403.974	101.06
404.198	88.06
404.422	74.06
404.645	102.06
404.869	96.06
405.093	100.06
405.317	132.06
405.541	113.06
405.765	121.06
405.988	134.06
406.212	184.06
406.436	264.06
406.66	174.06
406.883	105.06
407.107	104.06
407.331	105.06
407.555	98.06
407.778	105.06
408.002	94.06
408.226	105.06
408.449	90.06
408.673	105.06
408.896	97.06
409.12	93.06
409.344	101.06
409.567	96.06
409.791	104.06
410.014	90.06
410.238	99.06
410.461	98.06
410.685	100.06
410.908	115.06
411.132	104.06
411.355	96.06
411.578	89.06
411.802	89.06
412.025	101.06
412.249	101.06
412.472	110.06
412.695	125.06
412.919	116.06
413.142	101.06
413.365	79.06
413.589	82.06
413.812	77.06
414.035	102.06
414.258	100.06
414.482	89.06
414.705	78.06
414.928	88.06
415.151	89.06
415.374	85.06
415.597	99.06
415.821	77.06
416.044	85.06
416.267	104.06
416.49	96.06
416.713	76.06
416.936	77.06
417.159	98.06
417.382	95.06
417.605	97.06
417.828	111.06
418.051	98.06
418.274	88.06
418.497	98.06
418.72	103.06
418.943	94.06
419.166	87.06
419.389	85.06
419.611	87.06
419.834	92.06
420.057	110.06
420.28	89.06
420.503	108.06
420.726	100.06
420.948	103.06
421.171	103.06
421.394	101.06
421.617	93.06
421.839	93.06
422.062	91.06
422.285	91.06
422.507	102.06
422.73	114.06
422.953	104.06
423.175	97.06
423.398	90.06
423.621	89.06
423.843	93.06
424.066	101.06
424.288	77.06
424.511	87.06
424.733	90.06
424.956	106.06
425.178	97.06
425.401	93.06
425.623	94.06
425.846	96.06
426.068	94.06
426.291	88.06
426.513	94.06
426.735	91.06
426.958	99.06
427.18	122.06
427.402	157.06
427.625	201.06
427.847	189.06
428.069	173.06
428.292	114.06
428.514	102.06
428.736	102.06
428.958	103.06
429.181	81.06
429.403	97.06
429.625	101.06
429.847	110.06
430.069	114.06
430.292	98.06
430.514	92.06
430.736	108.06
430.958	84.06
431.18	89.06
431.402	98.06
431.624	80.06
431.846	72.06
432.068	101.06
432.29	93.06
432.512	86.06
432.734	90.06
432.956	81.06
433.178	116.06
433.4	108.06
433.622	103.06
433.844	100.06
434.066	114.06
434.287	94.06
434.509	97.06
434.731	94.06
434.953	106.06
435.175	92.06
435.397	96.06
435.618	100.06
435.84	91.06
436.062	130.06
436.284	110.06
436.505	114.06
436.727	105.06
436.949	101.06
437.17	94.06
437.392	96.06
437.614	101.06
437.835	124.06
438.057	126.06
438.278	117.06
438.5	107.06
438.721	132.06
438.943	116.06
439.165	108.06
439.386	88.06
439.608	100.06
439.829	106.06
440.05	131.06
440.272	164.06
440.493	92.06
440.715	99.06
440.936	90.06
441.158	95.06
441.379	100.06
441.6	101.06
441.822	99.06
442.043	111.06
442.264	103.06
442.486	97.06
442.707	93.06
442.928	124.06
443.149	165.06
443.371	164.06
443.592	128.06
443.813	131.06
444.034	125.06
444.255	100.06
444.476	80.06
444.698	73.06
444.919	93.06
445.14	131.06
445.361	144.06
445.582	133.06
445.803	157.06
446.024	141.06
446.245	132.06
446.466	124.06
446.687	100.06
446.908	90.06
447.129	98.06
447.35	88.06
447.571	104.06
447.792	91.06
448.013	102.06
448.234	116.06
448.455	107.06
448.675	132.06
448.896	116.06
449.117	106.06
449.338	105.06
449.559	136.06
449.779	158.06
450	90.06
450.221	93.06
450.442	100.06
450.662	113.06
450.883	113.06
451.104	119.06
451.324	107.06
451.545	86.06
451.766	99.06
451.986	82.06
452.207	84.06
452.428	98.06
452.648	111.06
452.869	124.06
453.089	137.06
453.31	134.06
453.53	106.06
453.751	100.06
453.971	116.06
454.192	127.06
454.412	97.06
454.633	105.06
454.853	88.06
455.073	103.06
455.294	92.06
455.514	101.06
455.734	90.06
455.955	76.06
456.175	83.06
456.395	86.06
456.616	82.06
456.836	97.06
457.056	94.06
457.276	100.06
457.497	101.06
457.717	92.06
457.937	93.06
458.157	85.06
458.377	90.06
458.598	124.06
458.818	178.06
459.038	181.06
459.258	137.06
459.478	113.06
459.698	84.06
459.918	100.06
460.138	98.06
460.358	99.06
460.578	87.06
460.798	105.06
461.018	113.06
461.238	95.06
461.458	93.06
461.678	85.06
461.898	89.06
462.118	95.06
462.338	80.06
462.558	91.06
462.777	81.06
462.997	100.06
463.217	100.06
463.437	98.06
463.657	87.06
463.876	102.06
464.096	90.06
464.316	91.06
464.536	94.06
464.755	99.06
464.975	105.06
465.195	202.06
465.414	182.06
465.634	98.06
465.854	91.06
466.073	101.06
466.293	86.06
466.512	92.06
466.732	96.06
466.951	97.06
467.171	103.06
467.391	104.06
467.61	117.06
467.829	167.06
468.049	324.06
468.268	464.06
468.488	148.06
468.707	100.06
468.927	108.06
469.146	93.06
469.365	89.06
469.585	89.06
469.804	106.06
470.023	92.06
470.243	99.06
470.462	104.06
470.681	128.06
470.901	91.06
471.12	119.06
471.339	112.06
471.558	101.06
471.777	121.06
471.997	189.06
472.216	644.06
472.435	1342.06
472.654	350.06
472.873	133.06
473.092	105.06
473.311	82.06
473.53	92.06
473.749	99.06
473.968	99.06
474.187	126.06
474.406	109.06
474.625	98.06
474.844	82.06
475.063	73.06
475.282	76.06
475.501	70.06
475.72	84.06
475.939	86.06
476.158	88.06
476.377	94.06
476.596	104.06
476.814	91.06
477.033	96.06
477.252	95.06
477.471	100.06
477.69	94.06
477.908	107.06
478.127	89.06
478.346	90.06
478.564	110.06
478.783	94.06
479.002	106.06
479.22	94.06
479.439	114.06
479.658	108.06
479.876	99.06
480.095	104.06
480.313	108.06
480.532	133.06
480.751	196.06
480.969	578.06
481.188	2230.06
481.406	1353.06
481.624	251.06
481.843	114.06
482.061	108.06
482.28	111.06
482.498	93.06
482.717	83.06
482.935	98.06
483.153	101.06
483.372	88.06
483.59	81.06
483.808	97.06
484.027	89.06
484.245	104.06
484.463	90.06
484.681	96.06
484.9	97.06
485.118	93.06
485.336	96.06
485.554	87.06
485.772	97.06
485.99	103.06
486.209	105.06
486.427	112.06
486.645	97.06
486.863	124.06
487.081	132.06
487.299	99.06
487.517	109.06
487.735	96.06
487.953	85.06
488.171	103.06
488.389	88.06
488.607	96.06
488.825	101.06
489.043	100.06
489.261	98.06
489.479	98.06
489.696	95.06
489.914	89.06
490.132	99.06
490.35	84.06
490.568	90.06
490.786	83.06
491.003	98.06
491.221	93.06
491.439	107.06
491.657	91.06
491.874	104.06
492.092	85.06
492.31	107.06
492.527	103.06
492.745	97.06
492.963	92.06
493.18	95.06
493.398	93.06
493.615	99.06
493.833	94.06
494.05	101.06
494.268	87.06
494.485	89.06
494.703	95.06
494.92	97.06
495.138	100.06
495.355	91.06
495.573	98.06
495.79	97.06
496.008	85.06
496.225	101.06
496.442	105.06
496.66	101.06
496.877	97.06
497.094	84.06
497.312	84.06
497.529	83.06
497.746	109.06
497.963	85.06
498.181	106.06
498.398	94.06
498.615	124.06
498.832	106.06
499.049	91.06
499.267	103.06
499.484	87.06
499.701	105.06
499.918	98.06
500.135	100.06
500.352	76.06
500.569	98.06
500.786	86.06
501.003	93.06
501.22	88.06
501.437	73.06
501.654	100.06
501.871	116.06
502.088	102.06
502.305	90.06
502.522	99.06
502.739	84.06
502.956	87.06
503.172	94.06
503.389	96.06
503.606	114.06
503.823	110.06
504.04	102.06
504.256	92.06
504.473	85.06
504.69	84.06
504.907	83.06
505.123	96.06
505.34	83.06
505.557	93.06
505.773	96.06
505.99	88.06
506.207	91.06
506.423	96.06
506.64	94.06
506.856	102.06
507.073	104.06
507.289	98.06
507.506	92.06
507.722	124.06
507.939	123.06
508.155	101.06
508.372	104.06
508.588	96.06
508.805	101.06
509.021	95.06
509.238	91.06
509.454	113.06
509.67	120.06
509.887	120.06
510.103	142.06
510.319	226.06
510.536	840.06
510.752	2696.06
510.968	747.06
511.184	179.06
511.401	118.06
511.617	102.06
511.833	99.06
512.049	102.06
512.265	101.06
