Data from Circ_2004_H10_HRD10591_00086.txt Node
Date: Wed Jan 03 10:33:31 EST 2024
User: Yrep
Spectrometer: HR+D1059
Trigger mode: 1
Integration Time (sec): 1.000000E-1
Scans to average: 1
Electric dark correction enabled: true
Nonlinearity correction enabled: false
Boxcar width: 0
XAxis mode: Wavelengths
Number of Pixels in Spectrum: 2048
>>>>>Begin Spectral Data<<<<<
223.165	0
223.4	0
223.635	0
223.869	-10
224.104	-10
224.338	-22
224.573	-20
224.808	-18
225.042	2
225.277	-1
225.511	0
225.746	-1
225.98	0
226.215	1
226.449	5
226.683	23
226.918	22
227.152	29
227.387	45
227.621	47
227.856	47
228.09	43
228.324	46
228.559	62
228.793	82
229.027	72
229.262	72
229.496	67
229.73	84
229.964	97
230.199	83
230.433	88
230.667	94
230.901	74
231.136	81
231.37	84
231.604	69
231.838	94
232.072	75
232.306	80
232.541	88
232.775	90
233.009	70
233.243	80
233.477	76
233.711	67
233.945	86
234.179	76
234.413	81
234.647	86
234.881	78
235.115	85
235.349	82
235.583	87
235.817	71
236.051	74
236.285	77
236.519	85
236.753	96
236.987	71
237.221	91
237.455	79
237.689	78
237.922	78
238.156	86
238.39	85
238.624	75
238.858	65
239.091	77
239.325	73
239.559	72
239.793	86
240.027	80
240.26	96
240.494	90
240.728	71
240.961	90
241.195	73
241.429	74
241.662	79
241.896	77
242.13	79
242.363	94
242.597	79
242.83	70
243.064	74
243.298	87
243.531	90
243.765	79
243.998	86
244.232	71
244.465	85
244.699	82
244.932	86
245.166	77
245.399	92
245.633	78
245.866	83
246.099	79
246.333	78
246.566	76
246.8	102
247.033	89
247.266	76
247.5	90
247.733	77
247.966	73
248.2	80
248.433	78
248.666	79
248.899	98
249.133	93
249.366	99
249.599	96
249.832	88
250.066	94
250.299	91
250.532	80
250.765	68
250.998	70
251.231	71
251.465	75
251.698	80
251.931	98
252.164	95
252.397	78
252.63	84
252.863	87
253.096	66
253.329	89
253.562	76
253.795	95
254.028	76
254.261	76
254.494	82
254.727	84
254.96	90
255.193	81
255.426	85
255.659	78
255.892	85
256.124	97
256.357	88
256.59	72
256.823	97
257.056	93
257.289	68
257.521	70
257.754	83
257.987	82
258.22	76
258.452	83
258.685	97
258.918	97
259.151	96
259.383	73
259.616	97
259.849	87
260.081	92
260.314	101
260.547	85
260.779	86
261.012	91
261.244	92
261.477	101
261.71	99
261.942	100
262.175	128
262.407	94
262.64	82
262.872	83
263.105	88
263.337	101
263.57	89
263.802	97
264.035	83
264.267	92
264.499	84
264.732	96
264.964	86
265.197	86
265.429	70
265.661	86
265.894	101
266.126	88
266.358	75
266.591	88
266.823	90
267.055	95
267.287	86
267.52	82
267.752	106
267.984	81
268.216	84
268.448	87
268.681	82
268.913	96
269.145	84
269.377	80
269.609	81
269.841	88
270.073	94
270.306	89
270.538	80
270.77	87
271.002	78
271.234	74
271.466	88
271.698	96
271.93	87
272.162	75
272.394	92
272.626	80
272.858	90
273.09	92
273.322	96
273.553	80
273.785	76
274.017	98
274.249	96
274.481	86
274.713	97
274.945	72
275.176	88
275.408	91
275.64	104
275.872	104
276.104	102
276.335	94
276.567	115
276.799	124
277.031	136
277.262	155
277.494	123
277.726	119
277.957	100
278.189	99
278.421	85
278.652	102
278.884	84
279.115	92
279.347	91
279.579	82
279.81	108
280.042	150
280.273	181
280.505	133
280.736	88
280.968	88
281.199	74
281.431	88
281.662	99
281.894	90
282.125	101
282.356	130
282.588	157
282.819	111
283.051	104
283.282	100
283.513	82
283.745	107
283.976	86
284.207	94
284.439	88
284.67	96
284.901	97
285.132	92
285.364	76
285.595	93
285.826	84
286.057	94
286.288	88
286.52	91
286.751	92
286.982	92
287.213	80
287.444	91
287.675	93
287.906	87
288.138	95
288.369	95
288.6	91
288.831	95
289.062	92
289.293	97
289.524	92
289.755	78
289.986	99
290.217	100
290.448	98
290.679	80
290.91	82
291.141	92
291.371	88
291.602	87
291.833	83
292.064	78
292.295	88
292.526	96
292.757	99
292.987	82
293.218	100
293.449	90
293.68	94
293.91	91
294.141	96
294.372	84
294.603	109
294.833	92
295.064	92
295.295	96
295.525	85
295.756	108
295.987	111
296.217	147
296.448	133
296.679	109
296.909	100
297.14	86
297.37	89
297.601	94
297.831	98
298.062	94
298.292	82
298.523	82
298.753	87
298.984	82
299.214	88
299.445	99
299.675	105
299.905	118
300.136	106
300.366	85
300.597	90
300.827	95
301.057	104
301.288	107
301.518	98
301.748	84
301.979	103
302.209	90
302.439	98
302.669	95
302.9	104
303.13	113
303.36	118
303.59	103
303.82	128
304.051	102
304.281	89
304.511	103
304.741	82
304.971	107
305.201	92
305.431	86
305.661	84
305.891	97
306.121	92
306.352	97
306.582	97
306.812	104
307.042	116
307.272	126
307.502	142
307.731	126
307.961	109
308.191	83
308.421	87
308.651	90
308.881	97
309.111	85
309.341	100
309.571	104
309.8	105
310.03	117
310.26	88
310.49	98
310.72	114
310.949	106
311.179	101
311.409	100
311.639	103
311.868	95
312.098	101
312.328	106
312.557	104
312.787	111
313.017	103
313.246	105
313.476	90
313.706	88
313.935	102
314.165	116
314.394	104
314.624	98
314.853	87
315.083	97
315.312	102
315.542	105
315.771	101
316.001	87
316.23	105
316.46	98
316.689	77
316.919	101
317.148	97
317.377	106
317.607	101
317.836	104
318.065	91
318.295	103
318.524	83
318.753	99
318.983	98
319.212	108
319.441	115
319.67	114
319.9	102
320.129	89
320.358	105
320.587	102
320.816	96
321.046	112
321.275	95
321.504	97
321.733	102
321.962	107
322.191	99
322.42	110
322.649	115
322.878	120
323.108	119
323.337	130
323.566	137
323.795	159
324.024	228
324.253	428
324.482	940
324.71	1942
324.939	2642
325.168	960
325.397	273
325.626	165
325.855	137
326.084	136
326.313	137
326.542	170
326.77	257
326.999	516
327.228	1050
327.457	1950
327.686	1632
327.914	464
328.143	364
328.372	412
328.6	263
328.829	156
329.058	147
329.287	160
329.515	148
329.744	162
329.972	296
330.201	568
330.43	811
330.658	393
330.887	214
331.115	159
331.344	111
331.572	101
331.801	106
332.03	115
332.258	107
332.486	104
332.715	76
332.943	98
333.172	118
333.4	125
333.629	142
333.857	182
334.085	283
334.314	542
334.542	973
334.771	984
334.999	279
335.227	142
335.455	106
335.684	112
335.912	100
336.14	94
336.369	111
336.597	116
336.825	94
337.053	84
337.281	104
337.51	83
337.738	88
337.966	96
338.194	102
338.422	79
338.65	96
338.878	94
339.106	95
339.334	96
339.562	89
339.79	102
340.018	111
340.246	94
340.474	97
340.702	90
340.93	95
341.158	99
341.386	102
341.614	107
341.842	104
342.07	99
342.298	91
342.526	91
342.754	98
342.981	90
343.209	87
343.437	83
343.665	90
343.893	96
344.12	86
344.348	87
344.576	90
344.804	90
345.031	101
345.259	103
345.487	95
345.714	99
345.942	110
346.17	84
346.397	99
346.625	93
346.853	103
347.08	99
347.308	103
347.535	108
347.763	90
347.99	92
348.218	102
348.445	120
348.673	113
348.9	104
349.128	103
349.355	83
349.583	88
349.81	100
350.037	99
350.265	88
350.492	100
350.72	97
350.947	95
351.174	111
351.402	115
351.629	105
351.856	116
352.083	106
352.311	96
352.538	111
352.765	111
352.992	117
353.22	100
353.447	114
353.674	91
353.901	93
354.128	85
354.355	82
354.583	97
354.81	98
355.037	101
355.264	106
355.491	100
355.718	93
355.945	92
356.172	90
356.399	88
356.626	102
356.853	100
357.08	93
357.307	88
357.534	94
357.761	85
357.988	89
358.215	90
358.441	100
358.668	80
358.895	103
359.122	96
359.349	87
359.576	96
359.802	114
360.029	122
360.256	121
360.483	95
360.709	80
360.936	98
361.163	106
361.39	99
361.616	107
361.843	92
362.07	100
362.296	103
362.523	94
362.749	89
362.976	92
363.203	92
363.429	98
363.656	98
363.882	81
364.109	78
364.335	101
364.562	89
364.788	85
365.015	112
365.241	103
365.468	106
365.694	101
365.92	110
366.147	81
366.373	105
366.599	87
366.826	89
367.052	89
367.278	86
367.505	91
367.731	106
367.957	91
368.184	92
368.41	97
368.636	115
368.862	116
369.089	92
369.315	95
369.541	102
369.767	97
369.993	89
370.219	92
370.445	81
370.672	83
370.898	88
371.124	99
371.35	90
371.576	76
371.802	88
372.028	79
372.254	91
372.48	95
372.706	86
372.932	102
373.158	91
373.384	96
373.61	85
373.835	84
374.061	81
374.287	98
374.513	91
374.739	88
374.965	79
375.191	107
375.416	86
375.642	96
375.868	82
376.094	92
376.319	90
376.545	90
376.771	91
376.997	92
377.222	103
377.448	88
377.674	85
377.899	85
378.125	77
378.35	98
378.576	92
378.802	100
379.027	96
379.253	80
379.478	88
379.704	94
379.929	94
380.155	81
380.38	90
380.606	99
380.831	87
381.057	94
381.282	89
381.507	93
381.733	97
381.958	97
382.184	91
382.409	98
382.634	99
382.86	97
383.085	104
383.31	105
383.535	97
383.761	99
383.986	86
384.211	96
384.436	104
384.662	97
384.887	105
385.112	87
385.337	94
385.562	86
385.787	93
386.013	103
386.238	101
386.463	102
386.688	102
386.913	99
387.138	111
387.363	103
387.588	108
387.813	101
388.038	91
388.263	109
388.488	115
388.713	109
388.938	111
389.163	103
389.387	87
389.612	91
389.837	99
390.062	84
390.287	83
390.512	85
390.736	98
390.961	99
391.186	91
391.411	84
391.636	82
391.86	90
392.085	88
392.31	85
392.534	95
392.759	88
392.984	85
393.208	96
393.433	105
393.658	78
393.882	82
394.107	80
394.331	88
394.556	78
394.78	82
395.005	89
395.229	88
395.454	78
395.678	92
395.903	103
396.127	84
396.352	78
396.576	80
396.801	95
397.025	82
397.249	76
397.474	97
397.698	91
397.922	78
398.147	87
398.371	84
398.595	91
398.82	85
399.044	91
399.268	101
399.492	88
399.717	91
399.941	98
400.165	89
400.389	92
400.613	98
400.837	82
401.062	91
401.286	104
401.51	102
401.734	89
401.958	86
402.182	150
402.406	167
402.63	139
402.854	95
403.078	92
403.302	88
403.526	96
403.75	96
403.974	88
404.198	99
404.422	90
404.645	97
404.869	100
405.093	99
405.317	140
405.541	116
405.765	117
405.988	125
406.212	198
406.436	256
406.66	160
406.883	124
407.107	84
407.331	94
407.555	105
407.778	99
408.002	87
408.226	72
408.449	90
408.673	98
408.896	114
409.12	90
409.344	88
409.567	87
409.791	98
410.014	117
410.238	85
410.461	99
410.685	97
410.908	98
411.132	109
411.355	106
411.578	96
411.802	100
412.025	102
412.249	89
412.472	115
412.695	119
412.919	100
413.142	99
413.365	86
413.589	79
413.812	99
414.035	95
414.258	84
414.482	88
414.705	80
414.928	83
415.151	98
415.374	86
415.597	89
415.821	90
416.044	91
416.267	93
416.49	82
416.713	89
416.936	85
417.159	88
417.382	97
417.605	95
417.828	107
418.051	94
418.274	92
418.497	89
418.72	78
418.943	75
419.166	97
419.389	92
419.611	93
419.834	86
420.057	99
420.28	102
420.503	96
420.726	95
420.948	95
421.171	103
421.394	109
421.617	96
421.839	72
422.062	87
422.285	90
422.507	93
422.73	99
422.953	95
423.175	91
423.398	92
423.621	100
423.843	95
424.066	87
424.288	94
424.511	83
424.733	93
424.956	99
425.178	100
425.401	107
425.623	86
425.846	104
426.068	92
426.291	84
426.513	89
426.735	89
426.958	92
427.18	121
427.402	168
427.625	204
427.847	206
428.069	192
428.292	116
428.514	86
428.736	91
428.958	94
429.181	80
429.403	79
429.625	84
429.847	100
430.069	120
430.292	97
430.514	89
430.736	106
430.958	94
431.18	90
431.402	98
431.624	89
431.846	74
432.068	80
432.29	82
432.512	86
432.734	84
432.956	106
433.178	94
433.4	122
433.622	95
433.844	84
434.066	95
434.287	97
434.509	92
434.731	80
434.953	99
435.175	87
435.397	88
435.618	99
435.84	107
436.062	115
436.284	129
436.505	102
436.727	108
436.949	82
437.17	103
437.392	81
437.614	105
437.835	110
438.057	121
438.278	114
438.5	119
438.721	129
438.943	109
439.165	100
439.386	92
439.608	100
439.829	101
440.05	128
440.272	160
440.493	115
440.715	103
440.936	93
441.158	82
441.379	104
441.6	102
441.822	107
442.043	95
442.264	115
442.486	111
442.707	95
442.928	109
443.149	151
443.371	140
443.592	116
443.813	128
444.034	112
444.255	106
444.476	91
444.698	93
444.919	86
445.14	118
445.361	131
445.582	129
445.803	156
446.024	155
446.245	163
446.466	131
446.687	86
446.908	87
447.129	90
447.35	95
447.571	81
447.792	93
448.013	99
448.234	123
448.455	111
448.675	131
448.896	133
449.117	102
449.338	112
449.559	137
449.779	146
450	102
450.221	86
450.442	95
450.662	102
450.883	118
451.104	116
451.324	106
451.545	95
451.766	88
451.986	98
452.207	89
452.428	88
452.648	99
452.869	116
453.089	121
453.31	130
453.53	88
453.751	101
453.971	113
454.192	119
454.412	101
454.633	90
454.853	84
455.073	80
455.294	94
455.514	108
455.734	102
455.955	90
456.175	88
456.395	101
456.616	97
456.836	77
457.056	97
457.276	92
457.497	92
457.717	80
457.937	99
458.157	102
458.377	96
458.598	108
458.818	166
459.038	187
459.258	127
459.478	88
459.698	87
459.918	88
460.138	94
460.358	82
460.578	96
460.798	96
461.018	95
461.238	89
461.458	87
461.678	88
461.898	81
462.118	82
462.338	90
462.558	87
462.777	85
462.997	94
463.217	113
463.437	110
463.657	79
463.876	79
464.096	97
464.316	84
464.536	91
464.755	103
464.975	127
465.195	181
465.414	192
465.634	100
465.854	81
466.073	86
466.293	95
466.512	84
466.732	96
466.951	91
467.171	89
467.391	105
467.61	119
467.829	151
468.049	328
468.268	489
468.488	162
468.707	101
468.927	104
469.146	98
469.365	88
469.585	106
469.804	91
470.023	105
470.243	106
470.462	98
470.681	114
470.901	98
471.12	92
471.339	88
471.558	105
471.777	116
471.997	202
472.216	621
472.435	1364
472.654	367
472.873	134
473.092	92
473.311	98
473.53	92
473.749	91
473.968	115
474.187	109
474.406	100
474.625	95
474.844	90
475.063	76
475.282	84
475.501	91
475.72	93
475.939	91
476.158	107
476.377	90
476.596	95
476.814	106
477.033	110
477.252	112
477.471	85
477.69	92
477.908	98
478.127	82
478.346	105
478.564	84
478.783	98
479.002	113
479.22	96
479.439	115
479.658	112
479.876	107
480.095	100
480.313	114
480.532	149
480.751	211
480.969	570
481.188	2330
481.406	1424
481.624	257
481.843	112
482.061	100
482.28	90
482.498	99
482.717	93
482.935	101
483.153	90
483.372	94
483.59	95
483.808	99
484.027	96
484.245	91
484.463	92
484.681	84
484.9	88
485.118	86
485.336	92
485.554	79
485.772	94
485.99	105
486.209	112
486.427	95
486.645	107
486.863	121
487.081	97
487.299	99
487.517	98
487.735	103
487.953	95
488.171	98
488.389	101
488.607	99
488.825	103
489.043	92
489.261	99
489.479	84
489.696	101
489.914	84
490.132	86
490.35	95
490.568	100
490.786	98
491.003	93
491.221	101
491.439	100
491.657	102
491.874	97
492.092	97
492.31	92
492.527	82
492.745	107
492.963	96
493.18	77
493.398	98
493.615	103
493.833	102
494.05	88
494.268	89
494.485	83
494.703	91
494.92	97
495.138	85
495.355	97
495.573	94
495.79	98
496.008	89
496.225	85
496.442	87
496.66	89
496.877	85
497.094	96
497.312	88
497.529	99
497.746	79
497.963	84
498.181	103
498.398	104
498.615	98
498.832	101
499.049	90
499.267	90
499.484	100
499.701	76
499.918	96
500.135	96
500.352	99
500.569	100
500.786	91
501.003	91
501.22	92
501.437	73
501.654	100
501.871	110
502.088	103
502.305	101
502.522	96
502.739	91
502.956	92
503.172	98
503.389	97
503.606	104
503.823	103
504.04	84
504.256	90
504.473	79
504.69	90
504.907	95
505.123	92
505.34	88
505.557	86
505.773	92
505.99	86
506.207	85
506.423	73
506.64	89
506.856	105
507.073	91
507.289	105
507.506	97
507.722	107
507.939	119
508.155	98
508.372	102
508.588	86
508.805	98
509.021	101
509.238	103
509.454	101
509.67	92
509.887	111
510.103	148
510.319	211
510.536	762
510.752	2376
510.968	690
511.184	150
511.401	115
511.617	112
511.833	118
512.049	100
512.265	101
512.481	88
512.698	83
512.914	84
513.13	106
513.346	102
513.562	100
513.778	99
513.994	115
514.21	108
514.426	133
514.642	144
514.858	145
515.074	196
515.29	557
515.506	1815
515.721	668
515.937	184
516.153	136
516.369	105
516.585	98
516.801	99
517.016	114
517.232	96
517.448	99
517.664	88
517.879	100
518.095	95
518.311	106
518.527	102
518.742	104
518.958	99
519.173	96
519.389	105
519.605	86
519.82	87
520.036	104
520.251	146
520.467	129
520.682	105
520.898	111
521.113	103
521.329	165
521.544	232
521.76	692
521.975	3068
522.19	1840
522.406	393
522.621	152
522.836	106
523.052	106
523.267	91
523.482	79
523.698	102
523.913	117
524.128	110
524.343	115
524.559	103
524.774	88
524.989	107
525.204	121
525.419	106
525.634	102
525.849	100
526.064	90
526.28	97
526.495	91
526.71	97
526.925	90
527.14	76
527.355	90
527.57	92
527.785	85
527.999	91
528.214	91
528.429	105
528.644	102
528.859	105
529.074	95
529.289	136
529.503	202
529.718	114
529.933	91
530.148	91
530.363	99
530.577	82
530.792	89
531.007	94
531.221	83
531.436	90
531.651	105
531.865	96
532.08	89
532.295	94
532.509	100
532.724	95
532.938	86
533.153	86
533.367	90
533.582	98
533.796	107
534.011	91
534.225	105
534.44	93
534.654	91
534.868	99
535.083	87
535.297	94
535.511	109
535.726	87
535.94	85
536.154	90
536.369	101
536.583	82
536.797	85
537.011	87
537.225	91
537.44	82
537.654	98
537.868	85
538.082	106
538.296	92
538.51	90
538.724	71
538.938	83
539.153	89
539.367	123
539.581	99
539.795	94
540.009	95
540.222	78
540.436	89
540.65	87
540.864	99
541.078	93
541.292	103
541.506	79
541.72	98
541.934	97
542.147	72
542.361	74
542.575	82
542.789	79
543.002	99
543.216	113
543.43	92
543.644	101
543.857	98
544.071	87
544.285	98
544.498	100
544.712	82
544.925	90
545.139	84
545.352	94
545.566	90
545.779	98
545.993	88
546.206	86
546.42	99
546.633	90
546.847	96
547.06	90
547.274	79
547.487	92
547.7	94
547.914	80
548.127	89
548.34	77
548.554	77
548.767	96
548.98	98
549.193	83
549.407	91
549.62	84
549.833	84
550.046	84
550.259	89
550.473	87
550.686	95
550.899	99
551.112	91
551.325	105
551.538	96
551.751	107
551.964	86
552.177	79
552.39	84
552.603	105
552.816	99
553.029	97
553.242	86
553.455	102
553.667	108
553.88	116
554.093	110
554.306	102
554.519	96
554.732	86
554.944	97
555.157	84
555.37	94
555.583	94
555.795	89
556.008	86
556.221	101
556.433	99
556.646	95
556.859	90
557.071	97
557.284	105
557.496	94
557.709	87
557.921	102
558.134	91
558.346	90
558.559	89
558.771	90
558.984	99
559.196	90
559.409	110
559.621	92
559.833	87
560.046	97
560.258	99
560.47	115
560.683	99
560.895	91
561.107	89
561.32	91
561.532	87
561.744	92
561.956	91
562.168	84
562.381	91
562.593	91
562.805	82
563.017	84
563.229	92
563.441	102
563.653	92
563.865	96
564.077	100
564.289	86
564.501	81
564.713	88
564.925	104
565.137	106
565.349	95
565.561	88
565.773	93
565.985	98
566.197	92
566.408	77
566.62	110
566.832	87
567.044	91
567.255	107
567.467	86
567.679	82
567.891	92
568.102	84
568.314	89
568.526	89
568.737	77
568.949	98
569.161	92
569.372	100
569.584	89
569.795	90
570.007	114
570.218	243
570.43	139
570.641	92
570.853	91
571.064	82
571.276	82
571.487	84
571.698	82
571.91	102
572.121	84
572.333	86
572.544	96
572.755	88
572.966	79
573.178	77
573.389	91
573.6	78
573.811	99
574.023	98
574.234	93
574.445	100
574.656	82
574.867	92
575.078	84
575.289	92
575.501	98
575.712	89
575.923	95
576.134	97
576.345	95
576.556	91
576.767	105
576.978	97
577.188	96
577.399	99
577.61	98
577.821	102
578.032	122
578.243	270
578.454	758
578.665	213
578.875	96
579.086	101
579.297	81
579.508	89
579.718	75
579.929	89
580.14	92
580.35	91
580.561	81
580.772	101
580.982	86
581.193	82
581.403	98
