Data from Circ_2004_H10_HRD10591_00099.txt Node
Date: Wed Jan 03 10:33:34 EST 2024
User: Yrep
Spectrometer: HR+D1059
Trigger mode: 1
Integration Time (sec): 1.000000E-1
Scans to average: 1
Electric dark correction enabled: true
Nonlinearity correction enabled: false
Boxcar width: 0
XAxis mode: Wavelengths
Number of Pixels in Spectrum: 2048
>>>>>Begin Spectral Data<<<<<
223.165	-19.94
223.4	-19.94
223.635	-19.94
223.869	-9.94
224.104	-23.94
224.338	-13.94
224.573	-28.94
224.808	-17.94
225.042	-10.94
225.277	-10.94
225.511	5.06
225.746	21.06
225.98	6.06
226.215	6.06
226.449	8.06
226.683	29.06
226.918	38.06
227.152	23.06
227.387	42.06
227.621	35.06
227.856	40.06
228.09	48.06
228.324	41.06
228.559	60.06
228.793	47.06
229.027	68.06
229.262	61.06
229.496	71.06
229.73	105.06
229.964	92.06
230.199	73.06
230.433	82.06
230.667	77.06
230.901	81.06
231.136	88.06
231.37	81.06
231.604	81.06
231.838	84.06
232.072	82.06
232.306	71.06
232.541	74.06
232.775	64.06
233.009	86.06
233.243	80.06
233.477	85.06
233.711	69.06
233.945	78.06
234.179	76.06
234.413	76.06
234.647	80.06
234.881	64.06
235.115	55.06
235.349	82.06
235.583	69.06
235.817	63.06
236.051	83.06
236.285	73.06
236.519	71.06
236.753	78.06
236.987	89.06
237.221	90.06
237.455	95.06
237.689	77.06
237.922	70.06
238.156	67.06
238.39	67.06
238.624	63.06
238.858	74.06
239.091	82.06
239.325	73.06
239.559	83.06
239.793	80.06
240.027	77.06
240.26	76.06
240.494	64.06
240.728	66.06
240.961	74.06
241.195	76.06
241.429	69.06
241.662	68.06
241.896	65.06
242.13	86.06
242.363	74.06
242.597	84.06
242.83	81.06
243.064	76.06
243.298	72.06
243.531	73.06
243.765	77.06
243.998	79.06
244.232	82.06
244.465	88.06
244.699	81.06
244.932	78.06
245.166	63.06
245.399	86.06
245.633	77.06
245.866	80.06
246.099	78.06
246.333	72.06
246.566	80.06
246.8	83.06
247.033	65.06
247.266	73.06
247.5	92.06
247.733	86.06
247.966	86.06
248.2	88.06
248.433	79.06
248.666	83.06
248.899	77.06
249.133	76.06
249.366	112.06
249.599	108.06
249.832	70.06
250.066	73.06
250.299	82.06
250.532	82.06
250.765	72.06
250.998	86.06
251.231	86.06
251.465	101.06
251.698	85.06
251.931	80.06
252.164	75.06
252.397	85.06
252.63	76.06
252.863	69.06
253.096	73.06
253.329	86.06
253.562	67.06
253.795	79.06
254.028	77.06
254.261	73.06
254.494	79.06
254.727	80.06
254.96	70.06
255.193	66.06
255.426	94.06
255.659	102.06
255.892	86.06
256.124	85.06
256.357	81.06
256.59	76.06
256.823	86.06
257.056	70.06
257.289	73.06
257.521	86.06
257.754	72.06
257.987	80.06
258.22	79.06
258.452	89.06
258.685	86.06
258.918	80.06
259.151	83.06
259.383	71.06
259.616	72.06
259.849	85.06
260.081	75.06
260.314	75.06
260.547	84.06
260.779	81.06
261.012	101.06
261.244	101.06
261.477	97.06
261.71	94.06
261.942	106.06
262.175	141.06
262.407	100.06
262.64	84.06
262.872	81.06
263.105	79.06
263.337	90.06
263.57	64.06
263.802	87.06
264.035	84.06
264.267	77.06
264.499	92.06
264.732	81.06
264.964	86.06
265.197	74.06
265.429	82.06
265.661	86.06
265.894	85.06
266.126	81.06
266.358	78.06
266.591	90.06
266.823	76.06
267.055	85.06
267.287	70.06
267.52	81.06
267.752	88.06
267.984	89.06
268.216	86.06
268.448	82.06
268.681	80.06
268.913	76.06
269.145	63.06
269.377	63.06
269.609	86.06
269.841	71.06
270.073	74.06
270.306	96.06
270.538	101.06
270.77	76.06
271.002	78.06
271.234	88.06
271.466	97.06
271.698	79.06
271.93	73.06
272.162	88.06
272.394	95.06
272.626	93.06
272.858	83.06
273.09	93.06
273.322	72.06
273.553	82.06
273.785	109.06
274.017	97.06
274.249	79.06
274.481	98.06
274.713	89.06
274.945	92.06
275.176	88.06
275.408	88.06
275.64	91.06
275.872	117.06
276.104	100.06
276.335	84.06
276.567	109.06
276.799	141.06
277.031	136.06
277.262	133.06
277.494	123.06
277.726	89.06
277.957	81.06
278.189	83.06
278.421	84.06
278.652	91.06
278.884	78.06
279.115	79.06
279.347	89.06
279.579	85.06
279.81	109.06
280.042	151.06
280.273	183.06
280.505	136.06
280.736	110.06
280.968	89.06
281.199	73.06
281.431	89.06
281.662	87.06
281.894	93.06
282.125	97.06
282.356	134.06
282.588	147.06
282.819	109.06
283.051	96.06
283.282	91.06
283.513	103.06
283.745	86.06
283.976	82.06
284.207	86.06
284.439	83.06
284.67	79.06
284.901	89.06
285.132	82.06
285.364	77.06
285.595	86.06
285.826	84.06
286.057	82.06
286.288	93.06
286.52	90.06
286.751	92.06
286.982	80.06
287.213	84.06
287.444	79.06
287.675	88.06
287.906	88.06
288.138	99.06
288.369	92.06
288.6	100.06
288.831	90.06
289.062	100.06
289.293	92.06
289.524	87.06
289.755	93.06
289.986	84.06
290.217	88.06
290.448	88.06
290.679	89.06
290.91	82.06
291.141	99.06
291.371	91.06
291.602	95.06
291.833	81.06
292.064	92.06
292.295	85.06
292.526	103.06
292.757	83.06
292.987	103.06
293.218	97.06
293.449	108.06
293.68	104.06
293.91	84.06
294.141	84.06
294.372	87.06
294.603	83.06
294.833	82.06
295.064	82.06
295.295	87.06
295.525	95.06
295.756	93.06
295.987	121.06
296.217	149.06
296.448	139.06
296.679	86.06
296.909	93.06
297.14	88.06
297.37	84.06
297.601	81.06
297.831	93.06
298.062	100.06
298.292	99.06
298.523	100.06
298.753	82.06
298.984	85.06
299.214	91.06
299.445	89.06
299.675	87.06
299.905	105.06
300.136	103.06
300.366	92.06
300.597	89.06
300.827	99.06
301.057	89.06
301.288	112.06
301.518	96.06
301.748	95.06
301.979	95.06
302.209	92.06
302.439	96.06
302.669	87.06
302.9	94.06
303.13	88.06
303.36	96.06
303.59	107.06
303.82	131.06
304.051	114.06
304.281	97.06
304.511	88.06
304.741	78.06
304.971	97.06
305.201	83.06
305.431	93.06
305.661	107.06
305.891	86.06
306.121	102.06
306.352	107.06
306.582	101.06
306.812	91.06
307.042	127.06
307.272	147.06
307.502	142.06
307.731	133.06
307.961	103.06
308.191	92.06
308.421	99.06
308.651	86.06
308.881	91.06
309.111	94.06
309.341	90.06
309.571	103.06
309.8	80.06
310.03	96.06
310.26	98.06
310.49	104.06
310.72	100.06
310.949	116.06
311.179	113.06
311.409	85.06
311.639	97.06
311.868	104.06
312.098	93.06
312.328	99.06
312.557	99.06
312.787	110.06
313.017	102.06
313.246	95.06
313.476	93.06
313.706	91.06
313.935	112.06
314.165	103.06
314.394	107.06
314.624	105.06
314.853	96.06
315.083	93.06
315.312	92.06
315.542	76.06
315.771	97.06
316.001	66.06
316.23	99.06
316.46	77.06
316.689	84.06
316.919	83.06
317.148	109.06
317.377	102.06
317.607	96.06
317.836	89.06
318.065	79.06
318.295	83.06
318.524	99.06
318.753	83.06
318.983	92.06
319.212	105.06
319.441	98.06
319.67	103.06
319.9	85.06
320.129	92.06
320.358	94.06
320.587	99.06
320.816	105.06
321.046	108.06
321.275	101.06
321.504	96.06
321.733	103.06
321.962	98.06
322.191	92.06
322.42	104.06
322.649	112.06
322.878	104.06
323.108	119.06
323.337	133.06
323.566	153.06
323.795	166.06
324.024	224.06
324.253	448.06
324.482	993.06
324.71	2008.06
324.939	2795.06
325.168	989.06
325.397	288.06
325.626	177.06
325.855	143.06
326.084	133.06
326.313	143.06
326.542	156.06
326.77	255.06
326.999	518.06
327.228	1096.06
327.457	2029.06
327.686	1626.06
327.914	496.06
328.143	403.06
328.372	440.06
328.6	267.06
328.829	154.06
329.058	167.06
329.287	169.06
329.515	157.06
329.744	195.06
329.972	338.06
330.201	588.06
330.43	895.06
330.658	423.06
330.887	216.06
331.115	151.06
331.344	121.06
331.572	111.06
331.801	108.06
332.03	109.06
332.258	109.06
332.486	107.06
332.715	99.06
332.943	100.06
333.172	98.06
333.4	117.06
333.629	131.06
333.857	199.06
334.085	275.06
334.314	559.06
334.542	1083.06
334.771	1041.06
334.999	297.06
335.227	143.06
335.455	120.06
335.684	85.06
335.912	107.06
336.14	104.06
336.369	96.06
336.597	108.06
336.825	116.06
337.053	105.06
337.281	93.06
337.51	89.06
337.738	91.06
337.966	107.06
338.194	109.06
338.422	110.06
338.65	101.06
338.878	73.06
339.106	84.06
339.334	93.06
339.562	82.06
339.79	94.06
340.018	106.06
340.246	96.06
340.474	95.06
340.702	101.06
340.93	93.06
341.158	102.06
341.386	96.06
341.614	90.06
341.842	83.06
342.07	93.06
342.298	103.06
342.526	93.06
342.754	97.06
342.981	82.06
343.209	92.06
343.437	99.06
343.665	78.06
343.893	87.06
344.12	97.06
344.348	82.06
344.576	86.06
344.804	68.06
345.031	93.06
345.259	119.06
345.487	85.06
345.714	88.06
345.942	93.06
346.17	96.06
346.397	108.06
346.625	89.06
346.853	88.06
347.08	92.06
347.308	93.06
347.535	100.06
347.763	102.06
347.99	106.06
348.218	94.06
348.445	102.06
348.673	105.06
348.9	99.06
349.128	112.06
349.355	85.06
349.583	93.06
349.81	96.06
350.037	94.06
350.265	89.06
350.492	85.06
350.72	96.06
350.947	108.06
351.174	97.06
351.402	110.06
351.629	98.06
351.856	101.06
352.083	105.06
352.311	111.06
352.538	111.06
352.765	112.06
352.992	116.06
353.22	107.06
353.447	130.06
353.674	97.06
353.901	99.06
354.128	96.06
354.355	88.06
354.583	92.06
354.81	97.06
355.037	105.06
355.264	96.06
355.491	105.06
355.718	95.06
355.945	101.06
356.172	78.06
356.399	100.06
356.626	105.06
356.853	94.06
357.08	98.06
357.307	89.06
357.534	102.06
357.761	88.06
357.988	95.06
358.215	98.06
358.441	88.06
358.668	82.06
358.895	76.06
359.122	86.06
359.349	98.06
359.576	102.06
359.802	96.06
360.029	109.06
360.256	113.06
360.483	106.06
360.709	85.06
360.936	81.06
361.163	89.06
361.39	109.06
361.616	99.06
361.843	101.06
362.07	97.06
362.296	97.06
362.523	101.06
362.749	91.06
362.976	104.06
363.203	99.06
363.429	92.06
363.656	96.06
363.882	89.06
364.109	97.06
364.335	93.06
364.562	93.06
364.788	94.06
365.015	100.06
365.241	102.06
365.468	92.06
365.694	100.06
365.92	99.06
366.147	97.06
366.373	109.06
366.599	82.06
366.826	101.06
367.052	89.06
367.278	95.06
367.505	106.06
367.731	88.06
367.957	96.06
368.184	88.06
368.41	102.06
368.636	114.06
368.862	128.06
369.089	108.06
369.315	106.06
369.541	87.06
369.767	103.06
369.993	106.06
370.219	93.06
370.445	91.06
370.672	88.06
370.898	99.06
371.124	100.06
371.35	82.06
371.576	88.06
371.802	93.06
372.028	86.06
372.254	79.06
372.48	85.06
372.706	87.06
372.932	94.06
373.158	79.06
373.384	101.06
373.61	94.06
373.835	94.06
374.061	84.06
374.287	93.06
374.513	81.06
374.739	99.06
374.965	93.06
375.191	82.06
375.416	92.06
375.642	96.06
375.868	93.06
376.094	88.06
376.319	93.06
376.545	75.06
376.771	97.06
376.997	83.06
377.222	73.06
377.448	93.06
377.674	97.06
377.899	83.06
378.125	73.06
378.35	106.06
378.576	81.06
378.802	87.06
379.027	87.06
379.253	76.06
379.478	91.06
379.704	84.06
379.929	89.06
380.155	92.06
380.38	91.06
380.606	96.06
380.831	89.06
381.057	96.06
381.282	104.06
381.507	95.06
381.733	94.06
381.958	81.06
382.184	86.06
382.409	92.06
382.634	106.06
382.86	95.06
383.085	105.06
383.31	96.06
383.535	104.06
383.761	89.06
383.986	88.06
384.211	86.06
384.436	108.06
384.662	88.06
384.887	104.06
385.112	99.06
385.337	104.06
385.562	93.06
385.787	98.06
386.013	100.06
386.238	116.06
386.463	93.06
386.688	98.06
386.913	95.06
387.138	105.06
387.363	93.06
387.588	108.06
387.813	102.06
388.038	108.06
388.263	108.06
388.488	109.06
388.713	99.06
388.938	94.06
389.163	96.06
389.387	81.06
389.612	74.06
389.837	86.06
390.062	92.06
390.287	87.06
390.512	95.06
390.736	83.06
390.961	97.06
391.186	71.06
391.411	77.06
391.636	80.06
391.86	77.06
392.085	87.06
392.31	79.06
392.534	81.06
392.759	96.06
392.984	104.06
393.208	99.06
393.433	98.06
393.658	81.06
393.882	73.06
394.107	80.06
394.331	91.06
394.556	91.06
394.78	92.06
395.005	79.06
395.229	76.06
395.454	96.06
395.678	87.06
395.903	75.06
396.127	103.06
396.352	95.06
396.576	85.06
396.801	79.06
397.025	84.06
397.249	96.06
397.474	96.06
397.698	86.06
397.922	91.06
398.147	97.06
398.371	82.06
398.595	78.06
398.82	90.06
399.044	86.06
399.268	75.06
399.492	87.06
399.717	81.06
399.941	95.06
400.165	86.06
400.389	86.06
400.613	83.06
400.837	76.06
401.062	81.06
401.286	89.06
401.51	99.06
401.734	92.06
401.958	111.06
402.182	133.06
402.406	191.06
402.63	128.06
402.854	107.06
403.078	96.06
403.302	84.06
403.526	85.06
403.75	88.06
403.974	93.06
404.198	99.06
404.422	83.06
404.645	87.06
404.869	96.06
405.093	104.06
405.317	112.06
405.541	127.06
405.765	103.06
405.988	125.06
406.212	201.06
406.436	289.06
406.66	188.06
406.883	121.06
407.107	97.06
407.331	107.06
407.555	98.06
407.778	115.06
408.002	94.06
408.226	91.06
408.449	83.06
408.673	80.06
408.896	98.06
409.12	92.06
409.344	84.06
409.567	79.06
409.791	94.06
410.014	94.06
410.238	117.06
410.461	95.06
410.685	90.06
410.908	94.06
411.132	105.06
411.355	101.06
411.578	80.06
411.802	98.06
412.025	91.06
412.249	93.06
412.472	100.06
412.695	112.06
412.919	89.06
413.142	92.06
413.365	91.06
413.589	80.06
413.812	100.06
414.035	95.06
414.258	84.06
414.482	113.06
414.705	89.06
414.928	81.06
415.151	88.06
415.374	84.06
415.597	83.06
415.821	99.06
416.044	83.06
416.267	87.06
416.49	100.06
416.713	95.06
416.936	98.06
417.159	81.06
417.382	98.06
417.605	91.06
417.828	108.06
418.051	107.06
418.274	92.06
418.497	85.06
418.72	87.06
418.943	70.06
419.166	81.06
419.389	95.06
419.611	93.06
419.834	76.06
420.057	93.06
420.28	96.06
420.503	84.06
420.726	82.06
420.948	83.06
421.171	110.06
421.394	99.06
421.617	90.06
421.839	78.06
422.062	87.06
422.285	87.06
422.507	96.06
422.73	99.06
422.953	99.06
423.175	72.06
423.398	100.06
423.621	113.06
423.843	80.06
424.066	88.06
424.288	90.06
424.511	87.06
424.733	99.06
424.956	125.06
425.178	109.06
425.401	97.06
425.623	102.06
425.846	82.06
426.068	93.06
426.291	81.06
426.513	107.06
426.735	88.06
426.958	101.06
427.18	102.06
427.402	163.06
427.625	215.06
427.847	196.06
428.069	171.06
428.292	99.06
428.514	88.06
428.736	89.06
428.958	87.06
429.181	81.06
429.403	81.06
429.625	81.06
429.847	90.06
430.069	91.06
430.292	92.06
430.514	77.06
430.736	80.06
430.958	96.06
431.18	88.06
431.402	85.06
431.624	81.06
431.846	67.06
432.068	84.06
432.29	88.06
432.512	87.06
432.734	89.06
432.956	90.06
433.178	101.06
433.4	107.06
433.622	95.06
433.844	100.06
434.066	89.06
434.287	93.06
434.509	84.06
434.731	80.06
434.953	89.06
435.175	89.06
435.397	89.06
435.618	90.06
435.84	95.06
436.062	119.06
436.284	126.06
436.505	114.06
436.727	101.06
436.949	81.06
437.17	84.06
437.392	82.06
437.614	101.06
437.835	125.06
438.057	139.06
438.278	126.06
438.5	93.06
438.721	125.06
438.943	99.06
439.165	84.06
439.386	91.06
439.608	78.06
439.829	104.06
440.05	119.06
440.272	167.06
440.493	105.06
440.715	88.06
440.936	84.06
441.158	91.06
441.379	80.06
441.6	109.06
441.822	103.06
442.043	88.06
442.264	109.06
442.486	101.06
442.707	82.06
442.928	112.06
443.149	145.06
443.371	147.06
443.592	133.06
443.813	109.06
444.034	105.06
444.255	95.06
444.476	98.06
444.698	89.06
444.919	75.06
445.14	120.06
445.361	137.06
445.582	118.06
445.803	172.06
446.024	137.06
446.245	163.06
446.466	126.06
446.687	101.06
446.908	95.06
447.129	93.06
447.35	87.06
447.571	83.06
447.792	94.06
448.013	89.06
448.234	105.06
448.455	102.06
448.675	124.06
448.896	134.06
449.117	109.06
449.338	109.06
449.559	125.06
449.779	150.06
450	81.06
450.221	85.06
450.442	90.06
450.662	102.06
450.883	116.06
451.104	128.06
451.324	88.06
451.545	94.06
451.766	98.06
451.986	78.06
452.207	103.06
452.428	102.06
452.648	97.06
452.869	124.06
453.089	133.06
453.31	132.06
453.53	90.06
453.751	107.06
453.971	104.06
454.192	113.06
454.412	95.06
454.633	80.06
454.853	89.06
455.073	93.06
455.294	88.06
455.514	76.06
455.734	89.06
455.955	88.06
456.175	79.06
456.395	89.06
456.616	86.06
456.836	95.06
457.056	87.06
457.276	69.06
457.497	77.06
457.717	92.06
457.937	99.06
458.157	95.06
458.377	98.06
458.598	125.06
458.818	184.06
459.038	193.06
459.258	136.06
459.478	88.06
459.698	80.06
459.918	93.06
460.138	95.06
460.358	86.06
460.578	92.06
460.798	87.06
461.018	100.06
461.238	102.06
461.458	81.06
461.678	95.06
461.898	84.06
462.118	87.06
462.338	86.06
462.558	88.06
462.777	77.06
462.997	87.06
463.217	108.06
463.437	95.06
463.657	85.06
463.876	76.06
464.096	86.06
464.316	106.06
464.536	87.06
464.755	101.06
464.975	112.06
465.195	208.06
465.414	201.06
465.634	108.06
465.854	94.06
466.073	81.06
466.293	95.06
466.512	108.06
466.732	100.06
466.951	98.06
467.171	118.06
467.391	95.06
467.61	122.06
467.829	157.06
468.049	397.06
468.268	529.06
468.488	156.06
468.707	112.06
468.927	92.06
469.146	82.06
469.365	81.06
469.585	92.06
469.804	99.06
470.023	105.06
470.243	110.06
470.462	106.06
470.681	130.06
470.901	100.06
471.12	79.06
471.339	93.06
471.558	108.06
471.777	108.06
471.997	195.06
472.216	714.06
472.435	1556.06
472.654	408.06
472.873	147.06
473.092	117.06
473.311	88.06
473.53	88.06
473.749	94.06
473.968	89.06
474.187	115.06
474.406	104.06
474.625	92.06
474.844	78.06
475.063	86.06
475.282	72.06
475.501	78.06
475.72	77.06
475.939	86.06
476.158	77.06
476.377	82.06
476.596	79.06
476.814	97.06
477.033	87.06
477.252	73.06
477.471	80.06
477.69	88.06
477.908	100.06
478.127	86.06
478.346	88.06
478.564	88.06
478.783	96.06
479.002	99.06
479.22	92.06
479.439	119.06
479.658	119.06
479.876	104.06
480.095	104.06
480.313	92.06
480.532	129.06
480.751	212.06
480.969	672.06
481.188	2622.06
481.406	1615.06
481.624	265.06
481.843	98.06
482.061	95.06
482.28	98.06
482.498	92.06
482.717	84.06
482.935	89.06
483.153	99.06
483.372	104.06
483.59	99.06
483.808	96.06
484.027	97.06
484.245	104.06
484.463	99.06
484.681	93.06
484.9	98.06
485.118	80.06
485.336	99.06
485.554	99.06
485.772	99.06
485.99	104.06
486.209	115.06
486.427	98.06
486.645	125.06
486.863	123.06
487.081	121.06
487.299	93.06
487.517	91.06
487.735	74.06
487.953	98.06
488.171	93.06
488.389	101.06
488.607	87.06
488.825	88.06
489.043	87.06
489.261	87.06
489.479	88.06
489.696	97.06
489.914	90.06
490.132	83.06
490.35	95.06
490.568	76.06
490.786	86.06
491.003	76.06
491.221	83.06
491.439	89.06
491.657	78.06
491.874	77.06
492.092	83.06
492.31	101.06
492.527	83.06
492.745	95.06
492.963	97.06
493.18	88.06
493.398	85.06
493.615	83.06
493.833	99.06
494.05	96.06
494.268	88.06
494.485	88.06
494.703	81.06
494.92	84.06
495.138	94.06
495.355	92.06
495.573	84.06
495.79	88.06
496.008	93.06
496.225	96.06
496.442	103.06
496.66	92.06
496.877	87.06
497.094	87.06
497.312	86.06
497.529	79.06
497.746	94.06
497.963	71.06
498.181	97.06
498.398	99.06
498.615	115.06
498.832	96.06
499.049	86.06
499.267	96.06
499.484	105.06
499.701	96.06
499.918	87.06
500.135	81.06
500.352	86.06
500.569	89.06
500.786	91.06
501.003	71.06
501.22	96.06
501.437	104.06
501.654	102.06
501.871	138.06
502.088	110.06
502.305	80.06
502.522	97.06
502.739	91.06
502.956	84.06
503.172	95.06
503.389	108.06
503.606	108.06
503.823	104.06
504.04	84.06
504.256	70.06
504.473	87.06
504.69	87.06
504.907	88.06
505.123	79.06
505.34	84.06
505.557	77.06
505.773	91.06
505.99	95.06
506.207	68.06
506.423	81.06
506.64	89.06
506.856	77.06
507.073	90.06
507.289	84.06
507.506	109.06
507.722	120.06
507.939	128.06
508.155	96.06
508.372	94.06
508.588	94.06
508.805	91.06
509.021	100.06
509.238	88.06
509.454	116.06
509.67	93.06
509.887	105.06
510.103	126.06
510.319	205.06
510.536	870.06
510.752	2776.06
510.968	743.06
511.184	169.06
511.401	111.06
511.617	107.06
511.833	100.06
512.049	105.06
512.265	89.06
512.481	95.06
512.698	81.06
512.914	98.06
513.13	80.06
513.346	94.06
513.562	114.06
513.778	94.06
513.994	113.06
514.21	108.06
514.426	135.06
