Data from Circ_2004_H10_HRD10591_00018.txt Node
Date: Wed Jan 03 10:33:17 EST 2024
User: Yrep
Spectrometer: HR+D1059
Trigger mode: 1
Integration Time (sec): 1.000000E-1
Scans to average: 1
Electric dark correction enabled: true
Nonlinearity correction enabled: false
Boxcar width: 0
XAxis mode: Wavelengths
Number of Pixels in Spectrum: 2048
>>>>>Begin Spectral Data<<<<<
223.165	-24.62
223.4	-24.62
223.635	-24.62
223.869	-12.62
224.104	-16.62
224.338	-15.62
224.573	-11.62
224.808	-28.62
225.042	2.38
225.277	-1.62
225.511	-6.62
225.746	6.38
225.98	5.38
226.215	14.38
226.449	13.38
226.683	21.38
226.918	21.38
227.152	33.38
227.387	24.38
227.621	34.38
227.856	46.38
228.09	49.38
228.324	56.38
228.559	50.38
228.793	49.38
229.027	53.38
229.262	55.38
229.496	72.38
229.73	78.38
229.964	78.38
230.199	76.38
230.433	69.38
230.667	84.38
230.901	61.38
231.136	72.38
231.37	77.38
231.604	82.38
231.838	87.38
232.072	82.38
232.306	83.38
232.541	89.38
232.775	80.38
233.009	69.38
233.243	80.38
233.477	74.38
233.711	70.38
233.945	77.38
234.179	71.38
234.413	86.38
234.647	94.38
234.881	74.38
235.115	86.38
235.349	75.38
235.583	76.38
235.817	74.38
236.051	78.38
236.285	80.38
236.519	89.38
236.753	72.38
236.987	72.38
237.221	68.38
237.455	74.38
237.689	76.38
237.922	67.38
238.156	78.38
238.39	80.38
238.624	82.38
238.858	77.38
239.091	69.38
239.325	80.38
239.559	70.38
239.793	79.38
240.027	66.38
240.26	67.38
240.494	83.38
240.728	79.38
240.961	68.38
241.195	72.38
241.429	70.38
241.662	78.38
241.896	78.38
242.13	84.38
242.363	79.38
242.597	69.38
242.83	88.38
243.064	81.38
243.298	78.38
243.531	60.38
243.765	81.38
243.998	77.38
244.232	84.38
244.465	85.38
244.699	79.38
244.932	80.38
245.166	70.38
245.399	70.38
245.633	74.38
245.866	84.38
246.099	84.38
246.333	66.38
246.566	54.38
246.8	74.38
247.033	74.38
247.266	71.38
247.5	76.38
247.733	79.38
247.966	74.38
248.2	82.38
248.433	63.38
248.666	79.38
248.899	82.38
249.133	84.38
249.366	97.38
249.599	86.38
249.832	76.38
250.066	84.38
250.299	67.38
250.532	75.38
250.765	78.38
250.998	81.38
251.231	77.38
251.465	84.38
251.698	67.38
251.931	62.38
252.164	87.38
252.397	77.38
252.63	85.38
252.863	82.38
253.096	74.38
253.329	86.38
253.562	87.38
253.795	70.38
254.028	83.38
254.261	88.38
254.494	74.38
254.727	84.38
254.96	80.38
255.193	74.38
255.426	70.38
255.659	92.38
255.892	79.38
256.124	70.38
256.357	80.38
256.59	74.38
256.823	85.38
257.056	78.38
257.289	75.38
257.521	68.38
257.754	70.38
257.987	71.38
258.22	85.38
258.452	80.38
258.685	91.38
258.918	78.38
259.151	80.38
259.383	79.38
259.616	85.38
259.849	79.38
260.081	85.38
260.314	79.38
260.547	79.38
260.779	94.38
261.012	72.38
261.244	60.38
261.477	82.38
261.71	91.38
261.942	108.38
262.175	93.38
262.407	103.38
262.64	83.38
262.872	77.38
263.105	80.38
263.337	93.38
263.57	72.38
263.802	78.38
264.035	89.38
264.267	72.38
264.499	88.38
264.732	78.38
264.964	86.38
265.197	97.38
265.429	82.38
265.661	85.38
265.894	72.38
266.126	66.38
266.358	80.38
266.591	82.38
266.823	88.38
267.055	67.38
267.287	85.38
267.52	74.38
267.752	58.38
267.984	84.38
268.216	76.38
268.448	68.38
268.681	84.38
268.913	78.38
269.145	89.38
269.377	84.38
269.609	92.38
269.841	76.38
270.073	85.38
270.306	87.38
270.538	73.38
270.77	83.38
271.002	78.38
271.234	88.38
271.466	81.38
271.698	80.38
271.93	68.38
272.162	81.38
272.394	100.38
272.626	84.38
272.858	83.38
273.09	87.38
273.322	86.38
273.553	79.38
273.785	102.38
274.017	90.38
274.249	87.38
274.481	80.38
274.713	91.38
274.945	86.38
275.176	90.38
275.408	87.38
275.64	77.38
275.872	81.38
276.104	98.38
276.335	98.38
276.567	103.38
276.799	99.38
277.031	101.38
277.262	85.38
277.494	91.38
277.726	79.38
277.957	93.38
278.189	80.38
278.421	89.38
278.652	80.38
278.884	100.38
279.115	77.38
279.347	88.38
279.579	92.38
279.81	90.38
280.042	87.38
280.273	88.38
280.505	80.38
280.736	107.38
280.968	71.38
281.199	83.38
281.431	84.38
281.662	78.38
281.894	86.38
282.125	86.38
282.356	108.38
282.588	122.38
282.819	115.38
283.051	83.38
283.282	86.38
283.513	82.38
283.745	73.38
283.976	86.38
284.207	79.38
284.439	85.38
284.67	85.38
284.901	75.38
285.132	76.38
285.364	96.38
285.595	93.38
285.826	83.38
286.057	79.38
286.288	97.38
286.52	84.38
286.751	79.38
286.982	83.38
287.213	70.38
287.444	67.38
287.675	83.38
287.906	74.38
288.138	76.38
288.369	82.38
288.6	88.38
288.831	75.38
289.062	76.38
289.293	79.38
289.524	84.38
289.755	80.38
289.986	95.38
290.217	78.38
290.448	86.38
290.679	90.38
290.91	99.38
291.141	86.38
291.371	88.38
291.602	68.38
291.833	86.38
292.064	81.38
292.295	85.38
292.526	82.38
292.757	89.38
292.987	90.38
293.218	82.38
293.449	86.38
293.68	98.38
293.91	93.38
294.141	93.38
294.372	71.38
294.603	80.38
294.833	90.38
295.064	90.38
295.295	82.38
295.525	89.38
295.756	90.38
295.987	104.38
296.217	111.38
296.448	104.38
296.679	94.38
296.909	96.38
297.14	81.38
297.37	83.38
297.601	85.38
297.831	82.38
298.062	83.38
298.292	91.38
298.523	77.38
298.753	81.38
298.984	87.38
299.214	86.38
299.445	77.38
299.675	83.38
299.905	86.38
300.136	90.38
300.366	94.38
300.597	86.38
300.827	79.38
301.057	103.38
301.288	100.38
301.518	109.38
301.748	84.38
301.979	91.38
302.209	92.38
302.439	88.38
302.669	83.38
302.9	83.38
303.13	71.38
303.36	108.38
303.59	84.38
303.82	100.38
304.051	79.38
304.281	84.38
304.511	96.38
304.741	95.38
304.971	82.38
305.201	100.38
305.431	94.38
305.661	95.38
305.891	93.38
306.121	93.38
306.352	104.38
306.582	92.38
306.812	94.38
307.042	83.38
307.272	94.38
307.502	103.38
307.731	87.38
307.961	114.38
308.191	88.38
308.421	82.38
308.651	75.38
308.881	99.38
309.111	86.38
309.341	92.38
309.571	92.38
309.8	89.38
310.03	87.38
310.26	107.38
310.49	93.38
310.72	82.38
310.949	87.38
311.179	99.38
311.409	91.38
311.639	102.38
311.868	93.38
312.098	94.38
312.328	80.38
312.557	95.38
312.787	93.38
313.017	100.38
313.246	92.38
313.476	96.38
313.706	92.38
313.935	86.38
314.165	100.38
314.394	112.38
314.624	103.38
314.853	82.38
315.083	83.38
315.312	88.38
315.542	82.38
315.771	91.38
316.001	85.38
316.23	91.38
316.46	83.38
316.689	86.38
316.919	77.38
317.148	97.38
317.377	83.38
317.607	84.38
317.836	95.38
318.065	83.38
318.295	79.38
318.524	84.38
318.753	86.38
318.983	81.38
319.212	91.38
319.441	103.38
319.67	100.38
319.9	93.38
320.129	73.38
320.358	98.38
320.587	87.38
320.816	107.38
321.046	106.38
321.275	104.38
321.504	86.38
321.733	91.38
321.962	94.38
322.191	95.38
322.42	93.38
322.649	84.38
322.878	105.38
323.108	98.38
323.337	99.38
323.566	108.38
323.795	135.38
324.024	183.38
324.253	349.38
324.482	696.38
324.71	1367.38
324.939	1804.38
325.168	669.38
325.397	210.38
325.626	122.38
325.855	124.38
326.084	109.38
326.313	116.38
326.542	140.38
326.77	196.38
326.999	389.38
327.228	810.38
327.457	1421.38
327.686	1110.38
327.914	305.38
328.143	190.38
328.372	168.38
328.6	134.38
328.829	109.38
329.058	112.38
329.287	126.38
329.515	113.38
329.744	100.38
329.972	113.38
330.201	169.38
330.43	203.38
330.658	162.38
330.887	118.38
331.115	107.38
331.344	109.38
331.572	106.38
331.801	89.38
332.03	103.38
332.258	92.38
332.486	81.38
332.715	92.38
332.943	84.38
333.172	98.38
333.4	96.38
333.629	99.38
333.857	115.38
334.085	144.38
334.314	162.38
334.542	245.38
334.771	231.38
334.999	117.38
335.227	97.38
335.455	95.38
335.684	87.38
335.912	95.38
336.14	94.38
336.369	91.38
336.597	83.38
336.825	96.38
337.053	100.38
337.281	90.38
337.51	91.38
337.738	86.38
337.966	84.38
338.194	91.38
338.422	105.38
338.65	86.38
338.878	100.38
339.106	78.38
339.334	85.38
339.562	92.38
339.79	95.38
340.018	91.38
340.246	87.38
340.474	93.38
340.702	88.38
340.93	101.38
341.158	94.38
341.386	78.38
341.614	80.38
341.842	82.38
342.07	82.38
342.298	91.38
342.526	92.38
342.754	73.38
342.981	74.38
343.209	75.38
343.437	83.38
343.665	83.38
343.893	83.38
344.12	85.38
344.348	79.38
344.576	80.38
344.804	82.38
345.031	87.38
345.259	95.38
345.487	81.38
345.714	99.38
345.942	90.38
346.17	89.38
346.397	88.38
346.625	76.38
346.853	90.38
347.08	95.38
347.308	76.38
347.535	97.38
347.763	86.38
347.99	107.38
348.218	97.38
348.445	82.38
348.673	98.38
348.9	88.38
349.128	94.38
349.355	74.38
349.583	91.38
349.81	90.38
350.037	78.38
350.265	96.38
350.492	87.38
350.72	92.38
350.947	85.38
351.174	91.38
351.402	106.38
351.629	93.38
351.856	101.38
352.083	82.38
352.311	109.38
352.538	91.38
352.765	88.38
352.992	125.38
353.22	88.38
353.447	101.38
353.674	93.38
353.901	103.38
354.128	105.38
354.355	99.38
354.583	96.38
354.81	98.38
355.037	104.38
355.264	93.38
355.491	94.38
355.718	101.38
355.945	103.38
356.172	83.38
356.399	109.38
356.626	91.38
356.853	92.38
357.08	94.38
357.307	92.38
357.534	91.38
357.761	99.38
357.988	101.38
358.215	87.38
358.441	101.38
358.668	80.38
358.895	97.38
359.122	100.38
359.349	83.38
359.576	83.38
359.802	98.38
360.029	101.38
360.256	99.38
360.483	90.38
360.709	66.38
360.936	104.38
361.163	84.38
361.39	99.38
361.616	87.38
361.843	90.38
362.07	86.38
362.296	93.38
362.523	78.38
362.749	83.38
362.976	60.38
363.203	79.38
363.429	79.38
363.656	69.38
363.882	92.38
364.109	93.38
364.335	84.38
364.562	72.38
364.788	95.38
365.015	100.38
365.241	90.38
365.468	87.38
365.694	78.38
365.92	87.38
366.147	86.38
366.373	86.38
366.599	92.38
366.826	79.38
367.052	77.38
367.278	84.38
367.505	90.38
367.731	96.38
367.957	94.38
368.184	93.38
368.41	92.38
368.636	93.38
368.862	103.38
369.089	87.38
369.315	102.38
369.541	98.38
369.767	96.38
369.993	82.38
370.219	83.38
370.445	93.38
370.672	82.38
370.898	78.38
371.124	79.38
371.35	79.38
371.576	89.38
371.802	85.38
372.028	73.38
372.254	85.38
372.48	78.38
372.706	71.38
372.932	95.38
373.158	82.38
373.384	87.38
373.61	75.38
373.835	75.38
374.061	91.38
374.287	90.38
374.513	84.38
374.739	83.38
374.965	84.38
375.191	93.38
375.416	81.38
375.642	91.38
375.868	88.38
376.094	84.38
376.319	93.38
376.545	88.38
376.771	80.38
376.997	95.38
377.222	81.38
377.448	83.38
377.674	73.38
377.899	95.38
378.125	91.38
378.35	82.38
378.576	90.38
378.802	88.38
379.027	82.38
379.253	87.38
379.478	84.38
379.704	64.38
379.929	91.38
380.155	84.38
380.38	104.38
380.606	83.38
380.831	92.38
381.057	99.38
381.282	97.38
381.507	92.38
381.733	91.38
381.958	90.38
382.184	108.38
382.409	90.38
382.634	114.38
382.86	87.38
383.085	98.38
383.31	95.38
383.535	103.38
383.761	112.38
383.986	91.38
384.211	99.38
384.436	101.38
384.662	96.38
384.887	104.38
385.112	97.38
385.337	100.38
385.562	113.38
385.787	106.38
386.013	101.38
386.238	91.38
386.463	88.38
386.688	109.38
386.913	108.38
387.138	84.38
387.363	110.38
387.588	94.38
387.813	103.38
388.038	103.38
388.263	111.38
388.488	97.38
388.713	92.38
388.938	81.38
389.163	82.38
389.387	99.38
389.612	94.38
389.837	86.38
390.062	86.38
390.287	78.38
390.512	103.38
390.736	90.38
390.961	89.38
391.186	94.38
391.411	87.38
391.636	94.38
391.86	90.38
392.085	82.38
392.31	78.38
392.534	70.38
392.759	74.38
392.984	72.38
393.208	92.38
393.433	107.38
393.658	84.38
393.882	104.38
394.107	85.38
394.331	93.38
394.556	92.38
394.78	79.38
395.005	101.38
395.229	86.38
395.454	85.38
395.678	99.38
395.903	80.38
396.127	84.38
396.352	96.38
396.576	88.38
396.801	92.38
397.025	89.38
397.249	101.38
397.474	84.38
397.698	87.38
397.922	70.38
398.147	79.38
398.371	98.38
398.595	79.38
398.82	83.38
399.044	82.38
399.268	83.38
399.492	93.38
399.717	77.38
399.941	87.38
400.165	95.38
400.389	84.38
400.613	75.38
400.837	79.38
401.062	98.38
401.286	81.38
401.51	88.38
401.734	78.38
401.958	75.38
402.182	117.38
402.406	129.38
402.63	103.38
402.854	101.38
403.078	70.38
403.302	88.38
403.526	85.38
403.75	81.38
403.974	86.38
404.198	100.38
404.422	83.38
404.645	85.38
404.869	89.38
405.093	103.38
405.317	92.38
405.541	89.38
405.765	86.38
405.988	96.38
406.212	144.38
406.436	193.38
406.66	125.38
406.883	100.38
407.107	91.38
407.331	85.38
407.555	88.38
407.778	86.38
408.002	87.38
408.226	88.38
408.449	87.38
408.673	97.38
408.896	98.38
409.12	97.38
409.344	93.38
409.567	87.38
409.791	87.38
410.014	98.38
410.238	88.38
410.461	88.38
410.685	84.38
410.908	106.38
411.132	88.38
411.355	87.38
411.578	94.38
411.802	94.38
412.025	83.38
412.249	79.38
412.472	90.38
412.695	82.38
412.919	101.38
413.142	98.38
413.365	86.38
413.589	96.38
413.812	81.38
414.035	90.38
414.258	92.38
414.482	92.38
414.705	84.38
414.928	89.38
415.151	85.38
415.374	85.38
415.597	91.38
415.821	82.38
416.044	86.38
416.267	83.38
416.49	64.38
416.713	71.38
416.936	85.38
417.159	79.38
417.382	90.38
417.605	83.38
417.828	82.38
418.051	96.38
418.274	102.38
418.497	70.38
418.72	73.38
418.943	77.38
419.166	81.38
419.389	77.38
419.611	92.38
419.834	87.38
420.057	99.38
420.28	86.38
420.503	80.38
420.726	71.38
420.948	92.38
421.171	88.38
421.394	81.38
421.617	95.38
421.839	69.38
422.062	78.38
422.285	98.38
422.507	90.38
422.73	111.38
422.953	85.38
423.175	88.38
423.398	86.38
423.621	82.38
423.843	79.38
424.066	86.38
424.288	80.38
424.511	94.38
424.733	87.38
424.956	95.38
425.178	94.38
425.401	88.38
425.623	84.38
425.846	84.38
426.068	95.38
426.291	82.38
426.513	79.38
426.735	78.38
426.958	103.38
427.18	107.38
427.402	122.38
427.625	136.38
427.847	131.38
428.069	107.38
428.292	92.38
428.514	78.38
428.736	72.38
428.958	97.38
429.181	79.38
429.403	87.38
429.625	90.38
429.847	82.38
430.069	95.38
430.292	78.38
430.514	84.38
430.736	83.38
430.958	90.38
431.18	97.38
431.402	85.38
431.624	76.38
431.846	92.38
432.068	98.38
432.29	76.38
432.512	78.38
432.734	87.38
432.956	72.38
433.178	77.38
433.4	93.38
433.622	91.38
433.844	91.38
434.066	92.38
434.287	82.38
434.509	68.38
434.731	92.38
434.953	85.38
435.175	87.38
435.397	96.38
435.618	94.38
435.84	97.38
436.062	98.38
436.284	108.38
436.505	87.38
436.727	92.38
436.949	71.38
437.17	70.38
437.392	80.38
437.614	88.38
437.835	96.38
438.057	89.38
438.278	100.38
438.5	98.38
438.721	112.38
438.943	95.38
439.165	75.38
439.386	81.38
439.608	88.38
439.829	110.38
440.05	94.38
440.272	120.38
440.493	92.38
440.715	86.38
440.936	72.38
441.158	81.38
441.379	76.38
441.6	80.38
441.822	94.38
442.043	71.38
442.264	80.38
442.486	82.38
442.707	100.38
442.928	86.38
443.149	102.38
443.371	120.38
443.592	99.38
443.813	100.38
444.034	98.38
444.255	97.38
444.476	69.38
444.698	95.38
444.919	84.38
445.14	111.38
445.361	110.38
445.582	111.38
445.803	126.38
446.024	112.38
446.245	102.38
446.466	102.38
446.687	76.38
446.908	79.38
447.129	100.38
447.35	88.38
447.571	87.38
447.792	85.38
448.013	93.38
448.234	90.38
448.455	85.38
448.675	99.38
448.896	112.38
449.117	99.38
449.338	100.38
449.559	100.38
449.779	110.38
450	91.38
450.221	76.38
450.442	74.38
450.662	76.38
450.883	85.38
451.104	92.38
451.324	95.38
451.545	71.38
451.766	81.38
451.986	90.38
452.207	87.38
452.428	92.38
452.648	98.38
452.869	107.38
453.089	101.38
453.31	99.38
453.53	83.38
453.751	90.38
453.971	92.38
454.192	94.38
454.412	86.38
454.633	88.38
454.853	89.38
455.073	82.38
455.294	75.38
455.514	94.38
455.734	86.38
455.955	87.38
456.175	89.38
456.395	87.38
456.616	78.38
456.836	91.38
457.056	78.38
457.276	69.38
457.497	90.38
457.717	82.38
457.937	97.38
458.157	76.38
458.377	81.38
458.598	93.38
458.818	127.38
459.038	148.38
459.258	96.38
459.478	84.38
459.698	72.38
459.918	92.38
460.138	85.38
460.358	79.38
460.578	86.38
460.798	88.38
461.018	87.38
461.238	87.38
461.458	88.38
461.678	94.38
461.898	88.38
462.118	91.38
462.338	83.38
462.558	81.38
462.777	73.38
462.997	94.38
463.217	105.38
463.437	77.38
463.657	70.38
463.876	84.38
464.096	83.38
464.316	79.38
464.536	86.38
464.755	86.38
464.975	96.38
465.195	140.38
465.414	127.38
465.634	90.38
465.854	80.38
466.073	86.38
466.293	83.38
466.512	80.38
466.732	79.38
466.951	93.38
467.171	93.38
467.391	105.38
467.61	80.38
467.829	100.38
468.049	144.38
468.268	156.38
468.488	95.38
468.707	88.38
468.927	76.38
469.146	81.38
469.365	83.38
469.585	76.38
469.804	83.38
470.023	90.38
470.243	79.38
470.462	116.38
470.681	100.38
470.901	88.38
471.12	83.38
471.339	78.38
471.558	82.38
471.777	90.38
471.997	102.38
472.216	199.38
472.435	326.38
472.654	146.38
472.873	82.38
473.092	82.38
473.311	90.38
473.53	90.38
473.749	90.38
473.968	87.38
474.187	96.38
474.406	79.38
474.625	71.38
474.844	86.38
475.063	81.38
475.282	71.38
475.501	81.38
475.72	91.38
475.939	87.38
476.158	80.38
476.377	78.38
476.596	100.38
476.814	90.38
477.033	83.38
477.252	71.38
477.471	87.38
477.69	75.38
477.908	85.38
478.127	91.38
478.346	93.38
478.564	87.38
478.783	81.38
479.002	93.38
479.22	96.38
479.439	87.38
479.658	91.38
479.876	101.38
480.095	69.38
480.313	87.38
480.532	98.38
480.751	108.38
480.969	182.38
481.188	533.38
481.406	323.38
481.624	104.38
481.843	86.38
482.061	82.38
482.28	78.38
482.498	97.38
482.717	84.38
482.935	84.38
483.153	88.38
483.372	80.38
483.59	78.38
483.808	84.38
484.027	88.38
484.245	94.38
484.463	83.38
484.681	92.38
484.9	94.38
485.118	87.38
485.336	112.38
485.554	90.38
485.772	80.38
485.99	79.38
486.209	90.38
486.427	96.38
486.645	92.38
486.863	108.38
487.081	97.38
487.299	93.38
487.517	87.38
487.735	87.38
487.953	104.38
488.171	99.38
488.389	87.38
488.607	88.38
488.825	84.38
489.043	83.38
489.261	92.38
489.479	77.38
489.696	83.38
489.914	87.38
490.132	78.38
490.35	84.38
490.568	78.38
490.786	92.38
491.003	80.38
491.221	86.38
491.439	78.38
491.657	91.38
491.874	78.38
492.092	84.38
492.31	89.38
492.527	95.38
492.745	93.38
492.963	93.38
493.18	103.38
493.398	82.38
493.615	85.38
493.833	92.38
494.05	87.38
494.268	77.38
494.485	72.38
494.703	80.38
494.92	89.38
495.138	86.38
495.355	79.38
495.573	95.38
495.79	101.38
496.008	77.38
496.225	80.38
496.442	91.38
496.66	83.38
496.877	78.38
497.094	90.38
497.312	80.38
497.529	70.38
497.746	107.38
497.963	93.38
498.181	84.38
498.398	80.38
498.615	96.38
498.832	98.38
499.049	78.38
499.267	77.38
499.484	80.38
499.701	88.38
499.918	71.38
500.135	87.38
500.352	87.38
500.569	89.38
500.786	80.38
501.003	86.38
501.22	98.38
501.437	81.38
501.654	92.38
501.871	100.38
502.088	83.38
502.305	88.38
502.522	75.38
502.739	74.38
502.956	101.38
503.172	72.38
503.389	97.38
503.606	91.38
503.823	99.38
504.04	83.38
504.256	94.38
504.473	82.38
504.69	93.38
504.907	90.38
505.123	95.38
505.34	89.38
505.557	84.38
505.773	82.38
505.99	87.38
506.207	87.38
506.423	95.38
506.64	72.38
506.856	91.38
507.073	78.38
507.289	80.38
507.506	98.38
507.722	108.38
507.939	97.38
508.155	92.38
508.372	95.38
508.588	107.38
508.805	80.38
509.021	78.38
509.238	92.38
509.454	90.38
509.67	93.38
509.887	102.38
510.103	117.38
510.319	181.38
510.536	616.38
510.752	1878.38
510.968	523.38
511.184	128.38
511.401	88.38
511.617	98.38
511.833	84.38
512.049	85.38
512.265	83.38
512.481	85.38
512.698	92.38
512.914	86.38
513.13	83.38
513.346	82.38
513.562	77.38
513.778	96.38
513.994	91.38
514.21	86.38
514.426	110.38
514.642	95.38
514.858	110.38
515.074	146.38
515.29	370.38
515.506	1160.38
515.721	447.38
515.937	130.38
516.153	98.38
516.369	80.38
516.585	80.38
516.801	81.38
517.016	96.38
