Data from Circ_2004_H10_HRD10591_00026.txt Node
Date: Wed Jan 03 10:33:19 EST 2024
User: Yrep
Spectrometer: HR+D1059
Trigger mode: 1
Integration Time (sec): 1.000000E-1
Scans to average: 1
Electric dark correction enabled: true
Nonlinearity correction enabled: false
Boxcar width: 0
XAxis mode: Wavelengths
Number of Pixels in Spectrum: 2048
>>>>>Begin Spectral Data<<<<<
223.165	-5.06
223.4	-5.06
223.635	-5.06
223.869	-18.06
224.104	-33.06
224.338	-12.06
224.573	-11.06
224.808	-12.06
225.042	-37.06
225.277	6.94
225.511	-11.06
225.746	10.94
225.98	-3.06
226.215	12.94
226.449	24.94
226.683	21.94
226.918	34.94
227.152	29.94
227.387	38.94
227.621	39.94
227.856	35.94
228.09	51.94
228.324	55.94
228.559	59.94
228.793	61.94
229.027	80.94
229.262	83.94
229.496	74.94
229.73	86.94
229.964	72.94
230.199	67.94
230.433	72.94
230.667	87.94
230.901	80.94
231.136	81.94
231.37	82.94
231.604	81.94
231.838	89.94
232.072	74.94
232.306	77.94
232.541	83.94
232.775	78.94
233.009	84.94
233.243	82.94
233.477	96.94
233.711	83.94
233.945	79.94
234.179	85.94
234.413	74.94
234.647	87.94
234.881	78.94
235.115	87.94
235.349	79.94
235.583	79.94
235.817	80.94
236.051	75.94
236.285	89.94
236.519	79.94
236.753	81.94
236.987	74.94
237.221	88.94
237.455	84.94
237.689	86.94
237.922	76.94
238.156	80.94
238.39	85.94
238.624	71.94
238.858	73.94
239.091	68.94
239.325	74.94
239.559	96.94
239.793	74.94
240.027	82.94
240.26	78.94
240.494	87.94
240.728	78.94
240.961	77.94
241.195	85.94
241.429	95.94
241.662	75.94
241.896	89.94
242.13	68.94
242.363	90.94
242.597	82.94
242.83	68.94
243.064	87.94
243.298	81.94
243.531	68.94
243.765	75.94
243.998	83.94
244.232	76.94
244.465	97.94
244.699	85.94
244.932	71.94
245.166	75.94
245.399	80.94
245.633	85.94
245.866	74.94
246.099	89.94
246.333	79.94
246.566	80.94
246.8	88.94
247.033	84.94
247.266	86.94
247.5	79.94
247.733	74.94
247.966	71.94
248.2	71.94
248.433	81.94
248.666	69.94
248.899	89.94
249.133	84.94
249.366	104.94
249.599	112.94
249.832	90.94
250.066	81.94
250.299	91.94
250.532	86.94
250.765	84.94
250.998	92.94
251.231	80.94
251.465	90.94
251.698	79.94
251.931	91.94
252.164	73.94
252.397	80.94
252.63	75.94
252.863	84.94
253.096	102.94
253.329	83.94
253.562	78.94
253.795	78.94
254.028	82.94
254.261	79.94
254.494	78.94
254.727	89.94
254.96	86.94
255.193	67.94
255.426	81.94
255.659	79.94
255.892	93.94
256.124	92.94
256.357	70.94
256.59	77.94
256.823	82.94
257.056	80.94
257.289	73.94
257.521	83.94
257.754	70.94
257.987	85.94
258.22	77.94
258.452	91.94
258.685	85.94
258.918	82.94
259.151	73.94
259.383	71.94
259.616	88.94
259.849	96.94
260.081	81.94
260.314	81.94
260.547	90.94
260.779	86.94
261.012	86.94
261.244	99.94
261.477	88.94
261.71	101.94
261.942	99.94
262.175	96.94
262.407	99.94
262.64	92.94
262.872	92.94
263.105	93.94
263.337	78.94
263.57	82.94
263.802	86.94
264.035	78.94
264.267	84.94
264.499	75.94
264.732	86.94
264.964	71.94
265.197	89.94
265.429	89.94
265.661	95.94
265.894	85.94
266.126	85.94
266.358	72.94
266.591	95.94
266.823	94.94
267.055	80.94
267.287	70.94
267.52	90.94
267.752	85.94
267.984	88.94
268.216	84.94
268.448	83.94
268.681	102.94
268.913	87.94
269.145	90.94
269.377	78.94
269.609	84.94
269.841	81.94
270.073	85.94
270.306	83.94
270.538	84.94
270.77	76.94
271.002	79.94
271.234	101.94
271.466	79.94
271.698	97.94
271.93	77.94
272.162	75.94
272.394	102.94
272.626	92.94
272.858	98.94
273.09	87.94
273.322	76.94
273.553	92.94
273.785	89.94
274.017	94.94
274.249	79.94
274.481	90.94
274.713	83.94
274.945	97.94
275.176	81.94
275.408	79.94
275.64	92.94
275.872	85.94
276.104	98.94
276.335	97.94
276.567	96.94
276.799	117.94
277.031	106.94
277.262	100.94
277.494	99.94
277.726	92.94
277.957	77.94
278.189	89.94
278.421	72.94
278.652	88.94
278.884	83.94
279.115	81.94
279.347	82.94
279.579	88.94
279.81	100.94
280.042	97.94
280.273	120.94
280.505	107.94
280.736	94.94
280.968	81.94
281.199	81.94
281.431	91.94
281.662	96.94
281.894	99.94
282.125	101.94
282.356	112.94
282.588	133.94
282.819	116.94
283.051	90.94
283.282	97.94
283.513	91.94
283.745	95.94
283.976	91.94
284.207	116.94
284.439	87.94
284.67	90.94
284.901	92.94
285.132	102.94
285.364	87.94
285.595	96.94
285.826	95.94
286.057	82.94
286.288	81.94
286.52	114.94
286.751	95.94
286.982	86.94
287.213	84.94
287.444	98.94
287.675	93.94
287.906	108.94
288.138	97.94
288.369	100.94
288.6	88.94
288.831	98.94
289.062	98.94
289.293	84.94
289.524	96.94
289.755	95.94
289.986	92.94
290.217	106.94
290.448	88.94
290.679	90.94
290.91	83.94
291.141	82.94
291.371	97.94
291.602	84.94
291.833	75.94
292.064	71.94
292.295	96.94
292.526	80.94
292.757	96.94
292.987	91.94
293.218	88.94
293.449	94.94
293.68	95.94
293.91	83.94
294.141	100.94
294.372	100.94
294.603	95.94
294.833	86.94
295.064	82.94
295.295	83.94
295.525	101.94
295.756	91.94
295.987	108.94
296.217	122.94
296.448	111.94
296.679	87.94
296.909	92.94
297.14	96.94
297.37	85.94
297.601	83.94
297.831	96.94
298.062	95.94
298.292	92.94
298.523	88.94
298.753	97.94
298.984	92.94
299.214	93.94
299.445	89.94
299.675	89.94
299.905	86.94
300.136	85.94
300.366	77.94
300.597	90.94
300.827	93.94
301.057	99.94
301.288	110.94
301.518	109.94
301.748	107.94
301.979	100.94
302.209	95.94
302.439	93.94
302.669	98.94
302.9	107.94
303.13	93.94
303.36	102.94
303.59	100.94
303.82	110.94
304.051	96.94
304.281	105.94
304.511	96.94
304.741	90.94
304.971	85.94
305.201	102.94
305.431	93.94
305.661	86.94
305.891	85.94
306.121	92.94
306.352	91.94
306.582	95.94
306.812	86.94
307.042	100.94
307.272	111.94
307.502	111.94
307.731	118.94
307.961	101.94
308.191	81.94
308.421	85.94
308.651	100.94
308.881	92.94
309.111	101.94
309.341	100.94
309.571	105.94
309.8	90.94
310.03	98.94
310.26	97.94
310.49	92.94
310.72	90.94
310.949	93.94
311.179	103.94
311.409	92.94
311.639	105.94
311.868	93.94
312.098	101.94
312.328	111.94
312.557	98.94
312.787	92.94
313.017	106.94
313.246	93.94
313.476	100.94
313.706	102.94
313.935	97.94
314.165	93.94
314.394	100.94
314.624	108.94
314.853	104.94
315.083	87.94
315.312	92.94
315.542	105.94
315.771	87.94
316.001	104.94
316.23	97.94
316.46	96.94
316.689	102.94
316.919	96.94
317.148	97.94
317.377	88.94
317.607	100.94
317.836	88.94
318.065	96.94
318.295	98.94
318.524	103.94
318.753	87.94
318.983	93.94
319.212	105.94
319.441	100.94
319.67	100.94
319.9	89.94
320.129	87.94
320.358	90.94
320.587	93.94
320.816	113.94
321.046	111.94
321.275	103.94
321.504	109.94
321.733	95.94
321.962	97.94
322.191	100.94
322.42	113.94
322.649	110.94
322.878	112.94
323.108	104.94
323.337	114.94
323.566	129.94
323.795	147.94
324.024	198.94
324.253	380.94
324.482	790.94
324.71	1629.94
324.939	2165.94
325.168	806.94
325.397	252.94
325.626	141.94
325.855	135.94
326.084	134.94
326.313	145.94
326.542	160.94
326.77	221.94
326.999	476.94
327.228	916.94
327.457	1660.94
327.686	1356.94
327.914	390.94
328.143	233.94
328.372	221.94
328.6	177.94
328.829	122.94
329.058	145.94
329.287	133.94
329.515	114.94
329.744	139.94
329.972	169.94
330.201	276.94
330.43	363.94
330.658	217.94
330.887	165.94
331.115	124.94
331.344	110.94
331.572	107.94
331.801	103.94
332.03	101.94
332.258	111.94
332.486	107.94
332.715	100.94
332.943	105.94
333.172	106.94
333.4	108.94
333.629	106.94
333.857	124.94
334.085	181.94
334.314	267.94
334.542	445.94
334.771	437.94
334.999	177.94
335.227	108.94
335.455	91.94
335.684	95.94
335.912	97.94
336.14	85.94
336.369	104.94
336.597	103.94
336.825	90.94
337.053	88.94
337.281	93.94
337.51	81.94
337.738	108.94
337.966	88.94
338.194	83.94
338.422	92.94
338.65	84.94
338.878	104.94
339.106	86.94
339.334	90.94
339.562	100.94
339.79	97.94
340.018	92.94
340.246	89.94
340.474	93.94
340.702	102.94
340.93	85.94
341.158	98.94
341.386	100.94
341.614	99.94
341.842	86.94
342.07	97.94
342.298	113.94
342.526	86.94
342.754	97.94
342.981	86.94
343.209	83.94
343.437	107.94
343.665	99.94
343.893	92.94
344.12	103.94
344.348	99.94
344.576	93.94
344.804	93.94
345.031	107.94
345.259	90.94
345.487	106.94
345.714	92.94
345.942	95.94
346.17	100.94
346.397	82.94
346.625	90.94
346.853	94.94
347.08	96.94
347.308	91.94
347.535	89.94
347.763	89.94
347.99	82.94
348.218	94.94
348.445	97.94
348.673	93.94
348.9	105.94
349.128	84.94
349.355	94.94
349.583	92.94
349.81	102.94
350.037	106.94
350.265	102.94
350.492	102.94
350.72	91.94
350.947	99.94
351.174	103.94
351.402	115.94
351.629	91.94
351.856	99.94
352.083	108.94
352.311	105.94
352.538	96.94
352.765	122.94
352.992	124.94
353.22	113.94
353.447	100.94
353.674	100.94
353.901	110.94
354.128	105.94
354.355	86.94
354.583	119.94
354.81	111.94
355.037	95.94
355.264	99.94
355.491	87.94
355.718	84.94
355.945	103.94
356.172	95.94
356.399	114.94
356.626	101.94
356.853	101.94
357.08	108.94
357.307	104.94
357.534	91.94
357.761	97.94
357.988	97.94
358.215	93.94
358.441	104.94
358.668	90.94
358.895	97.94
359.122	94.94
359.349	103.94
359.576	91.94
359.802	98.94
360.029	105.94
360.256	108.94
360.483	100.94
360.709	91.94
360.936	97.94
361.163	91.94
361.39	91.94
361.616	98.94
361.843	82.94
362.07	91.94
362.296	102.94
362.523	93.94
362.749	88.94
362.976	85.94
363.203	79.94
363.429	82.94
363.656	97.94
363.882	91.94
364.109	83.94
364.335	110.94
364.562	100.94
364.788	98.94
365.015	98.94
365.241	95.94
365.468	96.94
365.694	91.94
365.92	99.94
366.147	97.94
366.373	97.94
366.599	91.94
366.826	100.94
367.052	93.94
367.278	100.94
367.505	91.94
367.731	79.94
367.957	87.94
368.184	96.94
368.41	83.94
368.636	110.94
368.862	114.94
369.089	107.94
369.315	101.94
369.541	94.94
369.767	90.94
369.993	98.94
370.219	96.94
370.445	102.94
370.672	95.94
370.898	99.94
371.124	76.94
371.35	90.94
371.576	89.94
371.802	102.94
372.028	92.94
372.254	98.94
372.48	95.94
372.706	96.94
372.932	90.94
373.158	79.94
373.384	87.94
373.61	95.94
373.835	89.94
374.061	92.94
374.287	92.94
374.513	87.94
374.739	89.94
374.965	93.94
375.191	85.94
375.416	97.94
375.642	98.94
375.868	105.94
376.094	84.94
376.319	90.94
376.545	95.94
376.771	84.94
376.997	94.94
377.222	83.94
377.448	92.94
377.674	87.94
377.899	100.94
378.125	96.94
378.35	88.94
378.576	86.94
378.802	96.94
379.027	90.94
379.253	97.94
379.478	107.94
379.704	96.94
379.929	91.94
380.155	114.94
380.38	89.94
380.606	113.94
380.831	94.94
381.057	107.94
381.282	98.94
381.507	97.94
381.733	93.94
381.958	105.94
382.184	101.94
382.409	118.94
382.634	99.94
382.86	98.94
383.085	124.94
383.31	106.94
383.535	97.94
383.761	109.94
383.986	93.94
384.211	98.94
384.436	84.94
384.662	98.94
384.887	99.94
385.112	105.94
385.337	107.94
385.562	117.94
385.787	108.94
386.013	101.94
386.238	113.94
386.463	113.94
386.688	122.94
386.913	106.94
387.138	106.94
387.363	106.94
387.588	104.94
387.813	104.94
388.038	103.94
388.263	106.94
388.488	119.94
388.713	104.94
388.938	87.94
389.163	100.94
389.387	103.94
389.612	84.94
389.837	99.94
390.062	79.94
390.287	103.94
390.512	96.94
390.736	96.94
390.961	94.94
391.186	99.94
391.411	91.94
391.636	91.94
391.86	77.94
392.085	71.94
392.31	88.94
392.534	88.94
392.759	78.94
392.984	96.94
393.208	90.94
393.433	103.94
393.658	93.94
393.882	81.94
394.107	91.94
394.331	83.94
394.556	84.94
394.78	100.94
395.005	75.94
395.229	95.94
395.454	95.94
395.678	71.94
395.903	102.94
396.127	93.94
396.352	91.94
396.576	92.94
396.801	99.94
397.025	99.94
397.249	93.94
397.474	79.94
397.698	97.94
397.922	73.94
398.147	78.94
398.371	80.94
398.595	88.94
398.82	99.94
399.044	96.94
399.268	97.94
399.492	85.94
399.717	109.94
399.941	91.94
400.165	100.94
400.389	106.94
400.613	79.94
400.837	96.94
401.062	99.94
401.286	105.94
401.51	89.94
401.734	92.94
401.958	95.94
402.182	115.94
402.406	150.94
402.63	122.94
402.854	91.94
403.078	99.94
403.302	93.94
403.526	99.94
403.75	90.94
403.974	95.94
404.198	85.94
404.422	107.94
404.645	83.94
404.869	87.94
405.093	91.94
405.317	107.94
405.541	122.94
405.765	106.94
405.988	130.94
406.212	164.94
406.436	200.94
406.66	132.94
406.883	105.94
407.107	99.94
407.331	93.94
407.555	91.94
407.778	88.94
408.002	98.94
408.226	94.94
408.449	93.94
408.673	99.94
408.896	93.94
409.12	91.94
409.344	99.94
409.567	97.94
409.791	91.94
410.014	96.94
410.238	89.94
410.461	92.94
410.685	109.94
410.908	91.94
411.132	97.94
411.355	104.94
411.578	93.94
411.802	95.94
412.025	97.94
412.249	89.94
412.472	111.94
412.695	111.94
412.919	105.94
413.142	104.94
413.365	98.94
413.589	80.94
413.812	88.94
414.035	80.94
414.258	100.94
414.482	84.94
414.705	88.94
414.928	90.94
415.151	97.94
415.374	88.94
415.597	77.94
415.821	82.94
416.044	93.94
416.267	89.94
416.49	91.94
416.713	89.94
416.936	82.94
417.159	86.94
417.382	91.94
417.605	80.94
417.828	108.94
418.051	96.94
418.274	87.94
418.497	91.94
418.72	95.94
418.943	84.94
419.166	99.94
419.389	91.94
419.611	77.94
419.834	98.94
420.057	89.94
420.28	97.94
420.503	97.94
420.726	92.94
420.948	93.94
421.171	94.94
421.394	107.94
421.617	98.94
421.839	99.94
422.062	100.94
422.285	97.94
422.507	92.94
422.73	96.94
422.953	104.94
423.175	103.94
423.398	85.94
423.621	98.94
423.843	90.94
424.066	83.94
424.288	94.94
424.511	86.94
424.733	88.94
424.956	95.94
425.178	99.94
425.401	96.94
425.623	105.94
425.846	91.94
426.068	93.94
426.291	82.94
426.513	87.94
426.735	91.94
426.958	86.94
427.18	113.94
427.402	143.94
427.625	152.94
427.847	139.94
428.069	132.94
428.292	109.94
428.514	83.94
428.736	80.94
428.958	83.94
429.181	79.94
429.403	82.94
429.625	85.94
429.847	86.94
430.069	97.94
430.292	116.94
430.514	93.94
430.736	75.94
430.958	94.94
431.18	88.94
431.402	71.94
431.624	86.94
431.846	99.94
432.068	108.94
432.29	88.94
432.512	85.94
432.734	100.94
432.956	108.94
433.178	95.94
433.4	102.94
433.622	89.94
433.844	86.94
434.066	91.94
434.287	84.94
434.509	86.94
434.731	105.94
434.953	111.94
435.175	85.94
435.397	95.94
435.618	83.94
435.84	107.94
436.062	113.94
436.284	107.94
436.505	100.94
436.727	107.94
436.949	89.94
437.17	98.94
437.392	79.94
437.614	85.94
437.835	91.94
438.057	106.94
438.278	99.94
438.5	103.94
438.721	136.94
438.943	95.94
439.165	97.94
439.386	88.94
439.608	105.94
439.829	91.94
440.05	114.94
440.272	135.94
440.493	93.94
440.715	100.94
440.936	92.94
441.158	87.94
441.379	82.94
441.6	84.94
441.822	90.94
442.043	102.94
442.264	105.94
442.486	98.94
442.707	83.94
442.928	100.94
443.149	129.94
443.371	116.94
443.592	98.94
443.813	120.94
444.034	117.94
444.255	83.94
444.476	101.94
444.698	96.94
444.919	81.94
445.14	134.94
445.361	114.94
445.582	106.94
445.803	129.94
446.024	132.94
446.245	127.94
446.466	106.94
446.687	91.94
446.908	87.94
447.129	75.94
447.35	80.94
447.571	86.94
447.792	94.94
448.013	107.94
448.234	110.94
448.455	104.94
448.675	119.94
448.896	108.94
449.117	98.94
449.338	96.94
449.559	116.94
449.779	135.94
450	91.94
450.221	90.94
450.442	76.94
450.662	97.94
450.883	103.94
451.104	112.94
451.324	97.94
451.545	99.94
451.766	95.94
451.986	88.94
452.207	90.94
452.428	100.94
452.648	102.94
452.869	98.94
453.089	111.94
453.31	103.94
453.53	87.94
453.751	94.94
453.971	119.94
454.192	119.94
454.412	96.94
454.633	84.94
454.853	86.94
455.073	79.94
455.294	88.94
455.514	101.94
455.734	90.94
455.955	75.94
456.175	98.94
456.395	87.94
456.616	81.94
456.836	83.94
457.056	83.94
457.276	86.94
457.497	108.94
457.717	77.94
457.937	97.94
458.157	101.94
458.377	93.94
458.598	95.94
458.818	133.94
459.038	150.94
459.258	127.94
459.478	96.94
459.698	73.94
459.918	86.94
460.138	91.94
460.358	97.94
460.578	101.94
460.798	101.94
461.018	99.94
461.238	96.94
461.458	75.94
461.678	87.94
461.898	104.94
462.118	76.94
462.338	91.94
462.558	105.94
462.777	77.94
462.997	87.94
463.217	89.94
463.437	85.94
463.657	90.94
463.876	88.94
464.096	89.94
464.316	103.94
464.536	111.94
464.755	100.94
464.975	105.94
465.195	149.94
465.414	157.94
465.634	86.94
465.854	83.94
466.073	110.94
466.293	96.94
466.512	95.94
466.732	104.94
466.951	70.94
467.171	100.94
467.391	94.94
467.61	116.94
467.829	121.94
468.049	187.94
468.268	229.94
468.488	99.94
468.707	97.94
468.927	79.94
469.146	86.94
469.365	82.94
469.585	103.94
469.804	78.94
470.023	95.94
470.243	80.94
470.462	89.94
470.681	117.94
470.901	97.94
471.12	90.94
471.339	88.94
471.558	93.94
471.777	94.94
471.997	123.94
472.216	302.94
472.435	593.94
472.654	194.94
472.873	107.94
473.092	82.94
473.311	94.94
473.53	100.94
473.749	83.94
473.968	91.94
474.187	115.94
474.406	107.94
474.625	91.94
474.844	87.94
475.063	71.94
475.282	85.94
475.501	86.94
475.72	85.94
475.939	89.94
476.158	79.94
476.377	80.94
476.596	77.94
476.814	113.94
477.033	91.94
477.252	92.94
477.471	97.94
477.69	92.94
477.908	83.94
478.127	93.94
478.346	110.94
478.564	92.94
478.783	86.94
479.002	96.94
479.22	88.94
479.439	103.94
479.658	107.94
479.876	96.94
480.095	110.94
480.313	107.94
480.532	102.94
480.751	134.94
480.969	296.94
481.188	945.94
481.406	622.94
481.624	169.94
481.843	97.94
482.061	98.94
482.28	86.94
482.498	96.94
482.717	80.94
482.935	92.94
483.153	65.94
483.372	83.94
483.59	91.94
483.808	93.94
484.027	96.94
484.245	90.94
484.463	78.94
484.681	101.94
484.9	97.94
485.118	96.94
485.336	101.94
485.554	95.94
485.772	115.94
485.99	101.94
486.209	105.94
486.427	115.94
486.645	90.94
486.863	92.94
487.081	103.94
487.299	96.94
487.517	89.94
487.735	95.94
487.953	88.94
488.171	97.94
488.389	99.94
488.607	95.94
488.825	78.94
489.043	91.94
489.261	88.94
489.479	95.94
489.696	109.94
489.914	105.94
490.132	84.94
490.35	88.94
490.568	79.94
490.786	90.94
491.003	77.94
491.221	79.94
491.439	94.94
491.657	92.94
491.874	87.94
492.092	91.94
492.31	85.94
492.527	99.94
492.745	101.94
492.963	95.94
493.18	93.94
493.398	89.94
493.615	97.94
493.833	102.94
494.05	102.94
494.268	91.94
494.485	117.94
494.703	98.94
494.92	108.94
495.138	98.94
495.355	82.94
495.573	87.94
495.79	101.94
496.008	87.94
496.225	93.94
496.442	95.94
496.66	91.94
496.877	97.94
497.094	95.94
497.312	112.94
497.529	102.94
497.746	90.94
497.963	77.94
498.181	103.94
498.398	91.94
498.615	103.94
498.832	99.94
499.049	91.94
499.267	93.94
499.484	95.94
499.701	87.94
499.918	81.94
500.135	79.94
500.352	93.94
500.569	89.94
500.786	91.94
501.003	90.94
501.22	93.94
501.437	109.94
501.654	95.94
501.871	98.94
502.088	86.94
502.305	87.94
502.522	103.94
502.739	92.94
502.956	77.94
503.172	87.94
503.389	99.94
503.606	97.94
503.823	82.94
504.04	97.94
504.256	99.94
504.473	90.94
504.69	93.94
504.907	87.94
505.123	96.94
505.34	75.94
505.557	91.94
505.773	98.94
505.99	99.94
506.207	89.94
506.423	89.94
506.64	94.94
506.856	90.94
507.073	83.94
507.289	102.94
507.506	100.94
507.722	114.94
507.939	112.94
508.155	98.94
508.372	90.94
508.588	79.94
508.805	100.94
509.021	81.94
509.238	106.94
509.454	92.94
509.67	89.94
509.887	119.94
510.103	135.94
510.319	204.94
510.536	615.94
510.752	1930.94
510.968	569.94
511.184	152.94
511.401	103.94
511.617	92.94
511.833	104.94
512.049	83.94
512.265	90.94
512.481	89.94
512.698	104.94
512.914	97.94
513.13	91.94
513.346	89.94
513.562	84.94
513.778	91.94
513.994	115.94
514.21	108.94
514.426	119.94
514.642	121.94
