Data from Circ_2004_H10_HRD10591_00040.txt Node
Date: Wed Jan 03 10:33:22 EST 2024
User: Yrep
Spectrometer: HR+D1059
Trigger mode: 1
Integration Time (sec): 1.000000E-1
Scans to average: 1
Electric dark correction enabled: true
Nonlinearity correction enabled: false
Boxcar width: 0
XAxis mode: Wavelengths
Number of Pixels in Spectrum: 2048
>>>>>Begin Spectral Data<<<<<
223.165	-17.12
223.4	-17.12
223.635	-17.12
223.869	-11.12
224.104	-22.12
224.338	-22.12
224.573	-3.12
224.808	-10.12
225.042	-4.12
225.277	-17.12
225.511	0.88
225.746	-0.12
225.98	-2.12
226.215	12.88
226.449	24.88
226.683	14.88
226.918	21.88
227.152	33.88
227.387	29.88
227.621	33.88
227.856	38.88
228.09	45.88
228.324	46.88
228.559	59.88
228.793	57.88
229.027	57.88
229.262	74.88
229.496	79.88
229.73	84.88
229.964	75.88
230.199	70.88
230.433	77.88
230.667	64.88
230.901	78.88
231.136	72.88
231.37	76.88
231.604	80.88
231.838	73.88
232.072	81.88
232.306	84.88
232.541	79.88
232.775	76.88
233.009	79.88
233.243	82.88
233.477	85.88
233.711	86.88
233.945	76.88
234.179	82.88
234.413	68.88
234.647	75.88
234.881	67.88
235.115	95.88
235.349	84.88
235.583	75.88
235.817	87.88
236.051	77.88
236.285	72.88
236.519	75.88
236.753	75.88
236.987	80.88
237.221	84.88
237.455	75.88
237.689	67.88
237.922	70.88
238.156	77.88
238.39	71.88
238.624	80.88
238.858	86.88
239.091	68.88
239.325	80.88
239.559	77.88
239.793	89.88
240.027	76.88
240.26	74.88
240.494	89.88
240.728	63.88
240.961	77.88
241.195	65.88
241.429	85.88
241.662	73.88
241.896	64.88
242.13	72.88
242.363	76.88
242.597	85.88
242.83	64.88
243.064	79.88
243.298	73.88
243.531	68.88
243.765	70.88
243.998	83.88
244.232	83.88
244.465	79.88
244.699	77.88
244.932	74.88
245.166	84.88
245.399	89.88
245.633	78.88
245.866	68.88
246.099	71.88
246.333	83.88
246.566	62.88
246.8	89.88
247.033	86.88
247.266	75.88
247.5	78.88
247.733	77.88
247.966	85.88
248.2	77.88
248.433	83.88
248.666	65.88
248.899	88.88
249.133	83.88
249.366	101.88
249.599	93.88
249.832	87.88
250.066	88.88
250.299	83.88
250.532	84.88
250.765	93.88
250.998	79.88
251.231	83.88
251.465	86.88
251.698	78.88
251.931	81.88
252.164	71.88
252.397	80.88
252.63	80.88
252.863	77.88
253.096	100.88
253.329	70.88
253.562	71.88
253.795	75.88
254.028	89.88
254.261	75.88
254.494	81.88
254.727	79.88
254.96	95.88
255.193	77.88
255.426	88.88
255.659	70.88
255.892	79.88
256.124	72.88
256.357	79.88
256.59	79.88
256.823	89.88
257.056	89.88
257.289	70.88
257.521	89.88
257.754	82.88
257.987	81.88
258.22	99.88
258.452	80.88
258.685	95.88
258.918	89.88
259.151	92.88
259.383	84.88
259.616	77.88
259.849	85.88
260.081	88.88
260.314	87.88
260.547	93.88
260.779	88.88
261.012	90.88
261.244	84.88
261.477	95.88
261.71	97.88
261.942	96.88
262.175	108.88
262.407	81.88
262.64	77.88
262.872	93.88
263.105	80.88
263.337	83.88
263.57	85.88
263.802	79.88
264.035	85.88
264.267	71.88
264.499	87.88
264.732	101.88
264.964	79.88
265.197	68.88
265.429	95.88
265.661	97.88
265.894	91.88
266.126	72.88
266.358	79.88
266.591	78.88
266.823	86.88
267.055	89.88
267.287	88.88
267.52	82.88
267.752	88.88
267.984	89.88
268.216	84.88
268.448	89.88
268.681	78.88
268.913	83.88
269.145	69.88
269.377	89.88
269.609	78.88
269.841	84.88
270.073	86.88
270.306	79.88
270.538	70.88
270.77	83.88
271.002	105.88
271.234	84.88
271.466	95.88
271.698	88.88
271.93	84.88
272.162	89.88
272.394	83.88
272.626	89.88
272.858	100.88
273.09	88.88
273.322	71.88
273.553	88.88
273.785	85.88
274.017	88.88
274.249	92.88
274.481	97.88
274.713	89.88
274.945	96.88
275.176	89.88
275.408	85.88
275.64	89.88
275.872	97.88
276.104	85.88
276.335	104.88
276.567	112.88
276.799	122.88
277.031	119.88
277.262	110.88
277.494	99.88
277.726	76.88
277.957	82.88
278.189	91.88
278.421	82.88
278.652	88.88
278.884	79.88
279.115	77.88
279.347	80.88
279.579	95.88
279.81	105.88
280.042	113.88
280.273	135.88
280.505	108.88
280.736	94.88
280.968	89.88
281.199	100.88
281.431	77.88
281.662	88.88
281.894	85.88
282.125	92.88
282.356	105.88
282.588	146.88
282.819	103.88
283.051	94.88
283.282	88.88
283.513	81.88
283.745	92.88
283.976	95.88
284.207	89.88
284.439	82.88
284.67	87.88
284.901	89.88
285.132	84.88
285.364	93.88
285.595	95.88
285.826	70.88
286.057	95.88
286.288	79.88
286.52	85.88
286.751	78.88
286.982	92.88
287.213	86.88
287.444	75.88
287.675	88.88
287.906	79.88
288.138	92.88
288.369	87.88
288.6	91.88
288.831	84.88
289.062	81.88
289.293	76.88
289.524	97.88
289.755	80.88
289.986	95.88
290.217	66.88
290.448	87.88
290.679	84.88
290.91	103.88
291.141	95.88
291.371	88.88
291.602	71.88
291.833	85.88
292.064	81.88
292.295	79.88
292.526	79.88
292.757	104.88
292.987	81.88
293.218	84.88
293.449	88.88
293.68	88.88
293.91	86.88
294.141	92.88
294.372	85.88
294.603	94.88
294.833	78.88
295.064	79.88
295.295	93.88
295.525	93.88
295.756	115.88
295.987	103.88
296.217	143.88
296.448	116.88
296.679	88.88
296.909	89.88
297.14	101.88
297.37	85.88
297.601	91.88
297.831	83.88
298.062	87.88
298.292	89.88
298.523	94.88
298.753	68.88
298.984	83.88
299.214	97.88
299.445	101.88
299.675	97.88
299.905	106.88
300.136	91.88
300.366	83.88
300.597	87.88
300.827	92.88
301.057	98.88
301.288	121.88
301.518	94.88
301.748	105.88
301.979	109.88
302.209	80.88
302.439	93.88
302.669	85.88
302.9	87.88
303.13	84.88
303.36	111.88
303.59	115.88
303.82	112.88
304.051	104.88
304.281	94.88
304.511	84.88
304.741	76.88
304.971	78.88
305.201	96.88
305.431	85.88
305.661	82.88
305.891	94.88
306.121	89.88
306.352	105.88
306.582	105.88
306.812	99.88
307.042	100.88
307.272	101.88
307.502	118.88
307.731	116.88
307.961	95.88
308.191	95.88
308.421	87.88
308.651	88.88
308.881	97.88
309.111	92.88
309.341	95.88
309.571	99.88
309.8	83.88
310.03	85.88
310.26	93.88
310.49	97.88
310.72	95.88
310.949	118.88
311.179	105.88
311.409	94.88
311.639	99.88
311.868	96.88
312.098	98.88
312.328	105.88
312.557	102.88
312.787	87.88
313.017	96.88
313.246	104.88
313.476	99.88
313.706	91.88
313.935	67.88
314.165	88.88
314.394	106.88
314.624	99.88
314.853	104.88
315.083	90.88
315.312	93.88
315.542	96.88
315.771	88.88
316.001	81.88
316.23	79.88
316.46	97.88
316.689	82.88
316.919	85.88
317.148	90.88
317.377	99.88
317.607	93.88
317.836	105.88
318.065	92.88
318.295	81.88
318.524	87.88
318.753	90.88
318.983	99.88
319.212	93.88
319.441	109.88
319.67	101.88
319.9	91.88
320.129	88.88
320.358	103.88
320.587	100.88
320.816	84.88
321.046	97.88
321.275	93.88
321.504	88.88
321.733	109.88
321.962	107.88
322.191	103.88
322.42	106.88
322.649	117.88
322.878	124.88
323.108	120.88
323.337	122.88
323.566	155.88
323.795	166.88
324.024	197.88
324.253	433.88
324.482	855.88
324.71	1787.88
324.939	2383.88
325.168	849.88
325.397	256.88
325.626	143.88
325.855	118.88
326.084	129.88
326.313	120.88
326.542	155.88
326.77	230.88
326.999	455.88
327.228	980.88
327.457	1776.88
327.686	1392.88
327.914	418.88
328.143	289.88
328.372	303.88
328.6	182.88
328.829	143.88
329.058	137.88
329.287	139.88
329.515	131.88
329.744	155.88
329.972	232.88
330.201	387.88
330.43	577.88
330.658	277.88
330.887	182.88
331.115	123.88
331.344	109.88
331.572	117.88
331.801	111.88
332.03	118.88
332.258	95.88
332.486	109.88
332.715	96.88
332.943	100.88
333.172	110.88
333.4	105.88
333.629	131.88
333.857	143.88
334.085	202.88
334.314	365.88
334.542	639.88
334.771	631.88
334.999	205.88
335.227	118.88
335.455	95.88
335.684	86.88
335.912	89.88
336.14	104.88
336.369	101.88
336.597	94.88
336.825	102.88
337.053	87.88
337.281	102.88
337.51	90.88
337.738	99.88
337.966	101.88
338.194	100.88
338.422	103.88
338.65	98.88
338.878	101.88
339.106	95.88
339.334	89.88
339.562	98.88
339.79	84.88
340.018	83.88
340.246	96.88
340.474	105.88
340.702	84.88
340.93	92.88
341.158	102.88
341.386	78.88
341.614	112.88
341.842	104.88
342.07	96.88
342.298	86.88
342.526	86.88
342.754	88.88
342.981	85.88
343.209	89.88
343.437	96.88
343.665	72.88
343.893	85.88
344.12	92.88
344.348	87.88
344.576	78.88
344.804	94.88
345.031	103.88
345.259	89.88
345.487	91.88
345.714	94.88
345.942	96.88
346.17	96.88
346.397	93.88
346.625	93.88
346.853	87.88
347.08	102.88
347.308	96.88
347.535	112.88
347.763	85.88
347.99	100.88
348.218	87.88
348.445	96.88
348.673	97.88
348.9	97.88
349.128	105.88
349.355	96.88
349.583	84.88
349.81	82.88
350.037	108.88
350.265	97.88
350.492	94.88
350.72	95.88
350.947	113.88
351.174	109.88
351.402	97.88
351.629	90.88
351.856	105.88
352.083	97.88
352.311	110.88
352.538	104.88
352.765	100.88
352.992	104.88
353.22	117.88
353.447	118.88
353.674	93.88
353.901	94.88
354.128	84.88
354.355	80.88
354.583	80.88
354.81	103.88
355.037	101.88
355.264	86.88
355.491	100.88
355.718	95.88
355.945	94.88
356.172	93.88
356.399	107.88
356.626	93.88
356.853	89.88
357.08	95.88
357.307	99.88
357.534	95.88
357.761	85.88
357.988	92.88
358.215	91.88
358.441	91.88
358.668	88.88
358.895	83.88
359.122	79.88
359.349	91.88
359.576	98.88
359.802	96.88
360.029	129.88
360.256	111.88
360.483	94.88
360.709	92.88
360.936	103.88
361.163	101.88
361.39	99.88
361.616	94.88
361.843	105.88
362.07	94.88
362.296	105.88
362.523	93.88
362.749	77.88
362.976	73.88
363.203	93.88
363.429	87.88
363.656	77.88
363.882	89.88
364.109	102.88
364.335	81.88
364.562	87.88
364.788	92.88
365.015	90.88
365.241	93.88
365.468	103.88
365.694	100.88
365.92	100.88
366.147	102.88
366.373	93.88
366.599	90.88
366.826	93.88
367.052	95.88
367.278	89.88
367.505	77.88
367.731	85.88
367.957	93.88
368.184	92.88
368.41	89.88
368.636	109.88
368.862	102.88
369.089	109.88
369.315	97.88
369.541	94.88
369.767	88.88
369.993	88.88
370.219	95.88
370.445	84.88
370.672	93.88
370.898	77.88
371.124	83.88
371.35	93.88
371.576	94.88
371.802	74.88
372.028	73.88
372.254	72.88
372.48	86.88
372.706	79.88
372.932	71.88
373.158	87.88
373.384	83.88
373.61	69.88
373.835	104.88
374.061	90.88
374.287	92.88
374.513	117.88
374.739	88.88
374.965	87.88
375.191	86.88
375.416	96.88
375.642	101.88
375.868	94.88
376.094	103.88
376.319	102.88
376.545	86.88
376.771	75.88
376.997	86.88
377.222	88.88
377.448	88.88
377.674	73.88
377.899	81.88
378.125	84.88
378.35	81.88
378.576	78.88
378.802	83.88
379.027	69.88
379.253	92.88
379.478	91.88
379.704	82.88
379.929	97.88
380.155	90.88
380.38	101.88
380.606	87.88
380.831	73.88
381.057	92.88
381.282	98.88
381.507	95.88
381.733	95.88
381.958	98.88
382.184	92.88
382.409	103.88
382.634	99.88
382.86	87.88
383.085	95.88
383.31	108.88
383.535	97.88
383.761	103.88
383.986	99.88
384.211	95.88
384.436	95.88
384.662	103.88
384.887	100.88
385.112	93.88
385.337	97.88
385.562	94.88
385.787	84.88
386.013	94.88
386.238	103.88
386.463	100.88
386.688	96.88
386.913	99.88
387.138	97.88
387.363	115.88
387.588	89.88
387.813	92.88
388.038	83.88
388.263	103.88
388.488	98.88
388.713	99.88
388.938	97.88
389.163	97.88
389.387	92.88
389.612	87.88
389.837	92.88
390.062	86.88
390.287	99.88
390.512	73.88
390.736	87.88
390.961	90.88
391.186	87.88
391.411	90.88
391.636	86.88
391.86	77.88
392.085	81.88
392.31	91.88
392.534	80.88
392.759	90.88
392.984	82.88
393.208	89.88
393.433	94.88
393.658	86.88
393.882	84.88
394.107	87.88
394.331	96.88
394.556	88.88
394.78	79.88
395.005	90.88
395.229	96.88
395.454	88.88
395.678	83.88
395.903	93.88
396.127	86.88
396.352	92.88
396.576	87.88
396.801	91.88
397.025	83.88
397.249	88.88
397.474	78.88
397.698	92.88
397.922	90.88
398.147	84.88
398.371	74.88
398.595	79.88
398.82	92.88
399.044	84.88
399.268	82.88
399.492	78.88
399.717	81.88
399.941	86.88
400.165	85.88
400.389	84.88
400.613	83.88
400.837	81.88
401.062	88.88
401.286	96.88
401.51	81.88
401.734	84.88
401.958	101.88
402.182	143.88
402.406	155.88
402.63	108.88
402.854	90.88
403.078	89.88
403.302	96.88
403.526	95.88
403.75	78.88
403.974	90.88
404.198	97.88
404.422	79.88
404.645	93.88
404.869	114.88
405.093	90.88
405.317	128.88
405.541	116.88
405.765	111.88
405.988	121.88
406.212	180.88
406.436	245.88
406.66	160.88
406.883	109.88
407.107	84.88
407.331	100.88
407.555	90.88
407.778	93.88
408.002	94.88
408.226	89.88
408.449	94.88
408.673	86.88
408.896	75.88
409.12	85.88
409.344	92.88
409.567	87.88
409.791	83.88
410.014	94.88
410.238	88.88
410.461	78.88
410.685	93.88
410.908	95.88
411.132	105.88
411.355	103.88
411.578	87.88
411.802	99.88
412.025	85.88
412.249	85.88
412.472	96.88
412.695	105.88
412.919	93.88
413.142	100.88
413.365	91.88
413.589	86.88
413.812	88.88
414.035	98.88
414.258	87.88
414.482	86.88
414.705	85.88
414.928	97.88
415.151	97.88
415.374	99.88
415.597	88.88
415.821	100.88
416.044	86.88
416.267	95.88
416.49	75.88
416.713	80.88
416.936	90.88
417.159	99.88
417.382	106.88
417.605	92.88
417.828	93.88
418.051	95.88
418.274	75.88
418.497	83.88
418.72	90.88
418.943	96.88
419.166	81.88
419.389	90.88
419.611	97.88
419.834	97.88
420.057	86.88
420.28	81.88
420.503	77.88
420.726	75.88
420.948	85.88
421.171	102.88
421.394	104.88
421.617	94.88
421.839	77.88
422.062	77.88
422.285	101.88
422.507	100.88
422.73	102.88
422.953	83.88
423.175	96.88
423.398	88.88
423.621	75.88
423.843	72.88
424.066	79.88
424.288	91.88
424.511	85.88
424.733	96.88
424.956	100.88
425.178	108.88
425.401	80.88
425.623	95.88
425.846	87.88
426.068	103.88
426.291	92.88
426.513	84.88
426.735	80.88
426.958	86.88
427.18	111.88
427.402	141.88
427.625	176.88
427.847	160.88
428.069	149.88
428.292	105.88
428.514	84.88
428.736	98.88
428.958	89.88
429.181	91.88
429.403	91.88
429.625	83.88
429.847	84.88
430.069	101.88
430.292	87.88
430.514	84.88
430.736	86.88
430.958	73.88
431.18	76.88
431.402	85.88
431.624	89.88
431.846	85.88
432.068	81.88
432.29	89.88
432.512	86.88
432.734	87.88
432.956	90.88
433.178	104.88
433.4	90.88
433.622	100.88
433.844	90.88
434.066	81.88
434.287	82.88
434.509	79.88
434.731	95.88
434.953	88.88
435.175	91.88
435.397	77.88
435.618	92.88
435.84	105.88
436.062	121.88
436.284	119.88
436.505	101.88
436.727	99.88
436.949	88.88
437.17	92.88
437.392	95.88
437.614	92.88
437.835	98.88
438.057	108.88
438.278	103.88
438.5	90.88
438.721	118.88
438.943	98.88
439.165	100.88
439.386	89.88
439.608	101.88
439.829	87.88
440.05	136.88
440.272	149.88
440.493	101.88
440.715	96.88
440.936	74.88
441.158	74.88
441.379	82.88
441.6	84.88
441.822	87.88
442.043	93.88
442.264	104.88
442.486	90.88
442.707	91.88
442.928	115.88
443.149	140.88
443.371	144.88
443.592	110.88
443.813	106.88
444.034	105.88
444.255	97.88
444.476	89.88
444.698	93.88
444.919	94.88
445.14	136.88
445.361	130.88
445.582	117.88
445.803	151.88
446.024	158.88
446.245	143.88
446.466	107.88
446.687	91.88
446.908	87.88
447.129	86.88
447.35	84.88
447.571	89.88
447.792	96.88
448.013	107.88
448.234	97.88
448.455	97.88
448.675	112.88
448.896	103.88
449.117	88.88
449.338	111.88
449.559	121.88
449.779	131.88
450	94.88
450.221	83.88
450.442	99.88
450.662	75.88
450.883	107.88
451.104	107.88
451.324	96.88
451.545	83.88
451.766	76.88
451.986	91.88
452.207	83.88
452.428	94.88
452.648	93.88
452.869	121.88
453.089	119.88
453.31	126.88
453.53	92.88
453.751	89.88
453.971	93.88
454.192	111.88
454.412	93.88
454.633	84.88
454.853	80.88
455.073	72.88
455.294	96.88
455.514	104.88
455.734	84.88
455.955	81.88
456.175	76.88
456.395	85.88
456.616	79.88
456.836	100.88
457.056	84.88
457.276	89.88
457.497	79.88
457.717	94.88
457.937	93.88
458.157	89.88
458.377	103.88
458.598	102.88
458.818	147.88
459.038	166.88
459.258	118.88
459.478	93.88
459.698	75.88
459.918	83.88
460.138	85.88
460.358	85.88
460.578	72.88
460.798	90.88
461.018	83.88
461.238	89.88
461.458	89.88
461.678	88.88
461.898	91.88
462.118	88.88
462.338	85.88
462.558	88.88
462.777	90.88
462.997	92.88
463.217	83.88
463.437	87.88
463.657	80.88
463.876	87.88
464.096	87.88
464.316	93.88
464.536	100.88
464.755	105.88
464.975	111.88
465.195	182.88
465.414	191.88
465.634	99.88
465.854	99.88
466.073	103.88
466.293	106.88
466.512	85.88
466.732	86.88
466.951	87.88
467.171	101.88
467.391	97.88
467.61	88.88
467.829	134.88
468.049	244.88
468.268	339.88
468.488	131.88
468.707	99.88
468.927	75.88
469.146	89.88
469.365	91.88
469.585	89.88
469.804	100.88
470.023	96.88
470.243	94.88
470.462	107.88
470.681	114.88
470.901	93.88
471.12	107.88
471.339	90.88
471.558	98.88
471.777	112.88
471.997	171.88
472.216	454.88
472.435	934.88
472.654	278.88
472.873	117.88
473.092	84.88
473.311	95.88
473.53	87.88
473.749	76.88
473.968	100.88
474.187	96.88
474.406	93.88
474.625	92.88
474.844	98.88
475.063	86.88
475.282	86.88
475.501	89.88
475.72	75.88
475.939	88.88
476.158	76.88
476.377	89.88
476.596	81.88
476.814	92.88
477.033	98.88
477.252	87.88
477.471	95.88
477.69	85.88
477.908	83.88
478.127	95.88
478.346	83.88
478.564	94.88
478.783	101.88
479.002	100.88
479.22	95.88
479.439	101.88
479.658	109.88
479.876	107.88
480.095	105.88
480.313	116.88
480.532	114.88
480.751	157.88
480.969	423.88
481.188	1491.88
481.406	925.88
481.624	196.88
481.843	115.88
482.061	95.88
482.28	94.88
482.498	81.88
482.717	100.88
482.935	81.88
483.153	94.88
483.372	89.88
483.59	89.88
483.808	89.88
484.027	88.88
484.245	78.88
484.463	96.88
484.681	99.88
484.9	107.88
485.118	89.88
485.336	95.88
485.554	96.88
485.772	94.88
485.99	97.88
486.209	116.88
486.427	99.88
486.645	102.88
486.863	107.88
487.081	108.88
487.299	88.88
487.517	80.88
487.735	103.88
487.953	88.88
488.171	87.88
488.389	92.88
488.607	85.88
488.825	91.88
489.043	83.88
489.261	88.88
489.479	97.88
489.696	86.88
489.914	90.88
490.132	71.88
490.35	83.88
490.568	80.88
490.786	90.88
491.003	76.88
491.221	82.88
491.439	91.88
491.657	96.88
491.874	97.88
492.092	96.88
492.31	96.88
492.527	87.88
492.745	83.88
492.963	97.88
493.18	93.88
493.398	85.88
493.615	93.88
493.833	92.88
494.05	85.88
494.268	87.88
494.485	89.88
494.703	105.88
494.92	88.88
495.138	91.88
495.355	86.88
495.573	86.88
495.79	79.88
496.008	83.88
496.225	73.88
496.442	84.88
496.66	92.88
496.877	94.88
497.094	95.88
497.312	89.88
497.529	94.88
497.746	101.88
497.963	91.88
498.181	84.88
498.398	100.88
498.615	112.88
498.832	93.88
499.049	89.88
499.267	92.88
499.484	106.88
499.701	92.88
499.918	70.88
500.135	80.88
500.352	85.88
500.569	88.88
500.786	90.88
501.003	99.88
501.22	87.88
501.437	94.88
501.654	83.88
501.871	104.88
502.088	104.88
502.305	83.88
502.522	87.88
502.739	79.88
502.956	88.88
503.172	85.88
503.389	107.88
503.606	99.88
503.823	93.88
504.04	94.88
504.256	78.88
504.473	88.88
504.69	99.88
504.907	99.88
505.123	99.88
505.34	90.88
505.557	69.88
505.773	88.88
505.99	78.88
506.207	84.88
506.423	92.88
506.64	97.88
506.856	74.88
507.073	89.88
507.289	95.88
507.506	96.88
507.722	130.88
507.939	127.88
508.155	90.88
508.372	85.88
508.588	105.88
508.805	93.88
509.021	89.88
509.238	95.88
509.454	86.88
509.67	100.88
509.887	102.88
510.103	146.88
510.319	213.88
510.536	752.88
510.752	2371.88
510.968	673.88
511.184	160.88
511.401	101.88
511.617	108.88
511.833	111.88
512.049	99.88
512.265	79.88
512.481	95.88
512.698	99.88
512.914	96.88
513.13	99.88
513.346	102.88
513.562	106.88
513.778	104.88
513.994	101.88
514.21	107.88
514.426	142.88
514.642	159.88
514.858	129.88
515.074	175.88
515.29	530.88
