Data from Circ_2004_H10_HRD10591_00059.txt Node
Date: Wed Jan 03 10:33:26 EST 2024
User: Yrep
Spectrometer: HR+D1059
Trigger mode: 1
Integration Time (sec): 1.000000E-1
Scans to average: 1
Electric dark correction enabled: true
Nonlinearity correction enabled: false
Boxcar width: 0
XAxis mode: Wavelengths
Number of Pixels in Spectrum: 2048
>>>>>Begin Spectral Data<<<<<
223.165	-19.69
223.4	-19.69
223.635	-19.69
223.869	-13.69
224.104	-38.69
224.338	-7.69
224.573	-5.69
224.808	-6.69
225.042	-3.69
225.277	5.31
225.511	-1.69
225.746	-1.69
225.98	-2.69
226.215	12.31
226.449	2.31
226.683	21.31
226.918	40.31
227.152	20.31
227.387	42.31
227.621	38.31
227.856	41.31
228.09	48.31
228.324	49.31
228.559	37.31
228.793	49.31
229.027	71.31
229.262	69.31
229.496	82.31
229.73	85.31
229.964	78.31
230.199	74.31
230.433	81.31
230.667	74.31
230.901	74.31
231.136	75.31
231.37	68.31
231.604	73.31
231.838	79.31
232.072	98.31
232.306	73.31
232.541	80.31
232.775	76.31
233.009	86.31
233.243	74.31
233.477	87.31
233.711	81.31
233.945	73.31
234.179	69.31
234.413	80.31
234.647	81.31
234.881	78.31
235.115	66.31
235.349	77.31
235.583	78.31
235.817	81.31
236.051	80.31
236.285	79.31
236.519	76.31
236.753	85.31
236.987	72.31
237.221	84.31
237.455	91.31
237.689	80.31
237.922	77.31
238.156	73.31
238.39	79.31
238.624	83.31
238.858	71.31
239.091	81.31
239.325	78.31
239.559	83.31
239.793	74.31
240.027	88.31
240.26	75.31
240.494	92.31
240.728	86.31
240.961	87.31
241.195	77.31
241.429	50.31
241.662	78.31
241.896	80.31
242.13	76.31
242.363	74.31
242.597	72.31
242.83	74.31
243.064	79.31
243.298	71.31
243.531	73.31
243.765	82.31
243.998	76.31
244.232	77.31
244.465	76.31
244.699	83.31
244.932	70.31
245.166	88.31
245.399	87.31
245.633	73.31
245.866	75.31
246.099	78.31
246.333	69.31
246.566	80.31
246.8	85.31
247.033	72.31
247.266	67.31
247.5	71.31
247.733	76.31
247.966	84.31
248.2	85.31
248.433	80.31
248.666	74.31
248.899	79.31
249.133	84.31
249.366	96.31
249.599	92.31
249.832	82.31
250.066	81.31
250.299	81.31
250.532	89.31
250.765	93.31
250.998	86.31
251.231	81.31
251.465	68.31
251.698	87.31
251.931	81.31
252.164	84.31
252.397	68.31
252.63	88.31
252.863	86.31
253.096	86.31
253.329	72.31
253.562	81.31
253.795	77.31
254.028	80.31
254.261	96.31
254.494	63.31
254.727	83.31
254.96	79.31
255.193	76.31
255.426	70.31
255.659	69.31
255.892	74.31
256.124	80.31
256.357	77.31
256.59	91.31
256.823	82.31
257.056	64.31
257.289	90.31
257.521	86.31
257.754	87.31
257.987	79.31
258.22	97.31
258.452	83.31
258.685	77.31
258.918	88.31
259.151	81.31
259.383	82.31
259.616	76.31
259.849	73.31
260.081	82.31
260.314	87.31
260.547	77.31
260.779	78.31
261.012	85.31
261.244	92.31
261.477	75.31
261.71	110.31
261.942	122.31
262.175	111.31
262.407	101.31
262.64	75.31
262.872	84.31
263.105	69.31
263.337	78.31
263.57	90.31
263.802	86.31
264.035	85.31
264.267	67.31
264.499	70.31
264.732	89.31
264.964	82.31
265.197	86.31
265.429	83.31
265.661	79.31
265.894	74.31
266.126	91.31
266.358	74.31
266.591	84.31
266.823	90.31
267.055	87.31
267.287	75.31
267.52	91.31
267.752	80.31
267.984	78.31
268.216	95.31
268.448	83.31
268.681	73.31
268.913	94.31
269.145	81.31
269.377	85.31
269.609	85.31
269.841	78.31
270.073	89.31
270.306	84.31
270.538	88.31
270.77	80.31
271.002	69.31
271.234	83.31
271.466	73.31
271.698	89.31
271.93	83.31
272.162	87.31
272.394	88.31
272.626	93.31
272.858	87.31
273.09	77.31
273.322	82.31
273.553	86.31
273.785	79.31
274.017	76.31
274.249	84.31
274.481	83.31
274.713	88.31
274.945	87.31
275.176	81.31
275.408	100.31
275.64	83.31
275.872	92.31
276.104	95.31
276.335	88.31
276.567	81.31
276.799	119.31
277.031	112.31
277.262	132.31
277.494	108.31
277.726	79.31
277.957	101.31
278.189	81.31
278.421	82.31
278.652	90.31
278.884	95.31
279.115	79.31
279.347	86.31
279.579	86.31
279.81	87.31
280.042	127.31
280.273	132.31
280.505	121.31
280.736	99.31
280.968	79.31
281.199	87.31
281.431	84.31
281.662	71.31
281.894	86.31
282.125	89.31
282.356	97.31
282.588	130.31
282.819	93.31
283.051	89.31
283.282	75.31
283.513	101.31
283.745	81.31
283.976	78.31
284.207	82.31
284.439	87.31
284.67	85.31
284.901	94.31
285.132	74.31
285.364	77.31
285.595	69.31
285.826	81.31
286.057	79.31
286.288	71.31
286.52	64.31
286.751	83.31
286.982	79.31
287.213	88.31
287.444	87.31
287.675	83.31
287.906	90.31
288.138	101.31
288.369	93.31
288.6	108.31
288.831	89.31
289.062	78.31
289.293	88.31
289.524	74.31
289.755	85.31
289.986	83.31
290.217	80.31
290.448	92.31
290.679	84.31
290.91	89.31
291.141	87.31
291.371	84.31
291.602	76.31
291.833	102.31
292.064	84.31
292.295	88.31
292.526	76.31
292.757	98.31
292.987	94.31
293.218	92.31
293.449	91.31
293.68	72.31
293.91	64.31
294.141	81.31
294.372	86.31
294.603	90.31
294.833	77.31
295.064	88.31
295.295	88.31
295.525	89.31
295.756	96.31
295.987	117.31
296.217	126.31
296.448	118.31
296.679	79.31
296.909	75.31
297.14	95.31
297.37	88.31
297.601	69.31
297.831	93.31
298.062	94.31
298.292	90.31
298.523	94.31
298.753	99.31
298.984	92.31
299.214	93.31
299.445	70.31
299.675	86.31
299.905	95.31
300.136	95.31
300.366	98.31
300.597	86.31
300.827	86.31
301.057	95.31
301.288	108.31
301.518	96.31
301.748	73.31
301.979	99.31
302.209	93.31
302.439	91.31
302.669	89.31
302.9	94.31
303.13	83.31
303.36	87.31
303.59	111.31
303.82	90.31
304.051	78.31
304.281	82.31
304.511	96.31
304.741	84.31
304.971	88.31
305.201	77.31
305.431	95.31
305.661	93.31
305.891	94.31
306.121	94.31
306.352	98.31
306.582	99.31
306.812	83.31
307.042	97.31
307.272	117.31
307.502	129.31
307.731	109.31
307.961	97.31
308.191	91.31
308.421	93.31
308.651	90.31
308.881	111.31
309.111	90.31
309.341	86.31
309.571	85.31
309.8	87.31
310.03	94.31
310.26	86.31
310.49	100.31
310.72	95.31
310.949	101.31
311.179	103.31
311.409	93.31
311.639	94.31
311.868	95.31
312.098	84.31
312.328	98.31
312.557	97.31
312.787	98.31
313.017	97.31
313.246	79.31
313.476	97.31
313.706	88.31
313.935	95.31
314.165	117.31
314.394	110.31
314.624	95.31
314.853	115.31
315.083	96.31
315.312	91.31
315.542	88.31
315.771	95.31
316.001	96.31
316.23	86.31
316.46	75.31
316.689	83.31
316.919	82.31
317.148	97.31
317.377	89.31
317.607	90.31
317.836	73.31
318.065	88.31
318.295	101.31
318.524	87.31
318.753	93.31
318.983	106.31
319.212	91.31
319.441	117.31
319.67	103.31
319.9	90.31
320.129	101.31
320.358	97.31
320.587	109.31
320.816	105.31
321.046	108.31
321.275	106.31
321.504	92.31
321.733	95.31
321.962	96.31
322.191	91.31
322.42	97.31
322.649	117.31
322.878	99.31
323.108	124.31
323.337	131.31
323.566	137.31
323.795	160.31
324.024	212.31
324.253	410.31
324.482	840.31
324.71	1792.31
324.939	2359.31
325.168	851.31
325.397	252.31
325.626	150.31
325.855	128.31
326.084	130.31
326.313	124.31
326.542	147.31
326.77	254.31
326.999	471.31
327.228	978.31
327.457	1834.31
327.686	1448.31
327.914	404.31
328.143	274.31
328.372	284.31
328.6	184.31
328.829	121.31
329.058	130.31
329.287	134.31
329.515	111.31
329.744	151.31
329.972	214.31
330.201	402.31
330.43	516.31
330.658	292.31
330.887	167.31
331.115	121.31
331.344	99.31
331.572	108.31
331.801	120.31
332.03	112.31
332.258	97.31
332.486	81.31
332.715	102.31
332.943	105.31
333.172	105.31
333.4	95.31
333.629	118.31
333.857	148.31
334.085	196.31
334.314	367.31
334.542	653.31
334.771	637.31
334.999	213.31
335.227	120.31
335.455	109.31
335.684	88.31
335.912	105.31
336.14	102.31
336.369	97.31
336.597	92.31
336.825	103.31
337.053	108.31
337.281	91.31
337.51	89.31
337.738	106.31
337.966	78.31
338.194	115.31
338.422	109.31
338.65	84.31
338.878	81.31
339.106	99.31
339.334	78.31
339.562	84.31
339.79	83.31
340.018	82.31
340.246	87.31
340.474	100.31
340.702	90.31
340.93	102.31
341.158	101.31
341.386	93.31
341.614	94.31
341.842	98.31
342.07	97.31
342.298	98.31
342.526	96.31
342.754	84.31
342.981	91.31
343.209	92.31
343.437	109.31
343.665	83.31
343.893	78.31
344.12	102.31
344.348	95.31
344.576	88.31
344.804	85.31
345.031	110.31
345.259	99.31
345.487	90.31
345.714	80.31
345.942	90.31
346.17	94.31
346.397	80.31
346.625	98.31
346.853	103.31
347.08	89.31
347.308	96.31
347.535	91.31
347.763	109.31
347.99	96.31
348.218	112.31
348.445	108.31
348.673	96.31
348.9	102.31
349.128	88.31
349.355	85.31
349.583	85.31
349.81	87.31
350.037	86.31
350.265	92.31
350.492	99.31
350.72	103.31
350.947	97.31
351.174	105.31
351.402	87.31
351.629	94.31
351.856	106.31
352.083	96.31
352.311	103.31
352.538	112.31
352.765	112.31
352.992	104.31
353.22	98.31
353.447	94.31
353.674	103.31
353.901	94.31
354.128	93.31
354.355	107.31
354.583	85.31
354.81	90.31
355.037	90.31
355.264	102.31
355.491	98.31
355.718	88.31
355.945	96.31
356.172	78.31
356.399	104.31
356.626	93.31
356.853	102.31
357.08	96.31
357.307	85.31
357.534	93.31
357.761	88.31
357.988	91.31
358.215	103.31
358.441	90.31
358.668	83.31
358.895	88.31
359.122	101.31
359.349	90.31
359.576	86.31
359.802	88.31
360.029	124.31
360.256	101.31
360.483	100.31
360.709	90.31
360.936	97.31
361.163	100.31
361.39	93.31
361.616	93.31
361.843	109.31
362.07	96.31
362.296	105.31
362.523	96.31
362.749	93.31
362.976	84.31
363.203	92.31
363.429	99.31
363.656	91.31
363.882	81.31
364.109	88.31
364.335	100.31
364.562	90.31
364.788	90.31
365.015	90.31
365.241	101.31
365.468	103.31
365.694	105.31
365.92	105.31
366.147	90.31
366.373	86.31
366.599	80.31
366.826	82.31
367.052	98.31
367.278	93.31
367.505	97.31
367.731	94.31
367.957	95.31
368.184	94.31
368.41	87.31
368.636	95.31
368.862	115.31
369.089	107.31
369.315	81.31
369.541	88.31
369.767	90.31
369.993	95.31
370.219	81.31
370.445	87.31
370.672	79.31
370.898	83.31
371.124	97.31
371.35	95.31
371.576	91.31
371.802	77.31
372.028	88.31
372.254	88.31
372.48	79.31
372.706	71.31
372.932	70.31
373.158	82.31
373.384	87.31
373.61	82.31
373.835	94.31
374.061	85.31
374.287	103.31
374.513	77.31
374.739	85.31
374.965	83.31
375.191	85.31
375.416	92.31
375.642	84.31
375.868	87.31
376.094	86.31
376.319	77.31
376.545	87.31
376.771	77.31
376.997	82.31
377.222	81.31
377.448	84.31
377.674	89.31
377.899	90.31
378.125	90.31
378.35	79.31
378.576	80.31
378.802	96.31
379.027	101.31
379.253	95.31
379.478	80.31
379.704	85.31
379.929	90.31
380.155	80.31
380.38	72.31
380.606	89.31
380.831	77.31
381.057	98.31
381.282	85.31
381.507	99.31
381.733	99.31
381.958	82.31
382.184	91.31
382.409	93.31
382.634	93.31
382.86	87.31
383.085	104.31
383.31	102.31
383.535	99.31
383.761	86.31
383.986	93.31
384.211	89.31
384.436	94.31
384.662	98.31
384.887	94.31
385.112	93.31
385.337	88.31
385.562	89.31
385.787	109.31
386.013	101.31
386.238	105.31
386.463	95.31
386.688	104.31
386.913	93.31
387.138	97.31
387.363	83.31
387.588	95.31
387.813	111.31
388.038	109.31
388.263	104.31
388.488	97.31
388.713	94.31
388.938	88.31
389.163	93.31
389.387	88.31
389.612	108.31
389.837	78.31
390.062	88.31
390.287	80.31
390.512	86.31
390.736	85.31
390.961	65.31
391.186	92.31
391.411	90.31
391.636	80.31
391.86	86.31
392.085	78.31
392.31	85.31
392.534	98.31
392.759	82.31
392.984	81.31
393.208	99.31
393.433	105.31
393.658	86.31
393.882	95.31
394.107	90.31
394.331	84.31
394.556	71.31
394.78	76.31
395.005	78.31
395.229	82.31
395.454	79.31
395.678	77.31
395.903	83.31
396.127	84.31
396.352	90.31
396.576	89.31
396.801	82.31
397.025	94.31
397.249	87.31
397.474	98.31
397.698	92.31
397.922	81.31
398.147	77.31
398.371	84.31
398.595	72.31
398.82	80.31
399.044	96.31
399.268	81.31
399.492	97.31
399.717	88.31
399.941	92.31
400.165	77.31
400.389	86.31
400.613	82.31
400.837	100.31
401.062	90.31
401.286	90.31
401.51	88.31
401.734	95.31
401.958	108.31
402.182	127.31
402.406	158.31
402.63	105.31
402.854	92.31
403.078	90.31
403.302	67.31
403.526	100.31
403.75	86.31
403.974	77.31
404.198	90.31
404.422	80.31
404.645	89.31
404.869	87.31
405.093	103.31
405.317	102.31
405.541	123.31
405.765	84.31
405.988	114.31
406.212	176.31
406.436	226.31
406.66	162.31
406.883	100.31
407.107	106.31
407.331	103.31
407.555	106.31
407.778	90.31
408.002	89.31
408.226	78.31
408.449	82.31
408.673	95.31
408.896	96.31
409.12	97.31
409.344	84.31
409.567	85.31
409.791	96.31
410.014	84.31
410.238	94.31
410.461	89.31
410.685	103.31
410.908	98.31
411.132	103.31
411.355	103.31
411.578	96.31
411.802	80.31
412.025	81.31
412.249	83.31
412.472	96.31
412.695	102.31
412.919	113.31
413.142	94.31
413.365	88.31
413.589	80.31
413.812	89.31
414.035	94.31
414.258	74.31
414.482	92.31
414.705	78.31
414.928	90.31
415.151	83.31
415.374	100.31
415.597	89.31
415.821	103.31
416.044	88.31
416.267	79.31
416.49	86.31
416.713	87.31
416.936	96.31
417.159	95.31
417.382	90.31
417.605	85.31
417.828	102.31
418.051	95.31
418.274	87.31
418.497	83.31
418.72	87.31
418.943	72.31
419.166	106.31
419.389	89.31
419.611	88.31
419.834	91.31
420.057	86.31
420.28	96.31
420.503	98.31
420.726	97.31
420.948	91.31
421.171	89.31
421.394	94.31
421.617	82.31
421.839	86.31
422.062	82.31
422.285	88.31
422.507	89.31
422.73	104.31
422.953	90.31
423.175	85.31
423.398	84.31
423.621	98.31
423.843	87.31
424.066	82.31
424.288	89.31
424.511	87.31
424.733	97.31
424.956	110.31
425.178	102.31
425.401	94.31
425.623	108.31
425.846	93.31
426.068	95.31
426.291	92.31
426.513	79.31
426.735	102.31
426.958	92.31
427.18	113.31
427.402	134.31
427.625	185.31
427.847	146.31
428.069	160.31
428.292	95.31
428.514	78.31
428.736	84.31
428.958	76.31
429.181	82.31
429.403	83.31
429.625	89.31
429.847	79.31
430.069	96.31
430.292	88.31
430.514	79.31
430.736	91.31
430.958	83.31
431.18	71.31
431.402	102.31
431.624	90.31
431.846	76.31
432.068	78.31
432.29	87.31
432.512	98.31
432.734	90.31
432.956	97.31
433.178	81.31
433.4	101.31
433.622	86.31
433.844	105.31
434.066	94.31
434.287	101.31
434.509	94.31
434.731	97.31
434.953	88.31
435.175	96.31
435.397	97.31
435.618	80.31
435.84	107.31
436.062	109.31
436.284	115.31
436.505	107.31
436.727	82.31
436.949	89.31
437.17	72.31
437.392	89.31
437.614	84.31
437.835	106.31
438.057	111.31
438.278	116.31
438.5	110.31
438.721	125.31
438.943	95.31
439.165	96.31
439.386	80.31
439.608	99.31
439.829	96.31
440.05	125.31
440.272	144.31
440.493	100.31
440.715	88.31
440.936	78.31
441.158	89.31
441.379	87.31
441.6	102.31
441.822	92.31
442.043	103.31
442.264	100.31
442.486	105.31
442.707	98.31
442.928	107.31
443.149	132.31
443.371	132.31
443.592	103.31
443.813	113.31
444.034	114.31
444.255	88.31
444.476	90.31
444.698	89.31
444.919	78.31
445.14	131.31
445.361	109.31
445.582	119.31
445.803	154.31
446.024	138.31
446.245	125.31
446.466	116.31
446.687	77.31
446.908	97.31
447.129	88.31
447.35	114.31
447.571	96.31
447.792	102.31
448.013	93.31
448.234	121.31
448.455	121.31
448.675	123.31
448.896	130.31
449.117	108.31
449.338	102.31
449.559	122.31
449.779	140.31
450	114.31
450.221	72.31
450.442	74.31
450.662	89.31
450.883	105.31
451.104	115.31
451.324	100.31
451.545	85.31
451.766	89.31
451.986	86.31
452.207	95.31
452.428	96.31
452.648	96.31
452.869	100.31
453.089	94.31
453.31	112.31
453.53	87.31
453.751	99.31
453.971	103.31
454.192	110.31
454.412	102.31
454.633	104.31
454.853	81.31
455.073	76.31
455.294	89.31
455.514	95.31
455.734	95.31
455.955	93.31
456.175	86.31
456.395	100.31
456.616	86.31
456.836	90.31
457.056	90.31
457.276	93.31
457.497	82.31
457.717	86.31
457.937	85.31
458.157	87.31
458.377	89.31
458.598	110.31
458.818	160.31
459.038	178.31
459.258	137.31
459.478	100.31
459.698	71.31
459.918	76.31
460.138	80.31
460.358	90.31
460.578	82.31
460.798	97.31
461.018	98.31
461.238	86.31
461.458	92.31
461.678	80.31
461.898	88.31
462.118	97.31
462.338	87.31
462.558	82.31
462.777	84.31
462.997	90.31
463.217	94.31
463.437	93.31
463.657	68.31
463.876	79.31
464.096	81.31
464.316	102.31
464.536	90.31
464.755	83.31
464.975	100.31
465.195	161.31
465.414	160.31
465.634	94.31
465.854	92.31
466.073	91.31
466.293	90.31
466.512	86.31
466.732	85.31
466.951	78.31
467.171	99.31
467.391	98.31
467.61	113.31
467.829	140.31
468.049	230.31
468.268	329.31
468.488	118.31
468.707	87.31
468.927	72.31
469.146	93.31
469.365	87.31
469.585	85.31
469.804	105.31
470.023	105.31
470.243	102.31
470.462	104.31
470.681	104.31
470.901	89.31
471.12	92.31
471.339	84.31
471.558	90.31
471.777	101.31
471.997	167.31
472.216	454.31
472.435	893.31
472.654	247.31
472.873	114.31
473.092	96.31
473.311	81.31
473.53	98.31
473.749	87.31
473.968	106.31
474.187	117.31
474.406	113.31
474.625	78.31
474.844	94.31
475.063	90.31
475.282	80.31
475.501	71.31
475.72	98.31
475.939	88.31
476.158	84.31
476.377	90.31
476.596	100.31
476.814	90.31
477.033	93.31
477.252	100.31
477.471	82.31
477.69	84.31
477.908	93.31
478.127	90.31
478.346	80.31
478.564	80.31
478.783	99.31
479.002	97.31
479.22	108.31
479.439	95.31
479.658	116.31
479.876	90.31
480.095	103.31
480.313	100.31
480.532	117.31
480.751	150.31
480.969	420.31
481.188	1553.31
481.406	944.31
481.624	180.31
481.843	107.31
482.061	93.31
482.28	96.31
482.498	87.31
482.717	78.31
482.935	90.31
483.153	80.31
483.372	92.31
483.59	85.31
483.808	87.31
484.027	90.31
484.245	101.31
484.463	94.31
484.681	109.31
484.9	98.31
485.118	90.31
485.336	95.31
485.554	87.31
485.772	101.31
485.99	96.31
486.209	105.31
486.427	89.31
486.645	105.31
486.863	115.31
487.081	101.31
487.299	105.31
487.517	101.31
487.735	102.31
487.953	99.31
488.171	108.31
488.389	100.31
488.607	102.31
488.825	97.31
489.043	84.31
489.261	100.31
489.479	89.31
489.696	80.31
489.914	85.31
490.132	93.31
490.35	102.31
490.568	85.31
490.786	85.31
491.003	92.31
491.221	89.31
491.439	95.31
491.657	89.31
491.874	109.31
492.092	96.31
492.31	79.31
492.527	101.31
492.745	98.31
492.963	92.31
493.18	87.31
493.398	96.31
493.615	111.31
493.833	102.31
494.05	100.31
494.268	80.31
494.485	81.31
494.703	95.31
494.92	90.31
495.138	88.31
495.355	80.31
495.573	98.31
495.79	78.31
496.008	91.31
496.225	86.31
496.442	96.31
496.66	86.31
496.877	84.31
497.094	76.31
497.312	86.31
497.529	86.31
497.746	92.31
497.963	79.31
498.181	110.31
498.398	98.31
498.615	109.31
498.832	99.31
499.049	96.31
499.267	93.31
499.484	81.31
499.701	83.31
499.918	95.31
500.135	106.31
500.352	100.31
500.569	90.31
500.786	81.31
501.003	86.31
501.22	94.31
501.437	89.31
501.654	87.31
501.871	110.31
502.088	96.31
502.305	100.31
502.522	95.31
502.739	90.31
502.956	103.31
503.172	67.31
503.389	92.31
503.606	110.31
503.823	106.31
504.04	90.31
504.256	83.31
504.473	66.31
504.69	84.31
504.907	88.31
505.123	84.31
505.34	85.31
505.557	94.31
505.773	93.31
505.99	102.31
506.207	88.31
506.423	90.31
506.64	88.31
506.856	83.31
507.073	80.31
507.289	90.31
507.506	98.31
507.722	116.31
507.939	108.31
508.155	94.31
508.372	73.31
508.588	94.31
508.805	102.31
509.021	96.31
509.238	93.31
509.454	100.31
509.67	95.31
509.887	112.31
510.103	139.31
510.319	208.31
510.536	684.31
510.752	2231.31
510.968	624.31
511.184	142.31
511.401	112.31
511.617	96.31
511.833	99.31
512.049	90.31
512.265	97.31
512.481	95.31
512.698	108.31
512.914	93.31
513.13	88.31
513.346	104.31
513.562	95.31
513.778	82.31
513.994	99.31
514.21	97.31
514.426	110.31
514.642	137.31
514.858	140.31
515.074	168.31
515.29	468.31
