Data from Circ_2004_H10_HRD10591_00028.txt Node
Date: Wed Jan 03 10:33:19 EST 2024
User: Yrep
Spectrometer: HR+D1059
Trigger mode: 1
Integration Time (sec): 1.000000E-1
Scans to average: 1
Electric dark correction enabled: true
Nonlinearity correction enabled: false
Boxcar width: 0
XAxis mode: Wavelengths
Number of Pixels in Spectrum: 2048
>>>>>Begin Spectral Data<<<<<
223.165	-23.62
223.4	-23.62
223.635	-23.62
223.869	-16.62
224.104	-14.62
224.338	-15.62
224.573	-17.62
224.808	-9.62
225.042	-8.62
225.277	-11.62
225.511	-5.62
225.746	0.38
225.98	9.38
226.215	10.38
226.449	24.38
226.683	28.38
226.918	14.38
227.152	36.38
227.387	31.38
227.621	43.38
227.856	47.38
228.09	46.38
228.324	52.38
228.559	66.38
228.793	53.38
229.027	57.38
229.262	65.38
229.496	80.38
229.73	77.38
229.964	93.38
230.199	84.38
230.433	74.38
230.667	83.38
230.901	91.38
231.136	88.38
231.37	102.38
231.604	81.38
231.838	74.38
232.072	91.38
232.306	80.38
232.541	76.38
232.775	94.38
233.009	88.38
233.243	79.38
233.477	73.38
233.711	70.38
233.945	91.38
234.179	91.38
234.413	74.38
234.647	74.38
234.881	89.38
235.115	91.38
235.349	99.38
235.583	90.38
235.817	76.38
236.051	79.38
236.285	75.38
236.519	81.38
236.753	76.38
236.987	68.38
237.221	66.38
237.455	81.38
237.689	90.38
237.922	79.38
238.156	68.38
238.39	91.38
238.624	74.38
238.858	80.38
239.091	78.38
239.325	87.38
239.559	69.38
239.793	81.38
240.027	67.38
240.26	72.38
240.494	69.38
240.728	81.38
240.961	79.38
241.195	81.38
241.429	71.38
241.662	59.38
241.896	89.38
242.13	81.38
242.363	79.38
242.597	77.38
242.83	77.38
243.064	85.38
243.298	68.38
243.531	84.38
243.765	75.38
243.998	78.38
244.232	78.38
244.465	83.38
244.699	85.38
244.932	90.38
245.166	76.38
245.399	88.38
245.633	79.38
245.866	80.38
246.099	81.38
246.333	90.38
246.566	92.38
246.8	83.38
247.033	81.38
247.266	71.38
247.5	96.38
247.733	89.38
247.966	84.38
248.2	104.38
248.433	78.38
248.666	68.38
248.899	89.38
249.133	95.38
249.366	94.38
249.599	100.38
249.832	81.38
250.066	78.38
250.299	87.38
250.532	98.38
250.765	80.38
250.998	81.38
251.231	71.38
251.465	66.38
251.698	94.38
251.931	83.38
252.164	69.38
252.397	75.38
252.63	87.38
252.863	66.38
253.096	89.38
253.329	100.38
253.562	87.38
253.795	75.38
254.028	68.38
254.261	88.38
254.494	92.38
254.727	94.38
254.96	89.38
255.193	91.38
255.426	83.38
255.659	83.38
255.892	84.38
256.124	75.38
256.357	104.38
256.59	75.38
256.823	96.38
257.056	90.38
257.289	78.38
257.521	86.38
257.754	89.38
257.987	79.38
258.22	77.38
258.452	100.38
258.685	87.38
258.918	84.38
259.151	94.38
259.383	86.38
259.616	62.38
259.849	89.38
260.081	91.38
260.314	86.38
260.547	101.38
260.779	78.38
261.012	99.38
261.244	78.38
261.477	82.38
261.71	78.38
261.942	105.38
262.175	111.38
262.407	89.38
262.64	81.38
262.872	91.38
263.105	87.38
263.337	90.38
263.57	94.38
263.802	80.38
264.035	80.38
264.267	90.38
264.499	79.38
264.732	85.38
264.964	70.38
265.197	81.38
265.429	79.38
265.661	84.38
265.894	70.38
266.126	84.38
266.358	63.38
266.591	89.38
266.823	76.38
267.055	79.38
267.287	74.38
267.52	89.38
267.752	93.38
267.984	95.38
268.216	80.38
268.448	83.38
268.681	93.38
268.913	85.38
269.145	75.38
269.377	100.38
269.609	82.38
269.841	91.38
270.073	91.38
270.306	79.38
270.538	89.38
270.77	78.38
271.002	91.38
271.234	87.38
271.466	98.38
271.698	86.38
271.93	91.38
272.162	69.38
272.394	71.38
272.626	96.38
272.858	85.38
273.09	82.38
273.322	87.38
273.553	99.38
273.785	83.38
274.017	93.38
274.249	94.38
274.481	90.38
274.713	97.38
274.945	96.38
275.176	90.38
275.408	96.38
275.64	96.38
275.872	99.38
276.104	87.38
276.335	84.38
276.567	106.38
276.799	123.38
277.031	120.38
277.262	108.38
277.494	112.38
277.726	102.38
277.957	84.38
278.189	80.38
278.421	86.38
278.652	87.38
278.884	76.38
279.115	84.38
279.347	95.38
279.579	98.38
279.81	82.38
280.042	102.38
280.273	127.38
280.505	88.38
280.736	94.38
280.968	87.38
281.199	95.38
281.431	79.38
281.662	92.38
281.894	97.38
282.125	122.38
282.356	114.38
282.588	133.38
282.819	110.38
283.051	88.38
283.282	86.38
283.513	83.38
283.745	86.38
283.976	95.38
284.207	100.38
284.439	79.38
284.67	79.38
284.901	94.38
285.132	94.38
285.364	82.38
285.595	95.38
285.826	82.38
286.057	98.38
286.288	96.38
286.52	86.38
286.751	100.38
286.982	87.38
287.213	92.38
287.444	89.38
287.675	91.38
287.906	96.38
288.138	82.38
288.369	108.38
288.6	81.38
288.831	90.38
289.062	101.38
289.293	83.38
289.524	87.38
289.755	87.38
289.986	83.38
290.217	74.38
290.448	80.38
290.679	90.38
290.91	83.38
291.141	72.38
291.371	91.38
291.602	87.38
291.833	88.38
292.064	77.38
292.295	89.38
292.526	89.38
292.757	90.38
292.987	91.38
293.218	83.38
293.449	85.38
293.68	80.38
293.91	83.38
294.141	108.38
294.372	95.38
294.603	100.38
294.833	90.38
295.064	89.38
295.295	92.38
295.525	98.38
295.756	104.38
295.987	104.38
296.217	148.38
296.448	128.38
296.679	93.38
296.909	76.38
297.14	95.38
297.37	80.38
297.601	108.38
297.831	86.38
298.062	87.38
298.292	84.38
298.523	90.38
298.753	98.38
298.984	102.38
299.214	98.38
299.445	94.38
299.675	86.38
299.905	96.38
300.136	76.38
300.366	89.38
300.597	101.38
300.827	81.38
301.057	102.38
301.288	92.38
301.518	98.38
301.748	97.38
301.979	117.38
302.209	100.38
302.439	92.38
302.669	88.38
302.9	102.38
303.13	100.38
303.36	90.38
303.59	96.38
303.82	111.38
304.051	106.38
304.281	97.38
304.511	91.38
304.741	101.38
304.971	99.38
305.201	94.38
305.431	94.38
305.661	98.38
305.891	92.38
306.121	95.38
306.352	89.38
306.582	114.38
306.812	90.38
307.042	99.38
307.272	89.38
307.502	114.38
307.731	123.38
307.961	98.38
308.191	98.38
308.421	98.38
308.651	83.38
308.881	86.38
309.111	97.38
309.341	100.38
309.571	96.38
309.8	102.38
310.03	106.38
310.26	111.38
310.49	104.38
310.72	99.38
310.949	105.38
311.179	92.38
311.409	103.38
311.639	88.38
311.868	94.38
312.098	99.38
312.328	109.38
312.557	98.38
312.787	110.38
313.017	103.38
313.246	91.38
313.476	99.38
313.706	95.38
313.935	93.38
314.165	99.38
314.394	97.38
314.624	102.38
314.853	84.38
315.083	109.38
315.312	102.38
315.542	99.38
315.771	90.38
316.001	78.38
316.23	92.38
316.46	94.38
316.689	92.38
316.919	113.38
317.148	96.38
317.377	108.38
317.607	102.38
317.836	102.38
318.065	81.38
318.295	95.38
318.524	94.38
318.753	98.38
318.983	90.38
319.212	103.38
319.441	109.38
319.67	114.38
319.9	80.38
320.129	94.38
320.358	87.38
320.587	85.38
320.816	102.38
321.046	99.38
321.275	106.38
321.504	100.38
321.733	90.38
321.962	94.38
322.191	99.38
322.42	96.38
322.649	113.38
322.878	104.38
323.108	112.38
323.337	115.38
323.566	137.38
323.795	145.38
324.024	202.38
324.253	352.38
324.482	790.38
324.71	1628.38
324.939	2153.38
325.168	791.38
325.397	244.38
325.626	153.38
325.855	118.38
326.084	136.38
326.313	121.38
326.542	155.38
326.77	229.38
326.999	451.38
327.228	900.38
327.457	1656.38
327.686	1305.38
327.914	387.38
328.143	240.38
328.372	220.38
328.6	156.38
328.829	120.38
329.058	134.38
329.287	130.38
329.515	112.38
329.744	126.38
329.972	170.38
330.201	275.38
330.43	334.38
330.658	202.38
330.887	160.38
331.115	123.38
331.344	103.38
331.572	86.38
331.801	110.38
332.03	97.38
332.258	93.38
332.486	93.38
332.715	83.38
332.943	92.38
333.172	91.38
333.4	106.38
333.629	120.38
333.857	133.38
334.085	163.38
334.314	252.38
334.542	412.38
334.771	392.38
334.999	157.38
335.227	106.38
335.455	91.38
335.684	104.38
335.912	107.38
336.14	99.38
336.369	95.38
336.597	98.38
336.825	105.38
337.053	103.38
337.281	89.38
337.51	82.38
337.738	83.38
337.966	66.38
338.194	104.38
338.422	96.38
338.65	97.38
338.878	101.38
339.106	79.38
339.334	103.38
339.562	93.38
339.79	91.38
340.018	114.38
340.246	98.38
340.474	88.38
340.702	79.38
340.93	98.38
341.158	96.38
341.386	100.38
341.614	92.38
341.842	99.38
342.07	93.38
342.298	100.38
342.526	104.38
342.754	98.38
342.981	83.38
343.209	101.38
343.437	104.38
343.665	103.38
343.893	79.38
344.12	100.38
344.348	96.38
344.576	83.38
344.804	87.38
345.031	107.38
345.259	111.38
345.487	77.38
345.714	90.38
345.942	88.38
346.17	99.38
346.397	93.38
346.625	92.38
346.853	98.38
347.08	87.38
347.308	91.38
347.535	94.38
347.763	96.38
347.99	84.38
348.218	98.38
348.445	102.38
348.673	102.38
348.9	104.38
349.128	103.38
349.355	99.38
349.583	103.38
349.81	92.38
350.037	99.38
350.265	103.38
350.492	96.38
350.72	108.38
350.947	98.38
351.174	98.38
351.402	111.38
351.629	99.38
351.856	96.38
352.083	95.38
352.311	92.38
352.538	95.38
352.765	107.38
352.992	112.38
353.22	108.38
353.447	92.38
353.674	103.38
353.901	102.38
354.128	82.38
354.355	89.38
354.583	102.38
354.81	88.38
355.037	109.38
355.264	94.38
355.491	101.38
355.718	94.38
355.945	81.38
356.172	97.38
356.399	100.38
356.626	98.38
356.853	106.38
357.08	123.38
357.307	93.38
357.534	108.38
357.761	103.38
357.988	102.38
358.215	89.38
358.441	92.38
358.668	98.38
358.895	102.38
359.122	95.38
359.349	95.38
359.576	92.38
359.802	106.38
360.029	103.38
360.256	103.38
360.483	101.38
360.709	81.38
360.936	84.38
361.163	86.38
361.39	96.38
361.616	95.38
361.843	87.38
362.07	109.38
362.296	102.38
362.523	91.38
362.749	81.38
362.976	91.38
363.203	83.38
363.429	79.38
363.656	101.38
363.882	93.38
364.109	92.38
364.335	90.38
364.562	117.38
364.788	86.38
365.015	104.38
365.241	96.38
365.468	99.38
365.694	110.38
365.92	100.38
366.147	88.38
366.373	100.38
366.599	108.38
366.826	94.38
367.052	80.38
367.278	92.38
367.505	83.38
367.731	100.38
367.957	86.38
368.184	88.38
368.41	108.38
368.636	112.38
368.862	113.38
369.089	122.38
369.315	89.38
369.541	88.38
369.767	84.38
369.993	84.38
370.219	86.38
370.445	92.38
370.672	87.38
370.898	88.38
371.124	90.38
371.35	86.38
371.576	85.38
371.802	106.38
372.028	94.38
372.254	90.38
372.48	93.38
372.706	80.38
372.932	91.38
373.158	94.38
373.384	89.38
373.61	88.38
373.835	83.38
374.061	99.38
374.287	95.38
374.513	77.38
374.739	87.38
374.965	74.38
375.191	100.38
375.416	91.38
375.642	108.38
375.868	88.38
376.094	99.38
376.319	100.38
376.545	78.38
376.771	76.38
376.997	93.38
377.222	85.38
377.448	103.38
377.674	99.38
377.899	95.38
378.125	95.38
378.35	95.38
378.576	95.38
378.802	99.38
379.027	88.38
379.253	91.38
379.478	97.38
379.704	96.38
379.929	96.38
380.155	101.38
380.38	95.38
380.606	98.38
380.831	78.38
381.057	90.38
381.282	102.38
381.507	89.38
381.733	103.38
381.958	111.38
382.184	107.38
382.409	98.38
382.634	102.38
382.86	101.38
383.085	102.38
383.31	106.38
383.535	90.38
383.761	97.38
383.986	87.38
384.211	95.38
384.436	106.38
384.662	107.38
384.887	109.38
385.112	107.38
385.337	94.38
385.562	96.38
385.787	97.38
386.013	111.38
386.238	124.38
386.463	104.38
386.688	114.38
386.913	107.38
387.138	103.38
387.363	104.38
387.588	107.38
387.813	111.38
388.038	98.38
388.263	106.38
388.488	103.38
388.713	92.38
388.938	103.38
389.163	91.38
389.387	106.38
389.612	103.38
389.837	97.38
390.062	89.38
390.287	90.38
390.512	86.38
390.736	87.38
390.961	98.38
391.186	106.38
391.411	101.38
391.636	87.38
391.86	73.38
392.085	78.38
392.31	105.38
392.534	90.38
392.759	98.38
392.984	103.38
393.208	98.38
393.433	102.38
393.658	95.38
393.882	101.38
394.107	92.38
394.331	80.38
394.556	91.38
394.78	71.38
395.005	88.38
395.229	98.38
395.454	86.38
395.678	99.38
395.903	88.38
396.127	92.38
396.352	102.38
396.576	88.38
396.801	91.38
397.025	98.38
397.249	81.38
397.474	91.38
397.698	98.38
397.922	91.38
398.147	89.38
398.371	71.38
398.595	98.38
398.82	84.38
399.044	83.38
399.268	96.38
399.492	94.38
399.717	84.38
399.941	75.38
400.165	92.38
400.389	95.38
400.613	85.38
400.837	95.38
401.062	85.38
401.286	90.38
401.51	90.38
401.734	98.38
401.958	99.38
402.182	124.38
402.406	144.38
402.63	112.38
402.854	87.38
403.078	84.38
403.302	83.38
403.526	97.38
403.75	87.38
403.974	85.38
404.198	89.38
404.422	117.38
404.645	89.38
404.869	92.38
405.093	99.38
405.317	113.38
405.541	99.38
405.765	91.38
405.988	112.38
406.212	171.38
406.436	228.38
406.66	151.38
406.883	100.38
407.107	94.38
407.331	94.38
407.555	105.38
407.778	109.38
408.002	90.38
408.226	95.38
408.449	102.38
408.673	79.38
408.896	103.38
409.12	102.38
409.344	89.38
409.567	90.38
409.791	95.38
410.014	102.38
410.238	92.38
410.461	79.38
410.685	97.38
410.908	98.38
411.132	94.38
411.355	94.38
411.578	98.38
411.802	98.38
412.025	89.38
412.249	100.38
412.472	110.38
412.695	110.38
412.919	96.38
413.142	95.38
413.365	76.38
413.589	97.38
413.812	76.38
414.035	85.38
414.258	74.38
414.482	91.38
414.705	88.38
414.928	105.38
415.151	95.38
415.374	105.38
415.597	80.38
415.821	73.38
416.044	91.38
416.267	88.38
416.49	97.38
416.713	78.38
416.936	95.38
417.159	107.38
417.382	91.38
417.605	100.38
417.828	93.38
418.051	83.38
418.274	88.38
418.497	99.38
418.72	91.38
418.943	79.38
419.166	102.38
419.389	91.38
419.611	89.38
419.834	99.38
420.057	98.38
420.28	88.38
420.503	98.38
420.726	85.38
420.948	96.38
421.171	96.38
421.394	101.38
421.617	90.38
421.839	86.38
422.062	92.38
422.285	91.38
422.507	91.38
422.73	103.38
422.953	111.38
423.175	91.38
423.398	83.38
423.621	90.38
423.843	85.38
424.066	96.38
424.288	95.38
424.511	92.38
424.733	93.38
424.956	100.38
425.178	102.38
425.401	102.38
425.623	95.38
425.846	109.38
426.068	79.38
426.291	93.38
426.513	99.38
426.735	89.38
426.958	97.38
427.18	106.38
427.402	113.38
427.625	152.38
427.847	154.38
428.069	129.38
428.292	112.38
428.514	88.38
428.736	90.38
428.958	86.38
429.181	101.38
429.403	85.38
429.625	88.38
429.847	92.38
430.069	96.38
430.292	94.38
430.514	82.38
430.736	79.38
430.958	92.38
431.18	81.38
431.402	75.38
431.624	71.38
431.846	97.38
432.068	95.38
432.29	110.38
432.512	93.38
432.734	79.38
432.956	96.38
433.178	91.38
433.4	96.38
433.622	84.38
433.844	102.38
434.066	96.38
434.287	88.38
434.509	96.38
434.731	90.38
434.953	82.38
435.175	81.38
435.397	96.38
435.618	88.38
435.84	101.38
436.062	111.38
436.284	111.38
436.505	97.38
436.727	103.38
436.949	98.38
437.17	83.38
437.392	86.38
437.614	103.38
437.835	103.38
438.057	107.38
438.278	112.38
438.5	106.38
438.721	119.38
438.943	88.38
439.165	102.38
439.386	91.38
439.608	90.38
439.829	85.38
440.05	115.38
440.272	154.38
440.493	98.38
440.715	98.38
440.936	85.38
441.158	96.38
441.379	90.38
441.6	103.38
441.822	101.38
442.043	91.38
442.264	91.38
442.486	98.38
442.707	95.38
442.928	112.38
443.149	128.38
443.371	121.38
443.592	103.38
443.813	104.38
444.034	101.38
444.255	87.38
444.476	80.38
444.698	106.38
444.919	88.38
445.14	126.38
445.361	120.38
445.582	108.38
445.803	126.38
446.024	130.38
446.245	127.38
446.466	107.38
446.687	98.38
446.908	100.38
447.129	95.38
447.35	110.38
447.571	81.38
447.792	105.38
448.013	108.38
448.234	101.38
448.455	102.38
448.675	102.38
448.896	127.38
449.117	101.38
449.338	109.38
449.559	122.38
449.779	130.38
450	90.38
450.221	76.38
450.442	84.38
450.662	94.38
450.883	103.38
451.104	114.38
451.324	85.38
451.545	103.38
451.766	93.38
451.986	88.38
452.207	93.38
452.428	85.38
452.648	89.38
452.869	117.38
453.089	128.38
453.31	111.38
453.53	110.38
453.751	105.38
453.971	95.38
454.192	112.38
454.412	95.38
454.633	88.38
454.853	92.38
455.073	92.38
455.294	93.38
455.514	91.38
455.734	87.38
455.955	93.38
456.175	96.38
456.395	90.38
456.616	95.38
456.836	85.38
457.056	91.38
457.276	79.38
457.497	88.38
457.717	83.38
457.937	91.38
458.157	87.38
458.377	91.38
458.598	123.38
458.818	160.38
459.038	149.38
459.258	96.38
459.478	82.38
459.698	82.38
459.918	82.38
460.138	80.38
460.358	87.38
460.578	95.38
460.798	91.38
461.018	82.38
461.238	92.38
461.458	88.38
461.678	98.38
461.898	98.38
462.118	81.38
462.338	88.38
462.558	84.38
462.777	75.38
462.997	74.38
463.217	89.38
463.437	95.38
463.657	88.38
463.876	77.38
464.096	103.38
464.316	92.38
464.536	96.38
464.755	81.38
464.975	116.38
465.195	155.38
465.414	153.38
465.634	103.38
465.854	108.38
466.073	72.38
466.293	94.38
466.512	77.38
466.732	90.38
466.951	99.38
467.171	102.38
467.391	97.38
467.61	106.38
467.829	115.38
468.049	190.38
468.268	238.38
468.488	108.38
468.707	86.38
468.927	90.38
469.146	85.38
469.365	88.38
469.585	89.38
469.804	107.38
470.023	103.38
470.243	78.38
470.462	96.38
470.681	129.38
470.901	87.38
471.12	106.38
471.339	89.38
471.558	97.38
471.777	101.38
471.997	152.38
472.216	290.38
472.435	573.38
472.654	183.38
472.873	86.38
473.092	86.38
473.311	80.38
473.53	100.38
473.749	88.38
473.968	104.38
474.187	105.38
474.406	106.38
474.625	92.38
474.844	89.38
475.063	83.38
475.282	94.38
475.501	78.38
475.72	97.38
475.939	90.38
476.158	85.38
476.377	98.38
476.596	105.38
476.814	90.38
477.033	106.38
477.252	95.38
477.471	87.38
477.69	88.38
477.908	88.38
478.127	91.38
478.346	97.38
478.564	90.38
478.783	91.38
479.002	100.38
479.22	98.38
479.439	110.38
479.658	123.38
479.876	98.38
480.095	103.38
480.313	85.38
480.532	109.38
480.751	129.38
480.969	321.38
481.188	966.38
481.406	598.38
481.624	163.38
481.843	104.38
482.061	103.38
482.28	92.38
482.498	103.38
482.717	91.38
482.935	91.38
483.153	88.38
483.372	92.38
483.59	95.38
483.808	95.38
484.027	97.38
484.245	84.38
484.463	82.38
484.681	98.38
484.9	89.38
485.118	99.38
485.336	117.38
485.554	106.38
485.772	93.38
485.99	101.38
486.209	96.38
486.427	108.38
486.645	100.38
486.863	113.38
487.081	98.38
487.299	111.38
487.517	113.38
487.735	92.38
487.953	95.38
488.171	102.38
488.389	109.38
488.607	87.38
488.825	91.38
489.043	97.38
489.261	78.38
489.479	90.38
489.696	98.38
489.914	82.38
490.132	83.38
490.35	101.38
490.568	90.38
490.786	81.38
491.003	88.38
491.221	87.38
491.439	91.38
491.657	105.38
491.874	83.38
492.092	83.38
492.31	94.38
492.527	91.38
492.745	100.38
492.963	95.38
493.18	86.38
493.398	89.38
493.615	103.38
493.833	90.38
494.05	82.38
494.268	99.38
494.485	99.38
494.703	92.38
494.92	94.38
495.138	108.38
495.355	86.38
495.573	87.38
495.79	88.38
496.008	84.38
496.225	92.38
496.442	92.38
496.66	86.38
496.877	92.38
497.094	89.38
497.312	90.38
497.529	98.38
497.746	86.38
497.963	79.38
498.181	92.38
498.398	108.38
498.615	107.38
498.832	100.38
499.049	90.38
499.267	91.38
499.484	99.38
499.701	102.38
499.918	107.38
500.135	83.38
500.352	87.38
500.569	74.38
500.786	95.38
501.003	89.38
501.22	102.38
501.437	84.38
501.654	86.38
501.871	107.38
502.088	88.38
502.305	98.38
502.522	99.38
502.739	93.38
502.956	98.38
503.172	88.38
503.389	87.38
503.606	103.38
503.823	95.38
504.04	88.38
504.256	83.38
504.473	115.38
504.69	92.38
504.907	87.38
505.123	98.38
505.34	91.38
505.557	101.38
505.773	100.38
505.99	77.38
506.207	75.38
506.423	105.38
506.64	91.38
506.856	87.38
507.073	85.38
507.289	103.38
507.506	95.38
507.722	118.38
507.939	111.38
508.155	97.38
508.372	96.38
508.588	85.38
508.805	101.38
509.021	104.38
509.238	88.38
509.454	96.38
509.67	106.38
509.887	103.38
510.103	127.38
510.319	200.38
510.536	744.38
510.752	2233.38
510.968	646.38
511.184	160.38
511.401	104.38
511.617	108.38
511.833	109.38
512.049	99.38
512.265	102.38
512.481	83.38
512.698	88.38
512.914	98.38
513.13	91.38
513.346	107.38
513.562	90.38
513.778	100.38
513.994	109.38
514.21	92.38
514.426	102.38
