Data from Circ_2004_H10_HRD10591_00054.txt Node
Date: Wed Jan 03 10:33:25 EST 2024
User: Yrep
Spectrometer: HR+D1059
Trigger mode: 1
Integration Time (sec): 1.000000E-1
Scans to average: 1
Electric dark correction enabled: true
Nonlinearity correction enabled: false
Boxcar width: 0
XAxis mode: Wavelengths
Number of Pixels in Spectrum: 2048
>>>>>Begin Spectral Data<<<<<
223.165	-22.81
223.4	-22.81
223.635	-22.81
223.869	-15.81
224.104	-28.81
224.338	-9.81
224.573	0.19
224.808	-9.81
225.042	-8.81
225.277	-7.81
225.511	-6.81
225.746	1.19
225.98	6.19
226.215	19.19
226.449	25.19
226.683	14.19
226.918	23.19
227.152	21.19
227.387	32.19
227.621	41.19
227.856	49.19
228.09	29.19
228.324	35.19
228.559	47.19
228.793	49.19
229.027	61.19
229.262	73.19
229.496	60.19
229.73	87.19
229.964	84.19
230.199	72.19
230.433	65.19
230.667	82.19
230.901	84.19
231.136	85.19
231.37	90.19
231.604	76.19
231.838	77.19
232.072	87.19
232.306	72.19
232.541	85.19
232.775	87.19
233.009	86.19
233.243	80.19
233.477	77.19
233.711	71.19
233.945	78.19
234.179	80.19
234.413	85.19
234.647	82.19
234.881	68.19
235.115	73.19
235.349	74.19
235.583	74.19
235.817	78.19
236.051	80.19
236.285	78.19
236.519	77.19
236.753	78.19
236.987	86.19
237.221	75.19
237.455	90.19
237.689	69.19
237.922	80.19
238.156	78.19
238.39	70.19
238.624	94.19
238.858	67.19
239.091	67.19
239.325	84.19
239.559	66.19
239.793	76.19
240.027	75.19
240.26	69.19
240.494	79.19
240.728	89.19
240.961	84.19
241.195	63.19
241.429	75.19
241.662	69.19
241.896	71.19
242.13	86.19
242.363	65.19
242.597	89.19
242.83	79.19
243.064	75.19
243.298	69.19
243.531	77.19
243.765	79.19
243.998	77.19
244.232	78.19
244.465	82.19
244.699	79.19
244.932	84.19
245.166	76.19
245.399	80.19
245.633	68.19
245.866	74.19
246.099	81.19
246.333	79.19
246.566	66.19
246.8	77.19
247.033	65.19
247.266	76.19
247.5	90.19
247.733	93.19
247.966	75.19
248.2	79.19
248.433	92.19
248.666	87.19
248.899	86.19
249.133	85.19
249.366	84.19
249.599	87.19
249.832	81.19
250.066	96.19
250.299	81.19
250.532	94.19
250.765	86.19
250.998	71.19
251.231	84.19
251.465	95.19
251.698	97.19
251.931	88.19
252.164	89.19
252.397	81.19
252.63	68.19
252.863	85.19
253.096	74.19
253.329	77.19
253.562	80.19
253.795	67.19
254.028	88.19
254.261	81.19
254.494	83.19
254.727	77.19
254.96	93.19
255.193	94.19
255.426	81.19
255.659	65.19
255.892	88.19
256.124	102.19
256.357	89.19
256.59	82.19
256.823	81.19
257.056	75.19
257.289	71.19
257.521	85.19
257.754	93.19
257.987	81.19
258.22	79.19
258.452	94.19
258.685	89.19
258.918	94.19
259.151	84.19
259.383	70.19
259.616	81.19
259.849	71.19
260.081	77.19
260.314	80.19
260.547	90.19
260.779	93.19
261.012	82.19
261.244	80.19
261.477	87.19
261.71	89.19
261.942	102.19
262.175	123.19
262.407	86.19
262.64	69.19
262.872	86.19
263.105	82.19
263.337	86.19
263.57	93.19
263.802	73.19
264.035	89.19
264.267	66.19
264.499	95.19
264.732	83.19
264.964	80.19
265.197	81.19
265.429	74.19
265.661	73.19
265.894	88.19
266.126	88.19
266.358	79.19
266.591	76.19
266.823	82.19
267.055	86.19
267.287	95.19
267.52	71.19
267.752	91.19
267.984	93.19
268.216	71.19
268.448	77.19
268.681	89.19
268.913	79.19
269.145	69.19
269.377	91.19
269.609	85.19
269.841	84.19
270.073	81.19
270.306	91.19
270.538	82.19
270.77	86.19
271.002	88.19
271.234	71.19
271.466	85.19
271.698	75.19
271.93	87.19
272.162	86.19
272.394	80.19
272.626	75.19
272.858	73.19
273.09	85.19
273.322	88.19
273.553	78.19
273.785	76.19
274.017	80.19
274.249	74.19
274.481	81.19
274.713	74.19
274.945	88.19
275.176	83.19
275.408	81.19
275.64	95.19
275.872	101.19
276.104	88.19
276.335	100.19
276.567	99.19
276.799	111.19
277.031	123.19
277.262	113.19
277.494	105.19
277.726	74.19
277.957	72.19
278.189	81.19
278.421	79.19
278.652	78.19
278.884	79.19
279.115	84.19
279.347	85.19
279.579	90.19
279.81	107.19
280.042	108.19
280.273	117.19
280.505	112.19
280.736	94.19
280.968	87.19
281.199	89.19
281.431	91.19
281.662	92.19
281.894	90.19
282.125	86.19
282.356	115.19
282.588	147.19
282.819	123.19
283.051	85.19
283.282	86.19
283.513	92.19
283.745	89.19
283.976	86.19
284.207	84.19
284.439	73.19
284.67	72.19
284.901	85.19
285.132	72.19
285.364	64.19
285.595	96.19
285.826	82.19
286.057	74.19
286.288	88.19
286.52	82.19
286.751	92.19
286.982	93.19
287.213	83.19
287.444	100.19
287.675	93.19
287.906	88.19
288.138	105.19
288.369	80.19
288.6	99.19
288.831	88.19
289.062	89.19
289.293	85.19
289.524	81.19
289.755	70.19
289.986	100.19
290.217	88.19
290.448	86.19
290.679	83.19
290.91	86.19
291.141	87.19
291.371	85.19
291.602	83.19
291.833	89.19
292.064	84.19
292.295	97.19
292.526	82.19
292.757	87.19
292.987	94.19
293.218	79.19
293.449	85.19
293.68	85.19
293.91	84.19
294.141	84.19
294.372	96.19
294.603	97.19
294.833	85.19
295.064	83.19
295.295	94.19
295.525	80.19
295.756	107.19
295.987	133.19
296.217	135.19
296.448	125.19
296.679	98.19
296.909	107.19
297.14	80.19
297.37	76.19
297.601	79.19
297.831	75.19
298.062	90.19
298.292	74.19
298.523	101.19
298.753	91.19
298.984	88.19
299.214	86.19
299.445	96.19
299.675	93.19
299.905	82.19
300.136	87.19
300.366	85.19
300.597	69.19
300.827	93.19
301.057	99.19
301.288	113.19
301.518	90.19
301.748	81.19
301.979	102.19
302.209	99.19
302.439	86.19
302.669	90.19
302.9	86.19
303.13	86.19
303.36	95.19
303.59	103.19
303.82	111.19
304.051	98.19
304.281	97.19
304.511	88.19
304.741	85.19
304.971	101.19
305.201	89.19
305.431	91.19
305.661	84.19
305.891	81.19
306.121	99.19
306.352	99.19
306.582	97.19
306.812	94.19
307.042	115.19
307.272	113.19
307.502	114.19
307.731	103.19
307.961	113.19
308.191	92.19
308.421	91.19
308.651	82.19
308.881	101.19
309.111	91.19
309.341	98.19
309.571	90.19
309.8	87.19
310.03	111.19
310.26	103.19
310.49	78.19
310.72	88.19
310.949	92.19
311.179	91.19
311.409	88.19
311.639	97.19
311.868	93.19
312.098	94.19
312.328	86.19
312.557	106.19
312.787	102.19
313.017	107.19
313.246	95.19
313.476	102.19
313.706	75.19
313.935	83.19
314.165	96.19
314.394	93.19
314.624	80.19
314.853	86.19
315.083	81.19
315.312	103.19
315.542	90.19
315.771	86.19
316.001	76.19
316.23	85.19
316.46	81.19
316.689	91.19
316.919	103.19
317.148	97.19
317.377	90.19
317.607	82.19
317.836	83.19
318.065	87.19
318.295	86.19
318.524	94.19
318.753	93.19
318.983	87.19
319.212	112.19
319.441	105.19
319.67	112.19
319.9	95.19
320.129	85.19
320.358	85.19
320.587	95.19
320.816	98.19
321.046	96.19
321.275	102.19
321.504	89.19
321.733	79.19
321.962	112.19
322.191	104.19
322.42	111.19
322.649	100.19
322.878	105.19
323.108	123.19
323.337	119.19
323.566	135.19
323.795	151.19
324.024	223.19
324.253	433.19
324.482	927.19
324.71	1880.19
324.939	2497.19
325.168	897.19
325.397	271.19
325.626	145.19
325.855	153.19
326.084	124.19
326.313	124.19
326.542	172.19
326.77	238.19
326.999	517.19
327.228	1051.19
327.457	1923.19
327.686	1481.19
327.914	442.19
328.143	315.19
328.372	310.19
328.6	193.19
328.829	132.19
329.058	138.19
329.287	143.19
329.515	142.19
329.744	157.19
329.972	238.19
330.201	425.19
330.43	600.19
330.658	295.19
330.887	181.19
331.115	146.19
331.344	113.19
331.572	91.19
331.801	115.19
332.03	92.19
332.258	102.19
332.486	91.19
332.715	105.19
332.943	106.19
333.172	95.19
333.4	111.19
333.629	113.19
333.857	151.19
334.085	233.19
334.314	405.19
334.542	725.19
334.771	686.19
334.999	214.19
335.227	123.19
335.455	101.19
335.684	93.19
335.912	95.19
336.14	93.19
336.369	108.19
336.597	104.19
336.825	108.19
337.053	95.19
337.281	96.19
337.51	103.19
337.738	91.19
337.966	96.19
338.194	109.19
338.422	97.19
338.65	97.19
338.878	93.19
339.106	84.19
339.334	96.19
339.562	99.19
339.79	76.19
340.018	84.19
340.246	91.19
340.474	89.19
340.702	91.19
340.93	85.19
341.158	91.19
341.386	94.19
341.614	93.19
341.842	89.19
342.07	96.19
342.298	83.19
342.526	86.19
342.754	82.19
342.981	91.19
343.209	92.19
343.437	93.19
343.665	90.19
343.893	88.19
344.12	85.19
344.348	84.19
344.576	88.19
344.804	89.19
345.031	95.19
345.259	92.19
345.487	82.19
345.714	92.19
345.942	86.19
346.17	84.19
346.397	94.19
346.625	93.19
346.853	99.19
347.08	78.19
347.308	102.19
347.535	93.19
347.763	86.19
347.99	107.19
348.218	92.19
348.445	74.19
348.673	84.19
348.9	89.19
349.128	98.19
349.355	98.19
349.583	103.19
349.81	81.19
350.037	90.19
350.265	93.19
350.492	102.19
350.72	104.19
350.947	91.19
351.174	126.19
351.402	99.19
351.629	81.19
351.856	91.19
352.083	97.19
352.311	97.19
352.538	96.19
352.765	103.19
352.992	115.19
353.22	107.19
353.447	93.19
353.674	94.19
353.901	95.19
354.128	94.19
354.355	94.19
354.583	103.19
354.81	107.19
355.037	97.19
355.264	92.19
355.491	83.19
355.718	79.19
355.945	87.19
356.172	87.19
356.399	92.19
356.626	85.19
356.853	87.19
357.08	93.19
357.307	76.19
357.534	88.19
357.761	85.19
357.988	84.19
358.215	92.19
358.441	90.19
358.668	94.19
358.895	82.19
359.122	82.19
359.349	86.19
359.576	94.19
359.802	98.19
360.029	112.19
360.256	110.19
360.483	102.19
360.709	76.19
360.936	93.19
361.163	87.19
361.39	93.19
361.616	79.19
361.843	101.19
362.07	99.19
362.296	93.19
362.523	87.19
362.749	84.19
362.976	88.19
363.203	92.19
363.429	90.19
363.656	86.19
363.882	82.19
364.109	78.19
364.335	88.19
364.562	80.19
364.788	73.19
365.015	86.19
365.241	79.19
365.468	97.19
365.694	101.19
365.92	89.19
366.147	76.19
366.373	82.19
366.599	84.19
366.826	88.19
367.052	78.19
367.278	99.19
367.505	88.19
367.731	82.19
367.957	93.19
368.184	95.19
368.41	107.19
368.636	110.19
368.862	116.19
369.089	83.19
369.315	94.19
369.541	94.19
369.767	81.19
369.993	87.19
370.219	100.19
370.445	69.19
370.672	88.19
370.898	97.19
371.124	85.19
371.35	72.19
371.576	69.19
371.802	76.19
372.028	77.19
372.254	94.19
372.48	86.19
372.706	82.19
372.932	83.19
373.158	68.19
373.384	85.19
373.61	97.19
373.835	73.19
374.061	79.19
374.287	88.19
374.513	94.19
374.739	91.19
374.965	76.19
375.191	82.19
375.416	90.19
375.642	78.19
375.868	90.19
376.094	86.19
376.319	90.19
376.545	91.19
376.771	77.19
376.997	83.19
377.222	83.19
377.448	89.19
377.674	87.19
377.899	94.19
378.125	96.19
378.35	100.19
378.576	90.19
378.802	99.19
379.027	82.19
379.253	76.19
379.478	103.19
379.704	99.19
379.929	90.19
380.155	95.19
380.38	90.19
380.606	91.19
380.831	87.19
381.057	98.19
381.282	93.19
381.507	84.19
381.733	90.19
381.958	94.19
382.184	85.19
382.409	107.19
382.634	103.19
382.86	90.19
383.085	96.19
383.31	94.19
383.535	92.19
383.761	94.19
383.986	105.19
384.211	91.19
384.436	85.19
384.662	97.19
384.887	91.19
385.112	104.19
385.337	92.19
385.562	96.19
385.787	90.19
386.013	114.19
386.238	113.19
386.463	106.19
386.688	99.19
386.913	93.19
387.138	93.19
387.363	110.19
387.588	105.19
387.813	94.19
388.038	87.19
388.263	100.19
388.488	96.19
388.713	85.19
388.938	80.19
389.163	86.19
389.387	93.19
389.612	92.19
389.837	79.19
390.062	74.19
390.287	93.19
390.512	80.19
390.736	77.19
390.961	82.19
391.186	92.19
391.411	87.19
391.636	104.19
391.86	75.19
392.085	62.19
392.31	87.19
392.534	81.19
392.759	86.19
392.984	85.19
393.208	88.19
393.433	86.19
393.658	97.19
393.882	86.19
394.107	86.19
394.331	93.19
394.556	77.19
394.78	89.19
395.005	91.19
395.229	90.19
395.454	88.19
395.678	82.19
395.903	85.19
396.127	93.19
396.352	90.19
396.576	77.19
396.801	82.19
397.025	83.19
397.249	77.19
397.474	94.19
397.698	86.19
397.922	88.19
398.147	77.19
398.371	86.19
398.595	78.19
398.82	87.19
399.044	85.19
399.268	77.19
399.492	100.19
399.717	74.19
399.941	87.19
400.165	87.19
400.389	85.19
400.613	86.19
400.837	82.19
401.062	91.19
401.286	83.19
401.51	88.19
401.734	99.19
401.958	102.19
402.182	119.19
402.406	162.19
402.63	102.19
402.854	92.19
403.078	94.19
403.302	94.19
403.526	72.19
403.75	75.19
403.974	85.19
404.198	70.19
404.422	78.19
404.645	91.19
404.869	93.19
405.093	103.19
405.317	120.19
405.541	113.19
405.765	89.19
405.988	131.19
406.212	176.19
406.436	228.19
406.66	165.19
406.883	102.19
407.107	91.19
407.331	85.19
407.555	96.19
407.778	81.19
408.002	79.19
408.226	92.19
408.449	97.19
408.673	70.19
408.896	96.19
409.12	84.19
409.344	84.19
409.567	81.19
409.791	78.19
410.014	94.19
410.238	83.19
410.461	93.19
410.685	86.19
410.908	89.19
411.132	104.19
411.355	95.19
411.578	92.19
411.802	75.19
412.025	88.19
412.249	91.19
412.472	100.19
412.695	121.19
412.919	104.19
413.142	82.19
413.365	107.19
413.589	86.19
413.812	81.19
414.035	83.19
414.258	82.19
414.482	92.19
414.705	81.19
414.928	87.19
415.151	82.19
415.374	90.19
415.597	100.19
415.821	78.19
416.044	93.19
416.267	94.19
416.49	87.19
416.713	81.19
416.936	91.19
417.159	79.19
417.382	92.19
417.605	114.19
417.828	92.19
418.051	89.19
418.274	83.19
418.497	94.19
418.72	86.19
418.943	88.19
419.166	92.19
419.389	81.19
419.611	77.19
419.834	86.19
420.057	95.19
420.28	80.19
420.503	88.19
420.726	88.19
420.948	99.19
421.171	92.19
421.394	80.19
421.617	75.19
421.839	85.19
422.062	93.19
422.285	92.19
422.507	80.19
422.73	93.19
422.953	90.19
423.175	85.19
423.398	83.19
423.621	79.19
423.843	88.19
424.066	78.19
424.288	82.19
424.511	85.19
424.733	104.19
424.956	101.19
425.178	88.19
425.401	98.19
425.623	85.19
425.846	76.19
426.068	82.19
426.291	103.19
426.513	90.19
426.735	83.19
426.958	96.19
427.18	109.19
427.402	134.19
427.625	191.19
427.847	173.19
428.069	167.19
428.292	98.19
428.514	81.19
428.736	79.19
428.958	87.19
429.181	83.19
429.403	71.19
429.625	85.19
429.847	80.19
430.069	94.19
430.292	85.19
430.514	91.19
430.736	67.19
430.958	93.19
431.18	78.19
431.402	86.19
431.624	79.19
431.846	94.19
432.068	86.19
432.29	97.19
432.512	76.19
432.734	85.19
432.956	102.19
433.178	103.19
433.4	102.19
433.622	96.19
433.844	74.19
434.066	97.19
434.287	84.19
434.509	88.19
434.731	87.19
434.953	82.19
435.175	90.19
435.397	84.19
435.618	108.19
435.84	94.19
436.062	127.19
436.284	103.19
436.505	112.19
436.727	113.19
436.949	93.19
437.17	75.19
437.392	87.19
437.614	89.19
437.835	101.19
438.057	108.19
438.278	118.19
438.5	105.19
438.721	123.19
438.943	91.19
439.165	89.19
439.386	76.19
439.608	86.19
439.829	113.19
440.05	121.19
440.272	139.19
440.493	101.19
440.715	89.19
440.936	79.19
441.158	82.19
441.379	91.19
441.6	88.19
441.822	96.19
442.043	84.19
442.264	99.19
442.486	103.19
442.707	101.19
442.928	105.19
443.149	139.19
443.371	131.19
443.592	108.19
443.813	105.19
444.034	120.19
444.255	81.19
444.476	68.19
444.698	89.19
444.919	83.19
445.14	131.19
445.361	113.19
445.582	115.19
445.803	137.19
446.024	129.19
446.245	133.19
446.466	109.19
446.687	80.19
446.908	85.19
447.129	86.19
447.35	99.19
447.571	84.19
447.792	102.19
448.013	92.19
448.234	99.19
448.455	86.19
448.675	111.19
448.896	131.19
449.117	85.19
449.338	102.19
449.559	143.19
449.779	133.19
450	95.19
450.221	90.19
450.442	92.19
450.662	104.19
450.883	97.19
451.104	95.19
451.324	81.19
451.545	86.19
451.766	74.19
451.986	69.19
452.207	67.19
452.428	75.19
452.648	83.19
452.869	95.19
453.089	112.19
453.31	129.19
453.53	96.19
453.751	93.19
453.971	91.19
454.192	94.19
454.412	76.19
454.633	96.19
454.853	78.19
455.073	85.19
455.294	84.19
455.514	102.19
455.734	93.19
455.955	77.19
456.175	89.19
456.395	70.19
456.616	73.19
456.836	97.19
457.056	83.19
457.276	78.19
457.497	77.19
457.717	81.19
457.937	84.19
458.157	81.19
458.377	85.19
458.598	109.19
458.818	158.19
459.038	183.19
459.258	115.19
459.478	107.19
459.698	80.19
459.918	74.19
460.138	83.19
460.358	83.19
460.578	98.19
460.798	83.19
461.018	100.19
461.238	63.19
461.458	76.19
461.678	81.19
461.898	78.19
462.118	74.19
462.338	72.19
462.558	75.19
462.777	82.19
462.997	102.19
463.217	75.19
463.437	78.19
463.657	99.19
463.876	80.19
464.096	87.19
464.316	86.19
464.536	85.19
464.755	85.19
464.975	117.19
465.195	151.19
465.414	172.19
465.634	93.19
465.854	94.19
466.073	76.19
466.293	91.19
466.512	84.19
466.732	86.19
466.951	77.19
467.171	92.19
467.391	97.19
467.61	123.19
467.829	138.19
468.049	261.19
468.268	353.19
468.488	129.19
468.707	66.19
468.927	82.19
469.146	90.19
469.365	89.19
469.585	84.19
469.804	109.19
470.023	93.19
470.243	100.19
470.462	99.19
470.681	119.19
470.901	99.19
471.12	91.19
471.339	81.19
471.558	82.19
471.777	107.19
471.997	167.19
472.216	483.19
472.435	982.19
472.654	265.19
472.873	118.19
473.092	95.19
473.311	91.19
473.53	81.19
473.749	96.19
473.968	87.19
474.187	108.19
474.406	98.19
474.625	75.19
474.844	82.19
475.063	69.19
475.282	69.19
475.501	84.19
475.72	95.19
475.939	82.19
476.158	93.19
476.377	70.19
476.596	78.19
476.814	95.19
477.033	102.19
477.252	84.19
477.471	69.19
477.69	87.19
477.908	86.19
478.127	98.19
478.346	82.19
478.564	89.19
478.783	98.19
479.002	112.19
479.22	96.19
479.439	111.19
479.658	105.19
479.876	100.19
480.095	99.19
480.313	105.19
480.532	113.19
480.751	166.19
480.969	441.19
481.188	1731.19
481.406	1038.19
481.624	200.19
481.843	108.19
482.061	101.19
482.28	95.19
482.498	78.19
482.717	84.19
482.935	99.19
483.153	79.19
483.372	75.19
483.59	95.19
483.808	100.19
484.027	87.19
484.245	102.19
484.463	97.19
484.681	98.19
484.9	80.19
485.118	84.19
485.336	82.19
485.554	92.19
485.772	99.19
485.99	87.19
486.209	90.19
486.427	101.19
486.645	99.19
486.863	116.19
487.081	103.19
487.299	86.19
487.517	77.19
487.735	94.19
487.953	90.19
488.171	85.19
488.389	90.19
488.607	81.19
488.825	94.19
489.043	85.19
489.261	88.19
489.479	89.19
489.696	80.19
489.914	87.19
490.132	91.19
490.35	69.19
490.568	83.19
490.786	93.19
491.003	90.19
491.221	84.19
491.439	81.19
491.657	93.19
491.874	86.19
492.092	82.19
492.31	86.19
492.527	85.19
492.745	89.19
492.963	92.19
493.18	85.19
493.398	92.19
493.615	89.19
493.833	87.19
494.05	78.19
494.268	82.19
494.485	76.19
494.703	84.19
494.92	73.19
495.138	90.19
495.355	79.19
495.573	94.19
495.79	83.19
496.008	86.19
496.225	85.19
496.442	84.19
496.66	84.19
496.877	76.19
497.094	99.19
497.312	98.19
497.529	79.19
497.746	82.19
497.963	85.19
498.181	85.19
498.398	89.19
498.615	101.19
498.832	102.19
499.049	89.19
499.267	78.19
499.484	83.19
499.701	84.19
499.918	75.19
500.135	84.19
500.352	93.19
500.569	90.19
500.786	85.19
501.003	89.19
501.22	91.19
501.437	79.19
501.654	83.19
501.871	117.19
502.088	91.19
502.305	88.19
502.522	77.19
502.739	98.19
502.956	87.19
503.172	93.19
503.389	87.19
503.606	96.19
503.823	85.19
504.04	99.19
504.256	106.19
504.473	83.19
504.69	90.19
504.907	99.19
505.123	99.19
505.34	101.19
505.557	87.19
505.773	88.19
505.99	85.19
506.207	76.19
506.423	94.19
506.64	99.19
506.856	69.19
507.073	80.19
507.289	78.19
507.506	76.19
507.722	101.19
507.939	101.19
508.155	79.19
508.372	79.19
508.588	89.19
508.805	103.19
509.021	94.19
509.238	91.19
509.454	92.19
509.67	105.19
509.887	85.19
510.103	139.19
510.319	198.19
510.536	754.19
510.752	2369.19
510.968	651.19
511.184	149.19
511.401	107.19
511.617	96.19
511.833	103.19
512.049	87.19
512.265	100.19
512.481	80.19
512.698	92.19
512.914	95.19
513.13	99.19
513.346	100.19
513.562	97.19
513.778	100.19
513.994	88.19
514.21	104.19
514.426	123.19
514.642	144.19
514.858	120.19
515.074	173.19
515.29	498.19
515.506	1674.19
515.721	608.19
515.937	161.19
