Data from Circ_2004_H10_HRD10591_00072.txt Node
Date: Wed Jan 03 10:33:28 EST 2024
User: Yrep
Spectrometer: HR+D1059
Trigger mode: 1
Integration Time (sec): 1.000000E-1
Scans to average: 1
Electric dark correction enabled: true
Nonlinearity correction enabled: false
Boxcar width: 0
XAxis mode: Wavelengths
Number of Pixels in Spectrum: 2048
>>>>>Begin Spectral Data<<<<<
223.165	-15.56
223.4	-15.56
223.635	-15.56
223.869	-13.56
224.104	-27.56
224.338	-15.56
224.573	-5.56
224.808	-10.56
225.042	-9.56
225.277	-12.56
225.511	-1.56
225.746	8.44
225.98	5.44
226.215	13.44
226.449	8.44
226.683	15.44
226.918	27.44
227.152	33.44
227.387	35.44
227.621	42.44
227.856	60.44
228.09	45.44
228.324	50.44
228.559	73.44
228.793	60.44
229.027	55.44
229.262	68.44
229.496	77.44
229.73	99.44
229.964	88.44
230.199	82.44
230.433	68.44
230.667	75.44
230.901	80.44
231.136	77.44
231.37	82.44
231.604	73.44
231.838	82.44
232.072	80.44
232.306	81.44
232.541	83.44
232.775	94.44
233.009	86.44
233.243	79.44
233.477	82.44
233.711	79.44
233.945	85.44
234.179	78.44
234.413	83.44
234.647	76.44
234.881	60.44
235.115	83.44
235.349	73.44
235.583	75.44
235.817	85.44
236.051	73.44
236.285	85.44
236.519	73.44
236.753	87.44
236.987	87.44
237.221	92.44
237.455	83.44
237.689	89.44
237.922	73.44
238.156	84.44
238.39	69.44
238.624	74.44
238.858	77.44
239.091	77.44
239.325	82.44
239.559	77.44
239.793	95.44
240.027	91.44
240.26	89.44
240.494	76.44
240.728	83.44
240.961	78.44
241.195	73.44
241.429	79.44
241.662	64.44
241.896	72.44
242.13	67.44
242.363	78.44
242.597	85.44
242.83	81.44
243.064	76.44
243.298	62.44
243.531	64.44
243.765	78.44
243.998	72.44
244.232	99.44
244.465	90.44
244.699	64.44
244.932	82.44
245.166	82.44
245.399	85.44
245.633	70.44
245.866	80.44
246.099	80.44
246.333	73.44
246.566	81.44
246.8	86.44
247.033	92.44
247.266	80.44
247.5	66.44
247.733	74.44
247.966	82.44
248.2	84.44
248.433	75.44
248.666	83.44
248.899	78.44
249.133	86.44
249.366	98.44
249.599	99.44
249.832	93.44
250.066	86.44
250.299	94.44
250.532	83.44
250.765	76.44
250.998	80.44
251.231	92.44
251.465	84.44
251.698	86.44
251.931	97.44
252.164	98.44
252.397	72.44
252.63	78.44
252.863	81.44
253.096	84.44
253.329	70.44
253.562	80.44
253.795	69.44
254.028	91.44
254.261	95.44
254.494	96.44
254.727	78.44
254.96	77.44
255.193	81.44
255.426	86.44
255.659	74.44
255.892	92.44
256.124	81.44
256.357	87.44
256.59	90.44
256.823	96.44
257.056	70.44
257.289	83.44
257.521	82.44
257.754	80.44
257.987	92.44
258.22	89.44
258.452	82.44
258.685	84.44
258.918	98.44
259.151	78.44
259.383	80.44
259.616	101.44
259.849	81.44
260.081	82.44
260.314	79.44
260.547	76.44
260.779	99.44
261.012	106.44
261.244	100.44
261.477	95.44
261.71	92.44
261.942	120.44
262.175	116.44
262.407	93.44
262.64	87.44
262.872	92.44
263.105	96.44
263.337	83.44
263.57	92.44
263.802	90.44
264.035	89.44
264.267	85.44
264.499	88.44
264.732	72.44
264.964	77.44
265.197	89.44
265.429	95.44
265.661	81.44
265.894	84.44
266.126	85.44
266.358	87.44
266.591	74.44
266.823	85.44
267.055	72.44
267.287	72.44
267.52	67.44
267.752	81.44
267.984	76.44
268.216	90.44
268.448	87.44
268.681	88.44
268.913	85.44
269.145	85.44
269.377	102.44
269.609	81.44
269.841	82.44
270.073	99.44
270.306	86.44
270.538	81.44
270.77	87.44
271.002	88.44
271.234	94.44
271.466	89.44
271.698	90.44
271.93	81.44
272.162	85.44
272.394	92.44
272.626	100.44
272.858	81.44
273.09	85.44
273.322	84.44
273.553	90.44
273.785	87.44
274.017	65.44
274.249	86.44
274.481	88.44
274.713	73.44
274.945	86.44
275.176	100.44
275.408	111.44
275.64	102.44
275.872	105.44
276.104	101.44
276.335	94.44
276.567	104.44
276.799	133.44
277.031	130.44
277.262	134.44
277.494	105.44
277.726	86.44
277.957	87.44
278.189	86.44
278.421	85.44
278.652	86.44
278.884	73.44
279.115	89.44
279.347	84.44
279.579	103.44
279.81	118.44
280.042	136.44
280.273	165.44
280.505	118.44
280.736	105.44
280.968	105.44
281.199	82.44
281.431	77.44
281.662	85.44
281.894	97.44
282.125	96.44
282.356	121.44
282.588	140.44
282.819	129.44
283.051	94.44
283.282	94.44
283.513	87.44
283.745	77.44
283.976	84.44
284.207	88.44
284.439	76.44
284.67	72.44
284.901	81.44
285.132	80.44
285.364	85.44
285.595	99.44
285.826	94.44
286.057	96.44
286.288	72.44
286.52	85.44
286.751	78.44
286.982	95.44
287.213	97.44
287.444	75.44
287.675	85.44
287.906	87.44
288.138	81.44
288.369	88.44
288.6	86.44
288.831	81.44
289.062	79.44
289.293	84.44
289.524	87.44
289.755	84.44
289.986	79.44
290.217	84.44
290.448	78.44
290.679	87.44
290.91	88.44
291.141	82.44
291.371	79.44
291.602	85.44
291.833	91.44
292.064	93.44
292.295	99.44
292.526	106.44
292.757	93.44
292.987	78.44
293.218	75.44
293.449	69.44
293.68	90.44
293.91	79.44
294.141	82.44
294.372	102.44
294.603	91.44
294.833	89.44
295.064	68.44
295.295	89.44
295.525	87.44
295.756	109.44
295.987	110.44
296.217	129.44
296.448	116.44
296.679	88.44
296.909	87.44
297.14	86.44
297.37	92.44
297.601	76.44
297.831	95.44
298.062	89.44
298.292	103.44
298.523	81.44
298.753	97.44
298.984	97.44
299.214	97.44
299.445	79.44
299.675	103.44
299.905	94.44
300.136	106.44
300.366	91.44
300.597	84.44
300.827	103.44
301.057	103.44
301.288	95.44
301.518	82.44
301.748	95.44
301.979	113.44
302.209	94.44
302.439	102.44
302.669	98.44
302.9	86.44
303.13	99.44
303.36	98.44
303.59	100.44
303.82	121.44
304.051	101.44
304.281	95.44
304.511	92.44
304.741	88.44
304.971	101.44
305.201	82.44
305.431	86.44
305.661	83.44
305.891	84.44
306.121	98.44
306.352	81.44
306.582	108.44
306.812	104.44
307.042	106.44
307.272	119.44
307.502	148.44
307.731	132.44
307.961	114.44
308.191	88.44
308.421	99.44
308.651	85.44
308.881	101.44
309.111	84.44
309.341	108.44
309.571	85.44
309.8	95.44
310.03	93.44
310.26	112.44
310.49	90.44
310.72	99.44
310.949	110.44
311.179	107.44
311.409	92.44
311.639	96.44
311.868	100.44
312.098	98.44
312.328	101.44
312.557	110.44
312.787	121.44
313.017	111.44
313.246	98.44
313.476	84.44
313.706	98.44
313.935	105.44
314.165	94.44
314.394	102.44
314.624	108.44
314.853	99.44
315.083	98.44
315.312	86.44
315.542	95.44
315.771	90.44
316.001	103.44
316.23	104.44
316.46	87.44
316.689	83.44
316.919	86.44
317.148	107.44
317.377	80.44
317.607	97.44
317.836	86.44
318.065	94.44
318.295	84.44
318.524	89.44
318.753	94.44
318.983	96.44
319.212	100.44
319.441	108.44
319.67	103.44
319.9	96.44
320.129	96.44
320.358	97.44
320.587	103.44
320.816	124.44
321.046	103.44
321.275	107.44
321.504	95.44
321.733	98.44
321.962	100.44
322.191	87.44
322.42	104.44
322.649	116.44
322.878	104.44
323.108	107.44
323.337	133.44
323.566	146.44
323.795	152.44
324.024	212.44
324.253	414.44
324.482	892.44
324.71	1804.44
324.939	2322.44
325.168	861.44
325.397	237.44
325.626	156.44
325.855	132.44
326.084	128.44
326.313	149.44
326.542	169.44
326.77	230.44
326.999	471.44
327.228	988.44
327.457	1712.44
327.686	1362.44
327.914	457.44
328.143	340.44
328.372	398.44
328.6	252.44
328.829	148.44
329.058	148.44
329.287	142.44
329.515	125.44
329.744	180.44
329.972	294.44
330.201	544.44
330.43	785.44
330.658	373.44
330.887	201.44
331.115	149.44
331.344	102.44
331.572	114.44
331.801	109.44
332.03	112.44
332.258	110.44
332.486	95.44
332.715	85.44
332.943	86.44
333.172	95.44
333.4	122.44
333.629	147.44
333.857	167.44
334.085	274.44
334.314	499.44
334.542	961.44
334.771	931.44
334.999	277.44
335.227	124.44
335.455	107.44
335.684	102.44
335.912	106.44
336.14	96.44
336.369	99.44
336.597	106.44
336.825	97.44
337.053	92.44
337.281	102.44
337.51	99.44
337.738	102.44
337.966	98.44
338.194	103.44
338.422	95.44
338.65	93.44
338.878	87.44
339.106	82.44
339.334	69.44
339.562	82.44
339.79	87.44
340.018	83.44
340.246	90.44
340.474	103.44
340.702	93.44
340.93	96.44
341.158	110.44
341.386	101.44
341.614	92.44
341.842	100.44
342.07	87.44
342.298	89.44
342.526	103.44
342.754	85.44
342.981	89.44
343.209	85.44
343.437	96.44
343.665	95.44
343.893	97.44
344.12	89.44
344.348	94.44
344.576	84.44
344.804	79.44
345.031	94.44
345.259	82.44
345.487	90.44
345.714	110.44
345.942	108.44
346.17	84.44
346.397	98.44
346.625	101.44
346.853	82.44
347.08	93.44
347.308	102.44
347.535	88.44
347.763	105.44
347.99	113.44
348.218	100.44
348.445	98.44
348.673	116.44
348.9	98.44
349.128	104.44
349.355	84.44
349.583	89.44
349.81	100.44
350.037	119.44
350.265	95.44
350.492	87.44
350.72	92.44
350.947	101.44
351.174	115.44
351.402	105.44
351.629	100.44
351.856	118.44
352.083	104.44
352.311	107.44
352.538	114.44
352.765	124.44
352.992	105.44
353.22	111.44
353.447	113.44
353.674	109.44
353.901	106.44
354.128	96.44
354.355	106.44
354.583	88.44
354.81	87.44
355.037	95.44
355.264	95.44
355.491	89.44
355.718	90.44
355.945	86.44
356.172	96.44
356.399	87.44
356.626	90.44
356.853	84.44
357.08	96.44
357.307	88.44
357.534	92.44
357.761	105.44
357.988	98.44
358.215	89.44
358.441	103.44
358.668	94.44
358.895	79.44
359.122	86.44
359.349	90.44
359.576	94.44
359.802	99.44
360.029	125.44
360.256	123.44
360.483	107.44
360.709	81.44
360.936	84.44
361.163	90.44
361.39	101.44
361.616	97.44
361.843	72.44
362.07	90.44
362.296	104.44
362.523	95.44
362.749	106.44
362.976	96.44
363.203	87.44
363.429	86.44
363.656	95.44
363.882	82.44
364.109	100.44
364.335	81.44
364.562	94.44
364.788	91.44
365.015	95.44
365.241	102.44
365.468	117.44
365.694	112.44
365.92	97.44
366.147	110.44
366.373	102.44
366.599	80.44
366.826	80.44
367.052	88.44
367.278	88.44
367.505	81.44
367.731	89.44
367.957	99.44
368.184	92.44
368.41	89.44
368.636	117.44
368.862	123.44
369.089	108.44
369.315	95.44
369.541	88.44
369.767	112.44
369.993	86.44
370.219	102.44
370.445	105.44
370.672	82.44
370.898	95.44
371.124	71.44
371.35	98.44
371.576	96.44
371.802	90.44
372.028	91.44
372.254	82.44
372.48	84.44
372.706	79.44
372.932	81.44
373.158	97.44
373.384	84.44
373.61	88.44
373.835	89.44
374.061	83.44
374.287	98.44
374.513	92.44
374.739	92.44
374.965	98.44
375.191	93.44
375.416	88.44
375.642	91.44
375.868	78.44
376.094	93.44
376.319	88.44
376.545	86.44
376.771	94.44
376.997	75.44
377.222	66.44
377.448	110.44
377.674	90.44
377.899	92.44
378.125	103.44
378.35	86.44
378.576	80.44
378.802	92.44
379.027	86.44
379.253	95.44
379.478	86.44
379.704	83.44
379.929	91.44
380.155	90.44
380.38	93.44
380.606	103.44
380.831	98.44
381.057	84.44
381.282	101.44
381.507	92.44
381.733	88.44
381.958	96.44
382.184	97.44
382.409	97.44
382.634	90.44
382.86	98.44
383.085	115.44
383.31	93.44
383.535	89.44
383.761	82.44
383.986	95.44
384.211	103.44
384.436	86.44
384.662	110.44
384.887	82.44
385.112	98.44
385.337	114.44
385.562	106.44
385.787	97.44
386.013	111.44
386.238	104.44
386.463	97.44
386.688	118.44
386.913	106.44
387.138	98.44
387.363	105.44
387.588	89.44
387.813	107.44
388.038	103.44
388.263	102.44
388.488	95.44
388.713	105.44
388.938	84.44
389.163	104.44
389.387	97.44
389.612	97.44
389.837	88.44
390.062	97.44
390.287	98.44
390.512	88.44
390.736	112.44
390.961	82.44
391.186	94.44
391.411	94.44
391.636	94.44
391.86	89.44
392.085	88.44
392.31	89.44
392.534	88.44
392.759	101.44
392.984	97.44
393.208	84.44
393.433	86.44
393.658	89.44
393.882	74.44
394.107	87.44
394.331	92.44
394.556	85.44
394.78	104.44
395.005	85.44
395.229	87.44
395.454	92.44
395.678	76.44
395.903	91.44
396.127	85.44
396.352	94.44
396.576	85.44
396.801	93.44
397.025	86.44
397.249	88.44
397.474	95.44
397.698	100.44
397.922	89.44
398.147	81.44
398.371	90.44
398.595	92.44
398.82	85.44
399.044	82.44
399.268	81.44
399.492	82.44
399.717	82.44
399.941	67.44
400.165	95.44
400.389	109.44
400.613	102.44
400.837	91.44
401.062	90.44
401.286	99.44
401.51	95.44
401.734	78.44
401.958	109.44
402.182	127.44
402.406	180.44
402.63	124.44
402.854	92.44
403.078	78.44
403.302	88.44
403.526	92.44
403.75	93.44
403.974	84.44
404.198	89.44
404.422	107.44
404.645	96.44
404.869	90.44
405.093	106.44
405.317	126.44
405.541	122.44
405.765	112.44
405.988	135.44
406.212	202.44
406.436	269.44
406.66	170.44
406.883	113.44
407.107	96.44
407.331	90.44
407.555	94.44
407.778	89.44
408.002	111.44
408.226	82.44
408.449	90.44
408.673	81.44
408.896	94.44
409.12	93.44
409.344	91.44
409.567	89.44
409.791	89.44
410.014	87.44
410.238	83.44
410.461	94.44
410.685	86.44
410.908	104.44
411.132	111.44
411.355	101.44
411.578	91.44
411.802	94.44
412.025	93.44
412.249	95.44
412.472	102.44
412.695	113.44
412.919	99.44
413.142	89.44
413.365	96.44
413.589	93.44
413.812	89.44
414.035	84.44
414.258	92.44
414.482	77.44
414.705	99.44
414.928	88.44
415.151	89.44
415.374	95.44
415.597	93.44
415.821	76.44
416.044	94.44
416.267	95.44
416.49	87.44
416.713	102.44
416.936	93.44
417.159	93.44
417.382	95.44
417.605	107.44
417.828	99.44
418.051	97.44
418.274	98.44
418.497	83.44
418.72	83.44
418.943	103.44
419.166	87.44
419.389	86.44
419.611	88.44
419.834	82.44
420.057	89.44
420.28	82.44
420.503	98.44
420.726	89.44
420.948	93.44
421.171	84.44
421.394	91.44
421.617	98.44
421.839	96.44
422.062	92.44
422.285	87.44
422.507	95.44
422.73	102.44
422.953	101.44
423.175	84.44
423.398	84.44
423.621	96.44
423.843	80.44
424.066	85.44
424.288	90.44
424.511	103.44
424.733	93.44
424.956	101.44
425.178	101.44
425.401	102.44
425.623	97.44
425.846	101.44
426.068	98.44
426.291	91.44
426.513	93.44
426.735	89.44
426.958	90.44
427.18	116.44
427.402	158.44
427.625	214.44
427.847	201.44
428.069	158.44
428.292	112.44
428.514	86.44
428.736	94.44
428.958	78.44
429.181	85.44
429.403	88.44
429.625	88.44
429.847	97.44
430.069	106.44
430.292	105.44
430.514	86.44
430.736	100.44
430.958	100.44
431.18	84.44
431.402	84.44
431.624	85.44
431.846	83.44
432.068	96.44
432.29	78.44
432.512	78.44
432.734	85.44
432.956	91.44
433.178	101.44
433.4	84.44
433.622	84.44
433.844	86.44
434.066	86.44
434.287	93.44
434.509	85.44
434.731	87.44
434.953	97.44
435.175	92.44
435.397	83.44
435.618	94.44
435.84	102.44
436.062	121.44
436.284	108.44
436.505	104.44
436.727	97.44
436.949	89.44
437.17	85.44
437.392	112.44
437.614	95.44
437.835	112.44
438.057	133.44
438.278	125.44
438.5	111.44
438.721	128.44
438.943	110.44
439.165	77.44
439.386	95.44
439.608	98.44
439.829	106.44
440.05	119.44
440.272	140.44
440.493	96.44
440.715	89.44
440.936	90.44
441.158	90.44
441.379	91.44
441.6	104.44
441.822	90.44
442.043	86.44
442.264	114.44
442.486	101.44
442.707	100.44
442.928	114.44
443.149	158.44
443.371	161.44
443.592	136.44
443.813	120.44
444.034	117.44
444.255	93.44
444.476	107.44
444.698	98.44
444.919	89.44
445.14	121.44
445.361	127.44
445.582	131.44
445.803	148.44
446.024	161.44
446.245	159.44
446.466	110.44
446.687	91.44
446.908	91.44
447.129	95.44
447.35	95.44
447.571	96.44
447.792	86.44
448.013	123.44
448.234	108.44
448.455	112.44
448.675	118.44
448.896	121.44
449.117	87.44
449.338	112.44
449.559	127.44
449.779	136.44
450	105.44
450.221	85.44
450.442	95.44
450.662	98.44
450.883	125.44
451.104	118.44
451.324	96.44
451.545	92.44
451.766	95.44
451.986	80.44
452.207	90.44
452.428	88.44
452.648	109.44
452.869	113.44
453.089	115.44
453.31	129.44
453.53	89.44
453.751	85.44
453.971	104.44
454.192	123.44
454.412	90.44
454.633	88.44
454.853	85.44
455.073	101.44
455.294	111.44
455.514	103.44
455.734	79.44
455.955	85.44
456.175	83.44
456.395	68.44
456.616	87.44
456.836	91.44
457.056	89.44
457.276	81.44
457.497	73.44
457.717	78.44
457.937	91.44
458.157	93.44
458.377	101.44
458.598	112.44
458.818	173.44
459.038	182.44
459.258	127.44
459.478	92.44
459.698	85.44
459.918	82.44
460.138	84.44
460.358	96.44
460.578	82.44
460.798	101.44
461.018	80.44
461.238	82.44
461.458	87.44
461.678	85.44
461.898	87.44
462.118	84.44
462.338	82.44
462.558	97.44
462.777	79.44
462.997	94.44
463.217	102.44
463.437	95.44
463.657	90.44
463.876	89.44
464.096	79.44
464.316	85.44
464.536	96.44
464.755	100.44
464.975	111.44
465.195	205.44
465.414	192.44
465.634	99.44
465.854	89.44
466.073	89.44
466.293	93.44
466.512	87.44
466.732	89.44
466.951	87.44
467.171	100.44
467.391	116.44
467.61	128.44
467.829	158.44
468.049	311.44
468.268	488.44
468.488	164.44
468.707	99.44
468.927	109.44
469.146	100.44
469.365	87.44
469.585	90.44
469.804	103.44
470.023	95.44
470.243	105.44
470.462	118.44
470.681	116.44
470.901	98.44
471.12	94.44
471.339	104.44
471.558	110.44
471.777	113.44
471.997	184.44
472.216	619.44
472.435	1322.44
472.654	350.44
472.873	112.44
473.092	100.44
473.311	92.44
473.53	78.44
473.749	87.44
473.968	93.44
474.187	111.44
474.406	100.44
474.625	87.44
474.844	84.44
475.063	102.44
475.282	92.44
475.501	89.44
475.72	89.44
475.939	87.44
476.158	86.44
476.377	91.44
476.596	100.44
476.814	100.44
477.033	104.44
477.252	107.44
477.471	98.44
477.69	99.44
477.908	92.44
478.127	85.44
478.346	85.44
478.564	92.44
478.783	111.44
479.002	82.44
479.22	87.44
479.439	122.44
479.658	116.44
479.876	107.44
480.095	119.44
480.313	115.44
480.532	129.44
480.751	198.44
480.969	556.44
481.188	2308.44
481.406	1411.44
481.624	247.44
481.843	121.44
482.061	102.44
482.28	87.44
482.498	99.44
482.717	101.44
482.935	86.44
483.153	91.44
483.372	84.44
483.59	88.44
483.808	101.44
484.027	100.44
484.245	78.44
484.463	109.44
484.681	99.44
484.9	100.44
485.118	96.44
485.336	100.44
485.554	104.44
485.772	105.44
485.99	108.44
486.209	104.44
486.427	106.44
486.645	113.44
486.863	127.44
487.081	95.44
487.299	97.44
487.517	90.44
487.735	88.44
487.953	95.44
488.171	90.44
488.389	100.44
488.607	94.44
488.825	105.44
489.043	88.44
489.261	93.44
489.479	86.44
489.696	90.44
489.914	98.44
490.132	90.44
490.35	100.44
490.568	86.44
490.786	82.44
491.003	99.44
491.221	101.44
491.439	86.44
491.657	97.44
491.874	92.44
492.092	94.44
492.31	84.44
492.527	100.44
492.745	88.44
492.963	84.44
493.18	84.44
493.398	89.44
493.615	91.44
493.833	105.44
494.05	86.44
494.268	101.44
494.485	96.44
494.703	82.44
494.92	88.44
495.138	84.44
495.355	93.44
495.573	86.44
495.79	94.44
496.008	94.44
496.225	100.44
496.442	95.44
496.66	89.44
496.877	88.44
497.094	78.44
497.312	90.44
497.529	87.44
497.746	89.44
497.963	104.44
498.181	98.44
498.398	85.44
498.615	92.44
498.832	100.44
499.049	90.44
499.267	112.44
499.484	84.44
499.701	97.44
499.918	82.44
500.135	100.44
500.352	101.44
500.569	89.44
500.786	93.44
501.003	87.44
501.22	92.44
501.437	92.44
501.654	97.44
501.871	126.44
502.088	113.44
502.305	108.44
502.522	96.44
502.739	85.44
502.956	80.44
503.172	103.44
503.389	106.44
503.606	107.44
503.823	100.44
504.04	85.44
504.256	82.44
504.473	90.44
504.69	76.44
504.907	84.44
505.123	107.44
505.34	96.44
505.557	90.44
505.773	92.44
505.99	88.44
506.207	81.44
506.423	87.44
506.64	97.44
506.856	87.44
507.073	86.44
507.289	102.44
507.506	110.44
507.722	117.44
507.939	107.44
508.155	84.44
508.372	89.44
508.588	103.44
508.805	97.44
509.021	103.44
509.238	97.44
509.454	96.44
509.67	108.44
509.887	133.44
510.103	144.44
510.319	217.44
510.536	812.44
510.752	2672.44
510.968	740.44
511.184	170.44
511.401	116.44
511.617	110.44
511.833	110.44
512.049	98.44
512.265	105.44
512.481	80.44
512.698	97.44
512.914	93.44
513.13	101.44
513.346	91.44
513.562	97.44
513.778	109.44
513.994	103.44
514.21	96.44
