Data from Circ_2004_H10_HRD10591_00017.txt Node
Date: Wed Jan 03 10:33:17 EST 2024
User: Yrep
Spectrometer: HR+D1059
Trigger mode: 1
Integration Time (sec): 1.000000E-1
Scans to average: 1
Electric dark correction enabled: true
Nonlinearity correction enabled: false
Boxcar width: 0
XAxis mode: Wavelengths
Number of Pixels in Spectrum: 2048
>>>>>Begin Spectral Data<<<<<
223.165	-19.06
223.4	-19.06
223.635	-19.06
223.869	-30.06
224.104	-20.06
224.338	-28.06
224.573	-11.06
224.808	-13.06
225.042	4.94
225.277	-7.06
225.511	4.94
225.746	8.94
225.98	3.94
226.215	3.94
226.449	21.94
226.683	18.94
226.918	19.94
227.152	40.94
227.387	38.94
227.621	30.94
227.856	27.94
228.09	41.94
228.324	70.94
228.559	68.94
228.793	66.94
229.027	57.94
229.262	69.94
229.496	80.94
229.73	78.94
229.964	75.94
230.199	66.94
230.433	74.94
230.667	74.94
230.901	74.94
231.136	85.94
231.37	89.94
231.604	95.94
231.838	76.94
232.072	85.94
232.306	81.94
232.541	66.94
232.775	87.94
233.009	86.94
233.243	71.94
233.477	86.94
233.711	78.94
233.945	91.94
234.179	88.94
234.413	81.94
234.647	84.94
234.881	76.94
235.115	80.94
235.349	83.94
235.583	85.94
235.817	86.94
236.051	73.94
236.285	62.94
236.519	82.94
236.753	87.94
236.987	83.94
237.221	89.94
237.455	86.94
237.689	80.94
237.922	72.94
238.156	58.94
238.39	86.94
238.624	80.94
238.858	83.94
239.091	87.94
239.325	80.94
239.559	84.94
239.793	93.94
240.027	83.94
240.26	70.94
240.494	92.94
240.728	91.94
240.961	83.94
241.195	78.94
241.429	84.94
241.662	73.94
241.896	80.94
242.13	70.94
242.363	83.94
242.597	67.94
242.83	79.94
243.064	63.94
243.298	82.94
243.531	77.94
243.765	85.94
243.998	87.94
244.232	81.94
244.465	90.94
244.699	85.94
244.932	83.94
245.166	79.94
245.399	66.94
245.633	83.94
245.866	80.94
246.099	79.94
246.333	81.94
246.566	67.94
246.8	72.94
247.033	83.94
247.266	82.94
247.5	75.94
247.733	78.94
247.966	79.94
248.2	72.94
248.433	98.94
248.666	78.94
248.899	80.94
249.133	80.94
249.366	95.94
249.599	92.94
249.832	103.94
250.066	75.94
250.299	73.94
250.532	82.94
250.765	77.94
250.998	73.94
251.231	78.94
251.465	87.94
251.698	83.94
251.931	97.94
252.164	68.94
252.397	86.94
252.63	78.94
252.863	86.94
253.096	77.94
253.329	81.94
253.562	82.94
253.795	87.94
254.028	76.94
254.261	91.94
254.494	79.94
254.727	93.94
254.96	86.94
255.193	86.94
255.426	86.94
255.659	81.94
255.892	82.94
256.124	85.94
256.357	94.94
256.59	94.94
256.823	96.94
257.056	83.94
257.289	91.94
257.521	94.94
257.754	86.94
257.987	78.94
258.22	89.94
258.452	91.94
258.685	95.94
258.918	97.94
259.151	85.94
259.383	74.94
259.616	90.94
259.849	75.94
260.081	97.94
260.314	75.94
260.547	87.94
260.779	91.94
261.012	79.94
261.244	81.94
261.477	102.94
261.71	93.94
261.942	113.94
262.175	116.94
262.407	83.94
262.64	86.94
262.872	88.94
263.105	87.94
263.337	101.94
263.57	80.94
263.802	88.94
264.035	88.94
264.267	86.94
264.499	85.94
264.732	90.94
264.964	99.94
265.197	87.94
265.429	83.94
265.661	82.94
265.894	97.94
266.126	66.94
266.358	80.94
266.591	85.94
266.823	70.94
267.055	74.94
267.287	83.94
267.52	78.94
267.752	82.94
267.984	90.94
268.216	84.94
268.448	102.94
268.681	98.94
268.913	85.94
269.145	81.94
269.377	85.94
269.609	80.94
269.841	91.94
270.073	91.94
270.306	74.94
270.538	85.94
270.77	74.94
271.002	82.94
271.234	92.94
271.466	98.94
271.698	86.94
271.93	84.94
272.162	84.94
272.394	81.94
272.626	67.94
272.858	80.94
273.09	99.94
273.322	88.94
273.553	92.94
273.785	83.94
274.017	84.94
274.249	74.94
274.481	91.94
274.713	86.94
274.945	83.94
275.176	96.94
275.408	82.94
275.64	105.94
275.872	88.94
276.104	85.94
276.335	87.94
276.567	106.94
276.799	99.94
277.031	119.94
277.262	106.94
277.494	99.94
277.726	91.94
277.957	80.94
278.189	73.94
278.421	105.94
278.652	87.94
278.884	89.94
279.115	89.94
279.347	100.94
279.579	80.94
279.81	88.94
280.042	103.94
280.273	112.94
280.505	110.94
280.736	90.94
280.968	83.94
281.199	79.94
281.431	88.94
281.662	72.94
281.894	83.94
282.125	93.94
282.356	124.94
282.588	138.94
282.819	108.94
283.051	82.94
283.282	87.94
283.513	82.94
283.745	85.94
283.976	75.94
284.207	81.94
284.439	97.94
284.67	84.94
284.901	82.94
285.132	104.94
285.364	73.94
285.595	95.94
285.826	101.94
286.057	95.94
286.288	94.94
286.52	110.94
286.751	105.94
286.982	101.94
287.213	95.94
287.444	86.94
287.675	87.94
287.906	102.94
288.138	93.94
288.369	112.94
288.6	84.94
288.831	86.94
289.062	89.94
289.293	92.94
289.524	90.94
289.755	87.94
289.986	87.94
290.217	91.94
290.448	85.94
290.679	86.94
290.91	90.94
291.141	84.94
291.371	86.94
291.602	85.94
291.833	102.94
292.064	89.94
292.295	92.94
292.526	99.94
292.757	98.94
292.987	77.94
293.218	98.94
293.449	92.94
293.68	80.94
293.91	105.94
294.141	78.94
294.372	82.94
294.603	93.94
294.833	88.94
295.064	83.94
295.295	76.94
295.525	88.94
295.756	96.94
295.987	124.94
296.217	129.94
296.448	113.94
296.679	105.94
296.909	88.94
297.14	92.94
297.37	102.94
297.601	84.94
297.831	86.94
298.062	95.94
298.292	86.94
298.523	95.94
298.753	94.94
298.984	92.94
299.214	89.94
299.445	92.94
299.675	99.94
299.905	104.94
300.136	86.94
300.366	95.94
300.597	87.94
300.827	105.94
301.057	106.94
301.288	114.94
301.518	100.94
301.748	88.94
301.979	94.94
302.209	112.94
302.439	103.94
302.669	98.94
302.9	96.94
303.13	101.94
303.36	99.94
303.59	96.94
303.82	112.94
304.051	92.94
304.281	87.94
304.511	98.94
304.741	86.94
304.971	84.94
305.201	98.94
305.431	101.94
305.661	90.94
305.891	88.94
306.121	88.94
306.352	102.94
306.582	100.94
306.812	97.94
307.042	101.94
307.272	109.94
307.502	112.94
307.731	95.94
307.961	109.94
308.191	82.94
308.421	91.94
308.651	89.94
308.881	95.94
309.111	92.94
309.341	95.94
309.571	104.94
309.8	109.94
310.03	86.94
310.26	105.94
310.49	102.94
310.72	90.94
310.949	108.94
311.179	92.94
311.409	92.94
311.639	89.94
311.868	116.94
312.098	98.94
312.328	83.94
312.557	84.94
312.787	101.94
313.017	108.94
313.246	81.94
313.476	90.94
313.706	105.94
313.935	102.94
314.165	94.94
314.394	112.94
314.624	108.94
314.853	90.94
315.083	98.94
315.312	100.94
315.542	93.94
315.771	113.94
316.001	110.94
316.23	100.94
316.46	91.94
316.689	87.94
316.919	87.94
317.148	89.94
317.377	105.94
317.607	101.94
317.836	105.94
318.065	105.94
318.295	75.94
318.524	92.94
318.753	93.94
318.983	98.94
319.212	96.94
319.441	104.94
319.67	85.94
319.9	88.94
320.129	112.94
320.358	92.94
320.587	98.94
320.816	106.94
321.046	102.94
321.275	103.94
321.504	92.94
321.733	104.94
321.962	114.94
322.191	105.94
322.42	98.94
322.649	111.94
322.878	110.94
323.108	123.94
323.337	121.94
323.566	146.94
323.795	147.94
324.024	207.94
324.253	349.94
324.482	722.94
324.71	1442.94
324.939	1854.94
325.168	697.94
325.397	218.94
325.626	155.94
325.855	123.94
326.084	113.94
326.313	135.94
326.542	129.94
326.77	217.94
326.999	382.94
327.228	794.94
327.457	1419.94
327.686	1170.94
327.914	347.94
328.143	230.94
328.372	231.94
328.6	148.94
328.829	130.94
329.058	135.94
329.287	133.94
329.515	117.94
329.744	126.94
329.972	172.94
330.201	256.94
330.43	343.94
330.658	198.94
330.887	156.94
331.115	137.94
331.344	97.94
331.572	109.94
331.801	92.94
332.03	95.94
332.258	86.94
332.486	96.94
332.715	101.94
332.943	94.94
333.172	102.94
333.4	100.94
333.629	104.94
333.857	123.94
334.085	161.94
334.314	250.94
334.542	403.94
334.771	379.94
334.999	151.94
335.227	120.94
335.455	117.94
335.684	100.94
335.912	88.94
336.14	98.94
336.369	92.94
336.597	101.94
336.825	98.94
337.053	90.94
337.281	98.94
337.51	95.94
337.738	90.94
337.966	111.94
338.194	101.94
338.422	87.94
338.65	104.94
338.878	104.94
339.106	105.94
339.334	91.94
339.562	101.94
339.79	84.94
340.018	92.94
340.246	96.94
340.474	91.94
340.702	97.94
340.93	85.94
341.158	93.94
341.386	97.94
341.614	97.94
341.842	96.94
342.07	107.94
342.298	94.94
342.526	91.94
342.754	94.94
342.981	90.94
343.209	85.94
343.437	106.94
343.665	74.94
343.893	96.94
344.12	98.94
344.348	92.94
344.576	95.94
344.804	102.94
345.031	107.94
345.259	103.94
345.487	91.94
345.714	92.94
345.942	99.94
346.17	94.94
346.397	103.94
346.625	99.94
346.853	99.94
347.08	100.94
347.308	87.94
347.535	88.94
347.763	104.94
347.99	97.94
348.218	104.94
348.445	117.94
348.673	94.94
348.9	98.94
349.128	86.94
349.355	91.94
349.583	95.94
349.81	80.94
350.037	85.94
350.265	87.94
350.492	94.94
350.72	106.94
350.947	102.94
351.174	108.94
351.402	108.94
351.629	102.94
351.856	104.94
352.083	98.94
352.311	99.94
352.538	102.94
352.765	95.94
352.992	107.94
353.22	101.94
353.447	103.94
353.674	104.94
353.901	104.94
354.128	87.94
354.355	103.94
354.583	112.94
354.81	109.94
355.037	98.94
355.264	115.94
355.491	115.94
355.718	89.94
355.945	88.94
356.172	99.94
356.399	99.94
356.626	109.94
356.853	99.94
357.08	91.94
357.307	107.94
357.534	106.94
357.761	105.94
357.988	109.94
358.215	109.94
358.441	102.94
358.668	98.94
358.895	83.94
359.122	98.94
359.349	88.94
359.576	107.94
359.802	100.94
360.029	114.94
360.256	115.94
360.483	105.94
360.709	101.94
360.936	110.94
361.163	78.94
361.39	95.94
361.616	100.94
361.843	92.94
362.07	92.94
362.296	102.94
362.523	92.94
362.749	110.94
362.976	94.94
363.203	104.94
363.429	86.94
363.656	91.94
363.882	94.94
364.109	95.94
364.335	93.94
364.562	98.94
364.788	92.94
365.015	91.94
365.241	101.94
365.468	97.94
365.694	111.94
365.92	113.94
366.147	94.94
366.373	84.94
366.599	92.94
366.826	96.94
367.052	79.94
367.278	96.94
367.505	102.94
367.731	91.94
367.957	97.94
368.184	93.94
368.41	92.94
368.636	111.94
368.862	114.94
369.089	111.94
369.315	95.94
369.541	98.94
369.767	88.94
369.993	90.94
370.219	93.94
370.445	89.94
370.672	72.94
370.898	87.94
371.124	98.94
371.35	81.94
371.576	92.94
371.802	89.94
372.028	91.94
372.254	103.94
372.48	97.94
372.706	81.94
372.932	84.94
373.158	85.94
373.384	91.94
373.61	89.94
373.835	82.94
374.061	89.94
374.287	86.94
374.513	95.94
374.739	87.94
374.965	105.94
375.191	94.94
375.416	100.94
375.642	92.94
375.868	97.94
376.094	94.94
376.319	95.94
376.545	85.94
376.771	94.94
376.997	80.94
377.222	82.94
377.448	93.94
377.674	91.94
377.899	88.94
378.125	97.94
378.35	103.94
378.576	102.94
378.802	90.94
379.027	94.94
379.253	90.94
379.478	93.94
379.704	105.94
379.929	88.94
380.155	89.94
380.38	99.94
380.606	85.94
380.831	89.94
381.057	102.94
381.282	99.94
381.507	91.94
381.733	97.94
381.958	90.94
382.184	100.94
382.409	89.94
382.634	94.94
382.86	107.94
383.085	92.94
383.31	104.94
383.535	99.94
383.761	86.94
383.986	94.94
384.211	98.94
384.436	87.94
384.662	100.94
384.887	109.94
385.112	111.94
385.337	106.94
385.562	104.94
385.787	106.94
386.013	117.94
386.238	116.94
386.463	92.94
386.688	104.94
386.913	99.94
387.138	105.94
387.363	116.94
387.588	89.94
387.813	85.94
388.038	121.94
388.263	120.94
388.488	116.94
388.713	92.94
388.938	102.94
389.163	95.94
389.387	92.94
389.612	95.94
389.837	99.94
390.062	92.94
390.287	107.94
390.512	82.94
390.736	115.94
390.961	91.94
391.186	102.94
391.411	104.94
391.636	97.94
391.86	105.94
392.085	94.94
392.31	94.94
392.534	102.94
392.759	97.94
392.984	80.94
393.208	76.94
393.433	99.94
393.658	103.94
393.882	84.94
394.107	84.94
394.331	91.94
394.556	70.94
394.78	94.94
395.005	86.94
395.229	86.94
395.454	96.94
395.678	104.94
395.903	100.94
396.127	99.94
396.352	101.94
396.576	90.94
396.801	86.94
397.025	92.94
397.249	83.94
397.474	101.94
397.698	92.94
397.922	97.94
398.147	88.94
398.371	84.94
398.595	88.94
398.82	80.94
399.044	76.94
399.268	97.94
399.492	77.94
399.717	95.94
399.941	98.94
400.165	90.94
400.389	98.94
400.613	94.94
400.837	83.94
401.062	107.94
401.286	90.94
401.51	90.94
401.734	103.94
401.958	96.94
402.182	143.94
402.406	153.94
402.63	121.94
402.854	82.94
403.078	91.94
403.302	102.94
403.526	90.94
403.75	112.94
403.974	100.94
404.198	82.94
404.422	83.94
404.645	87.94
404.869	83.94
405.093	91.94
405.317	116.94
405.541	103.94
405.765	112.94
405.988	140.94
406.212	192.94
406.436	229.94
406.66	152.94
406.883	100.94
407.107	96.94
407.331	79.94
407.555	92.94
407.778	106.94
408.002	92.94
408.226	95.94
408.449	81.94
408.673	88.94
408.896	88.94
409.12	85.94
409.344	95.94
409.567	102.94
409.791	97.94
410.014	85.94
410.238	97.94
410.461	85.94
410.685	98.94
410.908	104.94
411.132	103.94
411.355	100.94
411.578	77.94
411.802	99.94
412.025	96.94
412.249	90.94
412.472	92.94
412.695	102.94
412.919	101.94
413.142	82.94
413.365	103.94
413.589	90.94
413.812	90.94
414.035	102.94
414.258	107.94
414.482	96.94
414.705	81.94
414.928	90.94
415.151	91.94
415.374	75.94
415.597	88.94
415.821	73.94
416.044	102.94
416.267	95.94
416.49	84.94
416.713	76.94
416.936	84.94
417.159	103.94
417.382	89.94
417.605	112.94
417.828	105.94
418.051	88.94
418.274	96.94
418.497	75.94
418.72	85.94
418.943	83.94
419.166	91.94
419.389	104.94
419.611	104.94
419.834	89.94
420.057	89.94
420.28	86.94
420.503	93.94
420.726	79.94
420.948	74.94
421.171	86.94
421.394	98.94
421.617	106.94
421.839	85.94
422.062	89.94
422.285	103.94
422.507	103.94
422.73	110.94
422.953	84.94
423.175	80.94
423.398	95.94
423.621	96.94
423.843	85.94
424.066	89.94
424.288	86.94
424.511	97.94
424.733	99.94
424.956	103.94
425.178	104.94
425.401	111.94
425.623	90.94
425.846	86.94
426.068	81.94
426.291	93.94
426.513	88.94
426.735	89.94
426.958	107.94
427.18	91.94
427.402	125.94
427.625	170.94
427.847	146.94
428.069	145.94
428.292	95.94
428.514	102.94
428.736	100.94
428.958	99.94
429.181	89.94
429.403	90.94
429.625	102.94
429.847	102.94
430.069	103.94
430.292	99.94
430.514	96.94
430.736	83.94
430.958	91.94
431.18	88.94
431.402	91.94
431.624	93.94
431.846	90.94
432.068	71.94
432.29	80.94
432.512	86.94
432.734	96.94
432.956	77.94
433.178	107.94
433.4	99.94
433.622	86.94
433.844	107.94
434.066	95.94
434.287	78.94
434.509	100.94
434.731	93.94
434.953	91.94
435.175	98.94
435.397	94.94
435.618	90.94
435.84	107.94
436.062	112.94
436.284	110.94
436.505	97.94
436.727	99.94
436.949	93.94
437.17	89.94
437.392	83.94
437.614	81.94
437.835	101.94
438.057	121.94
438.278	102.94
438.5	97.94
438.721	106.94
438.943	114.94
439.165	83.94
439.386	81.94
439.608	87.94
439.829	84.94
440.05	100.94
440.272	142.94
440.493	102.94
440.715	93.94
440.936	100.94
441.158	88.94
441.379	92.94
441.6	93.94
441.822	90.94
442.043	105.94
442.264	98.94
442.486	107.94
442.707	84.94
442.928	103.94
443.149	122.94
443.371	134.94
443.592	117.94
443.813	110.94
444.034	91.94
444.255	91.94
444.476	92.94
444.698	96.94
444.919	94.94
445.14	114.94
445.361	126.94
445.582	104.94
445.803	130.94
446.024	126.94
446.245	115.94
446.466	102.94
446.687	95.94
446.908	92.94
447.129	92.94
447.35	98.94
447.571	98.94
447.792	90.94
448.013	104.94
448.234	107.94
448.455	103.94
448.675	101.94
448.896	116.94
449.117	94.94
449.338	97.94
449.559	127.94
449.779	111.94
450	99.94
450.221	96.94
450.442	97.94
450.662	99.94
450.883	110.94
451.104	107.94
451.324	105.94
451.545	77.94
451.766	87.94
451.986	91.94
452.207	99.94
452.428	93.94
452.648	90.94
452.869	99.94
453.089	99.94
453.31	108.94
453.53	106.94
453.751	99.94
453.971	116.94
454.192	113.94
454.412	82.94
454.633	100.94
454.853	87.94
455.073	83.94
455.294	95.94
455.514	99.94
455.734	103.94
455.955	87.94
456.175	84.94
456.395	91.94
456.616	107.94
456.836	95.94
457.056	83.94
457.276	90.94
457.497	87.94
457.717	97.94
457.937	86.94
458.157	97.94
458.377	95.94
458.598	114.94
458.818	156.94
459.038	153.94
459.258	113.94
459.478	92.94
459.698	96.94
459.918	83.94
460.138	74.94
460.358	100.94
460.578	90.94
460.798	93.94
461.018	92.94
461.238	87.94
461.458	86.94
461.678	98.94
461.898	92.94
462.118	86.94
462.338	79.94
462.558	87.94
462.777	93.94
462.997	96.94
463.217	103.94
463.437	84.94
463.657	86.94
463.876	92.94
464.096	97.94
464.316	101.94
464.536	101.94
464.755	103.94
464.975	112.94
465.195	176.94
465.414	168.94
465.634	102.94
465.854	101.94
466.073	103.94
466.293	94.94
466.512	91.94
466.732	97.94
466.951	96.94
467.171	92.94
467.391	100.94
467.61	109.94
467.829	121.94
468.049	186.94
468.268	237.94
468.488	110.94
468.707	102.94
468.927	85.94
469.146	89.94
469.365	87.94
469.585	93.94
469.804	92.94
470.023	103.94
470.243	93.94
470.462	96.94
470.681	108.94
470.901	91.94
471.12	72.94
471.339	98.94
471.558	96.94
471.777	83.94
471.997	131.94
472.216	308.94
472.435	578.94
472.654	192.94
472.873	122.94
473.092	105.94
473.311	93.94
473.53	98.94
473.749	87.94
473.968	99.94
474.187	102.94
474.406	98.94
474.625	84.94
474.844	102.94
475.063	89.94
475.282	81.94
475.501	80.94
475.72	92.94
475.939	91.94
476.158	88.94
476.377	88.94
476.596	110.94
476.814	98.94
477.033	87.94
477.252	89.94
477.471	82.94
477.69	84.94
477.908	80.94
478.127	87.94
478.346	95.94
478.564	89.94
478.783	87.94
479.002	105.94
479.22	89.94
479.439	106.94
479.658	103.94
479.876	81.94
480.095	92.94
480.313	96.94
480.532	85.94
480.751	150.94
480.969	283.94
481.188	934.94
481.406	546.94
481.624	145.94
481.843	112.94
482.061	103.94
482.28	90.94
482.498	95.94
482.717	84.94
482.935	82.94
483.153	89.94
483.372	84.94
483.59	105.94
483.808	90.94
484.027	89.94
484.245	97.94
484.463	97.94
484.681	94.94
484.9	108.94
485.118	91.94
485.336	81.94
485.554	96.94
485.772	102.94
485.99	103.94
486.209	95.94
486.427	108.94
486.645	100.94
486.863	89.94
487.081	108.94
487.299	91.94
487.517	92.94
487.735	103.94
487.953	90.94
488.171	92.94
488.389	101.94
488.607	98.94
488.825	102.94
489.043	99.94
489.261	102.94
489.479	91.94
489.696	96.94
489.914	92.94
490.132	89.94
490.35	75.94
490.568	79.94
490.786	84.94
491.003	81.94
491.221	92.94
491.439	85.94
491.657	100.94
491.874	98.94
492.092	95.94
492.31	86.94
492.527	85.94
492.745	98.94
492.963	95.94
493.18	85.94
493.398	101.94
493.615	107.94
493.833	99.94
494.05	93.94
494.268	98.94
494.485	95.94
494.703	87.94
494.92	94.94
495.138	98.94
495.355	103.94
495.573	92.94
495.79	87.94
496.008	77.94
496.225	91.94
496.442	84.94
496.66	93.94
496.877	82.94
497.094	101.94
497.312	95.94
497.529	103.94
497.746	89.94
497.963	98.94
498.181	108.94
498.398	98.94
498.615	108.94
498.832	94.94
499.049	104.94
499.267	85.94
499.484	102.94
499.701	86.94
499.918	92.94
500.135	89.94
500.352	99.94
500.569	103.94
500.786	106.94
501.003	91.94
501.22	85.94
501.437	95.94
501.654	89.94
501.871	116.94
502.088	88.94
502.305	98.94
502.522	98.94
502.739	88.94
502.956	96.94
503.172	96.94
503.389	108.94
503.606	114.94
503.823	95.94
504.04	91.94
504.256	95.94
504.473	90.94
504.69	81.94
504.907	95.94
505.123	87.94
505.34	102.94
505.557	88.94
505.773	98.94
505.99	104.94
506.207	89.94
506.423	75.94
506.64	100.94
506.856	95.94
507.073	85.94
507.289	80.94
507.506	98.94
507.722	121.94
507.939	99.94
508.155	102.94
508.372	90.94
508.588	87.94
508.805	96.94
509.021	91.94
509.238	87.94
509.454	92.94
509.67	114.94
509.887	108.94
510.103	128.94
510.319	198.94
510.536	736.94
510.752	2160.94
510.968	622.94
511.184	150.94
511.401	106.94
511.617	95.94
511.833	95.94
512.049	99.94
512.265	84.94
512.481	82.94
512.698	99.94
512.914	101.94
513.13	87.94
513.346	88.94
513.562	92.94
513.778	106.94
513.994	106.94
514.21	100.94
514.426	117.94
