Data from Circ_2004_H10_HRD10591_00098.txt Node
Date: Wed Jan 03 10:33:33 EST 2024
User: Yrep
Spectrometer: HR+D1059
Trigger mode: 1
Integration Time (sec): 1.000000E-1
Scans to average: 1
Electric dark correction enabled: true
Nonlinearity correction enabled: false
Boxcar width: 0
XAxis mode: Wavelengths
Number of Pixels in Spectrum: 2048
>>>>>Begin Spectral Data<<<<<
223.165	-13.75
223.4	-13.75
223.635	-13.75
223.869	-10.75
224.104	-12.75
224.338	-9.75
224.573	-28.75
224.808	-9.75
225.042	-13.75
225.277	2.25
225.511	0.25
225.746	6.25
225.98	-2.75
226.215	16.25
226.449	16.25
226.683	10.25
226.918	25.25
227.152	25.25
227.387	31.25
227.621	45.25
227.856	46.25
228.09	34.25
228.324	38.25
228.559	45.25
228.793	58.25
229.027	62.25
229.262	66.25
229.496	79.25
229.73	87.25
229.964	83.25
230.199	71.25
230.433	78.25
230.667	67.25
230.901	70.25
231.136	64.25
231.37	80.25
231.604	74.25
231.838	64.25
232.072	86.25
232.306	84.25
232.541	85.25
232.775	84.25
233.009	72.25
233.243	71.25
233.477	81.25
233.711	76.25
233.945	79.25
234.179	78.25
234.413	71.25
234.647	72.25
234.881	84.25
235.115	76.25
235.349	70.25
235.583	70.25
235.817	78.25
236.051	71.25
236.285	71.25
236.519	85.25
236.753	82.25
236.987	86.25
237.221	76.25
237.455	99.25
237.689	80.25
237.922	82.25
238.156	83.25
238.39	70.25
238.624	73.25
238.858	74.25
239.091	71.25
239.325	76.25
239.559	83.25
239.793	77.25
240.027	77.25
240.26	80.25
240.494	84.25
240.728	74.25
240.961	79.25
241.195	79.25
241.429	86.25
241.662	74.25
241.896	74.25
242.13	71.25
242.363	87.25
242.597	72.25
242.83	68.25
243.064	65.25
243.298	78.25
243.531	63.25
243.765	83.25
243.998	81.25
244.232	83.25
244.465	86.25
244.699	84.25
244.932	70.25
245.166	78.25
245.399	75.25
245.633	75.25
245.866	85.25
246.099	66.25
246.333	76.25
246.566	67.25
246.8	86.25
247.033	70.25
247.266	73.25
247.5	61.25
247.733	82.25
247.966	87.25
248.2	96.25
248.433	92.25
248.666	85.25
248.899	88.25
249.133	68.25
249.366	106.25
249.599	104.25
249.832	83.25
250.066	94.25
250.299	76.25
250.532	84.25
250.765	85.25
250.998	69.25
251.231	76.25
251.465	79.25
251.698	70.25
251.931	78.25
252.164	80.25
252.397	87.25
252.63	90.25
252.863	68.25
253.096	86.25
253.329	71.25
253.562	77.25
253.795	69.25
254.028	91.25
254.261	83.25
254.494	82.25
254.727	82.25
254.96	83.25
255.193	92.25
255.426	79.25
255.659	80.25
255.892	92.25
256.124	82.25
256.357	80.25
256.59	74.25
256.823	87.25
257.056	87.25
257.289	92.25
257.521	74.25
257.754	90.25
257.987	94.25
258.22	93.25
258.452	96.25
258.685	92.25
258.918	79.25
259.151	79.25
259.383	79.25
259.616	84.25
259.849	86.25
260.081	91.25
260.314	71.25
260.547	70.25
260.779	88.25
261.012	86.25
261.244	88.25
261.477	83.25
261.71	84.25
261.942	133.25
262.175	122.25
262.407	92.25
262.64	89.25
262.872	86.25
263.105	88.25
263.337	72.25
263.57	76.25
263.802	71.25
264.035	70.25
264.267	71.25
264.499	85.25
264.732	80.25
264.964	81.25
265.197	88.25
265.429	86.25
265.661	87.25
265.894	80.25
266.126	73.25
266.358	73.25
266.591	80.25
266.823	86.25
267.055	80.25
267.287	84.25
267.52	74.25
267.752	97.25
267.984	83.25
268.216	82.25
268.448	94.25
268.681	85.25
268.913	77.25
269.145	88.25
269.377	82.25
269.609	85.25
269.841	87.25
270.073	83.25
270.306	83.25
270.538	84.25
270.77	85.25
271.002	97.25
271.234	78.25
271.466	93.25
271.698	88.25
271.93	92.25
272.162	90.25
272.394	87.25
272.626	78.25
272.858	84.25
273.09	79.25
273.322	63.25
273.553	70.25
273.785	84.25
274.017	88.25
274.249	90.25
274.481	76.25
274.713	85.25
274.945	92.25
275.176	92.25
275.408	81.25
275.64	114.25
275.872	99.25
276.104	88.25
276.335	113.25
276.567	116.25
276.799	110.25
277.031	142.25
277.262	154.25
277.494	135.25
277.726	108.25
277.957	81.25
278.189	89.25
278.421	99.25
278.652	91.25
278.884	89.25
279.115	84.25
279.347	87.25
279.579	97.25
279.81	106.25
280.042	167.25
280.273	196.25
280.505	130.25
280.736	87.25
280.968	94.25
281.199	87.25
281.431	85.25
281.662	75.25
281.894	85.25
282.125	108.25
282.356	129.25
282.588	146.25
282.819	130.25
283.051	86.25
283.282	83.25
283.513	80.25
283.745	93.25
283.976	81.25
284.207	86.25
284.439	86.25
284.67	87.25
284.901	75.25
285.132	73.25
285.364	85.25
285.595	82.25
285.826	95.25
286.057	78.25
286.288	79.25
286.52	77.25
286.751	93.25
286.982	88.25
287.213	85.25
287.444	81.25
287.675	78.25
287.906	92.25
288.138	85.25
288.369	100.25
288.6	102.25
288.831	91.25
289.062	78.25
289.293	105.25
289.524	82.25
289.755	90.25
289.986	86.25
290.217	84.25
290.448	87.25
290.679	94.25
290.91	88.25
291.141	77.25
291.371	72.25
291.602	78.25
291.833	78.25
292.064	88.25
292.295	82.25
292.526	76.25
292.757	86.25
292.987	76.25
293.218	85.25
293.449	83.25
293.68	86.25
293.91	80.25
294.141	91.25
294.372	89.25
294.603	77.25
294.833	84.25
295.064	84.25
295.295	82.25
295.525	93.25
295.756	95.25
295.987	118.25
296.217	146.25
296.448	126.25
296.679	99.25
296.909	82.25
297.14	79.25
297.37	85.25
297.601	81.25
297.831	84.25
298.062	99.25
298.292	88.25
298.523	84.25
298.753	78.25
298.984	89.25
299.214	74.25
299.445	92.25
299.675	95.25
299.905	88.25
300.136	91.25
300.366	78.25
300.597	93.25
300.827	92.25
301.057	93.25
301.288	103.25
301.518	103.25
301.748	78.25
301.979	97.25
302.209	88.25
302.439	103.25
302.669	93.25
302.9	97.25
303.13	103.25
303.36	114.25
303.59	117.25
303.82	133.25
304.051	109.25
304.281	87.25
304.511	82.25
304.741	83.25
304.971	104.25
305.201	89.25
305.431	95.25
305.661	95.25
305.891	93.25
306.121	90.25
306.352	113.25
306.582	112.25
306.812	102.25
307.042	112.25
307.272	146.25
307.502	143.25
307.731	139.25
307.961	108.25
308.191	90.25
308.421	85.25
308.651	83.25
308.881	97.25
309.111	88.25
309.341	97.25
309.571	96.25
309.8	108.25
310.03	92.25
310.26	106.25
310.49	105.25
310.72	111.25
310.949	97.25
311.179	115.25
311.409	100.25
311.639	93.25
311.868	113.25
312.098	101.25
312.328	98.25
312.557	103.25
312.787	114.25
313.017	114.25
313.246	96.25
313.476	82.25
313.706	106.25
313.935	91.25
314.165	94.25
314.394	102.25
314.624	103.25
314.853	93.25
315.083	78.25
315.312	97.25
315.542	85.25
315.771	95.25
316.001	92.25
316.23	89.25
316.46	84.25
316.689	93.25
316.919	104.25
317.148	102.25
317.377	101.25
317.607	108.25
317.836	100.25
318.065	85.25
318.295	78.25
318.524	85.25
318.753	92.25
318.983	108.25
319.212	95.25
319.441	113.25
319.67	122.25
319.9	98.25
320.129	79.25
320.358	93.25
320.587	97.25
320.816	105.25
321.046	90.25
321.275	105.25
321.504	88.25
321.733	87.25
321.962	94.25
322.191	106.25
322.42	104.25
322.649	120.25
322.878	128.25
323.108	125.25
323.337	124.25
323.566	131.25
323.795	176.25
324.024	244.25
324.253	490.25
324.482	1037.25
324.71	2159.25
324.939	2910.25
325.168	1082.25
325.397	287.25
325.626	159.25
325.855	144.25
326.084	125.25
326.313	146.25
326.542	158.25
326.77	259.25
326.999	556.25
327.228	1156.25
327.457	2101.25
327.686	1698.25
327.914	510.25
328.143	395.25
328.372	487.25
328.6	288.25
328.829	161.25
329.058	163.25
329.287	179.25
329.515	164.25
329.744	198.25
329.972	356.25
330.201	694.25
330.43	1022.25
330.658	458.25
330.887	238.25
331.115	142.25
331.344	119.25
331.572	96.25
331.801	115.25
332.03	127.25
332.258	105.25
332.486	85.25
332.715	108.25
332.943	123.25
333.172	108.25
333.4	116.25
333.629	145.25
333.857	177.25
334.085	308.25
334.314	641.25
334.542	1234.25
334.771	1170.25
334.999	339.25
335.227	158.25
335.455	116.25
335.684	98.25
335.912	107.25
336.14	118.25
336.369	108.25
336.597	112.25
336.825	112.25
337.053	86.25
337.281	93.25
337.51	87.25
337.738	102.25
337.966	86.25
338.194	106.25
338.422	92.25
338.65	94.25
338.878	87.25
339.106	93.25
339.334	86.25
339.562	82.25
339.79	104.25
340.018	100.25
340.246	110.25
340.474	108.25
340.702	89.25
340.93	101.25
341.158	90.25
341.386	111.25
341.614	107.25
341.842	102.25
342.07	94.25
342.298	87.25
342.526	87.25
342.754	99.25
342.981	88.25
343.209	83.25
343.437	93.25
343.665	90.25
343.893	91.25
344.12	84.25
344.348	92.25
344.576	97.25
344.804	95.25
345.031	55.25
345.259	101.25
345.487	99.25
345.714	94.25
345.942	92.25
346.17	98.25
346.397	91.25
346.625	92.25
346.853	93.25
347.08	85.25
347.308	94.25
347.535	112.25
347.763	105.25
347.99	93.25
348.218	101.25
348.445	98.25
348.673	107.25
348.9	93.25
349.128	86.25
349.355	75.25
349.583	70.25
349.81	96.25
350.037	98.25
350.265	111.25
350.492	101.25
350.72	97.25
350.947	109.25
351.174	110.25
351.402	112.25
351.629	99.25
351.856	107.25
352.083	107.25
352.311	99.25
352.538	119.25
352.765	120.25
352.992	124.25
353.22	112.25
353.447	105.25
353.674	93.25
353.901	98.25
354.128	95.25
354.355	95.25
354.583	83.25
354.81	94.25
355.037	75.25
355.264	79.25
355.491	93.25
355.718	108.25
355.945	99.25
356.172	94.25
356.399	90.25
356.626	91.25
356.853	90.25
357.08	88.25
357.307	90.25
357.534	84.25
357.761	78.25
357.988	88.25
358.215	95.25
358.441	93.25
358.668	99.25
358.895	102.25
359.122	66.25
359.349	91.25
359.576	85.25
359.802	103.25
360.029	151.25
360.256	120.25
360.483	93.25
360.709	89.25
360.936	89.25
361.163	87.25
361.39	96.25
361.616	97.25
361.843	81.25
362.07	92.25
362.296	98.25
362.523	104.25
362.749	96.25
362.976	85.25
363.203	91.25
363.429	107.25
363.656	83.25
363.882	92.25
364.109	105.25
364.335	97.25
364.562	76.25
364.788	94.25
365.015	87.25
365.241	94.25
365.468	110.25
365.694	101.25
365.92	111.25
366.147	101.25
366.373	94.25
366.599	80.25
366.826	90.25
367.052	78.25
367.278	82.25
367.505	90.25
367.731	98.25
367.957	99.25
368.184	99.25
368.41	97.25
368.636	104.25
368.862	142.25
369.089	112.25
369.315	102.25
369.541	82.25
369.767	99.25
369.993	95.25
370.219	95.25
370.445	91.25
370.672	88.25
370.898	85.25
371.124	93.25
371.35	85.25
371.576	83.25
371.802	81.25
372.028	85.25
372.254	94.25
372.48	76.25
372.706	87.25
372.932	85.25
373.158	84.25
373.384	84.25
373.61	87.25
373.835	86.25
374.061	98.25
374.287	90.25
374.513	103.25
374.739	87.25
374.965	81.25
375.191	88.25
375.416	83.25
375.642	96.25
375.868	104.25
376.094	107.25
376.319	81.25
376.545	79.25
376.771	83.25
376.997	100.25
377.222	88.25
377.448	97.25
377.674	81.25
377.899	93.25
378.125	92.25
378.35	94.25
378.576	102.25
378.802	93.25
379.027	73.25
379.253	88.25
379.478	95.25
379.704	71.25
379.929	84.25
380.155	89.25
380.38	96.25
380.606	89.25
380.831	88.25
381.057	105.25
381.282	101.25
381.507	102.25
381.733	80.25
381.958	82.25
382.184	84.25
382.409	80.25
382.634	97.25
382.86	93.25
383.085	103.25
383.31	95.25
383.535	99.25
383.761	94.25
383.986	87.25
384.211	92.25
384.436	86.25
384.662	88.25
384.887	90.25
385.112	94.25
385.337	106.25
385.562	85.25
385.787	98.25
386.013	100.25
386.238	114.25
386.463	102.25
386.688	95.25
386.913	105.25
387.138	94.25
387.363	95.25
387.588	95.25
387.813	93.25
388.038	86.25
388.263	99.25
388.488	87.25
388.713	87.25
388.938	93.25
389.163	102.25
389.387	92.25
389.612	96.25
389.837	83.25
390.062	74.25
390.287	90.25
390.512	88.25
390.736	78.25
390.961	75.25
391.186	95.25
391.411	88.25
391.636	96.25
391.86	86.25
392.085	84.25
392.31	76.25
392.534	86.25
392.759	90.25
392.984	84.25
393.208	94.25
393.433	93.25
393.658	92.25
393.882	79.25
394.107	73.25
394.331	95.25
394.556	93.25
394.78	97.25
395.005	73.25
395.229	91.25
395.454	82.25
395.678	72.25
395.903	82.25
396.127	88.25
396.352	72.25
396.576	82.25
396.801	83.25
397.025	79.25
397.249	86.25
397.474	95.25
397.698	71.25
397.922	83.25
398.147	86.25
398.371	85.25
398.595	71.25
398.82	91.25
399.044	93.25
399.268	84.25
399.492	77.25
399.717	67.25
399.941	94.25
400.165	94.25
400.389	95.25
400.613	76.25
400.837	80.25
401.062	83.25
401.286	91.25
401.51	104.25
401.734	88.25
401.958	94.25
402.182	129.25
402.406	178.25
402.63	152.25
402.854	96.25
403.078	95.25
403.302	78.25
403.526	78.25
403.75	98.25
403.974	105.25
404.198	82.25
404.422	91.25
404.645	84.25
404.869	91.25
405.093	118.25
405.317	131.25
405.541	136.25
405.765	109.25
405.988	131.25
406.212	197.25
406.436	288.25
406.66	198.25
406.883	99.25
407.107	101.25
407.331	102.25
407.555	103.25
407.778	99.25
408.002	92.25
408.226	87.25
408.449	86.25
408.673	81.25
408.896	99.25
409.12	102.25
409.344	79.25
409.567	77.25
409.791	93.25
410.014	99.25
410.238	93.25
410.461	91.25
410.685	78.25
410.908	103.25
411.132	99.25
411.355	84.25
411.578	94.25
411.802	86.25
412.025	83.25
412.249	116.25
412.472	113.25
412.695	127.25
412.919	93.25
413.142	83.25
413.365	76.25
413.589	96.25
413.812	81.25
414.035	94.25
414.258	88.25
414.482	98.25
414.705	86.25
414.928	94.25
415.151	101.25
415.374	86.25
415.597	73.25
415.821	88.25
416.044	95.25
416.267	88.25
416.49	86.25
416.713	80.25
416.936	90.25
417.159	98.25
417.382	89.25
417.605	90.25
417.828	101.25
418.051	87.25
418.274	92.25
418.497	87.25
418.72	93.25
418.943	78.25
419.166	85.25
419.389	97.25
419.611	88.25
419.834	97.25
420.057	95.25
420.28	94.25
420.503	91.25
420.726	87.25
420.948	95.25
421.171	83.25
421.394	98.25
421.617	86.25
421.839	91.25
422.062	96.25
422.285	83.25
422.507	104.25
422.73	108.25
422.953	86.25
423.175	70.25
423.398	90.25
423.621	105.25
423.843	91.25
424.066	82.25
424.288	94.25
424.511	95.25
424.733	98.25
424.956	116.25
425.178	112.25
425.401	118.25
425.623	110.25
425.846	93.25
426.068	102.25
426.291	90.25
426.513	95.25
426.735	85.25
426.958	80.25
427.18	107.25
427.402	155.25
427.625	239.25
427.847	213.25
428.069	206.25
428.292	126.25
428.514	105.25
428.736	85.25
428.958	73.25
429.181	74.25
429.403	80.25
429.625	95.25
429.847	90.25
430.069	105.25
430.292	96.25
430.514	84.25
430.736	81.25
430.958	95.25
431.18	89.25
431.402	78.25
431.624	83.25
431.846	82.25
432.068	76.25
432.29	93.25
432.512	93.25
432.734	87.25
432.956	95.25
433.178	108.25
433.4	106.25
433.622	100.25
433.844	92.25
434.066	104.25
434.287	79.25
434.509	83.25
434.731	92.25
434.953	109.25
435.175	72.25
435.397	91.25
435.618	81.25
435.84	106.25
436.062	146.25
436.284	123.25
436.505	104.25
436.727	98.25
436.949	97.25
437.17	85.25
437.392	89.25
437.614	92.25
437.835	119.25
438.057	133.25
438.278	116.25
438.5	98.25
438.721	132.25
438.943	93.25
439.165	92.25
439.386	89.25
439.608	83.25
439.829	112.25
440.05	127.25
440.272	171.25
440.493	97.25
440.715	74.25
440.936	94.25
441.158	92.25
441.379	85.25
441.6	92.25
441.822	108.25
442.043	96.25
442.264	105.25
442.486	100.25
442.707	90.25
442.928	119.25
443.149	164.25
443.371	154.25
443.592	122.25
443.813	108.25
444.034	124.25
444.255	95.25
444.476	98.25
444.698	92.25
444.919	97.25
445.14	140.25
445.361	125.25
445.582	120.25
445.803	172.25
446.024	160.25
446.245	168.25
446.466	122.25
446.687	86.25
446.908	89.25
447.129	92.25
447.35	84.25
447.571	97.25
447.792	103.25
448.013	107.25
448.234	110.25
448.455	110.25
448.675	125.25
448.896	119.25
449.117	113.25
449.338	102.25
449.559	142.25
449.779	147.25
450	96.25
450.221	81.25
450.442	85.25
450.662	104.25
450.883	110.25
451.104	124.25
451.324	117.25
451.545	103.25
451.766	92.25
451.986	83.25
452.207	86.25
452.428	90.25
452.648	109.25
452.869	128.25
453.089	127.25
453.31	123.25
453.53	95.25
453.751	79.25
453.971	98.25
454.192	122.25
454.412	89.25
454.633	87.25
454.853	83.25
455.073	100.25
455.294	95.25
455.514	107.25
455.734	98.25
455.955	77.25
456.175	83.25
456.395	91.25
456.616	85.25
456.836	90.25
457.056	89.25
457.276	83.25
457.497	89.25
457.717	76.25
457.937	89.25
458.157	78.25
458.377	87.25
458.598	107.25
458.818	190.25
459.038	198.25
459.258	142.25
459.478	95.25
459.698	105.25
459.918	78.25
460.138	82.25
460.358	96.25
460.578	85.25
460.798	98.25
461.018	100.25
461.238	86.25
461.458	92.25
461.678	87.25
461.898	79.25
462.118	93.25
462.338	106.25
462.558	69.25
462.777	80.25
462.997	89.25
463.217	96.25
463.437	79.25
463.657	85.25
463.876	96.25
464.096	84.25
464.316	85.25
464.536	78.25
464.755	113.25
464.975	122.25
465.195	184.25
465.414	201.25
465.634	98.25
465.854	99.25
466.073	79.25
466.293	84.25
466.512	71.25
466.732	88.25
466.951	98.25
467.171	97.25
467.391	91.25
467.61	123.25
467.829	180.25
468.049	396.25
468.268	593.25
468.488	181.25
468.707	95.25
468.927	100.25
469.146	94.25
469.365	95.25
469.585	97.25
469.804	110.25
470.023	107.25
470.243	98.25
470.462	101.25
470.681	113.25
470.901	92.25
471.12	100.25
471.339	99.25
471.558	103.25
471.777	135.25
471.997	249.25
472.216	760.25
472.435	1686.25
472.654	419.25
472.873	145.25
473.092	101.25
473.311	88.25
473.53	89.25
473.749	98.25
473.968	115.25
474.187	126.25
474.406	88.25
474.625	86.25
474.844	85.25
475.063	78.25
475.282	86.25
475.501	86.25
475.72	95.25
475.939	87.25
476.158	97.25
476.377	83.25
476.596	88.25
476.814	91.25
477.033	103.25
477.252	100.25
477.471	88.25
477.69	84.25
477.908	99.25
478.127	108.25
478.346	97.25
478.564	102.25
478.783	106.25
479.002	103.25
479.22	104.25
479.439	127.25
479.658	123.25
479.876	120.25
480.095	113.25
480.313	131.25
480.532	151.25
480.751	226.25
480.969	703.25
481.188	2888.25
481.406	1741.25
481.624	280.25
481.843	129.25
482.061	112.25
482.28	84.25
482.498	86.25
482.717	88.25
482.935	99.25
483.153	85.25
483.372	98.25
483.59	106.25
483.808	93.25
484.027	108.25
484.245	93.25
484.463	98.25
484.681	96.25
484.9	85.25
485.118	99.25
485.336	111.25
485.554	83.25
485.772	89.25
485.99	89.25
486.209	94.25
486.427	111.25
486.645	104.25
486.863	122.25
487.081	114.25
487.299	100.25
487.517	97.25
487.735	94.25
487.953	108.25
488.171	88.25
488.389	102.25
488.607	105.25
488.825	96.25
489.043	103.25
489.261	90.25
489.479	81.25
489.696	88.25
489.914	91.25
490.132	74.25
490.35	98.25
490.568	78.25
490.786	94.25
491.003	92.25
491.221	103.25
491.439	107.25
491.657	80.25
491.874	90.25
492.092	93.25
492.31	94.25
492.527	94.25
492.745	88.25
492.963	87.25
493.18	90.25
493.398	92.25
493.615	101.25
493.833	101.25
494.05	81.25
494.268	81.25
494.485	87.25
494.703	95.25
494.92	92.25
495.138	79.25
495.355	88.25
495.573	80.25
495.79	82.25
496.008	95.25
496.225	108.25
496.442	92.25
496.66	93.25
496.877	94.25
497.094	87.25
497.312	88.25
497.529	85.25
497.746	80.25
497.963	97.25
498.181	97.25
498.398	106.25
498.615	119.25
498.832	118.25
499.049	101.25
499.267	106.25
499.484	98.25
499.701	91.25
499.918	99.25
500.135	80.25
500.352	88.25
500.569	97.25
500.786	77.25
501.003	83.25
501.22	90.25
501.437	85.25
501.654	96.25
501.871	99.25
502.088	97.25
502.305	91.25
502.522	96.25
502.739	97.25
502.956	85.25
503.172	92.25
503.389	105.25
503.606	122.25
503.823	92.25
504.04	96.25
504.256	89.25
504.473	95.25
504.69	86.25
504.907	92.25
505.123	89.25
505.34	98.25
505.557	72.25
505.773	73.25
505.99	90.25
506.207	101.25
506.423	83.25
506.64	92.25
506.856	88.25
507.073	87.25
507.289	76.25
507.506	102.25
507.722	125.25
507.939	122.25
508.155	104.25
508.372	95.25
508.588	94.25
508.805	94.25
509.021	87.25
509.238	102.25
509.454	101.25
509.67	98.25
509.887	110.25
510.103	132.25
510.319	236.25
510.536	872.25
510.752	2778.25
510.968	766.25
511.184	170.25
511.401	113.25
511.617	102.25
511.833	102.25
512.049	99.25
512.265	95.25
512.481	98.25
512.698	85.25
512.914	88.25
513.13	90.25
513.346	94.25
513.562	91.25
513.778	95.25
513.994	99.25
514.21	125.25
514.426	131.25
514.642	169.25
