Data from Circ_2004_H10_HRD10591_00067.txt Node
Date: Wed Jan 03 10:33:27 EST 2024
User: Yrep
Spectrometer: HR+D1059
Trigger mode: 1
Integration Time (sec): 1.000000E-1
Scans to average: 1
Electric dark correction enabled: true
Nonlinearity correction enabled: false
Boxcar width: 0
XAxis mode: Wavelengths
Number of Pixels in Spectrum: 2048
>>>>>Begin Spectral Data<<<<<
223.165	-29.5
223.4	-29.5
223.635	-29.5
223.869	-20.5
224.104	-9.5
224.338	-26.5
224.573	-15.5
224.808	0.5
225.042	-13.5
225.277	-12.5
225.511	1.5
225.746	8.5
225.98	-0.5
226.215	19.5
226.449	16.5
226.683	23.5
226.918	29.5
227.152	28.5
227.387	53.5
227.621	35.5
227.856	39.5
228.09	41.5
228.324	45.5
228.559	49.5
228.793	51.5
229.027	83.5
229.262	68.5
229.496	80.5
229.73	76.5
229.964	86.5
230.199	79.5
230.433	79.5
230.667	85.5
230.901	80.5
231.136	74.5
231.37	75.5
231.604	64.5
231.838	85.5
232.072	90.5
232.306	79.5
232.541	82.5
232.775	77.5
233.009	81.5
233.243	72.5
233.477	80.5
233.711	77.5
233.945	90.5
234.179	90.5
234.413	78.5
234.647	79.5
234.881	94.5
235.115	91.5
235.349	82.5
235.583	88.5
235.817	77.5
236.051	98.5
236.285	77.5
236.519	63.5
236.753	85.5
236.987	72.5
237.221	82.5
237.455	76.5
237.689	81.5
237.922	76.5
238.156	69.5
238.39	69.5
238.624	80.5
238.858	84.5
239.091	82.5
239.325	86.5
239.559	87.5
239.793	83.5
240.027	78.5
240.26	75.5
240.494	80.5
240.728	72.5
240.961	86.5
241.195	83.5
241.429	75.5
241.662	75.5
241.896	82.5
242.13	81.5
242.363	69.5
242.597	83.5
242.83	78.5
243.064	76.5
243.298	80.5
243.531	60.5
243.765	59.5
243.998	76.5
244.232	71.5
244.465	100.5
244.699	82.5
244.932	77.5
245.166	74.5
245.399	85.5
245.633	79.5
245.866	82.5
246.099	86.5
246.333	70.5
246.566	77.5
246.8	73.5
247.033	69.5
247.266	80.5
247.5	68.5
247.733	80.5
247.966	82.5
248.2	80.5
248.433	79.5
248.666	73.5
248.899	65.5
249.133	81.5
249.366	105.5
249.599	97.5
249.832	71.5
250.066	81.5
250.299	90.5
250.532	82.5
250.765	83.5
250.998	78.5
251.231	72.5
251.465	84.5
251.698	83.5
251.931	81.5
252.164	89.5
252.397	89.5
252.63	87.5
252.863	83.5
253.096	80.5
253.329	71.5
253.562	83.5
253.795	66.5
254.028	75.5
254.261	78.5
254.494	93.5
254.727	95.5
254.96	74.5
255.193	80.5
255.426	82.5
255.659	89.5
255.892	91.5
256.124	84.5
256.357	86.5
256.59	81.5
256.823	82.5
257.056	85.5
257.289	101.5
257.521	67.5
257.754	83.5
257.987	83.5
258.22	97.5
258.452	90.5
258.685	81.5
258.918	70.5
259.151	73.5
259.383	84.5
259.616	73.5
259.849	81.5
260.081	74.5
260.314	87.5
260.547	75.5
260.779	75.5
261.012	87.5
261.244	89.5
261.477	93.5
261.71	89.5
261.942	114.5
262.175	116.5
262.407	101.5
262.64	91.5
262.872	86.5
263.105	81.5
263.337	87.5
263.57	91.5
263.802	86.5
264.035	97.5
264.267	69.5
264.499	81.5
264.732	91.5
264.964	75.5
265.197	86.5
265.429	69.5
265.661	82.5
265.894	81.5
266.126	99.5
266.358	79.5
266.591	61.5
266.823	81.5
267.055	79.5
267.287	83.5
267.52	85.5
267.752	76.5
267.984	86.5
268.216	89.5
268.448	82.5
268.681	78.5
268.913	83.5
269.145	82.5
269.377	89.5
269.609	77.5
269.841	78.5
270.073	89.5
270.306	75.5
270.538	78.5
270.77	93.5
271.002	72.5
271.234	89.5
271.466	82.5
271.698	79.5
271.93	88.5
272.162	78.5
272.394	88.5
272.626	91.5
272.858	79.5
273.09	97.5
273.322	80.5
273.553	83.5
273.785	75.5
274.017	81.5
274.249	89.5
274.481	75.5
274.713	86.5
274.945	82.5
275.176	81.5
275.408	77.5
275.64	90.5
275.872	89.5
276.104	85.5
276.335	93.5
276.567	84.5
276.799	118.5
277.031	112.5
277.262	122.5
277.494	105.5
277.726	89.5
277.957	76.5
278.189	94.5
278.421	86.5
278.652	94.5
278.884	85.5
279.115	86.5
279.347	88.5
279.579	93.5
279.81	97.5
280.042	110.5
280.273	118.5
280.505	106.5
280.736	93.5
280.968	103.5
281.199	101.5
281.431	93.5
281.662	96.5
281.894	87.5
282.125	95.5
282.356	111.5
282.588	135.5
282.819	107.5
283.051	91.5
283.282	99.5
283.513	92.5
283.745	95.5
283.976	93.5
284.207	93.5
284.439	91.5
284.67	104.5
284.901	63.5
285.132	84.5
285.364	87.5
285.595	85.5
285.826	94.5
286.057	95.5
286.288	93.5
286.52	97.5
286.751	94.5
286.982	92.5
287.213	78.5
287.444	94.5
287.675	93.5
287.906	92.5
288.138	95.5
288.369	85.5
288.6	88.5
288.831	87.5
289.062	83.5
289.293	77.5
289.524	88.5
289.755	100.5
289.986	80.5
290.217	87.5
290.448	96.5
290.679	84.5
290.91	83.5
291.141	93.5
291.371	91.5
291.602	95.5
291.833	83.5
292.064	77.5
292.295	79.5
292.526	79.5
292.757	77.5
292.987	84.5
293.218	79.5
293.449	94.5
293.68	101.5
293.91	99.5
294.141	82.5
294.372	89.5
294.603	89.5
294.833	89.5
295.064	83.5
295.295	90.5
295.525	91.5
295.756	101.5
295.987	114.5
296.217	132.5
296.448	127.5
296.679	101.5
296.909	99.5
297.14	98.5
297.37	93.5
297.601	70.5
297.831	81.5
298.062	104.5
298.292	88.5
298.523	89.5
298.753	85.5
298.984	78.5
299.214	100.5
299.445	88.5
299.675	97.5
299.905	97.5
300.136	88.5
300.366	82.5
300.597	78.5
300.827	88.5
301.057	99.5
301.288	106.5
301.518	97.5
301.748	101.5
301.979	103.5
302.209	95.5
302.439	110.5
302.669	95.5
302.9	86.5
303.13	94.5
303.36	88.5
303.59	117.5
303.82	97.5
304.051	85.5
304.281	99.5
304.511	99.5
304.741	105.5
304.971	89.5
305.201	93.5
305.431	81.5
305.661	97.5
305.891	89.5
306.121	97.5
306.352	101.5
306.582	109.5
306.812	92.5
307.042	88.5
307.272	114.5
307.502	107.5
307.731	118.5
307.961	97.5
308.191	90.5
308.421	78.5
308.651	88.5
308.881	81.5
309.111	83.5
309.341	91.5
309.571	90.5
309.8	94.5
310.03	85.5
310.26	94.5
310.49	91.5
310.72	98.5
310.949	112.5
311.179	109.5
311.409	97.5
311.639	111.5
311.868	93.5
312.098	98.5
312.328	85.5
312.557	110.5
312.787	106.5
313.017	112.5
313.246	99.5
313.476	101.5
313.706	82.5
313.935	86.5
314.165	97.5
314.394	91.5
314.624	82.5
314.853	97.5
315.083	86.5
315.312	98.5
315.542	95.5
315.771	91.5
316.001	77.5
316.23	103.5
316.46	102.5
316.689	80.5
316.919	90.5
317.148	92.5
317.377	107.5
317.607	113.5
317.836	90.5
318.065	102.5
318.295	94.5
318.524	98.5
318.753	99.5
318.983	90.5
319.212	98.5
319.441	107.5
319.67	97.5
319.9	85.5
320.129	89.5
320.358	96.5
320.587	97.5
320.816	97.5
321.046	107.5
321.275	86.5
321.504	93.5
321.733	89.5
321.962	104.5
322.191	108.5
322.42	108.5
322.649	118.5
322.878	89.5
323.108	122.5
323.337	115.5
323.566	138.5
323.795	163.5
324.024	207.5
324.253	378.5
324.482	777.5
324.71	1609.5
324.939	2134.5
325.168	787.5
325.397	244.5
325.626	159.5
325.855	142.5
326.084	114.5
326.313	130.5
326.542	158.5
326.77	227.5
326.999	442.5
327.228	874.5
327.457	1641.5
327.686	1324.5
327.914	394.5
328.143	251.5
328.372	272.5
328.6	181.5
328.829	111.5
329.058	121.5
329.287	131.5
329.515	123.5
329.744	152.5
329.972	218.5
330.201	354.5
330.43	443.5
330.658	248.5
330.887	147.5
331.115	126.5
331.344	105.5
331.572	100.5
331.801	113.5
332.03	99.5
332.258	96.5
332.486	91.5
332.715	90.5
332.943	106.5
333.172	99.5
333.4	105.5
333.629	117.5
333.857	146.5
334.085	210.5
334.314	317.5
334.542	581.5
334.771	543.5
334.999	198.5
335.227	115.5
335.455	110.5
335.684	109.5
335.912	96.5
336.14	81.5
336.369	96.5
336.597	113.5
336.825	86.5
337.053	95.5
337.281	102.5
337.51	99.5
337.738	93.5
337.966	95.5
338.194	78.5
338.422	92.5
338.65	104.5
338.878	88.5
339.106	91.5
339.334	90.5
339.562	86.5
339.79	86.5
340.018	92.5
340.246	89.5
340.474	109.5
340.702	97.5
340.93	88.5
341.158	90.5
341.386	101.5
341.614	102.5
341.842	96.5
342.07	103.5
342.298	92.5
342.526	90.5
342.754	98.5
342.981	103.5
343.209	81.5
343.437	93.5
343.665	97.5
343.893	89.5
344.12	99.5
344.348	82.5
344.576	103.5
344.804	98.5
345.031	93.5
345.259	97.5
345.487	97.5
345.714	104.5
345.942	84.5
346.17	96.5
346.397	95.5
346.625	85.5
346.853	92.5
347.08	82.5
347.308	97.5
347.535	91.5
347.763	98.5
347.99	97.5
348.218	101.5
348.445	115.5
348.673	91.5
348.9	102.5
349.128	109.5
349.355	89.5
349.583	95.5
349.81	95.5
350.037	92.5
350.265	90.5
350.492	91.5
350.72	88.5
350.947	104.5
351.174	108.5
351.402	116.5
351.629	104.5
351.856	106.5
352.083	99.5
352.311	94.5
352.538	104.5
352.765	106.5
352.992	93.5
353.22	99.5
353.447	100.5
353.674	101.5
353.901	104.5
354.128	96.5
354.355	97.5
354.583	98.5
354.81	98.5
355.037	88.5
355.264	94.5
355.491	89.5
355.718	91.5
355.945	88.5
356.172	96.5
356.399	99.5
356.626	87.5
356.853	87.5
357.08	86.5
357.307	88.5
357.534	99.5
357.761	95.5
357.988	91.5
358.215	93.5
358.441	79.5
358.668	89.5
358.895	83.5
359.122	102.5
359.349	106.5
359.576	86.5
359.802	93.5
360.029	106.5
360.256	117.5
360.483	102.5
360.709	95.5
360.936	81.5
361.163	95.5
361.39	98.5
361.616	101.5
361.843	93.5
362.07	90.5
362.296	106.5
362.523	97.5
362.749	83.5
362.976	91.5
363.203	86.5
363.429	94.5
363.656	103.5
363.882	80.5
364.109	89.5
364.335	90.5
364.562	86.5
364.788	88.5
365.015	93.5
365.241	99.5
365.468	102.5
365.694	106.5
365.92	87.5
366.147	92.5
366.373	99.5
366.599	82.5
366.826	91.5
367.052	88.5
367.278	88.5
367.505	93.5
367.731	95.5
367.957	82.5
368.184	82.5
368.41	94.5
368.636	99.5
368.862	112.5
369.089	110.5
369.315	89.5
369.541	80.5
369.767	96.5
369.993	93.5
370.219	77.5
370.445	85.5
370.672	90.5
370.898	87.5
371.124	85.5
371.35	86.5
371.576	89.5
371.802	86.5
372.028	87.5
372.254	91.5
372.48	93.5
372.706	79.5
372.932	84.5
373.158	77.5
373.384	79.5
373.61	94.5
373.835	86.5
374.061	87.5
374.287	94.5
374.513	106.5
374.739	91.5
374.965	96.5
375.191	85.5
375.416	89.5
375.642	82.5
375.868	85.5
376.094	94.5
376.319	83.5
376.545	83.5
376.771	81.5
376.997	89.5
377.222	109.5
377.448	88.5
377.674	99.5
377.899	116.5
378.125	93.5
378.35	86.5
378.576	85.5
378.802	103.5
379.027	94.5
379.253	72.5
379.478	94.5
379.704	86.5
379.929	85.5
380.155	97.5
380.38	96.5
380.606	94.5
380.831	99.5
381.057	80.5
381.282	84.5
381.507	84.5
381.733	103.5
381.958	108.5
382.184	102.5
382.409	96.5
382.634	88.5
382.86	111.5
383.085	104.5
383.31	99.5
383.535	98.5
383.761	97.5
383.986	95.5
384.211	90.5
384.436	102.5
384.662	98.5
384.887	103.5
385.112	106.5
385.337	79.5
385.562	95.5
385.787	106.5
386.013	99.5
386.238	102.5
386.463	100.5
386.688	104.5
386.913	125.5
387.138	95.5
387.363	93.5
387.588	82.5
387.813	101.5
388.038	104.5
388.263	102.5
388.488	104.5
388.713	91.5
388.938	79.5
389.163	89.5
389.387	92.5
389.612	104.5
389.837	88.5
390.062	85.5
390.287	87.5
390.512	90.5
390.736	90.5
390.961	97.5
391.186	86.5
391.411	89.5
391.636	78.5
391.86	90.5
392.085	104.5
392.31	92.5
392.534	87.5
392.759	88.5
392.984	98.5
393.208	94.5
393.433	83.5
393.658	79.5
393.882	84.5
394.107	89.5
394.331	92.5
394.556	86.5
394.78	80.5
395.005	88.5
395.229	77.5
395.454	88.5
395.678	69.5
395.903	92.5
396.127	89.5
396.352	94.5
396.576	91.5
396.801	90.5
397.025	90.5
397.249	78.5
397.474	93.5
397.698	78.5
397.922	96.5
398.147	86.5
398.371	94.5
398.595	90.5
398.82	86.5
399.044	66.5
399.268	89.5
399.492	96.5
399.717	80.5
399.941	85.5
400.165	86.5
400.389	75.5
400.613	85.5
400.837	109.5
401.062	94.5
401.286	90.5
401.51	99.5
401.734	98.5
401.958	92.5
402.182	121.5
402.406	157.5
402.63	114.5
402.854	95.5
403.078	98.5
403.302	88.5
403.526	89.5
403.75	83.5
403.974	105.5
404.198	93.5
404.422	90.5
404.645	75.5
404.869	98.5
405.093	90.5
405.317	94.5
405.541	115.5
405.765	94.5
405.988	122.5
406.212	166.5
406.436	212.5
406.66	119.5
406.883	93.5
407.107	87.5
407.331	90.5
407.555	95.5
407.778	109.5
408.002	97.5
408.226	106.5
408.449	104.5
408.673	90.5
408.896	82.5
409.12	93.5
409.344	90.5
409.567	102.5
409.791	90.5
410.014	95.5
410.238	83.5
410.461	105.5
410.685	87.5
410.908	99.5
411.132	98.5
411.355	95.5
411.578	83.5
411.802	82.5
412.025	91.5
412.249	88.5
412.472	98.5
412.695	101.5
412.919	100.5
413.142	90.5
413.365	89.5
413.589	89.5
413.812	105.5
414.035	99.5
414.258	93.5
414.482	98.5
414.705	70.5
414.928	78.5
415.151	88.5
415.374	96.5
415.597	87.5
415.821	80.5
416.044	95.5
416.267	78.5
416.49	79.5
416.713	85.5
416.936	77.5
417.159	81.5
417.382	85.5
417.605	81.5
417.828	105.5
418.051	85.5
418.274	87.5
418.497	87.5
418.72	94.5
418.943	85.5
419.166	85.5
419.389	78.5
419.611	79.5
419.834	77.5
420.057	96.5
420.28	78.5
420.503	82.5
420.726	98.5
420.948	91.5
421.171	79.5
421.394	97.5
421.617	93.5
421.839	90.5
422.062	90.5
422.285	83.5
422.507	102.5
422.73	95.5
422.953	90.5
423.175	87.5
423.398	88.5
423.621	87.5
423.843	91.5
424.066	99.5
424.288	81.5
424.511	88.5
424.733	82.5
424.956	103.5
425.178	92.5
425.401	104.5
425.623	107.5
425.846	112.5
426.068	109.5
426.291	93.5
426.513	75.5
426.735	82.5
426.958	87.5
427.18	110.5
427.402	128.5
427.625	191.5
427.847	142.5
428.069	148.5
428.292	105.5
428.514	78.5
428.736	95.5
428.958	80.5
429.181	81.5
429.403	80.5
429.625	88.5
429.847	90.5
430.069	103.5
430.292	98.5
430.514	67.5
430.736	77.5
430.958	80.5
431.18	89.5
431.402	84.5
431.624	88.5
431.846	90.5
432.068	87.5
432.29	82.5
432.512	91.5
432.734	83.5
432.956	84.5
433.178	100.5
433.4	104.5
433.622	91.5
433.844	100.5
434.066	98.5
434.287	83.5
434.509	93.5
434.731	108.5
434.953	99.5
435.175	94.5
435.397	97.5
435.618	90.5
435.84	108.5
436.062	113.5
436.284	108.5
436.505	104.5
436.727	108.5
436.949	92.5
437.17	96.5
437.392	86.5
437.614	100.5
437.835	106.5
438.057	118.5
438.278	115.5
438.5	94.5
438.721	103.5
438.943	115.5
439.165	94.5
439.386	84.5
439.608	92.5
439.829	94.5
440.05	115.5
440.272	131.5
440.493	92.5
440.715	83.5
440.936	87.5
441.158	91.5
441.379	88.5
441.6	87.5
441.822	87.5
442.043	93.5
442.264	105.5
442.486	103.5
442.707	92.5
442.928	104.5
443.149	143.5
443.371	127.5
443.592	101.5
443.813	105.5
444.034	107.5
444.255	89.5
444.476	89.5
444.698	78.5
444.919	93.5
445.14	150.5
445.361	122.5
445.582	105.5
445.803	134.5
446.024	132.5
446.245	138.5
446.466	105.5
446.687	90.5
446.908	100.5
447.129	90.5
447.35	96.5
447.571	87.5
447.792	107.5
448.013	110.5
448.234	101.5
448.455	116.5
448.675	116.5
448.896	126.5
449.117	99.5
449.338	93.5
449.559	101.5
449.779	116.5
450	96.5
450.221	79.5
450.442	90.5
450.662	103.5
450.883	99.5
451.104	110.5
451.324	101.5
451.545	91.5
451.766	91.5
451.986	83.5
452.207	87.5
452.428	88.5
452.648	101.5
452.869	121.5
453.089	107.5
453.31	101.5
453.53	93.5
453.751	85.5
453.971	102.5
454.192	109.5
454.412	94.5
454.633	89.5
454.853	94.5
455.073	82.5
455.294	74.5
455.514	87.5
455.734	84.5
455.955	94.5
456.175	83.5
456.395	95.5
456.616	75.5
456.836	83.5
457.056	85.5
457.276	90.5
457.497	96.5
457.717	80.5
457.937	82.5
458.157	97.5
458.377	97.5
458.598	123.5
458.818	143.5
459.038	164.5
459.258	118.5
459.478	88.5
459.698	89.5
459.918	94.5
460.138	80.5
460.358	84.5
460.578	71.5
460.798	93.5
461.018	100.5
461.238	98.5
461.458	73.5
461.678	81.5
461.898	86.5
462.118	81.5
462.338	88.5
462.558	104.5
462.777	97.5
462.997	93.5
463.217	90.5
463.437	97.5
463.657	86.5
463.876	77.5
464.096	88.5
464.316	93.5
464.536	94.5
464.755	86.5
464.975	97.5
465.195	158.5
465.414	147.5
465.634	86.5
465.854	95.5
466.073	87.5
466.293	83.5
466.512	96.5
466.732	77.5
466.951	80.5
467.171	93.5
467.391	103.5
467.61	104.5
467.829	134.5
468.049	241.5
468.268	293.5
468.488	120.5
468.707	94.5
468.927	92.5
469.146	84.5
469.365	97.5
469.585	97.5
469.804	84.5
470.023	108.5
470.243	98.5
470.462	95.5
470.681	119.5
470.901	96.5
471.12	94.5
471.339	96.5
471.558	111.5
471.777	105.5
471.997	154.5
472.216	405.5
472.435	787.5
472.654	237.5
472.873	113.5
473.092	95.5
473.311	82.5
473.53	87.5
473.749	98.5
473.968	87.5
474.187	114.5
474.406	94.5
474.625	86.5
474.844	87.5
475.063	89.5
475.282	94.5
475.501	80.5
475.72	85.5
475.939	85.5
476.158	84.5
476.377	103.5
476.596	93.5
476.814	74.5
477.033	94.5
477.252	93.5
477.471	91.5
477.69	97.5
477.908	102.5
478.127	84.5
478.346	89.5
478.564	79.5
478.783	92.5
479.002	106.5
479.22	93.5
479.439	112.5
479.658	103.5
479.876	111.5
480.095	101.5
480.313	94.5
480.532	118.5
480.751	156.5
480.969	409.5
481.188	1378.5
481.406	841.5
481.624	170.5
481.843	107.5
482.061	85.5
482.28	85.5
482.498	89.5
482.717	83.5
482.935	94.5
483.153	73.5
483.372	74.5
483.59	91.5
483.808	80.5
484.027	90.5
484.245	102.5
484.463	85.5
484.681	94.5
484.9	95.5
485.118	98.5
485.336	95.5
485.554	94.5
485.772	97.5
485.99	100.5
486.209	106.5
486.427	94.5
486.645	109.5
486.863	105.5
487.081	95.5
487.299	96.5
487.517	98.5
487.735	83.5
487.953	96.5
488.171	99.5
488.389	100.5
488.607	100.5
488.825	98.5
489.043	93.5
489.261	81.5
489.479	92.5
489.696	87.5
489.914	94.5
490.132	76.5
490.35	94.5
490.568	97.5
490.786	87.5
491.003	84.5
491.221	112.5
491.439	95.5
491.657	95.5
491.874	84.5
492.092	89.5
492.31	96.5
492.527	97.5
492.745	84.5
492.963	92.5
493.18	87.5
493.398	98.5
493.615	105.5
493.833	98.5
494.05	99.5
494.268	88.5
494.485	96.5
494.703	87.5
494.92	87.5
495.138	86.5
495.355	71.5
495.573	89.5
495.79	85.5
496.008	98.5
496.225	86.5
496.442	90.5
496.66	101.5
496.877	81.5
497.094	99.5
497.312	91.5
497.529	94.5
497.746	85.5
497.963	101.5
498.181	88.5
498.398	97.5
498.615	106.5
498.832	104.5
499.049	97.5
499.267	89.5
499.484	91.5
499.701	80.5
499.918	96.5
500.135	94.5
500.352	87.5
500.569	85.5
500.786	80.5
501.003	97.5
501.22	106.5
501.437	83.5
501.654	103.5
501.871	88.5
502.088	90.5
502.305	88.5
502.522	97.5
502.739	91.5
502.956	92.5
503.172	87.5
503.389	110.5
503.606	97.5
503.823	100.5
504.04	85.5
504.256	80.5
504.473	79.5
504.69	96.5
504.907	99.5
505.123	89.5
505.34	86.5
505.557	102.5
505.773	82.5
505.99	96.5
506.207	84.5
506.423	88.5
506.64	97.5
506.856	89.5
507.073	89.5
507.289	95.5
507.506	96.5
507.722	112.5
507.939	108.5
508.155	103.5
508.372	85.5
508.588	84.5
508.805	106.5
509.021	102.5
509.238	100.5
509.454	101.5
509.67	92.5
509.887	106.5
510.103	131.5
510.319	192.5
510.536	658.5
510.752	2089.5
510.968	602.5
511.184	156.5
511.401	115.5
511.617	101.5
511.833	100.5
512.049	72.5
512.265	82.5
512.481	96.5
512.698	103.5
512.914	95.5
513.13	105.5
513.346	93.5
513.562	99.5
513.778	113.5
513.994	100.5
514.21	102.5
514.426	116.5
514.642	144.5
514.858	127.5
515.074	160.5
515.29	433.5
515.506	1399.5
515.721	526.5
515.937	139.5
516.153	100.5
516.369	92.5
516.585	96.5
516.801	92.5
517.016	94.5
517.232	78.5
517.448	91.5
517.664	84.5
517.879	93.5
518.095	91.5
518.311	97.5
518.527	97.5
518.742	98.5
518.958	91.5
519.173	97.5
519.389	91.5
519.605	99.5
519.82	87.5
520.036	94.5
520.251	130.5
520.467	120.5
520.682	112.5
520.898	104.5
521.113	110.5
521.329	125.5
521.544	195.5
521.76	535.5
521.975	2333.5
522.19	1382.5
522.406	293.5
522.621	121.5
522.836	102.5
523.052	107.5
523.267	99.5
523.482	96.5
523.698	98.5
523.913	124.5
524.128	103.5
524.343	77.5
524.559	98.5
524.774	93.5
524.989	97.5
525.204	122.5
525.419	90.5
525.634	89.5
525.849	89.5
526.064	89.5
526.28	87.5
526.495	98.5
526.71	90.5
526.925	86.5
527.14	84.5
527.355	85.5
527.57	103.5
527.785	77.5
527.999	81.5
528.214	92.5
528.429	99.5
528.644	90.5
528.859	97.5
529.074	89.5
529.289	112.5
529.503	172.5
529.718	120.5
529.933	95.5
530.148	83.5
530.363	94.5
530.577	85.5
530.792	91.5
531.007	101.5
531.221	100.5
531.436	92.5
531.651	95.5
531.865	90.5
532.08	95.5
532.295	95.5
532.509	97.5
532.724	91.5
532.938	95.5
533.153	108.5
533.367	103.5
533.582	79.5
533.796	90.5
534.011	97.5
534.225	86.5
534.44	93.5
534.654	98.5
534.868	87.5
