Data from Circ_2004_H10_HRD10591_00091.txt Node
Date: Wed Jan 03 10:33:32 EST 2024
User: Yrep
Spectrometer: HR+D1059
Trigger mode: 1
Integration Time (sec): 1.000000E-1
Scans to average: 1
Electric dark correction enabled: true
Nonlinearity correction enabled: false
Boxcar width: 0
XAxis mode: Wavelengths
Number of Pixels in Spectrum: 2048
>>>>>Begin Spectral Data<<<<<
223.165	-15.56
223.4	-15.56
223.635	-15.56
223.869	-32.56
224.104	-24.56
224.338	-4.56
224.573	-17.56
224.808	-8.56
225.042	-5.56
225.277	-8.56
225.511	-0.56
225.746	-16.56
225.98	12.44
226.215	12.44
226.449	19.44
226.683	26.44
226.918	28.44
227.152	35.44
227.387	32.44
227.621	30.44
227.856	43.44
228.09	44.44
228.324	52.44
228.559	50.44
228.793	47.44
229.027	74.44
229.262	69.44
229.496	66.44
229.73	82.44
229.964	89.44
230.199	63.44
230.433	78.44
230.667	75.44
230.901	77.44
231.136	79.44
231.37	67.44
231.604	72.44
231.838	83.44
232.072	74.44
232.306	76.44
232.541	78.44
232.775	78.44
233.009	85.44
233.243	86.44
233.477	63.44
233.711	76.44
233.945	86.44
234.179	77.44
234.413	64.44
234.647	61.44
234.881	83.44
235.115	72.44
235.349	86.44
235.583	68.44
235.817	76.44
236.051	76.44
236.285	79.44
236.519	64.44
236.753	67.44
236.987	85.44
237.221	89.44
237.455	82.44
237.689	87.44
237.922	63.44
238.156	96.44
238.39	82.44
238.624	80.44
238.858	69.44
239.091	68.44
239.325	84.44
239.559	74.44
239.793	70.44
240.027	85.44
240.26	86.44
240.494	80.44
240.728	75.44
240.961	77.44
241.195	72.44
241.429	79.44
241.662	84.44
241.896	64.44
242.13	70.44
242.363	79.44
242.597	78.44
242.83	67.44
243.064	64.44
243.298	71.44
243.531	79.44
243.765	85.44
243.998	80.44
244.232	76.44
244.465	68.44
244.699	85.44
244.932	77.44
245.166	70.44
245.399	81.44
245.633	86.44
245.866	64.44
246.099	66.44
246.333	76.44
246.566	70.44
246.8	71.44
247.033	67.44
247.266	69.44
247.5	75.44
247.733	66.44
247.966	74.44
248.2	72.44
248.433	72.44
248.666	87.44
248.899	92.44
249.133	98.44
249.366	98.44
249.599	85.44
249.832	75.44
250.066	88.44
250.299	86.44
250.532	102.44
250.765	89.44
250.998	76.44
251.231	87.44
251.465	94.44
251.698	85.44
251.931	92.44
252.164	87.44
252.397	69.44
252.63	79.44
252.863	76.44
253.096	93.44
253.329	77.44
253.562	83.44
253.795	96.44
254.028	68.44
254.261	75.44
254.494	86.44
254.727	85.44
254.96	84.44
255.193	87.44
255.426	82.44
255.659	67.44
255.892	80.44
256.124	94.44
256.357	86.44
256.59	82.44
256.823	80.44
257.056	89.44
257.289	95.44
257.521	91.44
257.754	64.44
257.987	87.44
258.22	87.44
258.452	86.44
258.685	68.44
258.918	82.44
259.151	82.44
259.383	76.44
259.616	82.44
259.849	83.44
260.081	71.44
260.314	77.44
260.547	84.44
260.779	80.44
261.012	70.44
261.244	83.44
261.477	94.44
261.71	98.44
261.942	108.44
262.175	116.44
262.407	86.44
262.64	87.44
262.872	80.44
263.105	81.44
263.337	86.44
263.57	76.44
263.802	100.44
264.035	82.44
264.267	66.44
264.499	78.44
264.732	83.44
264.964	78.44
265.197	80.44
265.429	82.44
265.661	71.44
265.894	85.44
266.126	82.44
266.358	89.44
266.591	68.44
266.823	89.44
267.055	83.44
267.287	90.44
267.52	84.44
267.752	83.44
267.984	79.44
268.216	78.44
268.448	77.44
268.681	79.44
268.913	78.44
269.145	85.44
269.377	71.44
269.609	76.44
269.841	72.44
270.073	75.44
270.306	87.44
270.538	87.44
270.77	74.44
271.002	68.44
271.234	77.44
271.466	82.44
271.698	82.44
271.93	86.44
272.162	74.44
272.394	74.44
272.626	73.44
272.858	87.44
273.09	85.44
273.322	69.44
273.553	82.44
273.785	101.44
274.017	87.44
274.249	92.44
274.481	88.44
274.713	82.44
274.945	81.44
275.176	91.44
275.408	84.44
275.64	79.44
275.872	90.44
276.104	94.44
276.335	98.44
276.567	103.44
276.799	122.44
277.031	122.44
277.262	131.44
277.494	111.44
277.726	87.44
277.957	76.44
278.189	83.44
278.421	81.44
278.652	77.44
278.884	92.44
279.115	59.44
279.347	76.44
279.579	87.44
279.81	94.44
280.042	130.44
280.273	154.44
280.505	129.44
280.736	96.44
280.968	83.44
281.199	82.44
281.431	75.44
281.662	82.44
281.894	78.44
282.125	114.44
282.356	122.44
282.588	147.44
282.819	113.44
283.051	76.44
283.282	94.44
283.513	89.44
283.745	78.44
283.976	79.44
284.207	100.44
284.439	84.44
284.67	85.44
284.901	91.44
285.132	78.44
285.364	91.44
285.595	84.44
285.826	83.44
286.057	80.44
286.288	83.44
286.52	83.44
286.751	92.44
286.982	71.44
287.213	94.44
287.444	89.44
287.675	97.44
287.906	93.44
288.138	85.44
288.369	94.44
288.6	89.44
288.831	84.44
289.062	90.44
289.293	88.44
289.524	78.44
289.755	86.44
289.986	79.44
290.217	87.44
290.448	89.44
290.679	102.44
290.91	105.44
291.141	78.44
291.371	93.44
291.602	82.44
291.833	86.44
292.064	94.44
292.295	83.44
292.526	90.44
292.757	85.44
292.987	89.44
293.218	91.44
293.449	92.44
293.68	80.44
293.91	68.44
294.141	96.44
294.372	96.44
294.603	94.44
294.833	87.44
295.064	88.44
295.295	91.44
295.525	77.44
295.756	96.44
295.987	118.44
296.217	123.44
296.448	115.44
296.679	99.44
296.909	94.44
297.14	84.44
297.37	75.44
297.601	87.44
297.831	74.44
298.062	84.44
298.292	75.44
298.523	96.44
298.753	90.44
298.984	83.44
299.214	71.44
299.445	90.44
299.675	76.44
299.905	94.44
300.136	96.44
300.366	88.44
300.597	83.44
300.827	84.44
301.057	93.44
301.288	102.44
301.518	98.44
301.748	84.44
301.979	109.44
302.209	95.44
302.439	91.44
302.669	112.44
302.9	106.44
303.13	94.44
303.36	116.44
303.59	102.44
303.82	114.44
304.051	106.44
304.281	83.44
304.511	84.44
304.741	88.44
304.971	90.44
305.201	84.44
305.431	74.44
305.661	87.44
305.891	80.44
306.121	90.44
306.352	91.44
306.582	106.44
306.812	101.44
307.042	104.44
307.272	128.44
307.502	128.44
307.731	140.44
307.961	115.44
308.191	85.44
308.421	89.44
308.651	92.44
308.881	88.44
309.111	107.44
309.341	102.44
309.571	117.44
309.8	88.44
310.03	97.44
310.26	101.44
310.49	81.44
310.72	96.44
310.949	92.44
311.179	80.44
311.409	98.44
311.639	80.44
311.868	96.44
312.098	84.44
312.328	91.44
312.557	99.44
312.787	99.44
313.017	101.44
313.246	99.44
313.476	93.44
313.706	82.44
313.935	94.44
314.165	83.44
314.394	89.44
314.624	99.44
314.853	97.44
315.083	85.44
315.312	85.44
315.542	76.44
315.771	89.44
316.001	91.44
316.23	96.44
316.46	87.44
316.689	82.44
316.919	106.44
317.148	118.44
317.377	103.44
317.607	101.44
317.836	86.44
318.065	95.44
318.295	93.44
318.524	90.44
318.753	106.44
318.983	86.44
319.212	89.44
319.441	114.44
319.67	97.44
319.9	92.44
320.129	92.44
320.358	102.44
320.587	99.44
320.816	109.44
321.046	103.44
321.275	94.44
321.504	106.44
321.733	94.44
321.962	87.44
322.191	78.44
322.42	105.44
322.649	106.44
322.878	118.44
323.108	125.44
323.337	131.44
323.566	140.44
323.795	163.44
324.024	241.44
324.253	463.44
324.482	982.44
324.71	2036.44
324.939	2695.44
325.168	995.44
325.397	268.44
325.626	158.44
325.855	142.44
326.084	137.44
326.313	149.44
326.542	153.44
326.77	263.44
326.999	516.44
327.228	1083.44
327.457	1984.44
327.686	1628.44
327.914	476.44
328.143	348.44
328.372	400.44
328.6	243.44
328.829	152.44
329.058	157.44
329.287	144.44
329.515	130.44
329.744	188.44
329.972	296.44
330.201	572.44
330.43	806.44
330.658	415.44
330.887	222.44
331.115	164.44
331.344	112.44
331.572	111.44
331.801	115.44
332.03	110.44
332.258	118.44
332.486	107.44
332.715	107.44
332.943	103.44
333.172	106.44
333.4	105.44
333.629	129.44
333.857	164.44
334.085	283.44
334.314	518.44
334.542	966.44
334.771	982.44
334.999	295.44
335.227	138.44
335.455	106.44
335.684	104.44
335.912	106.44
336.14	109.44
336.369	99.44
336.597	103.44
336.825	86.44
337.053	87.44
337.281	87.44
337.51	98.44
337.738	102.44
337.966	100.44
338.194	81.44
338.422	102.44
338.65	98.44
338.878	88.44
339.106	95.44
339.334	83.44
339.562	88.44
339.79	98.44
340.018	76.44
340.246	94.44
340.474	83.44
340.702	102.44
340.93	95.44
341.158	96.44
341.386	92.44
341.614	70.44
341.842	92.44
342.07	92.44
342.298	89.44
342.526	93.44
342.754	85.44
342.981	78.44
343.209	81.44
343.437	88.44
343.665	93.44
343.893	98.44
344.12	113.44
344.348	84.44
344.576	82.44
344.804	98.44
345.031	95.44
345.259	106.44
345.487	101.44
345.714	94.44
345.942	93.44
346.17	98.44
346.397	95.44
346.625	103.44
346.853	92.44
347.08	91.44
347.308	94.44
347.535	100.44
347.763	105.44
347.99	101.44
348.218	99.44
348.445	103.44
348.673	94.44
348.9	96.44
349.128	98.44
349.355	82.44
349.583	92.44
349.81	87.44
350.037	95.44
350.265	97.44
350.492	95.44
350.72	95.44
350.947	93.44
351.174	111.44
351.402	105.44
351.629	87.44
351.856	95.44
352.083	107.44
352.311	99.44
352.538	118.44
352.765	101.44
352.992	113.44
353.22	112.44
353.447	100.44
353.674	87.44
353.901	84.44
354.128	103.44
354.355	94.44
354.583	80.44
354.81	94.44
355.037	106.44
355.264	90.44
355.491	96.44
355.718	103.44
355.945	93.44
356.172	86.44
356.399	85.44
356.626	109.44
356.853	93.44
357.08	73.44
357.307	87.44
357.534	91.44
357.761	95.44
357.988	94.44
358.215	92.44
358.441	96.44
358.668	87.44
358.895	104.44
359.122	86.44
359.349	92.44
359.576	95.44
359.802	94.44
360.029	119.44
360.256	106.44
360.483	102.44
360.709	93.44
360.936	102.44
361.163	96.44
361.39	83.44
361.616	82.44
361.843	87.44
362.07	93.44
362.296	103.44
362.523	81.44
362.749	98.44
362.976	81.44
363.203	83.44
363.429	96.44
363.656	87.44
363.882	82.44
364.109	86.44
364.335	99.44
364.562	99.44
364.788	95.44
365.015	77.44
365.241	88.44
365.468	120.44
365.694	110.44
365.92	91.44
366.147	100.44
366.373	87.44
366.599	91.44
366.826	87.44
367.052	90.44
367.278	79.44
367.505	88.44
367.731	90.44
367.957	93.44
368.184	96.44
368.41	106.44
368.636	137.44
368.862	123.44
369.089	103.44
369.315	91.44
369.541	95.44
369.767	88.44
369.993	86.44
370.219	95.44
370.445	83.44
370.672	88.44
370.898	101.44
371.124	92.44
371.35	78.44
371.576	66.44
371.802	83.44
372.028	77.44
372.254	78.44
372.48	77.44
372.706	83.44
372.932	95.44
373.158	89.44
373.384	96.44
373.61	92.44
373.835	77.44
374.061	87.44
374.287	82.44
374.513	87.44
374.739	85.44
374.965	85.44
375.191	84.44
375.416	87.44
375.642	86.44
375.868	95.44
376.094	83.44
376.319	86.44
376.545	93.44
376.771	85.44
376.997	85.44
377.222	90.44
377.448	86.44
377.674	97.44
377.899	83.44
378.125	74.44
378.35	94.44
378.576	91.44
378.802	77.44
379.027	88.44
379.253	86.44
379.478	99.44
379.704	100.44
379.929	89.44
380.155	87.44
380.38	86.44
380.606	89.44
380.831	89.44
381.057	88.44
381.282	94.44
381.507	96.44
381.733	99.44
381.958	79.44
382.184	92.44
382.409	93.44
382.634	103.44
382.86	101.44
383.085	106.44
383.31	103.44
383.535	118.44
383.761	106.44
383.986	102.44
384.211	95.44
384.436	97.44
384.662	75.44
384.887	78.44
385.112	101.44
385.337	102.44
385.562	87.44
385.787	96.44
386.013	106.44
386.238	117.44
386.463	102.44
386.688	109.44
386.913	104.44
387.138	111.44
387.363	103.44
387.588	111.44
387.813	101.44
388.038	97.44
388.263	99.44
388.488	109.44
388.713	93.44
388.938	98.44
389.163	86.44
389.387	89.44
389.612	101.44
389.837	95.44
390.062	99.44
390.287	93.44
390.512	87.44
390.736	89.44
390.961	95.44
391.186	91.44
391.411	100.44
391.636	96.44
391.86	79.44
392.085	83.44
392.31	90.44
392.534	92.44
392.759	77.44
392.984	94.44
393.208	85.44
393.433	85.44
393.658	79.44
393.882	75.44
394.107	71.44
394.331	85.44
394.556	81.44
394.78	95.44
395.005	89.44
395.229	76.44
395.454	77.44
395.678	79.44
395.903	94.44
396.127	93.44
396.352	75.44
396.576	85.44
396.801	89.44
397.025	76.44
397.249	89.44
397.474	85.44
397.698	82.44
397.922	78.44
398.147	82.44
398.371	88.44
398.595	91.44
398.82	85.44
399.044	93.44
399.268	92.44
399.492	86.44
399.717	76.44
399.941	84.44
400.165	94.44
400.389	82.44
400.613	88.44
400.837	84.44
401.062	80.44
401.286	83.44
401.51	92.44
401.734	93.44
401.958	108.44
402.182	132.44
402.406	186.44
402.63	126.44
402.854	103.44
403.078	90.44
403.302	102.44
403.526	96.44
403.75	100.44
403.974	83.44
404.198	93.44
404.422	90.44
404.645	92.44
404.869	107.44
405.093	103.44
405.317	134.44
405.541	117.44
405.765	102.44
405.988	125.44
406.212	177.44
406.436	252.44
406.66	161.44
406.883	109.44
407.107	110.44
407.331	96.44
407.555	104.44
407.778	102.44
408.002	80.44
408.226	85.44
408.449	92.44
408.673	90.44
408.896	83.44
409.12	93.44
409.344	84.44
409.567	88.44
409.791	100.44
410.014	84.44
410.238	94.44
410.461	87.44
410.685	87.44
410.908	87.44
411.132	100.44
411.355	105.44
411.578	92.44
411.802	68.44
412.025	83.44
412.249	87.44
412.472	96.44
412.695	127.44
412.919	105.44
413.142	92.44
413.365	86.44
413.589	96.44
413.812	98.44
414.035	91.44
414.258	89.44
414.482	98.44
414.705	93.44
414.928	90.44
415.151	85.44
415.374	83.44
415.597	85.44
415.821	96.44
416.044	78.44
416.267	88.44
416.49	96.44
416.713	89.44
416.936	84.44
417.159	89.44
417.382	88.44
417.605	80.44
417.828	84.44
418.051	85.44
418.274	84.44
418.497	84.44
418.72	86.44
418.943	92.44
419.166	95.44
419.389	84.44
419.611	84.44
419.834	74.44
420.057	71.44
420.28	79.44
420.503	109.44
420.726	82.44
420.948	95.44
421.171	102.44
421.394	77.44
421.617	95.44
421.839	81.44
422.062	101.44
422.285	92.44
422.507	94.44
422.73	95.44
422.953	103.44
423.175	93.44
423.398	94.44
423.621	91.44
423.843	97.44
424.066	96.44
424.288	88.44
424.511	91.44
424.733	81.44
424.956	106.44
425.178	94.44
425.401	92.44
425.623	85.44
425.846	83.44
426.068	104.44
426.291	81.44
426.513	96.44
426.735	96.44
426.958	86.44
427.18	102.44
427.402	165.44
427.625	216.44
427.847	195.44
428.069	191.44
428.292	110.44
428.514	103.44
428.736	92.44
428.958	78.44
429.181	80.44
429.403	82.44
429.625	96.44
429.847	93.44
430.069	107.44
430.292	91.44
430.514	73.44
430.736	85.44
430.958	79.44
431.18	87.44
431.402	87.44
431.624	82.44
431.846	76.44
432.068	97.44
432.29	76.44
432.512	86.44
432.734	98.44
432.956	92.44
433.178	98.44
433.4	99.44
433.622	94.44
433.844	72.44
434.066	95.44
434.287	82.44
434.509	99.44
434.731	81.44
434.953	100.44
435.175	74.44
435.397	92.44
435.618	92.44
435.84	94.44
436.062	152.44
436.284	121.44
436.505	98.44
436.727	102.44
436.949	95.44
437.17	79.44
437.392	89.44
437.614	89.44
437.835	111.44
438.057	120.44
438.278	108.44
438.5	114.44
438.721	119.44
438.943	103.44
439.165	66.44
439.386	95.44
439.608	92.44
439.829	111.44
440.05	118.44
440.272	156.44
440.493	96.44
440.715	94.44
440.936	88.44
441.158	97.44
441.379	91.44
441.6	102.44
441.822	96.44
442.043	93.44
442.264	100.44
442.486	107.44
442.707	100.44
442.928	114.44
443.149	149.44
443.371	139.44
443.592	127.44
443.813	126.44
444.034	125.44
444.255	92.44
444.476	78.44
444.698	80.44
444.919	94.44
445.14	109.44
445.361	110.44
445.582	118.44
445.803	157.44
446.024	141.44
446.245	142.44
446.466	120.44
446.687	100.44
446.908	87.44
447.129	81.44
447.35	85.44
447.571	95.44
447.792	99.44
448.013	102.44
448.234	132.44
448.455	109.44
448.675	122.44
448.896	115.44
449.117	95.44
449.338	97.44
449.559	133.44
449.779	147.44
450	89.44
450.221	78.44
450.442	86.44
450.662	92.44
450.883	122.44
451.104	122.44
451.324	88.44
451.545	84.44
451.766	92.44
451.986	75.44
452.207	85.44
452.428	89.44
452.648	105.44
452.869	123.44
453.089	119.44
453.31	119.44
453.53	90.44
453.751	88.44
453.971	117.44
454.192	113.44
454.412	90.44
454.633	98.44
454.853	79.44
455.073	100.44
455.294	101.44
455.514	97.44
455.734	101.44
455.955	84.44
456.175	80.44
456.395	93.44
456.616	67.44
456.836	75.44
457.056	83.44
457.276	67.44
457.497	80.44
457.717	80.44
457.937	76.44
458.157	81.44
458.377	91.44
458.598	112.44
458.818	161.44
459.038	198.44
459.258	118.44
459.478	106.44
459.698	85.44
459.918	73.44
460.138	76.44
460.358	87.44
460.578	64.44
460.798	76.44
461.018	88.44
461.238	87.44
461.458	83.44
461.678	89.44
461.898	88.44
462.118	74.44
462.338	87.44
462.558	84.44
462.777	91.44
462.997	86.44
463.217	83.44
463.437	87.44
463.657	91.44
463.876	88.44
464.096	99.44
464.316	86.44
464.536	107.44
464.755	111.44
464.975	108.44
465.195	198.44
465.414	181.44
465.634	107.44
465.854	90.44
466.073	76.44
466.293	78.44
466.512	98.44
466.732	95.44
466.951	98.44
467.171	103.44
467.391	111.44
467.61	121.44
467.829	150.44
468.049	349.44
468.268	513.44
468.488	176.44
468.707	108.44
468.927	92.44
469.146	89.44
469.365	86.44
469.585	84.44
469.804	114.44
470.023	107.44
470.243	76.44
470.462	105.44
470.681	115.44
470.901	97.44
471.12	105.44
471.339	96.44
471.558	79.44
471.777	118.44
471.997	213.44
472.216	662.44
472.435	1427.44
472.654	379.44
472.873	138.44
473.092	103.44
473.311	102.44
473.53	92.44
473.749	82.44
473.968	98.44
474.187	111.44
474.406	104.44
474.625	93.44
474.844	86.44
475.063	86.44
475.282	94.44
475.501	107.44
475.72	95.44
475.939	87.44
476.158	94.44
476.377	83.44
476.596	91.44
476.814	87.44
477.033	81.44
477.252	90.44
477.471	96.44
477.69	97.44
477.908	97.44
478.127	85.44
478.346	72.44
478.564	96.44
478.783	100.44
479.002	107.44
479.22	114.44
479.439	108.44
479.658	128.44
479.876	102.44
480.095	106.44
480.313	108.44
480.532	138.44
480.751	213.44
480.969	609.44
481.188	2386.44
481.406	1471.44
481.624	241.44
481.843	115.44
482.061	100.44
482.28	89.44
482.498	97.44
482.717	80.44
482.935	95.44
483.153	93.44
483.372	96.44
483.59	90.44
483.808	86.44
484.027	96.44
484.245	107.44
484.463	84.44
484.681	95.44
484.9	75.44
485.118	96.44
485.336	81.44
485.554	93.44
485.772	105.44
485.99	100.44
486.209	94.44
486.427	98.44
486.645	114.44
486.863	109.44
487.081	93.44
487.299	94.44
487.517	89.44
487.735	87.44
487.953	94.44
488.171	92.44
488.389	84.44
488.607	110.44
488.825	84.44
489.043	86.44
489.261	86.44
489.479	110.44
489.696	93.44
489.914	103.44
490.132	85.44
490.35	82.44
490.568	76.44
490.786	74.44
491.003	82.44
491.221	95.44
491.439	84.44
491.657	102.44
491.874	84.44
492.092	92.44
492.31	91.44
492.527	80.44
492.745	91.44
492.963	93.44
493.18	76.44
493.398	93.44
493.615	92.44
493.833	85.44
494.05	95.44
494.268	66.44
494.485	87.44
494.703	81.44
494.92	99.44
495.138	92.44
495.355	102.44
495.573	80.44
495.79	74.44
496.008	87.44
496.225	87.44
496.442	78.44
496.66	78.44
496.877	92.44
497.094	89.44
497.312	100.44
497.529	95.44
497.746	99.44
497.963	106.44
498.181	93.44
498.398	76.44
498.615	103.44
498.832	99.44
499.049	94.44
499.267	87.44
499.484	88.44
499.701	75.44
499.918	98.44
500.135	82.44
500.352	103.44
500.569	90.44
500.786	97.44
501.003	93.44
501.22	80.44
501.437	97.44
501.654	100.44
501.871	110.44
502.088	73.44
502.305	90.44
502.522	102.44
502.739	78.44
502.956	97.44
503.172	102.44
503.389	103.44
503.606	95.44
503.823	92.44
504.04	88.44
504.256	85.44
504.473	102.44
504.69	90.44
504.907	93.44
505.123	83.44
505.34	91.44
505.557	91.44
505.773	80.44
505.99	86.44
506.207	86.44
506.423	84.44
506.64	81.44
506.856	86.44
507.073	99.44
507.289	93.44
507.506	104.44
507.722	122.44
507.939	122.44
508.155	96.44
508.372	96.44
508.588	93.44
508.805	109.44
509.021	97.44
509.238	103.44
509.454	79.44
509.67	88.44
509.887	103.44
510.103	133.44
510.319	234.44
510.536	814.44
510.752	2606.44
510.968	695.44
511.184	161.44
511.401	124.44
511.617	90.44
511.833	92.44
512.049	81.44
512.265	85.44
512.481	98.44
512.698	101.44
512.914	94.44
513.13	87.44
513.346	94.44
513.562	95.44
513.778	110.44
513.994	103.44
514.21	125.44
514.426	119.44
514.642	145.44
514.858	144.44
