Data from Circ_2004_H10_HRD10591_00022.txt Node
Date: Wed Jan 03 10:33:18 EST 2024
User: Yrep
Spectrometer: HR+D1059
Trigger mode: 1
Integration Time (sec): 1.000000E-1
Scans to average: 1
Electric dark correction enabled: true
Nonlinearity correction enabled: false
Boxcar width: 0
XAxis mode: Wavelengths
Number of Pixels in Spectrum: 2048
>>>>>Begin Spectral Data<<<<<
223.165	-24.12
223.4	-24.12
223.635	-24.12
223.869	-11.12
224.104	-8.12
224.338	-7.12
224.573	-25.12
224.808	-26.12
225.042	-6.12
225.277	-3.12
225.511	-6.12
225.746	-7.12
225.98	11.88
226.215	19.88
226.449	15.88
226.683	23.88
226.918	21.88
227.152	30.88
227.387	31.88
227.621	46.88
227.856	47.88
228.09	47.88
228.324	50.88
228.559	42.88
228.793	52.88
229.027	44.88
229.262	62.88
229.496	54.88
229.73	75.88
229.964	75.88
230.199	81.88
230.433	81.88
230.667	78.88
230.901	63.88
231.136	73.88
231.37	86.88
231.604	81.88
231.838	78.88
232.072	82.88
232.306	72.88
232.541	72.88
232.775	83.88
233.009	73.88
233.243	77.88
233.477	65.88
233.711	68.88
233.945	80.88
234.179	79.88
234.413	92.88
234.647	92.88
234.881	71.88
235.115	70.88
235.349	78.88
235.583	85.88
235.817	82.88
236.051	76.88
236.285	75.88
236.519	82.88
236.753	73.88
236.987	91.88
237.221	76.88
237.455	87.88
237.689	78.88
237.922	72.88
238.156	68.88
238.39	73.88
238.624	77.88
238.858	79.88
239.091	64.88
239.325	63.88
239.559	83.88
239.793	87.88
240.027	74.88
240.26	69.88
240.494	85.88
240.728	69.88
240.961	74.88
241.195	74.88
241.429	79.88
241.662	78.88
241.896	86.88
242.13	76.88
242.363	73.88
242.597	67.88
242.83	67.88
243.064	68.88
243.298	80.88
243.531	73.88
243.765	60.88
243.998	74.88
244.232	83.88
244.465	85.88
244.699	62.88
244.932	84.88
245.166	82.88
245.399	77.88
245.633	70.88
245.866	71.88
246.099	73.88
246.333	80.88
246.566	72.88
246.8	88.88
247.033	88.88
247.266	80.88
247.5	82.88
247.733	75.88
247.966	72.88
248.2	84.88
248.433	69.88
248.666	75.88
248.899	72.88
249.133	73.88
249.366	96.88
249.599	102.88
249.832	76.88
250.066	75.88
250.299	80.88
250.532	84.88
250.765	74.88
250.998	76.88
251.231	86.88
251.465	77.88
251.698	60.88
251.931	84.88
252.164	81.88
252.397	80.88
252.63	93.88
252.863	77.88
253.096	71.88
253.329	86.88
253.562	76.88
253.795	83.88
254.028	77.88
254.261	68.88
254.494	87.88
254.727	81.88
254.96	79.88
255.193	81.88
255.426	70.88
255.659	67.88
255.892	74.88
256.124	85.88
256.357	89.88
256.59	93.88
256.823	86.88
257.056	95.88
257.289	83.88
257.521	89.88
257.754	96.88
257.987	90.88
258.22	76.88
258.452	68.88
258.685	64.88
258.918	89.88
259.151	80.88
259.383	89.88
259.616	80.88
259.849	88.88
260.081	89.88
260.314	81.88
260.547	78.88
260.779	74.88
261.012	69.88
261.244	82.88
261.477	93.88
261.71	94.88
261.942	107.88
262.175	111.88
262.407	93.88
262.64	71.88
262.872	69.88
263.105	73.88
263.337	78.88
263.57	86.88
263.802	85.88
264.035	92.88
264.267	72.88
264.499	93.88
264.732	86.88
264.964	75.88
265.197	76.88
265.429	87.88
265.661	90.88
265.894	81.88
266.126	83.88
266.358	88.88
266.591	69.88
266.823	83.88
267.055	84.88
267.287	87.88
267.52	72.88
267.752	83.88
267.984	81.88
268.216	71.88
268.448	89.88
268.681	73.88
268.913	77.88
269.145	75.88
269.377	67.88
269.609	76.88
269.841	80.88
270.073	61.88
270.306	97.88
270.538	80.88
270.77	72.88
271.002	75.88
271.234	75.88
271.466	87.88
271.698	79.88
271.93	85.88
272.162	97.88
272.394	100.88
272.626	82.88
272.858	72.88
273.09	68.88
273.322	92.88
273.553	87.88
273.785	80.88
274.017	77.88
274.249	75.88
274.481	86.88
274.713	96.88
274.945	71.88
275.176	93.88
275.408	83.88
275.64	86.88
275.872	91.88
276.104	97.88
276.335	88.88
276.567	100.88
276.799	94.88
277.031	102.88
277.262	90.88
277.494	101.88
277.726	81.88
277.957	87.88
278.189	99.88
278.421	77.88
278.652	82.88
278.884	82.88
279.115	80.88
279.347	86.88
279.579	83.88
279.81	86.88
280.042	88.88
280.273	96.88
280.505	88.88
280.736	71.88
280.968	91.88
281.199	78.88
281.431	82.88
281.662	69.88
281.894	82.88
282.125	91.88
282.356	100.88
282.588	125.88
282.819	115.88
283.051	95.88
283.282	80.88
283.513	88.88
283.745	99.88
283.976	84.88
284.207	88.88
284.439	89.88
284.67	86.88
284.901	80.88
285.132	84.88
285.364	81.88
285.595	81.88
285.826	76.88
286.057	88.88
286.288	75.88
286.52	84.88
286.751	88.88
286.982	63.88
287.213	72.88
287.444	79.88
287.675	94.88
287.906	100.88
288.138	85.88
288.369	83.88
288.6	81.88
288.831	88.88
289.062	91.88
289.293	94.88
289.524	91.88
289.755	82.88
289.986	79.88
290.217	90.88
290.448	87.88
290.679	84.88
290.91	100.88
291.141	92.88
291.371	84.88
291.602	72.88
291.833	94.88
292.064	81.88
292.295	82.88
292.526	87.88
292.757	87.88
292.987	90.88
293.218	84.88
293.449	84.88
293.68	93.88
293.91	86.88
294.141	84.88
294.372	89.88
294.603	91.88
294.833	92.88
295.064	83.88
295.295	85.88
295.525	91.88
295.756	87.88
295.987	100.88
296.217	127.88
296.448	110.88
296.679	86.88
296.909	78.88
297.14	92.88
297.37	89.88
297.601	102.88
297.831	91.88
298.062	84.88
298.292	75.88
298.523	92.88
298.753	80.88
298.984	67.88
299.214	97.88
299.445	84.88
299.675	96.88
299.905	91.88
300.136	97.88
300.366	82.88
300.597	94.88
300.827	92.88
301.057	86.88
301.288	92.88
301.518	94.88
301.748	95.88
301.979	92.88
302.209	83.88
302.439	89.88
302.669	71.88
302.9	85.88
303.13	86.88
303.36	103.88
303.59	102.88
303.82	92.88
304.051	100.88
304.281	94.88
304.511	79.88
304.741	78.88
304.971	75.88
305.201	83.88
305.431	78.88
305.661	65.88
305.891	92.88
306.121	86.88
306.352	94.88
306.582	95.88
306.812	94.88
307.042	107.88
307.272	104.88
307.502	106.88
307.731	104.88
307.961	81.88
308.191	90.88
308.421	81.88
308.651	101.88
308.881	107.88
309.111	97.88
309.341	90.88
309.571	97.88
309.8	102.88
310.03	103.88
310.26	94.88
310.49	89.88
310.72	87.88
310.949	75.88
311.179	80.88
311.409	103.88
311.639	87.88
311.868	79.88
312.098	86.88
312.328	87.88
312.557	109.88
312.787	91.88
313.017	107.88
313.246	95.88
313.476	90.88
313.706	88.88
313.935	77.88
314.165	93.88
314.394	88.88
314.624	89.88
314.853	96.88
315.083	84.88
315.312	81.88
315.542	84.88
315.771	95.88
316.001	94.88
316.23	83.88
316.46	97.88
316.689	90.88
316.919	84.88
317.148	95.88
317.377	101.88
317.607	81.88
317.836	101.88
318.065	91.88
318.295	110.88
318.524	93.88
318.753	88.88
318.983	91.88
319.212	96.88
319.441	107.88
319.67	110.88
319.9	92.88
320.129	82.88
320.358	88.88
320.587	99.88
320.816	98.88
321.046	95.88
321.275	86.88
321.504	90.88
321.733	93.88
321.962	101.88
322.191	93.88
322.42	118.88
322.649	111.88
322.878	93.88
323.108	111.88
323.337	120.88
323.566	134.88
323.795	145.88
324.024	195.88
324.253	388.88
324.482	825.88
324.71	1651.88
324.939	2162.88
325.168	793.88
325.397	231.88
325.626	137.88
325.855	140.88
326.084	124.88
326.313	109.88
326.542	147.88
326.77	226.88
326.999	429.88
327.228	909.88
327.457	1692.88
327.686	1325.88
327.914	377.88
328.143	229.88
328.372	200.88
328.6	142.88
328.829	118.88
329.058	135.88
329.287	125.88
329.515	105.88
329.744	115.88
329.972	152.88
330.201	214.88
330.43	266.88
330.658	179.88
330.887	150.88
331.115	135.88
331.344	88.88
331.572	107.88
331.801	99.88
332.03	114.88
332.258	106.88
332.486	100.88
332.715	103.88
332.943	98.88
333.172	102.88
333.4	108.88
333.629	113.88
333.857	135.88
334.085	157.88
334.314	222.88
334.542	327.88
334.771	314.88
334.999	125.88
335.227	109.88
335.455	83.88
335.684	87.88
335.912	96.88
336.14	102.88
336.369	87.88
336.597	85.88
336.825	93.88
337.053	88.88
337.281	103.88
337.51	84.88
337.738	84.88
337.966	94.88
338.194	99.88
338.422	92.88
338.65	100.88
338.878	95.88
339.106	92.88
339.334	87.88
339.562	93.88
339.79	97.88
340.018	94.88
340.246	82.88
340.474	81.88
340.702	93.88
340.93	97.88
341.158	83.88
341.386	94.88
341.614	82.88
341.842	79.88
342.07	84.88
342.298	87.88
342.526	87.88
342.754	80.88
342.981	88.88
343.209	84.88
343.437	109.88
343.665	96.88
343.893	95.88
344.12	88.88
344.348	95.88
344.576	91.88
344.804	79.88
345.031	86.88
345.259	97.88
345.487	94.88
345.714	92.88
345.942	91.88
346.17	92.88
346.397	101.88
346.625	87.88
346.853	93.88
347.08	87.88
347.308	76.88
347.535	102.88
347.763	87.88
347.99	103.88
348.218	96.88
348.445	93.88
348.673	78.88
348.9	99.88
349.128	96.88
349.355	76.88
349.583	92.88
349.81	89.88
350.037	88.88
350.265	80.88
350.492	95.88
350.72	84.88
350.947	99.88
351.174	103.88
351.402	95.88
351.629	91.88
351.856	94.88
352.083	84.88
352.311	92.88
352.538	126.88
352.765	128.88
352.992	116.88
353.22	105.88
353.447	100.88
353.674	103.88
353.901	100.88
354.128	79.88
354.355	97.88
354.583	96.88
354.81	87.88
355.037	102.88
355.264	95.88
355.491	93.88
355.718	102.88
355.945	96.88
356.172	89.88
356.399	93.88
356.626	104.88
356.853	106.88
357.08	70.88
357.307	92.88
357.534	105.88
357.761	104.88
357.988	86.88
358.215	98.88
358.441	78.88
358.668	95.88
358.895	85.88
359.122	92.88
359.349	99.88
359.576	116.88
359.802	100.88
360.029	103.88
360.256	102.88
360.483	90.88
360.709	88.88
360.936	99.88
361.163	99.88
361.39	101.88
361.616	99.88
361.843	99.88
362.07	94.88
362.296	82.88
362.523	92.88
362.749	99.88
362.976	85.88
363.203	84.88
363.429	91.88
363.656	96.88
363.882	103.88
364.109	92.88
364.335	87.88
364.562	77.88
364.788	88.88
365.015	79.88
365.241	106.88
365.468	97.88
365.694	94.88
365.92	100.88
366.147	99.88
366.373	97.88
366.599	79.88
366.826	89.88
367.052	102.88
367.278	92.88
367.505	93.88
367.731	85.88
367.957	105.88
368.184	101.88
368.41	111.88
368.636	111.88
368.862	107.88
369.089	96.88
369.315	96.88
369.541	94.88
369.767	100.88
369.993	97.88
370.219	93.88
370.445	90.88
370.672	81.88
370.898	77.88
371.124	92.88
371.35	92.88
371.576	95.88
371.802	87.88
372.028	88.88
372.254	83.88
372.48	84.88
372.706	83.88
372.932	84.88
373.158	88.88
373.384	93.88
373.61	93.88
373.835	96.88
374.061	89.88
374.287	92.88
374.513	73.88
374.739	88.88
374.965	93.88
375.191	73.88
375.416	87.88
375.642	84.88
375.868	85.88
376.094	87.88
376.319	91.88
376.545	84.88
376.771	87.88
376.997	101.88
377.222	92.88
377.448	87.88
377.674	89.88
377.899	90.88
378.125	79.88
378.35	94.88
378.576	87.88
378.802	82.88
379.027	84.88
379.253	80.88
379.478	101.88
379.704	88.88
379.929	84.88
380.155	103.88
380.38	69.88
380.606	103.88
380.831	88.88
381.057	97.88
381.282	95.88
381.507	104.88
381.733	94.88
381.958	92.88
382.184	99.88
382.409	101.88
382.634	109.88
382.86	98.88
383.085	92.88
383.31	88.88
383.535	89.88
383.761	112.88
383.986	95.88
384.211	105.88
384.436	77.88
384.662	107.88
384.887	107.88
385.112	105.88
385.337	112.88
385.562	113.88
385.787	109.88
386.013	98.88
386.238	94.88
386.463	107.88
386.688	100.88
386.913	89.88
387.138	98.88
387.363	101.88
387.588	92.88
387.813	103.88
388.038	112.88
388.263	94.88
388.488	113.88
388.713	94.88
388.938	87.88
389.163	88.88
389.387	99.88
389.612	89.88
389.837	80.88
390.062	107.88
390.287	84.88
390.512	93.88
390.736	91.88
390.961	90.88
391.186	91.88
391.411	84.88
391.636	90.88
391.86	80.88
392.085	79.88
392.31	75.88
392.534	84.88
392.759	83.88
392.984	96.88
393.208	101.88
393.433	101.88
393.658	90.88
393.882	87.88
394.107	92.88
394.331	83.88
394.556	77.88
394.78	94.88
395.005	91.88
395.229	79.88
395.454	89.88
395.678	80.88
395.903	86.88
396.127	90.88
396.352	82.88
396.576	85.88
396.801	99.88
397.025	100.88
397.249	89.88
397.474	101.88
397.698	82.88
397.922	85.88
398.147	92.88
398.371	79.88
398.595	84.88
398.82	90.88
399.044	84.88
399.268	92.88
399.492	87.88
399.717	85.88
399.941	94.88
400.165	109.88
400.389	96.88
400.613	84.88
400.837	93.88
401.062	90.88
401.286	98.88
401.51	89.88
401.734	78.88
401.958	93.88
402.182	131.88
402.406	139.88
402.63	114.88
402.854	98.88
403.078	92.88
403.302	88.88
403.526	90.88
403.75	85.88
403.974	88.88
404.198	92.88
404.422	100.88
404.645	88.88
404.869	96.88
405.093	90.88
405.317	93.88
405.541	100.88
405.765	110.88
405.988	109.88
406.212	157.88
406.436	215.88
406.66	127.88
406.883	102.88
407.107	95.88
407.331	85.88
407.555	92.88
407.778	89.88
408.002	77.88
408.226	85.88
408.449	90.88
408.673	94.88
408.896	98.88
409.12	87.88
409.344	103.88
409.567	75.88
409.791	99.88
410.014	110.88
410.238	112.88
410.461	94.88
410.685	85.88
410.908	89.88
411.132	101.88
411.355	92.88
411.578	84.88
411.802	76.88
412.025	91.88
412.249	105.88
412.472	91.88
412.695	105.88
412.919	89.88
413.142	101.88
413.365	96.88
413.589	84.88
413.812	103.88
414.035	93.88
414.258	88.88
414.482	99.88
414.705	89.88
414.928	91.88
415.151	101.88
415.374	90.88
415.597	98.88
415.821	83.88
416.044	94.88
416.267	93.88
416.49	88.88
416.713	93.88
416.936	96.88
417.159	91.88
417.382	89.88
417.605	93.88
417.828	88.88
418.051	86.88
418.274	91.88
418.497	97.88
418.72	77.88
418.943	83.88
419.166	89.88
419.389	73.88
419.611	99.88
419.834	102.88
420.057	77.88
420.28	80.88
420.503	87.88
420.726	95.88
420.948	87.88
421.171	88.88
421.394	89.88
421.617	97.88
421.839	88.88
422.062	88.88
422.285	98.88
422.507	92.88
422.73	99.88
422.953	83.88
423.175	79.88
423.398	94.88
423.621	90.88
423.843	72.88
424.066	83.88
424.288	79.88
424.511	85.88
424.733	85.88
424.956	100.88
425.178	96.88
425.401	103.88
425.623	85.88
425.846	85.88
426.068	96.88
426.291	95.88
426.513	92.88
426.735	86.88
426.958	82.88
427.18	111.88
427.402	139.88
427.625	155.88
427.847	149.88
428.069	129.88
428.292	95.88
428.514	70.88
428.736	85.88
428.958	83.88
429.181	101.88
429.403	88.88
429.625	86.88
429.847	94.88
430.069	105.88
430.292	82.88
430.514	87.88
430.736	80.88
430.958	84.88
431.18	84.88
431.402	84.88
431.624	90.88
431.846	103.88
432.068	96.88
432.29	90.88
432.512	92.88
432.734	72.88
432.956	95.88
433.178	101.88
433.4	91.88
433.622	93.88
433.844	88.88
434.066	92.88
434.287	94.88
434.509	83.88
434.731	88.88
434.953	90.88
435.175	88.88
435.397	100.88
435.618	86.88
435.84	102.88
436.062	127.88
436.284	96.88
436.505	94.88
436.727	89.88
436.949	85.88
437.17	93.88
437.392	99.88
437.614	93.88
437.835	84.88
438.057	92.88
438.278	104.88
438.5	96.88
438.721	114.88
438.943	100.88
439.165	92.88
439.386	90.88
439.608	92.88
439.829	103.88
440.05	111.88
440.272	120.88
440.493	97.88
440.715	90.88
440.936	79.88
441.158	95.88
441.379	84.88
441.6	91.88
441.822	90.88
442.043	92.88
442.264	88.88
442.486	94.88
442.707	77.88
442.928	117.88
443.149	136.88
443.371	113.88
443.592	108.88
443.813	112.88
444.034	89.88
444.255	98.88
444.476	77.88
444.698	96.88
444.919	78.88
445.14	117.88
445.361	134.88
445.582	97.88
445.803	138.88
446.024	114.88
446.245	119.88
446.466	99.88
446.687	76.88
446.908	93.88
447.129	95.88
447.35	91.88
447.571	81.88
447.792	86.88
448.013	87.88
448.234	98.88
448.455	101.88
448.675	104.88
448.896	115.88
449.117	92.88
449.338	90.88
449.559	128.88
449.779	127.88
450	95.88
450.221	96.88
450.442	85.88
450.662	103.88
450.883	112.88
451.104	104.88
451.324	86.88
451.545	81.88
451.766	81.88
451.986	71.88
452.207	84.88
452.428	90.88
452.648	109.88
452.869	105.88
453.089	94.88
453.31	107.88
453.53	84.88
453.751	88.88
453.971	95.88
454.192	98.88
454.412	84.88
454.633	84.88
454.853	91.88
455.073	93.88
455.294	90.88
455.514	87.88
455.734	72.88
455.955	81.88
456.175	91.88
456.395	107.88
456.616	84.88
456.836	90.88
457.056	85.88
457.276	77.88
457.497	96.88
457.717	95.88
457.937	92.88
458.157	92.88
458.377	93.88
458.598	95.88
458.818	131.88
459.038	122.88
459.258	94.88
459.478	109.88
459.698	99.88
459.918	90.88
460.138	90.88
460.358	89.88
460.578	89.88
460.798	91.88
461.018	72.88
461.238	78.88
461.458	75.88
461.678	95.88
461.898	95.88
462.118	94.88
462.338	91.88
462.558	80.88
462.777	89.88
462.997	91.88
463.217	87.88
463.437	82.88
463.657	84.88
463.876	93.88
464.096	95.88
464.316	103.88
464.536	102.88
464.755	88.88
464.975	97.88
465.195	159.88
465.414	133.88
465.634	93.88
465.854	86.88
466.073	87.88
466.293	74.88
466.512	93.88
466.732	85.88
466.951	94.88
467.171	89.88
467.391	108.88
467.61	93.88
467.829	121.88
468.049	167.88
468.268	197.88
468.488	96.88
468.707	89.88
468.927	87.88
469.146	83.88
469.365	72.88
469.585	93.88
469.804	96.88
470.023	93.88
470.243	90.88
470.462	97.88
470.681	99.88
470.901	92.88
471.12	88.88
471.339	89.88
471.558	94.88
471.777	91.88
471.997	129.88
472.216	266.88
472.435	453.88
472.654	157.88
472.873	94.88
473.092	88.88
473.311	95.88
473.53	85.88
473.749	92.88
473.968	97.88
474.187	101.88
474.406	76.88
474.625	78.88
474.844	83.88
475.063	89.88
475.282	69.88
475.501	93.88
475.72	88.88
475.939	95.88
476.158	85.88
476.377	104.88
476.596	89.88
476.814	88.88
477.033	86.88
477.252	77.88
477.471	90.88
477.69	107.88
477.908	103.88
478.127	78.88
478.346	92.88
478.564	84.88
478.783	84.88
479.002	94.88
479.22	88.88
479.439	100.88
479.658	108.88
479.876	82.88
480.095	96.88
480.313	98.88
480.532	90.88
480.751	120.88
480.969	259.88
481.188	741.88
481.406	479.88
481.624	136.88
481.843	110.88
482.061	94.88
482.28	88.88
482.498	85.88
482.717	86.88
482.935	87.88
483.153	83.88
483.372	81.88
483.59	93.88
483.808	82.88
484.027	101.88
484.245	93.88
484.463	80.88
484.681	94.88
484.9	99.88
485.118	89.88
485.336	97.88
485.554	99.88
485.772	99.88
485.99	103.88
486.209	102.88
486.427	93.88
486.645	97.88
486.863	107.88
487.081	107.88
487.299	93.88
487.517	92.88
487.735	86.88
487.953	104.88
488.171	80.88
488.389	93.88
488.607	99.88
488.825	98.88
489.043	82.88
489.261	90.88
489.479	94.88
489.696	86.88
489.914	88.88
490.132	63.88
490.35	87.88
490.568	85.88
490.786	87.88
491.003	81.88
491.221	90.88
491.439	82.88
491.657	84.88
491.874	86.88
492.092	87.88
492.31	83.88
492.527	75.88
492.745	82.88
492.963	78.88
493.18	91.88
493.398	98.88
493.615	103.88
493.833	92.88
494.05	80.88
494.268	87.88
494.485	93.88
494.703	80.88
494.92	79.88
495.138	92.88
495.355	99.88
495.573	95.88
495.79	74.88
496.008	97.88
496.225	82.88
496.442	86.88
496.66	100.88
496.877	79.88
497.094	88.88
497.312	87.88
497.529	90.88
497.746	85.88
497.963	87.88
498.181	96.88
498.398	85.88
498.615	97.88
498.832	104.88
499.049	89.88
499.267	85.88
499.484	88.88
499.701	97.88
499.918	89.88
500.135	92.88
500.352	98.88
500.569	89.88
500.786	90.88
501.003	103.88
501.22	97.88
501.437	85.88
501.654	80.88
501.871	109.88
502.088	82.88
502.305	91.88
502.522	104.88
502.739	87.88
502.956	87.88
503.172	92.88
503.389	111.88
503.606	99.88
503.823	96.88
504.04	94.88
504.256	89.88
504.473	86.88
504.69	83.88
504.907	103.88
505.123	93.88
505.34	93.88
505.557	79.88
505.773	99.88
505.99	90.88
506.207	87.88
506.423	89.88
506.64	85.88
506.856	81.88
507.073	95.88
507.289	94.88
507.506	97.88
507.722	116.88
507.939	117.88
508.155	98.88
508.372	90.88
508.588	81.88
508.805	91.88
509.021	89.88
509.238	95.88
509.454	87.88
509.67	92.88
509.887	112.88
510.103	114.88
510.319	199.88
510.536	702.88
510.752	2172.88
510.968	628.88
511.184	147.88
511.401	95.88
511.617	82.88
511.833	93.88
512.049	81.88
512.265	89.88
512.481	81.88
512.698	94.88
512.914	102.88
513.13	96.88
513.346	94.88
513.562	99.88
513.778	88.88
513.994	103.88
514.21	103.88
514.426	125.88
514.642	125.88
514.858	118.88
515.074	146.88
515.29	422.88
515.506	1382.88
515.721	517.88
515.937	158.88
516.153	112.88
