Data from Circ_2004_H10_HRD10591_00080.txt Node
Date: Wed Jan 03 10:33:30 EST 2024
User: Yrep
Spectrometer: HR+D1059
Trigger mode: 1
Integration Time (sec): 1.000000E-1
Scans to average: 1
Electric dark correction enabled: true
Nonlinearity correction enabled: false
Boxcar width: 0
XAxis mode: Wavelengths
Number of Pixels in Spectrum: 2048
>>>>>Begin Spectral Data<<<<<
223.165	-16.94
223.4	-16.94
223.635	-16.94
223.869	-17.94
224.104	-24.94
224.338	-23.94
224.573	-30.94
224.808	-8.94
225.042	-2.94
225.277	-2.94
225.511	4.06
225.746	8.06
225.98	11.06
226.215	-0.94
226.449	27.06
226.683	27.06
226.918	31.06
227.152	22.06
227.387	34.06
227.621	39.06
227.856	34.06
228.09	35.06
228.324	50.06
228.559	54.06
228.793	52.06
229.027	58.06
229.262	57.06
229.496	68.06
229.73	86.06
229.964	77.06
230.199	77.06
230.433	80.06
230.667	79.06
230.901	76.06
231.136	75.06
231.37	82.06
231.604	83.06
231.838	82.06
232.072	87.06
232.306	87.06
232.541	71.06
232.775	78.06
233.009	75.06
233.243	92.06
233.477	85.06
233.711	60.06
233.945	79.06
234.179	87.06
234.413	76.06
234.647	74.06
234.881	79.06
235.115	70.06
235.349	76.06
235.583	95.06
235.817	76.06
236.051	82.06
236.285	83.06
236.519	77.06
236.753	75.06
236.987	88.06
237.221	77.06
237.455	85.06
237.689	80.06
237.922	76.06
238.156	68.06
238.39	70.06
238.624	71.06
238.858	72.06
239.091	72.06
239.325	80.06
239.559	65.06
239.793	71.06
240.027	92.06
240.26	79.06
240.494	76.06
240.728	77.06
240.961	63.06
241.195	80.06
241.429	82.06
241.662	64.06
241.896	94.06
242.13	67.06
242.363	75.06
242.597	79.06
242.83	77.06
243.064	66.06
243.298	83.06
243.531	86.06
243.765	82.06
243.998	71.06
244.232	90.06
244.465	85.06
244.699	81.06
244.932	77.06
245.166	73.06
245.399	79.06
245.633	79.06
245.866	84.06
246.099	87.06
246.333	74.06
246.566	74.06
246.8	83.06
247.033	68.06
247.266	62.06
247.5	78.06
247.733	84.06
247.966	70.06
248.2	75.06
248.433	75.06
248.666	78.06
248.899	92.06
249.133	79.06
249.366	98.06
249.599	111.06
249.832	86.06
250.066	79.06
250.299	77.06
250.532	86.06
250.765	64.06
250.998	78.06
251.231	84.06
251.465	80.06
251.698	85.06
251.931	87.06
252.164	71.06
252.397	82.06
252.63	78.06
252.863	86.06
253.096	85.06
253.329	86.06
253.562	77.06
253.795	91.06
254.028	78.06
254.261	75.06
254.494	66.06
254.727	81.06
254.96	67.06
255.193	85.06
255.426	78.06
255.659	64.06
255.892	86.06
256.124	86.06
256.357	83.06
256.59	78.06
256.823	93.06
257.056	87.06
257.289	83.06
257.521	80.06
257.754	87.06
257.987	85.06
258.22	82.06
258.452	83.06
258.685	86.06
258.918	80.06
259.151	68.06
259.383	76.06
259.616	80.06
259.849	75.06
260.081	70.06
260.314	80.06
260.547	84.06
260.779	70.06
261.012	70.06
261.244	95.06
261.477	94.06
261.71	88.06
261.942	117.06
262.175	132.06
262.407	85.06
262.64	70.06
262.872	80.06
263.105	82.06
263.337	79.06
263.57	73.06
263.802	80.06
264.035	84.06
264.267	79.06
264.499	80.06
264.732	87.06
264.964	62.06
265.197	78.06
265.429	83.06
265.661	67.06
265.894	81.06
266.126	92.06
266.358	88.06
266.591	87.06
266.823	82.06
267.055	99.06
267.287	91.06
267.52	73.06
267.752	82.06
267.984	84.06
268.216	100.06
268.448	91.06
268.681	78.06
268.913	86.06
269.145	69.06
269.377	66.06
269.609	85.06
269.841	85.06
270.073	80.06
270.306	82.06
270.538	72.06
270.77	80.06
271.002	92.06
271.234	91.06
271.466	84.06
271.698	88.06
271.93	79.06
272.162	80.06
272.394	92.06
272.626	92.06
272.858	79.06
273.09	79.06
273.322	88.06
273.553	75.06
273.785	96.06
274.017	82.06
274.249	79.06
274.481	86.06
274.713	86.06
274.945	91.06
275.176	85.06
275.408	81.06
275.64	100.06
275.872	93.06
276.104	100.06
276.335	93.06
276.567	103.06
276.799	122.06
277.031	122.06
277.262	123.06
277.494	111.06
277.726	80.06
277.957	80.06
278.189	91.06
278.421	98.06
278.652	77.06
278.884	86.06
279.115	86.06
279.347	91.06
279.579	98.06
279.81	104.06
280.042	120.06
280.273	162.06
280.505	125.06
280.736	94.06
280.968	86.06
281.199	86.06
281.431	92.06
281.662	86.06
281.894	92.06
282.125	101.06
282.356	112.06
282.588	149.06
282.819	122.06
283.051	85.06
283.282	95.06
283.513	102.06
283.745	75.06
283.976	72.06
284.207	85.06
284.439	79.06
284.67	87.06
284.901	86.06
285.132	80.06
285.364	86.06
285.595	91.06
285.826	80.06
286.057	91.06
286.288	89.06
286.52	86.06
286.751	62.06
286.982	81.06
287.213	91.06
287.444	84.06
287.675	88.06
287.906	85.06
288.138	71.06
288.369	92.06
288.6	84.06
288.831	71.06
289.062	85.06
289.293	92.06
289.524	85.06
289.755	89.06
289.986	76.06
290.217	81.06
290.448	77.06
290.679	76.06
290.91	90.06
291.141	94.06
291.371	95.06
291.602	102.06
291.833	82.06
292.064	83.06
292.295	85.06
292.526	78.06
292.757	84.06
292.987	76.06
293.218	83.06
293.449	75.06
293.68	83.06
293.91	91.06
294.141	90.06
294.372	103.06
294.603	84.06
294.833	91.06
295.064	87.06
295.295	84.06
295.525	82.06
295.756	115.06
295.987	113.06
296.217	137.06
296.448	119.06
296.679	82.06
296.909	87.06
297.14	92.06
297.37	73.06
297.601	101.06
297.831	94.06
298.062	106.06
298.292	80.06
298.523	83.06
298.753	98.06
298.984	85.06
299.214	94.06
299.445	92.06
299.675	99.06
299.905	92.06
300.136	90.06
300.366	74.06
300.597	86.06
300.827	83.06
301.057	93.06
301.288	100.06
301.518	103.06
301.748	91.06
301.979	104.06
302.209	88.06
302.439	82.06
302.669	64.06
302.9	73.06
303.13	78.06
303.36	95.06
303.59	110.06
303.82	124.06
304.051	96.06
304.281	95.06
304.511	88.06
304.741	88.06
304.971	82.06
305.201	79.06
305.431	90.06
305.661	88.06
305.891	104.06
306.121	87.06
306.352	110.06
306.582	94.06
306.812	104.06
307.042	99.06
307.272	113.06
307.502	136.06
307.731	136.06
307.961	111.06
308.191	94.06
308.421	95.06
308.651	89.06
308.881	85.06
309.111	91.06
309.341	100.06
309.571	107.06
309.8	102.06
310.03	92.06
310.26	96.06
310.49	90.06
310.72	101.06
310.949	90.06
311.179	102.06
311.409	99.06
311.639	88.06
311.868	100.06
312.098	101.06
312.328	84.06
312.557	100.06
312.787	101.06
313.017	102.06
313.246	104.06
313.476	103.06
313.706	103.06
313.935	99.06
314.165	97.06
314.394	116.06
314.624	96.06
314.853	92.06
315.083	87.06
315.312	78.06
315.542	102.06
315.771	94.06
316.001	92.06
316.23	101.06
316.46	92.06
316.689	84.06
316.919	92.06
317.148	87.06
317.377	80.06
317.607	94.06
317.836	92.06
318.065	84.06
318.295	83.06
318.524	79.06
318.753	90.06
318.983	102.06
319.212	103.06
319.441	99.06
319.67	114.06
319.9	76.06
320.129	75.06
320.358	98.06
320.587	86.06
320.816	88.06
321.046	98.06
321.275	122.06
321.504	93.06
321.733	101.06
321.962	109.06
322.191	101.06
322.42	112.06
322.649	109.06
322.878	107.06
323.108	122.06
323.337	128.06
323.566	124.06
323.795	165.06
324.024	227.06
324.253	432.06
324.482	951.06
324.71	1966.06
324.939	2647.06
325.168	945.06
325.397	286.06
325.626	165.06
325.855	134.06
326.084	136.06
326.313	137.06
326.542	157.06
326.77	245.06
326.999	498.06
327.228	1066.06
327.457	1941.06
327.686	1577.06
327.914	455.06
328.143	357.06
328.372	391.06
328.6	242.06
328.829	146.06
329.058	142.06
329.287	156.06
329.515	132.06
329.744	167.06
329.972	291.06
330.201	526.06
330.43	772.06
330.658	366.06
330.887	225.06
331.115	161.06
331.344	102.06
331.572	117.06
331.801	104.06
332.03	112.06
332.258	108.06
332.486	103.06
332.715	101.06
332.943	98.06
333.172	107.06
333.4	109.06
333.629	135.06
333.857	162.06
334.085	260.06
334.314	507.06
334.542	945.06
334.771	914.06
334.999	275.06
335.227	138.06
335.455	104.06
335.684	104.06
335.912	92.06
336.14	106.06
336.369	104.06
336.597	101.06
336.825	107.06
337.053	94.06
337.281	93.06
337.51	91.06
337.738	97.06
337.966	96.06
338.194	95.06
338.422	94.06
338.65	87.06
338.878	90.06
339.106	96.06
339.334	96.06
339.562	95.06
339.79	97.06
340.018	96.06
340.246	100.06
340.474	98.06
340.702	103.06
340.93	106.06
341.158	94.06
341.386	87.06
341.614	84.06
341.842	90.06
342.07	93.06
342.298	88.06
342.526	84.06
342.754	93.06
342.981	95.06
343.209	92.06
343.437	105.06
343.665	78.06
343.893	90.06
344.12	102.06
344.348	89.06
344.576	79.06
344.804	94.06
345.031	91.06
345.259	102.06
345.487	97.06
345.714	114.06
345.942	91.06
346.17	96.06
346.397	92.06
346.625	82.06
346.853	89.06
347.08	94.06
347.308	89.06
347.535	97.06
347.763	97.06
347.99	106.06
348.218	109.06
348.445	109.06
348.673	111.06
348.9	92.06
349.128	100.06
349.355	96.06
349.583	96.06
349.81	105.06
350.037	101.06
350.265	106.06
350.492	84.06
350.72	87.06
350.947	92.06
351.174	113.06
351.402	118.06
351.629	101.06
351.856	101.06
352.083	96.06
352.311	105.06
352.538	119.06
352.765	115.06
352.992	106.06
353.22	114.06
353.447	114.06
353.674	91.06
353.901	90.06
354.128	90.06
354.355	87.06
354.583	98.06
354.81	108.06
355.037	92.06
355.264	100.06
355.491	93.06
355.718	78.06
355.945	92.06
356.172	99.06
356.399	97.06
356.626	91.06
356.853	90.06
357.08	85.06
357.307	92.06
357.534	88.06
357.761	89.06
357.988	103.06
358.215	90.06
358.441	86.06
358.668	82.06
358.895	96.06
359.122	84.06
359.349	85.06
359.576	94.06
359.802	107.06
360.029	126.06
360.256	114.06
360.483	106.06
360.709	88.06
360.936	101.06
361.163	92.06
361.39	93.06
361.616	105.06
361.843	84.06
362.07	102.06
362.296	99.06
362.523	90.06
362.749	84.06
362.976	86.06
363.203	83.06
363.429	89.06
363.656	81.06
363.882	98.06
364.109	90.06
364.335	80.06
364.562	97.06
364.788	86.06
365.015	87.06
365.241	90.06
365.468	102.06
365.694	102.06
365.92	96.06
366.147	95.06
366.373	95.06
366.599	85.06
366.826	99.06
367.052	84.06
367.278	81.06
367.505	90.06
367.731	86.06
367.957	88.06
368.184	88.06
368.41	102.06
368.636	96.06
368.862	110.06
369.089	103.06
369.315	84.06
369.541	94.06
369.767	87.06
369.993	83.06
370.219	84.06
370.445	82.06
370.672	87.06
370.898	82.06
371.124	88.06
371.35	94.06
371.576	86.06
371.802	75.06
372.028	88.06
372.254	88.06
372.48	78.06
372.706	100.06
372.932	79.06
373.158	81.06
373.384	85.06
373.61	94.06
373.835	92.06
374.061	86.06
374.287	82.06
374.513	85.06
374.739	93.06
374.965	66.06
375.191	86.06
375.416	92.06
375.642	82.06
375.868	87.06
376.094	102.06
376.319	98.06
376.545	78.06
376.771	74.06
376.997	81.06
377.222	99.06
377.448	93.06
377.674	87.06
377.899	88.06
378.125	76.06
378.35	84.06
378.576	96.06
378.802	107.06
379.027	79.06
379.253	98.06
379.478	87.06
379.704	99.06
379.929	93.06
380.155	91.06
380.38	100.06
380.606	97.06
380.831	82.06
381.057	95.06
381.282	96.06
381.507	97.06
381.733	86.06
381.958	95.06
382.184	102.06
382.409	98.06
382.634	98.06
382.86	84.06
383.085	86.06
383.31	91.06
383.535	96.06
383.761	90.06
383.986	85.06
384.211	85.06
384.436	94.06
384.662	103.06
384.887	116.06
385.112	108.06
385.337	79.06
385.562	98.06
385.787	88.06
386.013	108.06
386.238	109.06
386.463	99.06
386.688	103.06
386.913	98.06
387.138	96.06
387.363	98.06
387.588	91.06
387.813	99.06
388.038	95.06
388.263	110.06
388.488	112.06
388.713	102.06
388.938	86.06
389.163	92.06
389.387	79.06
389.612	85.06
389.837	94.06
390.062	83.06
390.287	97.06
390.512	94.06
390.736	95.06
390.961	76.06
391.186	71.06
391.411	93.06
391.636	92.06
391.86	82.06
392.085	89.06
392.31	91.06
392.534	85.06
392.759	83.06
392.984	87.06
393.208	86.06
393.433	90.06
393.658	83.06
393.882	74.06
394.107	80.06
394.331	84.06
394.556	99.06
394.78	84.06
395.005	97.06
395.229	82.06
395.454	79.06
395.678	79.06
395.903	78.06
396.127	87.06
396.352	86.06
396.576	76.06
396.801	88.06
397.025	92.06
397.249	92.06
397.474	88.06
397.698	87.06
397.922	95.06
398.147	88.06
398.371	92.06
398.595	88.06
398.82	87.06
399.044	95.06
399.268	82.06
399.492	79.06
399.717	81.06
399.941	107.06
400.165	92.06
400.389	85.06
400.613	88.06
400.837	76.06
401.062	87.06
401.286	91.06
401.51	95.06
401.734	93.06
401.958	90.06
402.182	141.06
402.406	176.06
402.63	119.06
402.854	100.06
403.078	81.06
403.302	85.06
403.526	106.06
403.75	87.06
403.974	100.06
404.198	79.06
404.422	79.06
404.645	89.06
404.869	92.06
405.093	117.06
405.317	122.06
405.541	129.06
405.765	113.06
405.988	130.06
406.212	191.06
406.436	258.06
406.66	169.06
406.883	88.06
407.107	96.06
407.331	104.06
407.555	90.06
407.778	106.06
408.002	83.06
408.226	93.06
408.449	84.06
408.673	92.06
408.896	88.06
409.12	89.06
409.344	99.06
409.567	105.06
409.791	78.06
410.014	85.06
410.238	85.06
410.461	87.06
410.685	100.06
410.908	93.06
411.132	114.06
411.355	100.06
411.578	97.06
411.802	99.06
412.025	91.06
412.249	95.06
412.472	110.06
412.695	108.06
412.919	79.06
413.142	92.06
413.365	102.06
413.589	100.06
413.812	94.06
414.035	84.06
414.258	78.06
414.482	82.06
414.705	91.06
414.928	92.06
415.151	82.06
415.374	85.06
415.597	80.06
415.821	78.06
416.044	86.06
416.267	88.06
416.49	83.06
416.713	90.06
416.936	84.06
417.159	86.06
417.382	88.06
417.605	90.06
417.828	112.06
418.051	81.06
418.274	86.06
418.497	98.06
418.72	74.06
418.943	82.06
419.166	87.06
419.389	82.06
419.611	76.06
419.834	82.06
420.057	87.06
420.28	81.06
420.503	70.06
420.726	88.06
420.948	86.06
421.171	88.06
421.394	90.06
421.617	81.06
421.839	88.06
422.062	86.06
422.285	86.06
422.507	87.06
422.73	106.06
422.953	87.06
423.175	87.06
423.398	94.06
423.621	95.06
423.843	87.06
424.066	82.06
424.288	93.06
424.511	80.06
424.733	100.06
424.956	108.06
425.178	101.06
425.401	105.06
425.623	104.06
425.846	94.06
426.068	98.06
426.291	87.06
426.513	77.06
426.735	101.06
426.958	100.06
427.18	117.06
427.402	146.06
427.625	193.06
427.847	180.06
428.069	174.06
428.292	107.06
428.514	98.06
428.736	91.06
428.958	85.06
429.181	80.06
429.403	87.06
429.625	87.06
429.847	93.06
430.069	95.06
430.292	116.06
430.514	99.06
430.736	88.06
430.958	84.06
431.18	86.06
431.402	76.06
431.624	88.06
431.846	71.06
432.068	83.06
432.29	100.06
432.512	82.06
432.734	76.06
432.956	94.06
433.178	102.06
433.4	102.06
433.622	87.06
433.844	88.06
434.066	100.06
434.287	93.06
434.509	90.06
434.731	83.06
434.953	99.06
435.175	90.06
435.397	72.06
435.618	92.06
435.84	110.06
436.062	128.06
436.284	117.06
436.505	100.06
436.727	102.06
436.949	91.06
437.17	85.06
437.392	92.06
437.614	87.06
437.835	111.06
438.057	130.06
438.278	126.06
438.5	104.06
438.721	120.06
438.943	88.06
439.165	84.06
439.386	91.06
439.608	89.06
439.829	112.06
440.05	135.06
440.272	162.06
440.493	100.06
440.715	96.06
440.936	98.06
441.158	86.06
441.379	86.06
441.6	80.06
441.822	100.06
442.043	97.06
442.264	115.06
442.486	99.06
442.707	99.06
442.928	99.06
443.149	138.06
443.371	145.06
443.592	108.06
443.813	140.06
444.034	116.06
444.255	100.06
444.476	84.06
444.698	100.06
444.919	78.06
445.14	128.06
445.361	119.06
445.582	122.06
445.803	156.06
446.024	147.06
446.245	157.06
446.466	124.06
446.687	92.06
446.908	106.06
447.129	97.06
447.35	87.06
447.571	89.06
447.792	86.06
448.013	96.06
448.234	107.06
448.455	99.06
448.675	114.06
448.896	126.06
449.117	96.06
449.338	106.06
449.559	132.06
449.779	152.06
450	99.06
450.221	87.06
450.442	88.06
450.662	95.06
450.883	124.06
451.104	122.06
451.324	108.06
451.545	90.06
451.766	81.06
451.986	82.06
452.207	92.06
452.428	98.06
452.648	103.06
452.869	117.06
453.089	113.06
453.31	116.06
453.53	91.06
453.751	89.06
453.971	96.06
454.192	119.06
454.412	97.06
454.633	85.06
454.853	84.06
455.073	78.06
455.294	87.06
455.514	95.06
455.734	98.06
455.955	92.06
456.175	85.06
456.395	76.06
456.616	91.06
456.836	83.06
457.056	66.06
457.276	78.06
457.497	76.06
457.717	94.06
457.937	99.06
458.157	88.06
458.377	82.06
458.598	106.06
458.818	167.06
459.038	176.06
459.258	115.06
459.478	95.06
459.698	78.06
459.918	88.06
460.138	91.06
460.358	84.06
460.578	83.06
460.798	89.06
461.018	94.06
461.238	93.06
461.458	86.06
461.678	84.06
461.898	77.06
462.118	81.06
462.338	85.06
462.558	77.06
462.777	83.06
462.997	79.06
463.217	93.06
463.437	83.06
463.657	80.06
463.876	99.06
464.096	90.06
464.316	95.06
464.536	99.06
464.755	99.06
464.975	102.06
465.195	178.06
465.414	184.06
465.634	99.06
465.854	78.06
466.073	92.06
466.293	86.06
466.512	89.06
466.732	81.06
466.951	90.06
467.171	94.06
467.391	110.06
467.61	117.06
467.829	151.06
468.049	317.06
468.268	426.06
468.488	148.06
468.707	78.06
468.927	92.06
469.146	91.06
469.365	95.06
469.585	94.06
469.804	102.06
470.023	95.06
470.243	98.06
470.462	98.06
470.681	115.06
470.901	89.06
471.12	82.06
471.339	90.06
471.558	92.06
471.777	111.06
471.997	178.06
472.216	591.06
472.435	1286.06
472.654	342.06
472.873	111.06
473.092	100.06
473.311	86.06
473.53	84.06
473.749	94.06
473.968	108.06
474.187	119.06
474.406	94.06
474.625	87.06
474.844	83.06
475.063	83.06
475.282	84.06
475.501	82.06
475.72	88.06
475.939	68.06
476.158	92.06
476.377	72.06
476.596	78.06
476.814	102.06
477.033	79.06
477.252	96.06
477.471	85.06
477.69	89.06
477.908	68.06
478.127	98.06
478.346	87.06
478.564	87.06
478.783	95.06
479.002	95.06
479.22	79.06
479.439	110.06
479.658	111.06
479.876	106.06
480.095	102.06
480.313	119.06
480.532	119.06
480.751	172.06
480.969	557.06
481.188	2236.06
481.406	1316.06
481.624	238.06
481.843	122.06
482.061	94.06
482.28	87.06
482.498	92.06
482.717	86.06
482.935	97.06
483.153	92.06
483.372	77.06
483.59	90.06
483.808	93.06
484.027	96.06
484.245	109.06
484.463	89.06
484.681	91.06
484.9	83.06
485.118	97.06
485.336	87.06
485.554	81.06
485.772	87.06
485.99	78.06
486.209	105.06
486.427	107.06
486.645	125.06
486.863	113.06
487.081	94.06
487.299	100.06
487.517	99.06
487.735	78.06
487.953	90.06
488.171	89.06
488.389	93.06
488.607	88.06
488.825	87.06
489.043	85.06
489.261	91.06
489.479	80.06
489.696	83.06
489.914	85.06
490.132	96.06
490.35	91.06
490.568	88.06
490.786	91.06
491.003	99.06
491.221	99.06
491.439	87.06
491.657	99.06
491.874	77.06
492.092	89.06
492.31	77.06
492.527	90.06
492.745	99.06
492.963	90.06
493.18	77.06
493.398	87.06
493.615	95.06
493.833	91.06
494.05	91.06
494.268	75.06
494.485	80.06
494.703	80.06
494.92	88.06
495.138	83.06
495.355	81.06
495.573	76.06
495.79	96.06
496.008	98.06
496.225	93.06
496.442	91.06
496.66	93.06
496.877	105.06
497.094	96.06
497.312	88.06
497.529	99.06
497.746	92.06
497.963	98.06
498.181	88.06
498.398	99.06
498.615	107.06
498.832	86.06
499.049	85.06
499.267	94.06
499.484	88.06
499.701	71.06
499.918	84.06
500.135	103.06
500.352	91.06
500.569	89.06
500.786	87.06
501.003	82.06
501.22	82.06
501.437	90.06
501.654	107.06
501.871	124.06
502.088	92.06
502.305	92.06
502.522	94.06
502.739	91.06
502.956	102.06
503.172	95.06
503.389	95.06
503.606	108.06
503.823	97.06
504.04	88.06
504.256	88.06
504.473	84.06
504.69	75.06
504.907	88.06
505.123	82.06
505.34	86.06
505.557	72.06
505.773	78.06
505.99	106.06
506.207	82.06
506.423	75.06
506.64	90.06
506.856	91.06
507.073	100.06
507.289	89.06
507.506	96.06
507.722	122.06
507.939	111.06
508.155	112.06
508.372	79.06
508.588	94.06
508.805	99.06
509.021	82.06
509.238	94.06
509.454	90.06
509.67	110.06
509.887	105.06
510.103	125.06
510.319	227.06
510.536	785.06
510.752	2521.06
510.968	688.06
511.184	151.06
511.401	124.06
511.617	104.06
511.833	104.06
512.049	102.06
512.265	89.06
512.481	109.06
512.698	110.06
512.914	103.06
513.13	97.06
513.346	79.06
513.562	86.06
513.778	81.06
513.994	88.06
514.21	110.06
514.426	128.06
514.642	148.06
514.858	148.06
515.074	196.06
