Data from Circ_2004_H10_HRD10591_00066.txt Node
Date: Wed Jan 03 10:33:27 EST 2024
User: Yrep
Spectrometer: HR+D1059
Trigger mode: 1
Integration Time (sec): 1.000000E-1
Scans to average: 1
Electric dark correction enabled: true
Nonlinearity correction enabled: false
Boxcar width: 0
XAxis mode: Wavelengths
Number of Pixels in Spectrum: 2048
>>>>>Begin Spectral Data<<<<<
223.165	-19.75
223.4	-19.75
223.635	-19.75
223.869	-20.75
224.104	-16.75
224.338	-12.75
224.573	-6.75
224.808	-13.75
225.042	-2.75
225.277	-20.75
225.511	-8.75
225.746	5.25
225.98	26.25
226.215	23.25
226.449	-0.75
226.683	27.25
226.918	21.25
227.152	20.25
227.387	20.25
227.621	43.25
227.856	35.25
228.09	52.25
228.324	45.25
228.559	39.25
228.793	51.25
229.027	59.25
229.262	69.25
229.496	81.25
229.73	88.25
229.964	81.25
230.199	72.25
230.433	73.25
230.667	68.25
230.901	75.25
231.136	78.25
231.37	75.25
231.604	64.25
231.838	88.25
232.072	84.25
232.306	90.25
232.541	73.25
232.775	82.25
233.009	76.25
233.243	77.25
233.477	81.25
233.711	80.25
233.945	78.25
234.179	83.25
234.413	75.25
234.647	79.25
234.881	79.25
235.115	92.25
235.349	85.25
235.583	77.25
235.817	70.25
236.051	69.25
236.285	80.25
236.519	87.25
236.753	78.25
236.987	72.25
237.221	81.25
237.455	76.25
237.689	86.25
237.922	77.25
238.156	70.25
238.39	78.25
238.624	79.25
238.858	81.25
239.091	75.25
239.325	88.25
239.559	76.25
239.793	79.25
240.027	92.25
240.26	68.25
240.494	79.25
240.728	80.25
240.961	74.25
241.195	79.25
241.429	86.25
241.662	62.25
241.896	78.25
242.13	79.25
242.363	85.25
242.597	78.25
242.83	77.25
243.064	70.25
243.298	80.25
243.531	75.25
243.765	87.25
243.998	78.25
244.232	75.25
244.465	86.25
244.699	92.25
244.932	75.25
245.166	76.25
245.399	84.25
245.633	80.25
245.866	66.25
246.099	81.25
246.333	73.25
246.566	77.25
246.8	87.25
247.033	77.25
247.266	62.25
247.5	77.25
247.733	73.25
247.966	77.25
248.2	85.25
248.433	80.25
248.666	84.25
248.899	59.25
249.133	79.25
249.366	95.25
249.599	92.25
249.832	76.25
250.066	84.25
250.299	108.25
250.532	70.25
250.765	93.25
250.998	78.25
251.231	73.25
251.465	83.25
251.698	68.25
251.931	78.25
252.164	81.25
252.397	95.25
252.63	82.25
252.863	72.25
253.096	65.25
253.329	87.25
253.562	78.25
253.795	77.25
254.028	83.25
254.261	71.25
254.494	71.25
254.727	78.25
254.96	77.25
255.193	83.25
255.426	58.25
255.659	73.25
255.892	94.25
256.124	66.25
256.357	90.25
256.59	91.25
256.823	73.25
257.056	88.25
257.289	84.25
257.521	80.25
257.754	74.25
257.987	71.25
258.22	80.25
258.452	71.25
258.685	82.25
258.918	85.25
259.151	78.25
259.383	91.25
259.616	79.25
259.849	86.25
260.081	88.25
260.314	84.25
260.547	92.25
260.779	89.25
261.012	95.25
261.244	90.25
261.477	78.25
261.71	92.25
261.942	108.25
262.175	106.25
262.407	89.25
262.64	84.25
262.872	99.25
263.105	76.25
263.337	81.25
263.57	73.25
263.802	79.25
264.035	85.25
264.267	91.25
264.499	84.25
264.732	82.25
264.964	86.25
265.197	78.25
265.429	72.25
265.661	87.25
265.894	84.25
266.126	81.25
266.358	87.25
266.591	98.25
266.823	82.25
267.055	69.25
267.287	81.25
267.52	82.25
267.752	71.25
267.984	78.25
268.216	85.25
268.448	90.25
268.681	79.25
268.913	89.25
269.145	88.25
269.377	94.25
269.609	64.25
269.841	74.25
270.073	81.25
270.306	64.25
270.538	74.25
270.77	70.25
271.002	79.25
271.234	89.25
271.466	85.25
271.698	86.25
271.93	77.25
272.162	83.25
272.394	93.25
272.626	68.25
272.858	89.25
273.09	89.25
273.322	73.25
273.553	83.25
273.785	81.25
274.017	86.25
274.249	75.25
274.481	83.25
274.713	80.25
274.945	86.25
275.176	92.25
275.408	91.25
275.64	92.25
275.872	99.25
276.104	88.25
276.335	107.25
276.567	91.25
276.799	108.25
277.031	126.25
277.262	107.25
277.494	95.25
277.726	77.25
277.957	89.25
278.189	87.25
278.421	80.25
278.652	85.25
278.884	93.25
279.115	105.25
279.347	83.25
279.579	91.25
279.81	103.25
280.042	139.25
280.273	125.25
280.505	110.25
280.736	88.25
280.968	71.25
281.199	83.25
281.431	87.25
281.662	93.25
281.894	83.25
282.125	101.25
282.356	104.25
282.588	118.25
282.819	105.25
283.051	96.25
283.282	84.25
283.513	85.25
283.745	87.25
283.976	80.25
284.207	92.25
284.439	77.25
284.67	87.25
284.901	80.25
285.132	84.25
285.364	81.25
285.595	99.25
285.826	82.25
286.057	85.25
286.288	78.25
286.52	86.25
286.751	99.25
286.982	97.25
287.213	76.25
287.444	83.25
287.675	97.25
287.906	84.25
288.138	75.25
288.369	85.25
288.6	84.25
288.831	89.25
289.062	92.25
289.293	75.25
289.524	67.25
289.755	89.25
289.986	81.25
290.217	79.25
290.448	89.25
290.679	78.25
290.91	84.25
291.141	80.25
291.371	89.25
291.602	76.25
291.833	85.25
292.064	105.25
292.295	76.25
292.526	71.25
292.757	88.25
292.987	86.25
293.218	72.25
293.449	79.25
293.68	85.25
293.91	94.25
294.141	85.25
294.372	91.25
294.603	76.25
294.833	74.25
295.064	87.25
295.295	76.25
295.525	88.25
295.756	93.25
295.987	112.25
296.217	126.25
296.448	114.25
296.679	93.25
296.909	94.25
297.14	95.25
297.37	79.25
297.601	88.25
297.831	102.25
298.062	76.25
298.292	88.25
298.523	95.25
298.753	84.25
298.984	101.25
299.214	84.25
299.445	80.25
299.675	96.25
299.905	97.25
300.136	89.25
300.366	95.25
300.597	95.25
300.827	85.25
301.057	98.25
301.288	103.25
301.518	95.25
301.748	93.25
301.979	111.25
302.209	93.25
302.439	95.25
302.669	90.25
302.9	82.25
303.13	84.25
303.36	100.25
303.59	100.25
303.82	111.25
304.051	95.25
304.281	74.25
304.511	90.25
304.741	94.25
304.971	83.25
305.201	88.25
305.431	77.25
305.661	74.25
305.891	93.25
306.121	103.25
306.352	89.25
306.582	89.25
306.812	107.25
307.042	98.25
307.272	110.25
307.502	115.25
307.731	119.25
307.961	110.25
308.191	99.25
308.421	83.25
308.651	93.25
308.881	94.25
309.111	93.25
309.341	85.25
309.571	93.25
309.8	88.25
310.03	95.25
310.26	86.25
310.49	97.25
310.72	93.25
310.949	104.25
311.179	93.25
311.409	88.25
311.639	75.25
311.868	92.25
312.098	82.25
312.328	96.25
312.557	94.25
312.787	95.25
313.017	99.25
313.246	85.25
313.476	70.25
313.706	91.25
313.935	98.25
314.165	95.25
314.394	94.25
314.624	92.25
314.853	104.25
315.083	87.25
315.312	79.25
315.542	95.25
315.771	91.25
316.001	95.25
316.23	93.25
316.46	103.25
316.689	97.25
316.919	92.25
317.148	102.25
317.377	100.25
317.607	107.25
317.836	81.25
318.065	104.25
318.295	108.25
318.524	83.25
318.753	93.25
318.983	103.25
319.212	101.25
319.441	97.25
319.67	103.25
319.9	92.25
320.129	94.25
320.358	95.25
320.587	103.25
320.816	97.25
321.046	103.25
321.275	94.25
321.504	84.25
321.733	111.25
321.962	102.25
322.191	81.25
322.42	111.25
322.649	109.25
322.878	92.25
323.108	108.25
323.337	125.25
323.566	154.25
323.795	127.25
324.024	193.25
324.253	380.25
324.482	803.25
324.71	1606.25
324.939	2093.25
325.168	779.25
325.397	230.25
325.626	134.25
325.855	123.25
326.084	136.25
326.313	128.25
326.542	159.25
326.77	211.25
326.999	438.25
327.228	914.25
327.457	1665.25
327.686	1316.25
327.914	376.25
328.143	253.25
328.372	273.25
328.6	180.25
328.829	114.25
329.058	128.25
329.287	143.25
329.515	127.25
329.744	144.25
329.972	216.25
330.201	354.25
330.43	465.25
330.658	256.25
330.887	179.25
331.115	124.25
331.344	111.25
331.572	112.25
331.801	105.25
332.03	91.25
332.258	88.25
332.486	90.25
332.715	100.25
332.943	91.25
333.172	117.25
333.4	104.25
333.629	109.25
333.857	143.25
334.085	194.25
334.314	339.25
334.542	590.25
334.771	560.25
334.999	192.25
335.227	110.25
335.455	99.25
335.684	105.25
335.912	99.25
336.14	104.25
336.369	96.25
336.597	92.25
336.825	92.25
337.053	98.25
337.281	81.25
337.51	89.25
337.738	91.25
337.966	95.25
338.194	109.25
338.422	93.25
338.65	83.25
338.878	91.25
339.106	111.25
339.334	81.25
339.562	92.25
339.79	93.25
340.018	78.25
340.246	82.25
340.474	104.25
340.702	94.25
340.93	85.25
341.158	89.25
341.386	95.25
341.614	95.25
341.842	108.25
342.07	101.25
342.298	79.25
342.526	87.25
342.754	91.25
342.981	80.25
343.209	81.25
343.437	98.25
343.665	101.25
343.893	89.25
344.12	90.25
344.348	93.25
344.576	87.25
344.804	89.25
345.031	86.25
345.259	98.25
345.487	93.25
345.714	105.25
345.942	95.25
346.17	97.25
346.397	92.25
346.625	105.25
346.853	89.25
347.08	63.25
347.308	84.25
347.535	100.25
347.763	94.25
347.99	88.25
348.218	105.25
348.445	86.25
348.673	89.25
348.9	91.25
349.128	94.25
349.355	82.25
349.583	91.25
349.81	93.25
350.037	104.25
350.265	91.25
350.492	89.25
350.72	75.25
350.947	100.25
351.174	109.25
351.402	100.25
351.629	99.25
351.856	102.25
352.083	86.25
352.311	103.25
352.538	107.25
352.765	121.25
352.992	107.25
353.22	110.25
353.447	92.25
353.674	94.25
353.901	88.25
354.128	111.25
354.355	100.25
354.583	90.25
354.81	96.25
355.037	104.25
355.264	101.25
355.491	95.25
355.718	110.25
355.945	93.25
356.172	89.25
356.399	90.25
356.626	78.25
356.853	97.25
357.08	112.25
357.307	85.25
357.534	83.25
357.761	95.25
357.988	100.25
358.215	93.25
358.441	89.25
358.668	95.25
358.895	86.25
359.122	96.25
359.349	86.25
359.576	88.25
359.802	82.25
360.029	105.25
360.256	110.25
360.483	101.25
360.709	103.25
360.936	98.25
361.163	85.25
361.39	89.25
361.616	97.25
361.843	95.25
362.07	96.25
362.296	94.25
362.523	88.25
362.749	89.25
362.976	93.25
363.203	107.25
363.429	80.25
363.656	88.25
363.882	80.25
364.109	95.25
364.335	94.25
364.562	89.25
364.788	91.25
365.015	94.25
365.241	111.25
365.468	115.25
365.694	104.25
365.92	85.25
366.147	94.25
366.373	81.25
366.599	89.25
366.826	99.25
367.052	77.25
367.278	91.25
367.505	93.25
367.731	88.25
367.957	79.25
368.184	82.25
368.41	96.25
368.636	107.25
368.862	97.25
369.089	92.25
369.315	88.25
369.541	92.25
369.767	87.25
369.993	93.25
370.219	96.25
370.445	80.25
370.672	89.25
370.898	89.25
371.124	93.25
371.35	88.25
371.576	98.25
371.802	98.25
372.028	87.25
372.254	85.25
372.48	79.25
372.706	81.25
372.932	92.25
373.158	91.25
373.384	95.25
373.61	83.25
373.835	99.25
374.061	80.25
374.287	95.25
374.513	77.25
374.739	87.25
374.965	88.25
375.191	79.25
375.416	88.25
375.642	99.25
375.868	94.25
376.094	89.25
376.319	71.25
376.545	78.25
376.771	89.25
376.997	97.25
377.222	85.25
377.448	87.25
377.674	93.25
377.899	81.25
378.125	103.25
378.35	89.25
378.576	85.25
378.802	92.25
379.027	84.25
379.253	89.25
379.478	92.25
379.704	77.25
379.929	94.25
380.155	99.25
380.38	81.25
380.606	96.25
380.831	93.25
381.057	100.25
381.282	82.25
381.507	87.25
381.733	106.25
381.958	89.25
382.184	83.25
382.409	95.25
382.634	112.25
382.86	94.25
383.085	101.25
383.31	88.25
383.535	97.25
383.761	102.25
383.986	89.25
384.211	92.25
384.436	87.25
384.662	90.25
384.887	89.25
385.112	107.25
385.337	93.25
385.562	93.25
385.787	95.25
386.013	110.25
386.238	113.25
386.463	118.25
386.688	98.25
386.913	99.25
387.138	101.25
387.363	93.25
387.588	92.25
387.813	100.25
388.038	102.25
388.263	103.25
388.488	94.25
388.713	87.25
388.938	89.25
389.163	80.25
389.387	109.25
389.612	99.25
389.837	99.25
390.062	91.25
390.287	87.25
390.512	88.25
390.736	93.25
390.961	91.25
391.186	106.25
391.411	85.25
391.636	87.25
391.86	88.25
392.085	93.25
392.31	84.25
392.534	73.25
392.759	85.25
392.984	76.25
393.208	68.25
393.433	89.25
393.658	87.25
393.882	86.25
394.107	83.25
394.331	89.25
394.556	75.25
394.78	89.25
395.005	92.25
395.229	84.25
395.454	91.25
395.678	89.25
395.903	74.25
396.127	87.25
396.352	91.25
396.576	83.25
396.801	79.25
397.025	87.25
397.249	88.25
397.474	100.25
397.698	81.25
397.922	70.25
398.147	84.25
398.371	79.25
398.595	86.25
398.82	88.25
399.044	72.25
399.268	93.25
399.492	91.25
399.717	86.25
399.941	82.25
400.165	94.25
400.389	83.25
400.613	95.25
400.837	94.25
401.062	89.25
401.286	94.25
401.51	88.25
401.734	89.25
401.958	90.25
402.182	124.25
402.406	157.25
402.63	112.25
402.854	93.25
403.078	82.25
403.302	95.25
403.526	88.25
403.75	91.25
403.974	82.25
404.198	87.25
404.422	90.25
404.645	88.25
404.869	91.25
405.093	91.25
405.317	97.25
405.541	103.25
405.765	105.25
405.988	111.25
406.212	170.25
406.436	191.25
406.66	149.25
406.883	90.25
407.107	100.25
407.331	90.25
407.555	97.25
407.778	88.25
408.002	81.25
408.226	76.25
408.449	82.25
408.673	100.25
408.896	88.25
409.12	97.25
409.344	87.25
409.567	99.25
409.791	87.25
410.014	93.25
410.238	85.25
410.461	100.25
410.685	89.25
410.908	81.25
411.132	103.25
411.355	90.25
411.578	92.25
411.802	79.25
412.025	80.25
412.249	102.25
412.472	97.25
412.695	110.25
412.919	103.25
413.142	75.25
413.365	83.25
413.589	76.25
413.812	84.25
414.035	76.25
414.258	86.25
414.482	87.25
414.705	88.25
414.928	95.25
415.151	90.25
415.374	96.25
415.597	84.25
415.821	85.25
416.044	81.25
416.267	88.25
416.49	89.25
416.713	89.25
416.936	102.25
417.159	85.25
417.382	83.25
417.605	92.25
417.828	92.25
418.051	91.25
418.274	80.25
418.497	87.25
418.72	87.25
418.943	88.25
419.166	82.25
419.389	84.25
419.611	96.25
419.834	90.25
420.057	100.25
420.28	89.25
420.503	91.25
420.726	82.25
420.948	91.25
421.171	77.25
421.394	101.25
421.617	68.25
421.839	79.25
422.062	94.25
422.285	103.25
422.507	89.25
422.73	100.25
422.953	92.25
423.175	89.25
423.398	86.25
423.621	83.25
423.843	99.25
424.066	96.25
424.288	77.25
424.511	97.25
424.733	97.25
424.956	103.25
425.178	90.25
425.401	95.25
425.623	96.25
425.846	97.25
426.068	97.25
426.291	87.25
426.513	75.25
426.735	100.25
426.958	95.25
427.18	123.25
427.402	148.25
427.625	167.25
427.847	155.25
428.069	149.25
428.292	91.25
428.514	106.25
428.736	84.25
428.958	95.25
429.181	98.25
429.403	74.25
429.625	80.25
429.847	108.25
430.069	89.25
430.292	105.25
430.514	84.25
430.736	77.25
430.958	75.25
431.18	98.25
431.402	86.25
431.624	80.25
431.846	86.25
432.068	97.25
432.29	81.25
432.512	87.25
432.734	91.25
432.956	79.25
433.178	95.25
433.4	93.25
433.622	84.25
433.844	100.25
434.066	94.25
434.287	97.25
434.509	91.25
434.731	90.25
434.953	100.25
435.175	73.25
435.397	85.25
435.618	95.25
435.84	97.25
436.062	108.25
436.284	113.25
436.505	81.25
436.727	89.25
436.949	95.25
437.17	83.25
437.392	88.25
437.614	93.25
437.835	95.25
438.057	92.25
438.278	118.25
438.5	88.25
438.721	127.25
438.943	98.25
439.165	80.25
439.386	104.25
439.608	92.25
439.829	104.25
440.05	116.25
440.272	139.25
440.493	97.25
440.715	93.25
440.936	80.25
441.158	90.25
441.379	84.25
441.6	89.25
441.822	94.25
442.043	95.25
442.264	98.25
442.486	90.25
442.707	101.25
442.928	112.25
443.149	129.25
443.371	108.25
443.592	112.25
443.813	102.25
444.034	103.25
444.255	92.25
444.476	102.25
444.698	88.25
444.919	95.25
445.14	118.25
445.361	119.25
445.582	99.25
445.803	125.25
446.024	135.25
446.245	126.25
446.466	119.25
446.687	92.25
446.908	97.25
447.129	94.25
447.35	90.25
447.571	91.25
447.792	97.25
448.013	80.25
448.234	96.25
448.455	98.25
448.675	111.25
448.896	108.25
449.117	100.25
449.338	118.25
449.559	123.25
449.779	131.25
450	99.25
450.221	86.25
450.442	96.25
450.662	88.25
450.883	112.25
451.104	110.25
451.324	102.25
451.545	73.25
451.766	76.25
451.986	79.25
452.207	91.25
452.428	109.25
452.648	98.25
452.869	94.25
453.089	124.25
453.31	116.25
453.53	102.25
453.751	89.25
453.971	87.25
454.192	110.25
454.412	100.25
454.633	82.25
454.853	70.25
455.073	91.25
455.294	86.25
455.514	90.25
455.734	99.25
455.955	75.25
456.175	80.25
456.395	76.25
456.616	73.25
456.836	89.25
457.056	88.25
457.276	82.25
457.497	67.25
457.717	75.25
457.937	100.25
458.157	95.25
458.377	91.25
458.598	110.25
458.818	149.25
459.038	155.25
459.258	110.25
459.478	83.25
459.698	85.25
459.918	81.25
460.138	88.25
460.358	85.25
460.578	83.25
460.798	94.25
461.018	69.25
461.238	90.25
461.458	79.25
461.678	87.25
461.898	88.25
462.118	73.25
462.338	70.25
462.558	92.25
462.777	89.25
462.997	82.25
463.217	101.25
463.437	83.25
463.657	88.25
463.876	93.25
464.096	80.25
464.316	98.25
464.536	102.25
464.755	76.25
464.975	96.25
465.195	151.25
465.414	139.25
465.634	88.25
465.854	93.25
466.073	79.25
466.293	89.25
466.512	82.25
466.732	85.25
466.951	89.25
467.171	102.25
467.391	101.25
467.61	109.25
467.829	126.25
468.049	220.25
468.268	296.25
468.488	130.25
468.707	82.25
468.927	84.25
469.146	69.25
469.365	76.25
469.585	96.25
469.804	100.25
470.023	99.25
470.243	89.25
470.462	93.25
470.681	95.25
470.901	84.25
471.12	83.25
471.339	88.25
471.558	88.25
471.777	93.25
471.997	140.25
472.216	392.25
472.435	803.25
472.654	238.25
472.873	97.25
473.092	66.25
473.311	77.25
473.53	91.25
473.749	93.25
473.968	91.25
474.187	111.25
474.406	89.25
474.625	92.25
474.844	87.25
475.063	91.25
475.282	88.25
475.501	78.25
475.72	91.25
475.939	93.25
476.158	82.25
476.377	89.25
476.596	76.25
476.814	92.25
477.033	96.25
477.252	88.25
477.471	87.25
477.69	101.25
477.908	89.25
478.127	78.25
478.346	86.25
478.564	91.25
478.783	84.25
479.002	89.25
479.22	98.25
479.439	97.25
479.658	101.25
479.876	85.25
480.095	88.25
480.313	91.25
480.532	119.25
480.751	159.25
480.969	406.25
481.188	1387.25
481.406	835.25
481.624	164.25
481.843	92.25
482.061	96.25
482.28	85.25
482.498	76.25
482.717	83.25
482.935	96.25
483.153	80.25
483.372	89.25
483.59	86.25
483.808	90.25
484.027	92.25
484.245	89.25
484.463	83.25
484.681	94.25
484.9	83.25
485.118	108.25
485.336	88.25
485.554	86.25
485.772	96.25
485.99	109.25
486.209	95.25
486.427	101.25
486.645	103.25
486.863	122.25
487.081	97.25
487.299	102.25
487.517	87.25
487.735	101.25
487.953	96.25
488.171	93.25
488.389	86.25
488.607	80.25
488.825	92.25
489.043	92.25
489.261	77.25
489.479	74.25
489.696	78.25
489.914	75.25
490.132	80.25
490.35	80.25
490.568	97.25
490.786	93.25
491.003	91.25
491.221	97.25
491.439	88.25
491.657	88.25
491.874	90.25
492.092	86.25
492.31	88.25
492.527	76.25
492.745	79.25
492.963	96.25
493.18	79.25
493.398	89.25
493.615	88.25
493.833	95.25
494.05	86.25
494.268	78.25
494.485	83.25
494.703	96.25
494.92	89.25
495.138	99.25
495.355	83.25
495.573	80.25
495.79	100.25
496.008	93.25
496.225	96.25
496.442	95.25
496.66	83.25
496.877	81.25
497.094	88.25
497.312	84.25
497.529	80.25
497.746	100.25
497.963	89.25
498.181	68.25
498.398	92.25
498.615	113.25
498.832	105.25
499.049	83.25
499.267	93.25
499.484	78.25
499.701	89.25
499.918	98.25
500.135	82.25
500.352	109.25
500.569	93.25
500.786	92.25
501.003	74.25
501.22	81.25
501.437	80.25
501.654	86.25
501.871	112.25
502.088	79.25
502.305	87.25
502.522	81.25
502.739	96.25
502.956	83.25
503.172	80.25
503.389	103.25
503.606	103.25
503.823	97.25
504.04	93.25
504.256	100.25
504.473	92.25
504.69	79.25
504.907	82.25
505.123	93.25
505.34	101.25
505.557	85.25
505.773	92.25
505.99	100.25
506.207	87.25
506.423	80.25
506.64	75.25
506.856	76.25
507.073	89.25
507.289	105.25
507.506	95.25
507.722	101.25
507.939	89.25
508.155	84.25
508.372	83.25
508.588	89.25
508.805	107.25
509.021	101.25
509.238	87.25
509.454	97.25
509.67	104.25
509.887	115.25
510.103	124.25
510.319	189.25
510.536	696.25
510.752	2027.25
510.968	590.25
511.184	145.25
511.401	105.25
511.617	108.25
511.833	88.25
512.049	83.25
512.265	82.25
512.481	94.25
512.698	86.25
512.914	94.25
513.13	87.25
513.346	98.25
513.562	97.25
513.778	91.25
513.994	89.25
514.21	99.25
514.426	110.25
514.642	134.25
514.858	124.25
515.074	150.25
515.29	424.25
515.506	1385.25
515.721	514.25
515.937	149.25
