Data from Circ_2004_H10_HRD10591_00046.txt Node
Date: Wed Jan 03 10:33:23 EST 2024
User: Yrep
Spectrometer: HR+D1059
Trigger mode: 1
Integration Time (sec): 1.000000E-1
Scans to average: 1
Electric dark correction enabled: true
Nonlinearity correction enabled: false
Boxcar width: 0
XAxis mode: Wavelengths
Number of Pixels in Spectrum: 2048
>>>>>Begin Spectral Data<<<<<
223.165	-12.81
223.4	-12.81
223.635	-12.81
223.869	-14.81
224.104	-11.81
224.338	-9.81
224.573	-10.81
224.808	-17.81
225.042	-3.81
225.277	-5.81
225.511	-5.81
225.746	4.19
225.98	2.19
226.215	20.19
226.449	7.19
226.683	23.19
226.918	17.19
227.152	19.19
227.387	39.19
227.621	34.19
227.856	34.19
228.09	38.19
228.324	56.19
228.559	53.19
228.793	168.19
229.027	444.19
229.262	538.19
229.496	628.19
229.73	828.19
229.964	851.19
230.199	540.19
230.433	489.19
230.667	493.19
230.901	465.19
231.136	452.19
231.37	464.19
231.604	436.19
231.838	471.19
232.072	462.19
232.306	481.19
232.541	476.19
232.775	464.19
233.009	481.19
233.243	480.19
233.477	487.19
233.711	503.19
233.945	511.19
234.179	514.19
234.413	532.19
234.647	548.19
234.881	533.19
235.115	533.19
235.349	562.19
235.583	567.19
235.817	608.19
236.051	678.19
236.285	628.19
236.519	611.19
236.753	684.19
236.987	927.19
237.221	1406.19
237.455	1552.19
237.689	917.19
237.922	760.19
238.156	737.19
238.39	670.19
238.624	661.19
238.858	690.19
239.091	701.19
239.325	718.19
239.559	719.19
239.793	721.19
240.027	810.19
240.26	934.19
240.494	1004.19
240.728	957.19
240.961	908.19
241.195	816.19
241.429	821.19
241.662	801.19
241.896	800.19
242.13	810.19
242.363	854.19
242.597	830.19
242.83	851.19
243.064	855.19
243.298	878.19
243.531	856.19
243.765	882.19
243.998	900.19
244.232	877.19
244.465	923.19
244.699	968.19
244.932	958.19
245.166	925.19
245.399	932.19
245.633	957.19
245.866	945.19
246.099	982.19
246.333	969.19
246.566	1002.19
246.8	998.19
247.033	1048.19
247.266	1100.19
247.5	1118.19
247.733	1215.19
247.966	1196.19
248.2	1180.19
248.433	1188.19
248.666	1269.19
248.899	1454.19
249.133	1552.19
249.366	1575.19
249.599	1468.19
249.832	1442.19
250.066	1600.19
250.299	1960.19
250.532	2581.19
250.765	2556.19
250.998	2265.19
251.231	1925.19
251.465	1672.19
251.698	1584.19
251.931	1549.19
252.164	1504.19
252.397	1518.19
252.63	1548.19
252.863	1613.19
253.096	1768.19
253.329	1828.19
253.562	1713.19
253.795	1630.19
254.028	1676.19
254.261	1730.19
254.494	1910.19
254.727	2300.19
254.96	2412.19
255.193	2160.19
255.426	2121.19
255.659	2450.19
255.892	3488.19
256.124	4507.19
256.357	3767.19
256.59	2743.19
256.823	2241.19
257.056	2024.19
257.289	1898.19
257.521	1856.19
257.754	1830.19
257.987	1748.19
258.22	1712.19
258.452	1720.19
258.685	1737.19
258.918	1676.19
259.151	1712.19
259.383	1805.19
259.616	1792.19
259.849	1870.19
260.081	2056.19
260.314	2160.19
260.547	2101.19
260.779	1921.19
261.012	1856.19
261.244	1809.19
261.477	1790.19
261.71	1760.19
261.942	1844.19
262.175	1875.19
262.407	1813.19
262.64	1740.19
262.872	1744.19
263.105	1725.19
263.337	1729.19
263.57	1699.19
263.802	1747.19
264.035	1754.19
264.267	1770.19
264.499	1732.19
264.732	1790.19
264.964	1776.19
265.197	1792.19
265.429	1795.19
265.661	1786.19
265.894	1823.19
266.126	1801.19
266.358	1846.19
266.591	1885.19
266.823	1937.19
267.055	1973.19
267.287	1934.19
267.52	1928.19
267.752	1909.19
267.984	1948.19
268.216	1947.19
268.448	1991.19
268.681	2060.19
268.913	2172.19
269.145	2383.19
269.377	2432.19
269.609	2337.19
269.841	2317.19
270.073	2428.19
270.306	2729.19
270.538	2880.19
270.77	2688.19
271.002	2527.19
271.234	2476.19
271.466	2608.19
271.698	2773.19
271.93	2770.19
272.162	2764.19
272.394	2690.19
272.626	2556.19
272.858	2405.19
273.09	2359.19
273.322	2322.19
273.553	2270.19
273.785	2315.19
274.017	2313.19
274.249	2396.19
274.481	2382.19
274.713	2400.19
274.945	2418.19
275.176	2477.19
275.408	2493.19
275.64	2503.19
275.872	2504.19
276.104	2544.19
276.335	2570.19
276.567	2693.19
276.799	2924.19
277.031	3196.19
277.262	3319.19
277.494	3186.19
277.726	2900.19
277.957	2742.19
278.189	2637.19
278.421	2590.19
278.652	2605.19
278.884	2585.19
279.115	2591.19
279.347	2617.19
279.579	2656.19
279.81	2707.19
280.042	2842.19
280.273	3048.19
280.505	2946.19
280.736	2816.19
280.968	2703.19
281.199	2710.19
281.431	2707.19
281.662	2645.19
281.894	2672.19
282.125	2686.19
282.356	2852.19
282.588	3017.19
282.819	2860.19
283.051	2739.19
283.282	2666.19
283.513	2692.19
283.745	2743.19
283.976	2788.19
284.207	2786.19
284.439	2776.19
284.67	2772.19
284.901	2775.19
285.132	2769.19
285.364	2761.19
285.595	2801.19
285.826	2794.19
286.057	2829.19
286.288	2819.19
286.52	2822.19
286.751	2806.19
286.982	2888.19
287.213	2904.19
287.444	2891.19
287.675	2948.19
287.906	2996.19
288.138	3091.19
288.369	3020.19
288.6	3020.19
288.831	3011.19
289.062	2998.19
289.293	3011.19
289.524	2931.19
289.755	2969.19
289.986	2986.19
290.217	2910.19
290.448	2954.19
290.679	2985.19
290.91	2924.19
291.141	2943.19
291.371	2916.19
291.602	2892.19
291.833	2919.19
292.064	2918.19
292.295	2904.19
292.526	2920.19
292.757	2932.19
292.987	2911.19
293.218	2894.19
293.449	2994.19
293.68	2931.19
293.91	2984.19
294.141	2936.19
294.372	2896.19
294.603	2976.19
294.833	2987.19
295.064	2989.19
295.295	2981.19
295.525	3010.19
295.756	3067.19
295.987	3168.19
296.217	3318.19
296.448	3246.19
296.679	3125.19
296.909	3059.19
297.14	3074.19
297.37	3180.19
297.601	3165.19
297.831	3114.19
298.062	3160.19
298.292	3167.19
298.523	3206.19
298.753	3221.19
298.984	3182.19
299.214	3212.19
299.445	3205.19
299.675	3267.19
299.905	3279.19
300.136	3256.19
300.366	3247.19
300.597	3293.19
300.827	3421.19
301.057	3444.19
301.288	3481.19
301.518	3436.19
301.748	3494.19
301.979	3557.19
302.209	3532.19
302.439	3520.19
302.669	3472.19
302.9	3398.19
303.13	3433.19
303.36	3515.19
303.59	3535.19
303.82	3640.19
304.051	3521.19
304.281	3467.19
304.511	3406.19
304.741	3410.19
304.971	3482.19
305.201	3413.19
305.431	3380.19
305.661	3393.19
305.891	3351.19
306.121	3393.19
306.352	3550.19
306.582	3498.19
306.812	3378.19
307.042	3471.19
307.272	3575.19
307.502	3648.19
307.731	3605.19
307.961	3550.19
308.191	3500.19
308.421	3437.19
308.651	3496.19
308.881	3437.19
309.111	3528.19
309.341	3500.19
309.571	3633.19
309.8	3646.19
310.03	3727.19
310.26	3795.19
310.49	3727.19
310.72	3904.19
310.949	4015.19
311.179	3978.19
311.409	3786.19
311.639	3808.19
311.868	3843.19
312.098	3912.19
312.328	3975.19
312.557	4090.19
312.787	4256.19
313.017	4106.19
313.246	4016.19
313.476	3837.19
313.706	3945.19
313.935	4048.19
314.165	4121.19
314.394	4137.19
314.624	4093.19
314.853	4017.19
315.083	3934.19
315.312	3900.19
315.542	3831.19
315.771	3852.19
316.001	3834.19
316.23	3800.19
316.46	3816.19
316.689	3908.19
316.919	3883.19
317.148	3997.19
317.377	3987.19
317.607	3925.19
317.836	3905.19
318.065	3852.19
318.295	3910.19
318.524	3857.19
318.753	3805.19
318.983	3955.19
319.212	3879.19
319.441	3949.19
319.67	3952.19
319.9	3848.19
320.129	3941.19
320.358	3891.19
320.587	3936.19
320.816	4017.19
321.046	4050.19
321.275	4050.19
321.504	4056.19
321.733	4111.19
321.962	4128.19
322.191	4298.19
322.42	4436.19
322.649	4473.19
322.878	4530.19
323.108	4679.19
323.337	4976.19
323.566	5082.19
323.795	5465.19
324.024	6020.19
324.253	7975.19
324.482	11843.19
324.71	15610.19
324.939	15610.19
325.168	13840.19
325.397	7089.19
325.626	5667.19
325.855	5334.19
326.084	5249.19
326.313	5274.19
326.542	5468.19
326.77	6194.19
326.999	7945.19
327.228	11398.19
327.457	15262.19
327.686	14804.19
327.914	9026.19
328.143	8328.19
328.372	8722.19
328.6	7446.19
328.829	6576.19
329.058	6798.19
329.287	6792.19
329.515	6756.19
329.744	7337.19
329.972	8910.19
330.201	11248.19
330.43	12610.19
330.658	9658.19
330.887	8000.19
331.115	6948.19
331.344	6152.19
331.572	5928.19
331.801	5909.19
332.03	5872.19
332.258	5848.19
332.486	5906.19
332.715	6006.19
332.943	6290.19
333.172	6595.19
333.4	7008.19
333.629	7582.19
333.857	8420.19
334.085	10123.19
334.314	12772.19
334.542	14857.19
334.771	14176.19
334.999	9446.19
335.227	7474.19
335.455	6645.19
335.684	6176.19
335.912	5902.19
336.14	5756.19
336.369	5574.19
336.597	5645.19
336.825	5558.19
337.053	5340.19
337.281	5175.19
337.51	5174.19
337.738	5140.19
337.966	5123.19
338.194	5079.19
338.422	5026.19
338.65	4839.19
338.878	4864.19
339.106	4816.19
339.334	4774.19
339.562	4725.19
339.79	4656.19
340.018	4690.19
340.246	4687.19
340.474	4685.19
340.702	4648.19
340.93	4554.19
341.158	4678.19
341.386	4668.19
341.614	4641.19
341.842	4602.19
342.07	4559.19
342.298	4499.19
342.526	4492.19
342.754	4488.19
342.981	4518.19
343.209	4673.19
343.437	4847.19
343.665	5048.19
343.893	5354.19
344.12	5348.19
344.348	5093.19
344.576	4984.19
344.804	4872.19
345.031	4777.19
345.259	4887.19
345.487	4717.19
345.714	4577.19
345.942	4440.19
346.17	4472.19
346.397	4367.19
346.625	4373.19
346.853	4374.19
347.08	4336.19
347.308	4378.19
347.535	4516.19
347.763	4555.19
347.99	4461.19
348.218	4470.19
348.445	4529.19
348.673	4484.19
348.9	4320.19
349.128	4300.19
349.355	4166.19
349.583	4240.19
349.81	4162.19
350.037	4262.19
350.265	4168.19
350.492	4212.19
350.72	4188.19
350.947	4291.19
351.174	4408.19
351.402	4460.19
351.629	4369.19
351.856	4321.19
352.083	4430.19
352.311	4472.19
352.538	4439.19
352.765	4437.19
352.992	4356.19
353.22	4285.19
353.447	4262.19
353.674	4197.19
353.901	4047.19
354.128	4144.19
354.355	4125.19
354.583	4162.19
354.81	4078.19
355.037	4084.19
355.264	4092.19
355.491	4108.19
355.718	4054.19
355.945	4078.19
356.172	4109.19
356.399	4113.19
356.626	4096.19
356.853	4085.19
357.08	4060.19
357.307	4102.19
357.534	4062.19
357.761	4116.19
357.988	4105.19
358.215	4078.19
358.441	4153.19
358.668	4147.19
358.895	4155.19
359.122	4228.19
359.349	4304.19
359.576	4436.19
359.802	4620.19
360.029	4898.19
360.256	4852.19
360.483	4631.19
360.709	4424.19
360.936	4382.19
361.163	4340.19
361.39	4432.19
361.616	4386.19
361.843	4361.19
362.07	4350.19
362.296	4404.19
362.523	4356.19
362.749	4305.19
362.976	4315.19
363.203	4232.19
363.429	4245.19
363.656	4265.19
363.882	4223.19
364.109	4262.19
364.335	4140.19
364.562	4173.19
364.788	4171.19
365.015	4205.19
365.241	4194.19
365.468	4265.19
365.694	4322.19
365.92	4237.19
366.147	4190.19
366.373	4220.19
366.599	4213.19
366.826	4160.19
367.052	4166.19
367.278	4183.19
367.505	4247.19
367.731	4269.19
367.957	4163.19
368.184	4309.19
368.41	4306.19
368.636	4400.19
368.862	4469.19
369.089	4290.19
369.315	4317.19
369.541	4325.19
369.767	4392.19
369.993	4332.19
370.219	4325.19
370.445	4348.19
370.672	4374.19
370.898	4384.19
371.124	4422.19
371.35	4481.19
371.576	4466.19
371.802	4367.19
372.028	4379.19
372.254	4480.19
372.48	4420.19
372.706	4579.19
372.932	4623.19
373.158	4521.19
373.384	4581.19
373.61	4495.19
373.835	4550.19
374.061	4476.19
374.287	4549.19
374.513	4604.19
374.739	4729.19
374.965	4846.19
375.191	4824.19
375.416	4780.19
375.642	4636.19
375.868	4626.19
376.094	4512.19
376.319	4488.19
376.545	4497.19
376.771	4439.19
376.997	4448.19
377.222	4458.19
377.448	4345.19
377.674	4329.19
377.899	4405.19
378.125	4388.19
378.35	4300.19
378.576	4357.19
378.802	4361.19
379.027	4342.19
379.253	4426.19
379.478	4366.19
379.704	4406.19
379.929	4362.19
380.155	4424.19
380.38	4434.19
380.606	4440.19
380.831	4363.19
381.057	4445.19
381.282	4396.19
381.507	4428.19
381.733	4463.19
381.958	4575.19
382.184	4601.19
382.409	4611.19
382.634	4670.19
382.86	4694.19
383.085	4728.19
383.31	4722.19
383.535	4890.19
383.761	4884.19
383.986	5007.19
384.211	5126.19
384.436	5144.19
384.662	5133.19
384.887	5255.19
385.112	5208.19
385.337	5331.19
385.562	5384.19
385.787	5416.19
386.013	5468.19
386.238	5440.19
386.463	5386.19
386.688	5412.19
386.913	5308.19
387.138	5293.19
387.363	5271.19
387.588	5196.19
387.813	5228.19
388.038	5211.19
388.263	5325.19
388.488	5275.19
388.713	5306.19
388.938	5218.19
389.163	5213.19
389.387	5196.19
389.612	5125.19
389.837	5129.19
390.062	5139.19
390.287	5197.19
390.512	5210.19
390.736	5170.19
390.961	5329.19
391.186	5370.19
391.411	5583.19
391.636	5676.19
391.86	5867.19
392.085	5879.19
392.31	5792.19
392.534	5652.19
392.759	5612.19
392.984	5502.19
393.208	5444.19
393.433	5448.19
393.658	5434.19
393.882	5441.19
394.107	5452.19
394.331	5534.19
394.556	5544.19
394.78	5604.19
395.005	5671.19
395.229	5650.19
395.454	5912.19
395.678	5900.19
395.903	5901.19
396.127	6073.19
396.352	5804.19
396.576	5607.19
396.801	5560.19
397.025	5793.19
397.249	5853.19
397.474	5862.19
397.698	5975.19
397.922	6122.19
398.147	6206.19
398.371	6332.19
398.595	6408.19
398.82	6694.19
399.044	7232.19
399.268	7988.19
399.492	8994.19
399.717	9740.19
399.941	9475.19
400.165	8873.19
400.389	8210.19
400.613	7429.19
400.837	6932.19
401.062	6823.19
401.286	6751.19
401.51	6644.19
401.734	6653.19
401.958	6828.19
402.182	6886.19
402.406	6959.19
402.63	7046.19
402.854	7213.19
403.078	7317.19
403.302	7401.19
403.526	7478.19
403.75	7560.19
403.974	7626.19
404.198	7700.19
404.422	7945.19
404.645	7919.19
404.869	8219.19
405.093	8737.19
405.317	9327.19
405.541	9048.19
405.765	8252.19
405.988	7877.19
406.212	7854.19
406.436	7985.19
406.66	8088.19
406.883	7969.19
407.107	8560.19
407.331	9076.19
407.555	9514.19
407.778	9266.19
408.002	8418.19
408.226	8055.19
408.449	7974.19
408.673	7959.19
408.896	8065.19
409.12	8204.19
409.344	7680.19
409.567	7396.19
409.791	7356.19
410.014	7247.19
410.238	7173.19
410.461	7194.19
410.685	7264.19
410.908	7295.19
411.132	7648.19
411.355	7657.19
411.578	7259.19
411.802	7180.19
412.025	7411.19
412.249	7725.19
412.472	8393.19
412.695	8976.19
412.919	8176.19
413.142	7792.19
413.365	7463.19
413.589	7250.19
413.812	6938.19
414.035	6735.19
414.258	6816.19
414.482	6760.19
414.705	6838.19
414.928	6724.19
415.151	6633.19
415.374	6662.19
415.597	6571.19
415.821	6586.19
416.044	6552.19
416.267	6622.19
416.49	6475.19
416.713	6349.19
416.936	6498.19
417.159	6540.19
417.382	6779.19
417.605	6777.19
417.828	7030.19
418.051	6930.19
418.274	6633.19
418.497	6585.19
418.72	6803.19
418.943	6760.19
419.166	7136.19
419.389	7624.19
419.611	7550.19
419.834	7528.19
420.057	7718.19
420.28	7942.19
420.503	7768.19
420.726	7533.19
420.948	7428.19
421.171	7598.19
421.394	7438.19
421.617	6798.19
421.839	6773.19
422.062	6932.19
422.285	7024.19
422.507	7690.19
422.73	8190.19
422.953	7510.19
423.175	7184.19
423.398	7162.19
423.621	7183.19
423.843	7472.19
424.066	7314.19
424.288	7300.19
424.511	7479.19
424.733	7953.19
424.956	8408.19
425.178	7853.19
425.401	8132.19
425.623	7990.19
425.846	6964.19
426.068	6791.19
426.291	6743.19
426.513	6792.19
426.735	6796.19
426.958	7375.19
427.18	8265.19
427.402	9518.19
427.625	9917.19
427.847	9160.19
428.069	8789.19
428.292	7356.19
428.514	6527.19
428.736	6329.19
428.958	6255.19
429.181	5970.19
429.403	6051.19
429.625	6204.19
429.847	6471.19
430.069	7055.19
430.292	6549.19
430.514	6008.19
430.736	5922.19
430.958	5925.19
431.18	5845.19
431.402	5845.19
431.624	5801.19
431.846	5859.19
432.068	5844.19
432.29	5898.19
432.512	5896.19
432.734	5995.19
432.956	5877.19
433.178	5971.19
433.4	6010.19
433.622	5844.19
433.844	5906.19
434.066	5873.19
434.287	6031.19
434.509	6252.19
434.731	6419.19
434.953	6617.19
435.175	6777.19
435.397	6738.19
435.618	6713.19
435.84	7220.19
436.062	8116.19
436.284	7984.19
436.505	6735.19
436.727	6458.19
436.949	6108.19
437.17	6041.19
437.392	5862.19
437.614	6021.19
437.835	6562.19
438.057	7521.19
438.278	8204.19
438.5	8096.19
438.721	9066.19
438.943	7807.19
439.165	6584.19
439.386	6468.19
439.608	6383.19
439.829	6550.19
440.05	6976.19
440.272	7399.19
440.493	6615.19
440.715	6385.19
440.936	6234.19
441.158	6305.19
441.379	6405.19
441.6	6747.19
441.822	6952.19
442.043	7446.19
442.264	8236.19
442.486	7948.19
442.707	7005.19
442.928	6883.19
443.149	7180.19
443.371	7407.19
443.592	7889.19
443.813	8942.19
444.034	8862.19
444.255	7573.19
444.476	7419.19
444.698	7629.19
444.919	7647.19
445.14	7572.19
445.361	7402.19
445.582	7696.19
445.803	8368.19
446.024	9096.19
446.245	8746.19
446.466	7711.19
446.687	6606.19
446.908	6304.19
447.129	5905.19
447.35	5790.19
447.571	5802.19
447.792	5618.19
448.013	5761.19
448.234	5997.19
448.455	6693.19
448.675	7942.19
448.896	8437.19
449.117	6865.19
449.338	7140.19
449.559	8500.19
449.779	8780.19
450	6652.19
450.221	5840.19
450.442	5624.19
450.662	5565.19
450.883	5707.19
451.104	5876.19
451.324	5655.19
451.545	5496.19
451.766	5352.19
451.986	5266.19
452.207	5140.19
452.428	5262.19
452.648	5172.19
452.869	5217.19
453.089	5298.19
453.31	5389.19
453.53	5219.19
453.751	5130.19
453.971	5214.19
454.192	5315.19
454.412	5089.19
454.633	5083.19
454.853	5033.19
455.073	5117.19
455.294	5529.19
455.514	6086.19
455.734	5489.19
455.955	4922.19
456.175	4830.19
456.395	4741.19
456.616	4825.19
456.836	4782.19
457.056	4808.19
457.276	4778.19
457.497	4975.19
457.717	4888.19
457.937	4956.19
458.157	5060.19
458.377	5192.19
458.598	5532.19
458.818	6292.19
459.038	7133.19
459.258	7062.19
459.478	6158.19
459.698	5938.19
459.918	6036.19
460.138	6169.19
460.358	6379.19
460.578	6450.19
460.798	6472.19
461.018	6549.19
461.238	6369.19
461.458	6451.19
461.678	6328.19
461.898	6542.19
462.118	6506.19
462.338	6825.19
462.558	6985.19
462.777	7269.19
462.997	7792.19
463.217	8252.19
463.437	8135.19
463.657	7481.19
463.876	7347.19
464.096	7273.19
464.316	7343.19
464.536	7413.19
464.755	7129.19
464.975	7084.19
465.195	7352.19
465.414	7520.19
465.634	6520.19
465.854	6064.19
466.073	5874.19
466.293	5677.19
466.512	5591.19
466.732	5415.19
466.951	5447.19
467.171	5431.19
467.391	5601.19
467.61	5758.19
467.829	5931.19
468.049	6495.19
468.268	7384.19
468.488	6185.19
468.707	5748.19
468.927	5529.19
469.146	5396.19
469.365	5357.19
469.585	5422.19
469.804	5633.19
470.023	5785.19
470.243	5693.19
470.462	5783.19
470.681	6028.19
470.901	5887.19
471.12	5758.19
471.339	5704.19
471.558	5772.19
471.777	5833.19
471.997	6156.19
472.216	8037.19
472.435	11738.19
472.654	9000.19
472.873	6872.19
473.092	6246.19
473.311	5952.19
473.53	5792.19
473.749	5790.19
473.968	6256.19
474.187	7344.19
474.406	6871.19
474.625	5705.19
474.844	5408.19
475.063	5409.19
475.282	5422.19
475.501	5463.19
475.72	5442.19
475.939	5513.19
476.158	5465.19
476.377	5481.19
476.596	5560.19
476.814	5687.19
477.033	5768.19
477.252	5804.19
477.471	5904.19
477.69	6002.19
477.908	6182.19
478.127	6300.19
478.346	6275.19
478.564	6433.19
478.783	6606.19
479.002	6763.19
479.22	6789.19
479.439	6897.19
479.658	6982.19
479.876	7114.19
480.095	7401.19
480.313	7914.19
480.532	7878.19
480.751	8237.19
480.969	10038.19
481.188	15042.19
481.406	15266.19
481.624	11033.19
481.843	9033.19
482.061	8087.19
482.28	7511.19
482.498	7094.19
482.717	6860.19
482.935	6794.19
483.153	6708.19
483.372	6633.19
483.59	6536.19
483.808	6576.19
484.027	6502.19
484.245	6514.19
484.463	6513.19
484.681	6616.19
484.9	6638.19
485.118	6716.19
485.336	6743.19
485.554	6774.19
485.772	6769.19
485.99	6755.19
486.209	6824.19
486.427	6802.19
486.645	6850.19
486.863	7022.19
487.081	6948.19
487.299	6886.19
487.517	6935.19
487.735	6884.19
