Data from Circ_2004_H10_HRD10591_00082.txt Node
Date: Wed Jan 03 10:33:30 EST 2024
User: Yrep
Spectrometer: HR+D1059
Trigger mode: 1
Integration Time (sec): 1.000000E-1
Scans to average: 1
Electric dark correction enabled: true
Nonlinearity correction enabled: false
Boxcar width: 0
XAxis mode: Wavelengths
Number of Pixels in Spectrum: 2048
>>>>>Begin Spectral Data<<<<<
223.165	-27.88
223.4	-27.88
223.635	-27.88
223.869	-12.88
224.104	-18.88
224.338	-19.88
224.573	-19.88
224.808	2.12
225.042	10.12
225.277	-3.88
225.511	-3.88
225.746	-6.88
225.98	2.12
226.215	15.12
226.449	18.12
226.683	20.12
226.918	17.12
227.152	29.12
227.387	38.12
227.621	40.12
227.856	45.12
228.09	50.12
228.324	46.12
228.559	57.12
228.793	49.12
229.027	41.12
229.262	76.12
229.496	60.12
229.73	82.12
229.964	76.12
230.199	62.12
230.433	66.12
230.667	91.12
230.901	84.12
231.136	74.12
231.37	83.12
231.604	93.12
231.838	82.12
232.072	75.12
232.306	69.12
232.541	76.12
232.775	93.12
233.009	77.12
233.243	79.12
233.477	88.12
233.711	83.12
233.945	80.12
234.179	90.12
234.413	91.12
234.647	78.12
234.881	80.12
235.115	81.12
235.349	83.12
235.583	76.12
235.817	73.12
236.051	81.12
236.285	82.12
236.519	92.12
236.753	77.12
236.987	85.12
237.221	102.12
237.455	79.12
237.689	90.12
237.922	83.12
238.156	76.12
238.39	68.12
238.624	84.12
238.858	80.12
239.091	71.12
239.325	73.12
239.559	64.12
239.793	86.12
240.027	70.12
240.26	62.12
240.494	75.12
240.728	81.12
240.961	73.12
241.195	95.12
241.429	73.12
241.662	65.12
241.896	66.12
242.13	56.12
242.363	73.12
242.597	71.12
242.83	69.12
243.064	68.12
243.298	71.12
243.531	86.12
243.765	75.12
243.998	90.12
244.232	80.12
244.465	76.12
244.699	80.12
244.932	84.12
245.166	75.12
245.399	76.12
245.633	62.12
245.866	84.12
246.099	80.12
246.333	92.12
246.566	83.12
246.8	74.12
247.033	73.12
247.266	84.12
247.5	73.12
247.733	79.12
247.966	77.12
248.2	79.12
248.433	92.12
248.666	93.12
248.899	97.12
249.133	98.12
249.366	88.12
249.599	82.12
249.832	76.12
250.066	62.12
250.299	82.12
250.532	92.12
250.765	81.12
250.998	81.12
251.231	86.12
251.465	71.12
251.698	86.12
251.931	77.12
252.164	96.12
252.397	71.12
252.63	82.12
252.863	86.12
253.096	81.12
253.329	84.12
253.562	84.12
253.795	78.12
254.028	68.12
254.261	76.12
254.494	71.12
254.727	86.12
254.96	81.12
255.193	62.12
255.426	82.12
255.659	78.12
255.892	88.12
256.124	87.12
256.357	82.12
256.59	76.12
256.823	78.12
257.056	83.12
257.289	79.12
257.521	89.12
257.754	88.12
257.987	75.12
258.22	93.12
258.452	91.12
258.685	95.12
258.918	81.12
259.151	87.12
259.383	74.12
259.616	80.12
259.849	95.12
260.081	75.12
260.314	86.12
260.547	88.12
260.779	76.12
261.012	81.12
261.244	95.12
261.477	96.12
261.71	89.12
261.942	111.12
262.175	117.12
262.407	87.12
262.64	93.12
262.872	80.12
263.105	92.12
263.337	78.12
263.57	81.12
263.802	76.12
264.035	88.12
264.267	84.12
264.499	79.12
264.732	87.12
264.964	91.12
265.197	90.12
265.429	87.12
265.661	80.12
265.894	76.12
266.126	76.12
266.358	81.12
266.591	70.12
266.823	94.12
267.055	92.12
267.287	70.12
267.52	71.12
267.752	74.12
267.984	84.12
268.216	72.12
268.448	79.12
268.681	82.12
268.913	82.12
269.145	98.12
269.377	105.12
269.609	88.12
269.841	81.12
270.073	86.12
270.306	80.12
270.538	86.12
270.77	84.12
271.002	84.12
271.234	87.12
271.466	79.12
271.698	78.12
271.93	78.12
272.162	88.12
272.394	85.12
272.626	88.12
272.858	93.12
273.09	80.12
273.322	80.12
273.553	78.12
273.785	54.12
274.017	72.12
274.249	89.12
274.481	81.12
274.713	97.12
274.945	98.12
275.176	93.12
275.408	93.12
275.64	101.12
275.872	95.12
276.104	90.12
276.335	97.12
276.567	88.12
276.799	98.12
277.031	113.12
277.262	136.12
277.494	112.12
277.726	84.12
277.957	89.12
278.189	85.12
278.421	90.12
278.652	94.12
278.884	105.12
279.115	80.12
279.347	83.12
279.579	83.12
279.81	96.12
280.042	136.12
280.273	164.12
280.505	131.12
280.736	96.12
280.968	86.12
281.199	94.12
281.431	88.12
281.662	93.12
281.894	101.12
282.125	89.12
282.356	110.12
282.588	150.12
282.819	115.12
283.051	86.12
283.282	95.12
283.513	90.12
283.745	79.12
283.976	91.12
284.207	101.12
284.439	90.12
284.67	84.12
284.901	83.12
285.132	76.12
285.364	89.12
285.595	87.12
285.826	75.12
286.057	77.12
286.288	102.12
286.52	87.12
286.751	82.12
286.982	86.12
287.213	89.12
287.444	91.12
287.675	82.12
287.906	76.12
288.138	92.12
288.369	93.12
288.6	86.12
288.831	90.12
289.062	89.12
289.293	82.12
289.524	93.12
289.755	90.12
289.986	82.12
290.217	87.12
290.448	93.12
290.679	84.12
290.91	73.12
291.141	96.12
291.371	98.12
291.602	79.12
291.833	75.12
292.064	84.12
292.295	79.12
292.526	97.12
292.757	79.12
292.987	90.12
293.218	87.12
293.449	95.12
293.68	92.12
293.91	91.12
294.141	98.12
294.372	92.12
294.603	89.12
294.833	84.12
295.064	85.12
295.295	87.12
295.525	79.12
295.756	95.12
295.987	115.12
296.217	141.12
296.448	110.12
296.679	93.12
296.909	84.12
297.14	102.12
297.37	82.12
297.601	90.12
297.831	100.12
298.062	93.12
298.292	89.12
298.523	87.12
298.753	82.12
298.984	89.12
299.214	74.12
299.445	86.12
299.675	99.12
299.905	93.12
300.136	88.12
300.366	89.12
300.597	89.12
300.827	102.12
301.057	85.12
301.288	119.12
301.518	90.12
301.748	90.12
301.979	86.12
302.209	75.12
302.439	88.12
302.669	82.12
302.9	99.12
303.13	86.12
303.36	91.12
303.59	111.12
303.82	120.12
304.051	107.12
304.281	86.12
304.511	93.12
304.741	105.12
304.971	82.12
305.201	80.12
305.431	101.12
305.661	108.12
305.891	98.12
306.121	89.12
306.352	87.12
306.582	92.12
306.812	89.12
307.042	99.12
307.272	133.12
307.502	126.12
307.731	120.12
307.961	100.12
308.191	80.12
308.421	81.12
308.651	99.12
308.881	86.12
309.111	75.12
309.341	96.12
309.571	95.12
309.8	101.12
310.03	103.12
310.26	98.12
310.49	85.12
310.72	109.12
310.949	93.12
311.179	102.12
311.409	93.12
311.639	102.12
311.868	101.12
312.098	83.12
312.328	81.12
312.557	97.12
312.787	105.12
313.017	104.12
313.246	85.12
313.476	90.12
313.706	99.12
313.935	87.12
314.165	92.12
314.394	112.12
314.624	97.12
314.853	85.12
315.083	113.12
315.312	110.12
315.542	99.12
315.771	92.12
316.001	94.12
316.23	88.12
316.46	88.12
316.689	89.12
316.919	102.12
317.148	93.12
317.377	83.12
317.607	96.12
317.836	89.12
318.065	88.12
318.295	93.12
318.524	100.12
318.753	86.12
318.983	90.12
319.212	99.12
319.441	113.12
319.67	104.12
319.9	102.12
320.129	92.12
320.358	95.12
320.587	95.12
320.816	103.12
321.046	98.12
321.275	87.12
321.504	97.12
321.733	92.12
321.962	89.12
322.191	97.12
322.42	102.12
322.649	116.12
322.878	118.12
323.108	122.12
323.337	120.12
323.566	139.12
323.795	154.12
324.024	222.12
324.253	423.12
324.482	866.12
324.71	1796.12
324.939	2440.12
325.168	857.12
325.397	263.12
325.626	149.12
325.855	110.12
326.084	144.12
326.313	131.12
326.542	139.12
326.77	239.12
326.999	475.12
327.228	962.12
327.457	1760.12
327.686	1428.12
327.914	426.12
328.143	326.12
328.372	338.12
328.6	224.12
328.829	141.12
329.058	154.12
329.287	149.12
329.515	135.12
329.744	168.12
329.972	264.12
330.201	447.12
330.43	682.12
330.658	340.12
330.887	178.12
331.115	142.12
331.344	108.12
331.572	110.12
331.801	108.12
332.03	101.12
332.258	107.12
332.486	103.12
332.715	103.12
332.943	116.12
333.172	99.12
333.4	110.12
333.629	128.12
333.857	142.12
334.085	248.12
334.314	458.12
334.542	832.12
334.771	780.12
334.999	240.12
335.227	119.12
335.455	99.12
335.684	84.12
335.912	98.12
336.14	99.12
336.369	89.12
336.597	107.12
336.825	98.12
337.053	98.12
337.281	95.12
337.51	96.12
337.738	86.12
337.966	100.12
338.194	99.12
338.422	95.12
338.65	96.12
338.878	90.12
339.106	89.12
339.334	94.12
339.562	98.12
339.79	90.12
340.018	103.12
340.246	87.12
340.474	90.12
340.702	92.12
340.93	98.12
341.158	91.12
341.386	69.12
341.614	88.12
341.842	106.12
342.07	93.12
342.298	88.12
342.526	95.12
342.754	74.12
342.981	81.12
343.209	90.12
343.437	105.12
343.665	90.12
343.893	90.12
344.12	98.12
344.348	87.12
344.576	92.12
344.804	100.12
345.031	98.12
345.259	89.12
345.487	99.12
345.714	95.12
345.942	101.12
346.17	93.12
346.397	80.12
346.625	90.12
346.853	91.12
347.08	94.12
347.308	98.12
347.535	93.12
347.763	89.12
347.99	90.12
348.218	89.12
348.445	114.12
348.673	89.12
348.9	91.12
349.128	82.12
349.355	102.12
349.583	74.12
349.81	96.12
350.037	89.12
350.265	88.12
350.492	86.12
350.72	98.12
350.947	85.12
351.174	90.12
351.402	111.12
351.629	103.12
351.856	97.12
352.083	85.12
352.311	105.12
352.538	110.12
352.765	109.12
352.992	108.12
353.22	106.12
353.447	107.12
353.674	110.12
353.901	88.12
354.128	93.12
354.355	94.12
354.583	98.12
354.81	81.12
355.037	94.12
355.264	98.12
355.491	84.12
355.718	95.12
355.945	90.12
356.172	89.12
356.399	103.12
356.626	98.12
356.853	94.12
357.08	96.12
357.307	98.12
357.534	94.12
357.761	82.12
357.988	87.12
358.215	100.12
358.441	93.12
358.668	90.12
358.895	95.12
359.122	82.12
359.349	86.12
359.576	102.12
359.802	100.12
360.029	113.12
360.256	103.12
360.483	95.12
360.709	87.12
360.936	97.12
361.163	92.12
361.39	94.12
361.616	104.12
361.843	84.12
362.07	101.12
362.296	101.12
362.523	94.12
362.749	98.12
362.976	85.12
363.203	95.12
363.429	86.12
363.656	89.12
363.882	105.12
364.109	85.12
364.335	84.12
364.562	98.12
364.788	99.12
365.015	103.12
365.241	109.12
365.468	102.12
365.694	124.12
365.92	87.12
366.147	101.12
366.373	84.12
366.599	86.12
366.826	85.12
367.052	93.12
367.278	96.12
367.505	93.12
367.731	93.12
367.957	89.12
368.184	101.12
368.41	103.12
368.636	112.12
368.862	115.12
369.089	104.12
369.315	117.12
369.541	95.12
369.767	85.12
369.993	87.12
370.219	84.12
370.445	85.12
370.672	77.12
370.898	92.12
371.124	89.12
371.35	90.12
371.576	81.12
371.802	98.12
372.028	90.12
372.254	74.12
372.48	86.12
372.706	84.12
372.932	89.12
373.158	89.12
373.384	88.12
373.61	84.12
373.835	87.12
374.061	87.12
374.287	98.12
374.513	106.12
374.739	87.12
374.965	88.12
375.191	76.12
375.416	80.12
375.642	95.12
375.868	90.12
376.094	92.12
376.319	96.12
376.545	87.12
376.771	90.12
376.997	77.12
377.222	81.12
377.448	87.12
377.674	92.12
377.899	94.12
378.125	87.12
378.35	94.12
378.576	87.12
378.802	89.12
379.027	100.12
379.253	98.12
379.478	93.12
379.704	99.12
379.929	84.12
380.155	86.12
380.38	88.12
380.606	87.12
380.831	98.12
381.057	91.12
381.282	85.12
381.507	92.12
381.733	105.12
381.958	94.12
382.184	96.12
382.409	111.12
382.634	103.12
382.86	86.12
383.085	94.12
383.31	103.12
383.535	95.12
383.761	91.12
383.986	113.12
384.211	90.12
384.436	102.12
384.662	90.12
384.887	96.12
385.112	105.12
385.337	103.12
385.562	118.12
385.787	94.12
386.013	103.12
386.238	113.12
386.463	104.12
386.688	104.12
386.913	87.12
387.138	106.12
387.363	89.12
387.588	103.12
387.813	104.12
388.038	100.12
388.263	101.12
388.488	95.12
388.713	86.12
388.938	88.12
389.163	102.12
389.387	109.12
389.612	105.12
389.837	89.12
390.062	106.12
390.287	90.12
390.512	93.12
390.736	88.12
390.961	96.12
391.186	81.12
391.411	104.12
391.636	92.12
391.86	88.12
392.085	90.12
392.31	77.12
392.534	90.12
392.759	75.12
392.984	102.12
393.208	80.12
393.433	124.12
393.658	108.12
393.882	90.12
394.107	82.12
394.331	99.12
394.556	76.12
394.78	80.12
395.005	86.12
395.229	99.12
395.454	95.12
395.678	77.12
395.903	84.12
396.127	94.12
396.352	93.12
396.576	93.12
396.801	94.12
397.025	87.12
397.249	80.12
397.474	89.12
397.698	85.12
397.922	84.12
398.147	95.12
398.371	98.12
398.595	69.12
398.82	92.12
399.044	94.12
399.268	81.12
399.492	83.12
399.717	89.12
399.941	92.12
400.165	102.12
400.389	78.12
400.613	72.12
400.837	73.12
401.062	78.12
401.286	81.12
401.51	85.12
401.734	84.12
401.958	108.12
402.182	135.12
402.406	154.12
402.63	132.12
402.854	90.12
403.078	85.12
403.302	85.12
403.526	79.12
403.75	89.12
403.974	92.12
404.198	86.12
404.422	90.12
404.645	90.12
404.869	89.12
405.093	103.12
405.317	116.12
405.541	121.12
405.765	101.12
405.988	126.12
406.212	153.12
406.436	244.12
406.66	144.12
406.883	95.12
407.107	90.12
407.331	100.12
407.555	97.12
407.778	92.12
408.002	89.12
408.226	88.12
408.449	86.12
408.673	94.12
408.896	84.12
409.12	90.12
409.344	100.12
409.567	83.12
409.791	87.12
410.014	97.12
410.238	104.12
410.461	92.12
410.685	101.12
410.908	100.12
411.132	99.12
411.355	109.12
411.578	94.12
411.802	95.12
412.025	106.12
412.249	90.12
412.472	89.12
412.695	125.12
412.919	100.12
413.142	101.12
413.365	93.12
413.589	85.12
413.812	80.12
414.035	90.12
414.258	75.12
414.482	90.12
414.705	85.12
414.928	80.12
415.151	79.12
415.374	97.12
415.597	88.12
415.821	83.12
416.044	75.12
416.267	89.12
416.49	84.12
416.713	84.12
416.936	93.12
417.159	101.12
417.382	80.12
417.605	95.12
417.828	97.12
418.051	105.12
418.274	99.12
418.497	87.12
418.72	81.12
418.943	81.12
419.166	89.12
419.389	97.12
419.611	94.12
419.834	82.12
420.057	82.12
420.28	88.12
420.503	88.12
420.726	90.12
420.948	98.12
421.171	94.12
421.394	90.12
421.617	81.12
421.839	81.12
422.062	82.12
422.285	101.12
422.507	96.12
422.73	104.12
422.953	102.12
423.175	85.12
423.398	76.12
423.621	83.12
423.843	83.12
424.066	84.12
424.288	82.12
424.511	86.12
424.733	89.12
424.956	92.12
425.178	112.12
425.401	93.12
425.623	103.12
425.846	96.12
426.068	96.12
426.291	89.12
426.513	90.12
426.735	89.12
426.958	102.12
427.18	108.12
427.402	146.12
427.625	188.12
427.847	183.12
428.069	177.12
428.292	100.12
428.514	94.12
428.736	97.12
428.958	88.12
429.181	90.12
429.403	74.12
429.625	79.12
429.847	95.12
430.069	104.12
430.292	103.12
430.514	94.12
430.736	91.12
430.958	81.12
431.18	80.12
431.402	85.12
431.624	94.12
431.846	93.12
432.068	87.12
432.29	76.12
432.512	101.12
432.734	92.12
432.956	78.12
433.178	107.12
433.4	97.12
433.622	95.12
433.844	92.12
434.066	101.12
434.287	109.12
434.509	99.12
434.731	70.12
434.953	85.12
435.175	98.12
435.397	92.12
435.618	96.12
435.84	96.12
436.062	109.12
436.284	121.12
436.505	107.12
436.727	113.12
436.949	88.12
437.17	88.12
437.392	96.12
437.614	99.12
437.835	120.12
438.057	114.12
438.278	113.12
438.5	106.12
438.721	122.12
438.943	94.12
439.165	86.12
439.386	88.12
439.608	79.12
439.829	104.12
440.05	133.12
440.272	158.12
440.493	105.12
440.715	97.12
440.936	74.12
441.158	80.12
441.379	85.12
441.6	90.12
441.822	100.12
442.043	76.12
442.264	110.12
442.486	111.12
442.707	108.12
442.928	104.12
443.149	122.12
443.371	146.12
443.592	110.12
443.813	112.12
444.034	101.12
444.255	90.12
444.476	80.12
444.698	84.12
444.919	84.12
445.14	140.12
445.361	126.12
445.582	111.12
445.803	134.12
446.024	132.12
446.245	131.12
446.466	119.12
446.687	85.12
446.908	86.12
447.129	91.12
447.35	89.12
447.571	90.12
447.792	85.12
448.013	113.12
448.234	112.12
448.455	90.12
448.675	114.12
448.896	127.12
449.117	97.12
449.338	103.12
449.559	135.12
449.779	125.12
450	89.12
450.221	83.12
450.442	86.12
450.662	90.12
450.883	104.12
451.104	122.12
451.324	112.12
451.545	85.12
451.766	80.12
451.986	88.12
452.207	92.12
452.428	95.12
452.648	99.12
452.869	92.12
453.089	108.12
453.31	112.12
453.53	100.12
453.751	86.12
453.971	102.12
454.192	103.12
454.412	101.12
454.633	74.12
454.853	84.12
455.073	96.12
455.294	80.12
455.514	111.12
455.734	81.12
455.955	75.12
456.175	79.12
456.395	88.12
456.616	91.12
456.836	81.12
457.056	76.12
457.276	78.12
457.497	90.12
457.717	81.12
457.937	86.12
458.157	97.12
458.377	87.12
458.598	94.12
458.818	161.12
459.038	161.12
459.258	129.12
459.478	88.12
459.698	83.12
459.918	84.12
460.138	80.12
460.358	94.12
460.578	88.12
460.798	90.12
461.018	97.12
461.238	82.12
461.458	90.12
461.678	82.12
461.898	91.12
462.118	84.12
462.338	77.12
462.558	100.12
462.777	78.12
462.997	94.12
463.217	95.12
463.437	94.12
463.657	81.12
463.876	90.12
464.096	98.12
464.316	99.12
464.536	90.12
464.755	100.12
464.975	105.12
465.195	179.12
465.414	161.12
465.634	90.12
465.854	82.12
466.073	89.12
466.293	80.12
466.512	96.12
466.732	91.12
466.951	84.12
467.171	92.12
467.391	95.12
467.61	115.12
467.829	125.12
468.049	301.12
468.268	406.12
468.488	140.12
468.707	82.12
468.927	103.12
469.146	90.12
469.365	88.12
469.585	100.12
469.804	102.12
470.023	103.12
470.243	97.12
470.462	112.12
470.681	118.12
470.901	83.12
471.12	93.12
471.339	106.12
471.558	100.12
471.777	104.12
471.997	160.12
472.216	542.12
472.435	1160.12
472.654	310.12
472.873	132.12
473.092	89.12
473.311	96.12
473.53	102.12
473.749	98.12
473.968	89.12
474.187	116.12
474.406	98.12
474.625	90.12
474.844	94.12
475.063	89.12
475.282	83.12
475.501	86.12
475.72	89.12
475.939	90.12
476.158	83.12
476.377	98.12
476.596	78.12
476.814	100.12
477.033	81.12
477.252	87.12
477.471	93.12
477.69	69.12
477.908	98.12
478.127	85.12
478.346	98.12
478.564	112.12
478.783	97.12
479.002	89.12
479.22	90.12
479.439	116.12
479.658	108.12
479.876	100.12
480.095	88.12
480.313	115.12
480.532	126.12
480.751	190.12
480.969	512.12
481.188	1938.12
481.406	1172.12
481.624	206.12
481.843	112.12
482.061	97.12
482.28	88.12
482.498	99.12
482.717	87.12
482.935	72.12
483.153	91.12
483.372	89.12
483.59	91.12
483.808	100.12
484.027	96.12
484.245	104.12
484.463	78.12
484.681	81.12
484.9	77.12
485.118	90.12
485.336	80.12
485.554	96.12
485.772	91.12
485.99	100.12
486.209	94.12
486.427	106.12
486.645	109.12
486.863	100.12
487.081	109.12
487.299	100.12
487.517	75.12
487.735	83.12
487.953	95.12
488.171	92.12
488.389	90.12
488.607	89.12
488.825	72.12
489.043	94.12
489.261	100.12
489.479	100.12
489.696	103.12
489.914	94.12
490.132	82.12
490.35	97.12
490.568	82.12
490.786	87.12
491.003	75.12
491.221	88.12
491.439	77.12
491.657	94.12
491.874	95.12
492.092	92.12
492.31	82.12
492.527	92.12
492.745	92.12
492.963	86.12
493.18	103.12
493.398	81.12
493.615	92.12
493.833	96.12
494.05	83.12
494.268	76.12
494.485	84.12
494.703	94.12
494.92	89.12
495.138	83.12
495.355	90.12
495.573	82.12
495.79	73.12
496.008	75.12
496.225	88.12
496.442	81.12
496.66	90.12
496.877	92.12
497.094	89.12
497.312	84.12
497.529	88.12
497.746	85.12
497.963	83.12
498.181	99.12
498.398	89.12
498.615	108.12
498.832	101.12
499.049	100.12
499.267	84.12
499.484	74.12
499.701	85.12
499.918	85.12
500.135	86.12
500.352	85.12
500.569	98.12
500.786	90.12
501.003	99.12
501.22	105.12
501.437	91.12
501.654	84.12
501.871	107.12
502.088	85.12
502.305	77.12
502.522	91.12
502.739	95.12
502.956	102.12
503.172	78.12
503.389	97.12
503.606	108.12
503.823	100.12
504.04	84.12
504.256	85.12
504.473	90.12
504.69	100.12
504.907	92.12
505.123	81.12
505.34	97.12
505.557	102.12
505.773	94.12
505.99	95.12
506.207	96.12
506.423	70.12
506.64	87.12
506.856	86.12
507.073	85.12
507.289	89.12
507.506	86.12
507.722	102.12
507.939	98.12
508.155	105.12
508.372	96.12
508.588	79.12
508.805	101.12
509.021	97.12
509.238	103.12
509.454	88.12
509.67	102.12
509.887	103.12
510.103	130.12
510.319	218.12
510.536	727.12
510.752	2285.12
510.968	642.12
511.184	157.12
511.401	102.12
511.617	90.12
511.833	98.12
512.049	89.12
512.265	103.12
512.481	106.12
512.698	87.12
512.914	102.12
513.13	95.12
513.346	93.12
513.562	94.12
513.778	101.12
513.994	98.12
514.21	113.12
514.426	131.12
514.642	147.12
514.858	123.12
515.074	157.12
