Data from Circ_2004_H10_HRD10591_00079.txt Node
Date: Wed Jan 03 10:33:30 EST 2024
User: Yrep
Spectrometer: HR+D1059
Trigger mode: 1
Integration Time (sec): 1.000000E-1
Scans to average: 1
Electric dark correction enabled: true
Nonlinearity correction enabled: false
Boxcar width: 0
XAxis mode: Wavelengths
Number of Pixels in Spectrum: 2048
>>>>>Begin Spectral Data<<<<<
223.165	-22.75
223.4	-22.75
223.635	-22.75
223.869	-20.75
224.104	-19.75
224.338	-18.75
224.573	-0.75
224.808	-17.75
225.042	-7.75
225.277	-13.75
225.511	-13.75
225.746	7.25
225.98	8.25
226.215	22.25
226.449	7.25
226.683	19.25
226.918	34.25
227.152	37.25
227.387	36.25
227.621	21.25
227.856	40.25
228.09	25.25
228.324	53.25
228.559	48.25
228.793	49.25
229.027	60.25
229.262	72.25
229.496	75.25
229.73	86.25
229.964	98.25
230.199	78.25
230.433	69.25
230.667	82.25
230.901	77.25
231.136	73.25
231.37	86.25
231.604	74.25
231.838	70.25
232.072	65.25
232.306	82.25
232.541	87.25
232.775	79.25
233.009	77.25
233.243	82.25
233.477	92.25
233.711	69.25
233.945	82.25
234.179	73.25
234.413	89.25
234.647	77.25
234.881	76.25
235.115	85.25
235.349	72.25
235.583	83.25
235.817	74.25
236.051	69.25
236.285	80.25
236.519	70.25
236.753	80.25
236.987	75.25
237.221	90.25
237.455	85.25
237.689	68.25
237.922	83.25
238.156	74.25
238.39	68.25
238.624	57.25
238.858	81.25
239.091	81.25
239.325	77.25
239.559	77.25
239.793	101.25
240.027	86.25
240.26	81.25
240.494	77.25
240.728	72.25
240.961	67.25
241.195	81.25
241.429	74.25
241.662	82.25
241.896	53.25
242.13	80.25
242.363	53.25
242.597	60.25
242.83	74.25
243.064	76.25
243.298	75.25
243.531	84.25
243.765	53.25
243.998	84.25
244.232	74.25
244.465	76.25
244.699	80.25
244.932	86.25
245.166	70.25
245.399	93.25
245.633	85.25
245.866	92.25
246.099	66.25
246.333	70.25
246.566	73.25
246.8	73.25
247.033	76.25
247.266	91.25
247.5	81.25
247.733	76.25
247.966	78.25
248.2	86.25
248.433	76.25
248.666	79.25
248.899	81.25
249.133	90.25
249.366	88.25
249.599	84.25
249.832	89.25
250.066	85.25
250.299	62.25
250.532	87.25
250.765	70.25
250.998	82.25
251.231	91.25
251.465	76.25
251.698	94.25
251.931	69.25
252.164	66.25
252.397	64.25
252.63	86.25
252.863	76.25
253.096	65.25
253.329	81.25
253.562	91.25
253.795	79.25
254.028	73.25
254.261	78.25
254.494	60.25
254.727	81.25
254.96	81.25
255.193	82.25
255.426	80.25
255.659	81.25
255.892	93.25
256.124	85.25
256.357	76.25
256.59	68.25
256.823	80.25
257.056	68.25
257.289	81.25
257.521	77.25
257.754	75.25
257.987	72.25
258.22	79.25
258.452	87.25
258.685	83.25
258.918	79.25
259.151	67.25
259.383	69.25
259.616	85.25
259.849	90.25
260.081	83.25
260.314	78.25
260.547	84.25
260.779	82.25
261.012	102.25
261.244	84.25
261.477	97.25
261.71	99.25
261.942	125.25
262.175	122.25
262.407	84.25
262.64	77.25
262.872	77.25
263.105	93.25
263.337	79.25
263.57	84.25
263.802	89.25
264.035	86.25
264.267	79.25
264.499	76.25
264.732	82.25
264.964	72.25
265.197	78.25
265.429	94.25
265.661	88.25
265.894	94.25
266.126	75.25
266.358	77.25
266.591	64.25
266.823	72.25
267.055	82.25
267.287	90.25
267.52	82.25
267.752	77.25
267.984	85.25
268.216	68.25
268.448	79.25
268.681	74.25
268.913	76.25
269.145	84.25
269.377	77.25
269.609	76.25
269.841	84.25
270.073	70.25
270.306	72.25
270.538	90.25
270.77	80.25
271.002	85.25
271.234	82.25
271.466	87.25
271.698	85.25
271.93	88.25
272.162	90.25
272.394	89.25
272.626	82.25
272.858	72.25
273.09	67.25
273.322	80.25
273.553	89.25
273.785	86.25
274.017	80.25
274.249	79.25
274.481	79.25
274.713	82.25
274.945	92.25
275.176	94.25
275.408	95.25
275.64	96.25
275.872	108.25
276.104	104.25
276.335	90.25
276.567	102.25
276.799	150.25
277.031	144.25
277.262	146.25
277.494	114.25
277.726	93.25
277.957	105.25
278.189	82.25
278.421	89.25
278.652	78.25
278.884	79.25
279.115	74.25
279.347	98.25
279.579	90.25
279.81	107.25
280.042	144.25
280.273	188.25
280.505	131.25
280.736	85.25
280.968	78.25
281.199	90.25
281.431	84.25
281.662	89.25
281.894	81.25
282.125	97.25
282.356	126.25
282.588	164.25
282.819	125.25
283.051	99.25
283.282	81.25
283.513	83.25
283.745	72.25
283.976	109.25
284.207	86.25
284.439	67.25
284.67	78.25
284.901	74.25
285.132	92.25
285.364	101.25
285.595	87.25
285.826	82.25
286.057	77.25
286.288	89.25
286.52	66.25
286.751	84.25
286.982	87.25
287.213	81.25
287.444	78.25
287.675	82.25
287.906	88.25
288.138	77.25
288.369	96.25
288.6	80.25
288.831	92.25
289.062	83.25
289.293	73.25
289.524	77.25
289.755	81.25
289.986	100.25
290.217	76.25
290.448	77.25
290.679	75.25
290.91	82.25
291.141	93.25
291.371	102.25
291.602	89.25
291.833	81.25
292.064	90.25
292.295	102.25
292.526	99.25
292.757	90.25
292.987	89.25
293.218	91.25
293.449	98.25
293.68	83.25
293.91	68.25
294.141	91.25
294.372	73.25
294.603	76.25
294.833	101.25
295.064	85.25
295.295	70.25
295.525	83.25
295.756	113.25
295.987	110.25
296.217	164.25
296.448	124.25
296.679	92.25
296.909	95.25
297.14	70.25
297.37	86.25
297.601	89.25
297.831	81.25
298.062	88.25
298.292	89.25
298.523	94.25
298.753	99.25
298.984	70.25
299.214	80.25
299.445	94.25
299.675	96.25
299.905	74.25
300.136	86.25
300.366	92.25
300.597	75.25
300.827	102.25
301.057	102.25
301.288	113.25
301.518	86.25
301.748	96.25
301.979	110.25
302.209	98.25
302.439	101.25
302.669	98.25
302.9	76.25
303.13	96.25
303.36	105.25
303.59	117.25
303.82	143.25
304.051	108.25
304.281	84.25
304.511	92.25
304.741	96.25
304.971	80.25
305.201	77.25
305.431	95.25
305.661	72.25
305.891	86.25
306.121	100.25
306.352	96.25
306.582	101.25
306.812	97.25
307.042	98.25
307.272	118.25
307.502	133.25
307.731	146.25
307.961	94.25
308.191	88.25
308.421	67.25
308.651	96.25
308.881	83.25
309.111	88.25
309.341	101.25
309.571	105.25
309.8	86.25
310.03	94.25
310.26	97.25
310.49	91.25
310.72	94.25
310.949	108.25
311.179	103.25
311.409	94.25
311.639	89.25
311.868	111.25
312.098	102.25
312.328	97.25
312.557	104.25
312.787	111.25
313.017	107.25
313.246	103.25
313.476	80.25
313.706	77.25
313.935	104.25
314.165	88.25
314.394	114.25
314.624	101.25
314.853	92.25
315.083	102.25
315.312	70.25
315.542	96.25
315.771	85.25
316.001	89.25
316.23	106.25
316.46	96.25
316.689	92.25
316.919	92.25
317.148	115.25
317.377	81.25
317.607	109.25
317.836	102.25
318.065	96.25
318.295	74.25
318.524	81.25
318.753	85.25
318.983	90.25
319.212	79.25
319.441	110.25
319.67	104.25
319.9	84.25
320.129	84.25
320.358	78.25
320.587	93.25
320.816	100.25
321.046	92.25
321.275	91.25
321.504	104.25
321.733	108.25
321.962	92.25
322.191	101.25
322.42	114.25
322.649	120.25
322.878	117.25
323.108	136.25
323.337	136.25
323.566	158.25
323.795	175.25
324.024	220.25
324.253	470.25
324.482	977.25
324.71	2074.25
324.939	2834.25
325.168	995.25
325.397	282.25
325.626	170.25
325.855	133.25
326.084	126.25
326.313	139.25
326.542	160.25
326.77	258.25
326.999	550.25
327.228	1109.25
327.457	2079.25
327.686	1670.25
327.914	518.25
328.143	393.25
328.372	474.25
328.6	284.25
328.829	168.25
329.058	170.25
329.287	177.25
329.515	143.25
329.744	207.25
329.972	330.25
330.201	622.25
330.43	956.25
330.658	451.25
330.887	235.25
331.115	172.25
331.344	109.25
331.572	106.25
331.801	113.25
332.03	122.25
332.258	117.25
332.486	108.25
332.715	110.25
332.943	108.25
333.172	106.25
333.4	111.25
333.629	138.25
333.857	179.25
334.085	306.25
334.314	571.25
334.542	1146.25
334.771	1115.25
334.999	314.25
335.227	155.25
335.455	116.25
335.684	114.25
335.912	92.25
336.14	99.25
336.369	87.25
336.597	101.25
336.825	100.25
337.053	80.25
337.281	84.25
337.51	99.25
337.738	92.25
337.966	88.25
338.194	96.25
338.422	110.25
338.65	97.25
338.878	93.25
339.106	92.25
339.334	99.25
339.562	92.25
339.79	80.25
340.018	80.25
340.246	93.25
340.474	112.25
340.702	103.25
340.93	102.25
341.158	99.25
341.386	94.25
341.614	81.25
341.842	97.25
342.07	74.25
342.298	88.25
342.526	83.25
342.754	80.25
342.981	89.25
343.209	105.25
343.437	95.25
343.665	93.25
343.893	94.25
344.12	85.25
344.348	98.25
344.576	84.25
344.804	86.25
345.031	96.25
345.259	105.25
345.487	94.25
345.714	107.25
345.942	88.25
346.17	94.25
346.397	86.25
346.625	70.25
346.853	72.25
347.08	83.25
347.308	85.25
347.535	104.25
347.763	101.25
347.99	97.25
348.218	108.25
348.445	111.25
348.673	100.25
348.9	92.25
349.128	100.25
349.355	74.25
349.583	82.25
349.81	82.25
350.037	95.25
350.265	98.25
350.492	87.25
350.72	101.25
350.947	94.25
351.174	107.25
351.402	117.25
351.629	101.25
351.856	86.25
352.083	113.25
352.311	117.25
352.538	102.25
352.765	94.25
352.992	111.25
353.22	110.25
353.447	100.25
353.674	112.25
353.901	83.25
354.128	105.25
354.355	101.25
354.583	94.25
354.81	96.25
355.037	91.25
355.264	104.25
355.491	87.25
355.718	87.25
355.945	84.25
356.172	98.25
356.399	91.25
356.626	97.25
356.853	89.25
357.08	82.25
357.307	81.25
357.534	81.25
357.761	87.25
357.988	91.25
358.215	93.25
358.441	76.25
358.668	77.25
358.895	90.25
359.122	84.25
359.349	92.25
359.576	94.25
359.802	109.25
360.029	118.25
360.256	117.25
360.483	106.25
360.709	88.25
360.936	83.25
361.163	96.25
361.39	82.25
361.616	93.25
361.843	98.25
362.07	94.25
362.296	96.25
362.523	96.25
362.749	106.25
362.976	98.25
363.203	86.25
363.429	84.25
363.656	86.25
363.882	94.25
364.109	89.25
364.335	82.25
364.562	97.25
364.788	94.25
365.015	96.25
365.241	89.25
365.468	90.25
365.694	84.25
365.92	91.25
366.147	83.25
366.373	83.25
366.599	86.25
366.826	80.25
367.052	84.25
367.278	88.25
367.505	86.25
367.731	89.25
367.957	76.25
368.184	96.25
368.41	100.25
368.636	130.25
368.862	127.25
369.089	108.25
369.315	83.25
369.541	99.25
369.767	81.25
369.993	89.25
370.219	90.25
370.445	89.25
370.672	98.25
370.898	77.25
371.124	90.25
371.35	76.25
371.576	77.25
371.802	84.25
372.028	83.25
372.254	69.25
372.48	76.25
372.706	87.25
372.932	82.25
373.158	79.25
373.384	89.25
373.61	89.25
373.835	86.25
374.061	87.25
374.287	84.25
374.513	86.25
374.739	76.25
374.965	92.25
375.191	94.25
375.416	79.25
375.642	73.25
375.868	71.25
376.094	80.25
376.319	79.25
376.545	104.25
376.771	78.25
376.997	85.25
377.222	90.25
377.448	82.25
377.674	86.25
377.899	83.25
378.125	73.25
378.35	84.25
378.576	84.25
378.802	87.25
379.027	79.25
379.253	85.25
379.478	85.25
379.704	76.25
379.929	84.25
380.155	87.25
380.38	87.25
380.606	97.25
380.831	90.25
381.057	91.25
381.282	98.25
381.507	65.25
381.733	84.25
381.958	83.25
382.184	92.25
382.409	99.25
382.634	79.25
382.86	98.25
383.085	93.25
383.31	95.25
383.535	100.25
383.761	96.25
383.986	94.25
384.211	98.25
384.436	98.25
384.662	82.25
384.887	89.25
385.112	95.25
385.337	93.25
385.562	98.25
385.787	92.25
386.013	109.25
386.238	115.25
386.463	87.25
386.688	96.25
386.913	84.25
387.138	96.25
387.363	100.25
387.588	97.25
387.813	90.25
388.038	94.25
388.263	102.25
388.488	96.25
388.713	86.25
388.938	95.25
389.163	72.25
389.387	83.25
389.612	90.25
389.837	84.25
390.062	92.25
390.287	85.25
390.512	82.25
390.736	91.25
390.961	72.25
391.186	95.25
391.411	82.25
391.636	87.25
391.86	86.25
392.085	67.25
392.31	95.25
392.534	81.25
392.759	76.25
392.984	85.25
393.208	86.25
393.433	90.25
393.658	92.25
393.882	83.25
394.107	84.25
394.331	82.25
394.556	83.25
394.78	95.25
395.005	93.25
395.229	82.25
395.454	88.25
395.678	82.25
395.903	86.25
396.127	90.25
396.352	106.25
396.576	69.25
396.801	82.25
397.025	85.25
397.249	85.25
397.474	76.25
397.698	86.25
397.922	81.25
398.147	80.25
398.371	92.25
398.595	92.25
398.82	66.25
399.044	83.25
399.268	67.25
399.492	81.25
399.717	72.25
399.941	80.25
400.165	93.25
400.389	83.25
400.613	103.25
400.837	89.25
401.062	85.25
401.286	76.25
401.51	95.25
401.734	91.25
401.958	107.25
402.182	149.25
402.406	181.25
402.63	138.25
402.854	96.25
403.078	86.25
403.302	73.25
403.526	93.25
403.75	83.25
403.974	75.25
404.198	87.25
404.422	88.25
404.645	84.25
404.869	79.25
405.093	110.25
405.317	139.25
405.541	125.25
405.765	116.25
405.988	120.25
406.212	200.25
406.436	275.25
406.66	182.25
406.883	101.25
407.107	98.25
407.331	99.25
407.555	97.25
407.778	100.25
408.002	94.25
408.226	83.25
408.449	81.25
408.673	84.25
408.896	90.25
409.12	100.25
409.344	98.25
409.567	84.25
409.791	83.25
410.014	84.25
410.238	91.25
410.461	74.25
410.685	84.25
410.908	99.25
411.132	90.25
411.355	83.25
411.578	90.25
411.802	78.25
412.025	96.25
412.249	97.25
412.472	104.25
412.695	117.25
412.919	113.25
413.142	83.25
413.365	90.25
413.589	78.25
413.812	93.25
414.035	81.25
414.258	90.25
414.482	96.25
414.705	93.25
414.928	75.25
415.151	93.25
415.374	86.25
415.597	92.25
415.821	100.25
416.044	97.25
416.267	80.25
416.49	77.25
416.713	88.25
416.936	86.25
417.159	87.25
417.382	91.25
417.605	86.25
417.828	109.25
418.051	72.25
418.274	79.25
418.497	83.25
418.72	81.25
418.943	76.25
419.166	83.25
419.389	76.25
419.611	88.25
419.834	83.25
420.057	81.25
420.28	95.25
420.503	83.25
420.726	82.25
420.948	84.25
421.171	91.25
421.394	97.25
421.617	94.25
421.839	79.25
422.062	80.25
422.285	90.25
422.507	85.25
422.73	101.25
422.953	89.25
423.175	82.25
423.398	85.25
423.621	86.25
423.843	82.25
424.066	77.25
424.288	91.25
424.511	86.25
424.733	104.25
424.956	115.25
425.178	97.25
425.401	91.25
425.623	101.25
425.846	82.25
426.068	85.25
426.291	78.25
426.513	85.25
426.735	93.25
426.958	98.25
427.18	114.25
427.402	161.25
427.625	224.25
427.847	205.25
428.069	182.25
428.292	109.25
428.514	78.25
428.736	76.25
428.958	74.25
429.181	98.25
429.403	85.25
429.625	74.25
429.847	108.25
430.069	115.25
430.292	94.25
430.514	86.25
430.736	78.25
430.958	83.25
431.18	97.25
431.402	68.25
431.624	70.25
431.846	96.25
432.068	80.25
432.29	68.25
432.512	71.25
432.734	85.25
432.956	89.25
433.178	101.25
433.4	89.25
433.622	84.25
433.844	93.25
434.066	72.25
434.287	85.25
434.509	86.25
434.731	87.25
434.953	94.25
435.175	93.25
435.397	87.25
435.618	97.25
435.84	92.25
436.062	115.25
436.284	128.25
436.505	92.25
436.727	110.25
436.949	92.25
437.17	95.25
437.392	83.25
437.614	107.25
437.835	119.25
438.057	136.25
438.278	117.25
438.5	122.25
438.721	132.25
438.943	109.25
439.165	83.25
439.386	75.25
439.608	85.25
439.829	113.25
440.05	144.25
440.272	162.25
440.493	96.25
440.715	83.25
440.936	91.25
441.158	91.25
441.379	101.25
441.6	106.25
441.822	96.25
442.043	98.25
442.264	104.25
442.486	98.25
442.707	77.25
442.928	108.25
443.149	163.25
443.371	145.25
443.592	130.25
443.813	124.25
444.034	114.25
444.255	100.25
444.476	91.25
444.698	76.25
444.919	87.25
445.14	104.25
445.361	122.25
445.582	136.25
445.803	180.25
446.024	164.25
446.245	164.25
446.466	114.25
446.687	77.25
446.908	81.25
447.129	79.25
447.35	100.25
447.571	96.25
447.792	84.25
448.013	87.25
448.234	110.25
448.455	105.25
448.675	111.25
448.896	142.25
449.117	117.25
449.338	94.25
449.559	131.25
449.779	136.25
450	103.25
450.221	99.25
450.442	93.25
450.662	90.25
450.883	111.25
451.104	122.25
451.324	101.25
451.545	90.25
451.766	84.25
451.986	73.25
452.207	97.25
452.428	96.25
452.648	113.25
452.869	131.25
453.089	122.25
453.31	140.25
453.53	106.25
453.751	92.25
453.971	96.25
454.192	133.25
454.412	96.25
454.633	90.25
454.853	87.25
455.073	95.25
455.294	98.25
455.514	106.25
455.734	106.25
455.955	94.25
456.175	104.25
456.395	73.25
456.616	92.25
456.836	88.25
457.056	83.25
457.276	92.25
457.497	70.25
457.717	91.25
457.937	83.25
458.157	99.25
458.377	82.25
458.598	117.25
458.818	190.25
459.038	216.25
459.258	140.25
459.478	103.25
459.698	86.25
459.918	98.25
460.138	74.25
460.358	75.25
460.578	81.25
460.798	92.25
461.018	96.25
461.238	82.25
461.458	72.25
461.678	102.25
461.898	82.25
462.118	78.25
462.338	72.25
462.558	70.25
462.777	80.25
462.997	98.25
463.217	105.25
463.437	93.25
463.657	88.25
463.876	81.25
464.096	90.25
464.316	83.25
464.536	84.25
464.755	98.25
464.975	136.25
465.195	215.25
465.414	224.25
465.634	94.25
465.854	82.25
466.073	80.25
466.293	90.25
466.512	85.25
466.732	84.25
466.951	90.25
467.171	96.25
467.391	99.25
467.61	121.25
467.829	170.25
468.049	364.25
468.268	563.25
468.488	165.25
468.707	86.25
468.927	89.25
469.146	97.25
469.365	67.25
469.585	89.25
469.804	95.25
470.023	100.25
470.243	85.25
470.462	123.25
470.681	136.25
470.901	83.25
471.12	83.25
471.339	99.25
471.558	106.25
471.777	136.25
471.997	233.25
472.216	715.25
472.435	1604.25
472.654	419.25
472.873	139.25
473.092	84.25
473.311	86.25
473.53	96.25
473.749	89.25
473.968	93.25
474.187	133.25
474.406	102.25
474.625	85.25
474.844	97.25
475.063	82.25
475.282	93.25
475.501	96.25
475.72	83.25
475.939	92.25
476.158	84.25
476.377	94.25
476.596	88.25
476.814	109.25
477.033	100.25
477.252	92.25
477.471	74.25
477.69	81.25
477.908	91.25
478.127	87.25
478.346	84.25
478.564	79.25
478.783	97.25
479.002	97.25
479.22	98.25
479.439	113.25
479.658	115.25
479.876	102.25
480.095	100.25
480.313	105.25
480.532	149.25
480.751	212.25
480.969	659.25
481.188	2734.25
481.406	1675.25
481.624	260.25
481.843	117.25
482.061	109.25
482.28	92.25
482.498	105.25
482.717	99.25
482.935	84.25
483.153	89.25
483.372	77.25
483.59	79.25
483.808	103.25
484.027	100.25
484.245	84.25
484.463	99.25
484.681	85.25
484.9	94.25
485.118	94.25
485.336	82.25
485.554	92.25
485.772	101.25
485.99	85.25
486.209	100.25
486.427	100.25
486.645	100.25
486.863	120.25
487.081	93.25
487.299	93.25
487.517	91.25
487.735	80.25
487.953	92.25
488.171	84.25
488.389	95.25
488.607	108.25
488.825	74.25
489.043	77.25
489.261	73.25
489.479	83.25
489.696	88.25
489.914	88.25
490.132	101.25
490.35	85.25
490.568	79.25
490.786	95.25
491.003	79.25
491.221	77.25
491.439	86.25
491.657	98.25
491.874	94.25
492.092	72.25
492.31	81.25
492.527	79.25
492.745	95.25
492.963	93.25
493.18	87.25
493.398	77.25
493.615	81.25
493.833	104.25
494.05	97.25
494.268	80.25
494.485	87.25
494.703	83.25
494.92	87.25
495.138	79.25
495.355	101.25
495.573	84.25
495.79	90.25
496.008	79.25
496.225	69.25
496.442	89.25
496.66	82.25
496.877	80.25
497.094	91.25
497.312	94.25
497.529	84.25
497.746	100.25
497.963	94.25
498.181	84.25
498.398	84.25
498.615	110.25
498.832	96.25
499.049	84.25
499.267	91.25
499.484	84.25
499.701	93.25
499.918	77.25
500.135	74.25
500.352	99.25
500.569	98.25
500.786	86.25
501.003	83.25
501.22	72.25
501.437	73.25
501.654	103.25
501.871	121.25
502.088	74.25
502.305	89.25
502.522	90.25
502.739	94.25
502.956	81.25
503.172	104.25
503.389	105.25
503.606	125.25
503.823	113.25
504.04	80.25
504.256	82.25
504.473	78.25
504.69	82.25
504.907	97.25
505.123	106.25
505.34	90.25
505.557	63.25
505.773	103.25
505.99	81.25
506.207	84.25
506.423	84.25
506.64	84.25
506.856	79.25
507.073	85.25
507.289	91.25
507.506	105.25
507.722	113.25
507.939	128.25
508.155	104.25
508.372	109.25
508.588	90.25
508.805	90.25
509.021	89.25
509.238	94.25
509.454	80.25
509.67	108.25
509.887	102.25
510.103	129.25
510.319	237.25
510.536	879.25
510.752	2902.25
510.968	790.25
511.184	172.25
511.401	121.25
511.617	92.25
511.833	87.25
512.049	84.25
512.265	88.25
512.481	84.25
512.698	86.25
512.914	78.25
513.13	89.25
513.346	93.25
513.562	93.25
513.778	108.25
513.994	99.25
514.21	125.25
514.426	140.25
514.642	160.25
514.858	159.25
515.074	210.25
