Data from Circ_2004_H10_HRD10591_00003.txt Node
Date: Wed Jan 03 10:33:14 EST 2024
User: Yrep
Spectrometer: HR+D1059
Trigger mode: 1
Integration Time (sec): 1.000000E-1
Scans to average: 1
Electric dark correction enabled: true
Nonlinearity correction enabled: false
Boxcar width: 0
XAxis mode: Wavelengths
Number of Pixels in Spectrum: 2048
>>>>>Begin Spectral Data<<<<<
223.165	-3.19
223.4	-3.19
223.635	-3.19
223.869	-24.19
224.104	-13.19
224.338	-6.19
224.573	-9.19
224.808	-15.19
225.042	-10.19
225.277	-13.19
225.511	-12.19
225.746	-12.19
225.98	13.81
226.215	8.81
226.449	20.81
226.683	22.81
226.918	18.81
227.152	33.81
227.387	34.81
227.621	39.81
227.856	36.81
228.09	58.81
228.324	43.81
228.559	34.81
228.793	52.81
229.027	66.81
229.262	57.81
229.496	74.81
229.73	92.81
229.964	76.81
230.199	67.81
230.433	71.81
230.667	74.81
230.901	78.81
231.136	88.81
231.37	72.81
231.604	76.81
231.838	83.81
232.072	74.81
232.306	88.81
232.541	78.81
232.775	78.81
233.009	75.81
233.243	86.81
233.477	97.81
233.711	102.81
233.945	70.81
234.179	84.81
234.413	75.81
234.647	71.81
234.881	80.81
235.115	75.81
235.349	56.81
235.583	70.81
235.817	64.81
236.051	77.81
236.285	78.81
236.519	71.81
236.753	76.81
236.987	89.81
237.221	85.81
237.455	85.81
237.689	71.81
237.922	93.81
238.156	84.81
238.39	81.81
238.624	63.81
238.858	81.81
239.091	80.81
239.325	84.81
239.559	87.81
239.793	77.81
240.027	69.81
240.26	80.81
240.494	94.81
240.728	76.81
240.961	77.81
241.195	83.81
241.429	79.81
241.662	68.81
241.896	82.81
242.13	84.81
242.363	71.81
242.597	84.81
242.83	76.81
243.064	80.81
243.298	81.81
243.531	67.81
243.765	71.81
243.998	95.81
244.232	88.81
244.465	83.81
244.699	89.81
244.932	82.81
245.166	75.81
245.399	79.81
245.633	80.81
245.866	79.81
246.099	70.81
246.333	89.81
246.566	82.81
246.8	77.81
247.033	61.81
247.266	64.81
247.5	69.81
247.733	73.81
247.966	73.81
248.2	65.81
248.433	83.81
248.666	81.81
248.899	65.81
249.133	90.81
249.366	89.81
249.599	101.81
249.832	77.81
250.066	81.81
250.299	98.81
250.532	87.81
250.765	71.81
250.998	88.81
251.231	79.81
251.465	77.81
251.698	80.81
251.931	95.81
252.164	93.81
252.397	80.81
252.63	74.81
252.863	76.81
253.096	71.81
253.329	72.81
253.562	74.81
253.795	79.81
254.028	71.81
254.261	76.81
254.494	87.81
254.727	101.81
254.96	78.81
255.193	83.81
255.426	85.81
255.659	84.81
255.892	85.81
256.124	72.81
256.357	86.81
256.59	71.81
256.823	90.81
257.056	77.81
257.289	98.81
257.521	86.81
257.754	89.81
257.987	74.81
258.22	87.81
258.452	87.81
258.685	87.81
258.918	80.81
259.151	90.81
259.383	92.81
259.616	89.81
259.849	93.81
260.081	79.81
260.314	78.81
260.547	85.81
260.779	90.81
261.012	92.81
261.244	86.81
261.477	86.81
261.71	92.81
261.942	93.81
262.175	102.81
262.407	78.81
262.64	87.81
262.872	87.81
263.105	87.81
263.337	93.81
263.57	78.81
263.802	78.81
264.035	86.81
264.267	84.81
264.499	77.81
264.732	83.81
264.964	95.81
265.197	84.81
265.429	91.81
265.661	83.81
265.894	80.81
266.126	85.81
266.358	82.81
266.591	78.81
266.823	86.81
267.055	84.81
267.287	74.81
267.52	68.81
267.752	85.81
267.984	91.81
268.216	82.81
268.448	86.81
268.681	81.81
268.913	78.81
269.145	91.81
269.377	74.81
269.609	89.81
269.841	82.81
270.073	90.81
270.306	83.81
270.538	84.81
270.77	85.81
271.002	88.81
271.234	80.81
271.466	85.81
271.698	81.81
271.93	75.81
272.162	74.81
272.394	74.81
272.626	80.81
272.858	78.81
273.09	75.81
273.322	72.81
273.553	88.81
273.785	90.81
274.017	101.81
274.249	98.81
274.481	85.81
274.713	90.81
274.945	94.81
275.176	92.81
275.408	90.81
275.64	70.81
275.872	86.81
276.104	91.81
276.335	89.81
276.567	99.81
276.799	116.81
277.031	108.81
277.262	84.81
277.494	101.81
277.726	79.81
277.957	89.81
278.189	80.81
278.421	85.81
278.652	80.81
278.884	93.81
279.115	85.81
279.347	87.81
279.579	92.81
279.81	72.81
280.042	102.81
280.273	96.81
280.505	89.81
280.736	78.81
280.968	84.81
281.199	83.81
281.431	90.81
281.662	81.81
281.894	87.81
282.125	89.81
282.356	101.81
282.588	130.81
282.819	95.81
283.051	91.81
283.282	76.81
283.513	95.81
283.745	81.81
283.976	85.81
284.207	84.81
284.439	95.81
284.67	101.81
284.901	82.81
285.132	78.81
285.364	81.81
285.595	81.81
285.826	77.81
286.057	93.81
286.288	79.81
286.52	82.81
286.751	93.81
286.982	99.81
287.213	92.81
287.444	83.81
287.675	90.81
287.906	100.81
288.138	81.81
288.369	93.81
288.6	80.81
288.831	90.81
289.062	87.81
289.293	93.81
289.524	80.81
289.755	94.81
289.986	88.81
290.217	86.81
290.448	96.81
290.679	89.81
290.91	84.81
291.141	76.81
291.371	82.81
291.602	89.81
291.833	104.81
292.064	88.81
292.295	91.81
292.526	68.81
292.757	86.81
292.987	78.81
293.218	79.81
293.449	90.81
293.68	84.81
293.91	87.81
294.141	93.81
294.372	78.81
294.603	81.81
294.833	89.81
295.064	92.81
295.295	74.81
295.525	94.81
295.756	88.81
295.987	112.81
296.217	110.81
296.448	117.81
296.679	95.81
296.909	86.81
297.14	88.81
297.37	85.81
297.601	83.81
297.831	81.81
298.062	100.81
298.292	90.81
298.523	87.81
298.753	82.81
298.984	86.81
299.214	92.81
299.445	86.81
299.675	79.81
299.905	93.81
300.136	77.81
300.366	84.81
300.597	95.81
300.827	97.81
301.057	96.81
301.288	101.81
301.518	82.81
301.748	88.81
301.979	93.81
302.209	100.81
302.439	85.81
302.669	92.81
302.9	94.81
303.13	96.81
303.36	95.81
303.59	94.81
303.82	90.81
304.051	80.81
304.281	89.81
304.511	89.81
304.741	98.81
304.971	82.81
305.201	90.81
305.431	86.81
305.661	100.81
305.891	81.81
306.121	102.81
306.352	103.81
306.582	102.81
306.812	93.81
307.042	96.81
307.272	105.81
307.502	95.81
307.731	109.81
307.961	92.81
308.191	101.81
308.421	102.81
308.651	93.81
308.881	94.81
309.111	99.81
309.341	92.81
309.571	80.81
309.8	86.81
310.03	92.81
310.26	95.81
310.49	83.81
310.72	105.81
310.949	92.81
311.179	92.81
311.409	98.81
311.639	93.81
311.868	86.81
312.098	93.81
312.328	85.81
312.557	93.81
312.787	108.81
313.017	111.81
313.246	96.81
313.476	88.81
313.706	93.81
313.935	90.81
314.165	92.81
314.394	90.81
314.624	111.81
314.853	109.81
315.083	84.81
315.312	87.81
315.542	88.81
315.771	85.81
316.001	86.81
316.23	96.81
316.46	111.81
316.689	79.81
316.919	87.81
317.148	85.81
317.377	80.81
317.607	96.81
317.836	94.81
318.065	85.81
318.295	90.81
318.524	84.81
318.753	85.81
318.983	84.81
319.212	97.81
319.441	92.81
319.67	94.81
319.9	97.81
320.129	82.81
320.358	90.81
320.587	101.81
320.816	95.81
321.046	103.81
321.275	101.81
321.504	87.81
321.733	88.81
321.962	86.81
322.191	105.81
322.42	80.81
322.649	102.81
322.878	108.81
323.108	104.81
323.337	113.81
323.566	128.81
323.795	142.81
324.024	178.81
324.253	358.81
324.482	679.81
324.71	1395.81
324.939	1797.81
325.168	702.81
325.397	216.81
325.626	129.81
325.855	132.81
326.084	132.81
326.313	123.81
326.542	153.81
326.77	212.81
326.999	417.81
327.228	773.81
327.457	1419.81
327.686	1139.81
327.914	342.81
328.143	188.81
328.372	180.81
328.6	153.81
328.829	132.81
329.058	120.81
329.287	134.81
329.515	95.81
329.744	111.81
329.972	134.81
330.201	196.81
330.43	293.81
330.658	166.81
330.887	151.81
331.115	108.81
331.344	96.81
331.572	102.81
331.801	111.81
332.03	102.81
332.258	90.81
332.486	99.81
332.715	100.81
332.943	95.81
333.172	104.81
333.4	95.81
333.629	114.81
333.857	118.81
334.085	148.81
334.314	200.81
334.542	294.81
334.771	308.81
334.999	142.81
335.227	106.81
335.455	96.81
335.684	99.81
335.912	97.81
336.14	100.81
336.369	91.81
336.597	100.81
336.825	105.81
337.053	94.81
337.281	106.81
337.51	86.81
337.738	105.81
337.966	108.81
338.194	93.81
338.422	88.81
338.65	77.81
338.878	82.81
339.106	90.81
339.334	102.81
339.562	108.81
339.79	87.81
340.018	103.81
340.246	99.81
340.474	86.81
340.702	93.81
340.93	97.81
341.158	94.81
341.386	92.81
341.614	99.81
341.842	105.81
342.07	90.81
342.298	94.81
342.526	91.81
342.754	89.81
342.981	90.81
343.209	96.81
343.437	92.81
343.665	82.81
343.893	85.81
344.12	86.81
344.348	97.81
344.576	88.81
344.804	83.81
345.031	88.81
345.259	96.81
345.487	87.81
345.714	97.81
345.942	98.81
346.17	91.81
346.397	85.81
346.625	103.81
346.853	87.81
347.08	89.81
347.308	96.81
347.535	94.81
347.763	94.81
347.99	107.81
348.218	94.81
348.445	102.81
348.673	103.81
348.9	80.81
349.128	94.81
349.355	101.81
349.583	99.81
349.81	84.81
350.037	111.81
350.265	88.81
350.492	94.81
350.72	90.81
350.947	84.81
351.174	98.81
351.402	95.81
351.629	102.81
351.856	99.81
352.083	90.81
352.311	105.81
352.538	105.81
352.765	95.81
352.992	94.81
353.22	110.81
353.447	94.81
353.674	96.81
353.901	89.81
354.128	94.81
354.355	96.81
354.583	88.81
354.81	92.81
355.037	85.81
355.264	102.81
355.491	99.81
355.718	97.81
355.945	84.81
356.172	87.81
356.399	94.81
356.626	100.81
356.853	85.81
357.08	97.81
357.307	94.81
357.534	93.81
357.761	84.81
357.988	94.81
358.215	94.81
358.441	90.81
358.668	92.81
358.895	97.81
359.122	89.81
359.349	95.81
359.576	77.81
359.802	98.81
360.029	111.81
360.256	121.81
360.483	92.81
360.709	86.81
360.936	86.81
361.163	87.81
361.39	96.81
361.616	83.81
361.843	85.81
362.07	98.81
362.296	96.81
362.523	99.81
362.749	84.81
362.976	78.81
363.203	89.81
363.429	88.81
363.656	85.81
363.882	102.81
364.109	94.81
364.335	93.81
364.562	93.81
364.788	81.81
365.015	91.81
365.241	97.81
365.468	84.81
365.694	114.81
365.92	101.81
366.147	85.81
366.373	88.81
366.599	103.81
366.826	90.81
367.052	87.81
367.278	78.81
367.505	88.81
367.731	84.81
367.957	93.81
368.184	95.81
368.41	94.81
368.636	95.81
368.862	107.81
369.089	82.81
369.315	85.81
369.541	94.81
369.767	80.81
369.993	90.81
370.219	85.81
370.445	94.81
370.672	82.81
370.898	76.81
371.124	84.81
371.35	88.81
371.576	76.81
371.802	78.81
372.028	98.81
372.254	97.81
372.48	86.81
372.706	83.81
372.932	102.81
373.158	94.81
373.384	81.81
373.61	92.81
373.835	79.81
374.061	77.81
374.287	88.81
374.513	86.81
374.739	98.81
374.965	77.81
375.191	72.81
375.416	96.81
375.642	81.81
375.868	96.81
376.094	94.81
376.319	95.81
376.545	83.81
376.771	95.81
376.997	94.81
377.222	84.81
377.448	96.81
377.674	96.81
377.899	100.81
378.125	104.81
378.35	88.81
378.576	86.81
378.802	97.81
379.027	82.81
379.253	97.81
379.478	86.81
379.704	96.81
379.929	94.81
380.155	88.81
380.38	96.81
380.606	69.81
380.831	111.81
381.057	88.81
381.282	103.81
381.507	103.81
381.733	89.81
381.958	107.81
382.184	98.81
382.409	95.81
382.634	103.81
382.86	111.81
383.085	101.81
383.31	115.81
383.535	99.81
383.761	97.81
383.986	104.81
384.211	100.81
384.436	103.81
384.662	107.81
384.887	105.81
385.112	104.81
385.337	97.81
385.562	111.81
385.787	104.81
386.013	108.81
386.238	117.81
386.463	109.81
386.688	121.81
386.913	113.81
387.138	116.81
387.363	105.81
387.588	102.81
387.813	110.81
388.038	121.81
388.263	136.81
388.488	120.81
388.713	102.81
388.938	88.81
389.163	83.81
389.387	90.81
389.612	78.81
389.837	96.81
390.062	92.81
390.287	90.81
390.512	89.81
390.736	82.81
390.961	79.81
391.186	91.81
391.411	92.81
391.636	89.81
391.86	94.81
392.085	96.81
392.31	84.81
392.534	91.81
392.759	88.81
392.984	79.81
393.208	105.81
393.433	118.81
393.658	102.81
393.882	83.81
394.107	91.81
394.331	81.81
394.556	85.81
394.78	86.81
395.005	96.81
395.229	88.81
395.454	105.81
395.678	76.81
395.903	80.81
396.127	86.81
396.352	90.81
396.576	89.81
396.801	96.81
397.025	100.81
397.249	91.81
397.474	77.81
397.698	98.81
397.922	92.81
398.147	93.81
398.371	72.81
398.595	72.81
398.82	89.81
399.044	97.81
399.268	86.81
399.492	91.81
399.717	106.81
399.941	84.81
400.165	85.81
400.389	100.81
400.613	106.81
400.837	100.81
401.062	86.81
401.286	85.81
401.51	88.81
401.734	87.81
401.958	101.81
402.182	136.81
402.406	138.81
402.63	96.81
402.854	90.81
403.078	98.81
403.302	87.81
403.526	97.81
403.75	80.81
403.974	79.81
404.198	78.81
404.422	90.81
404.645	86.81
404.869	93.81
405.093	100.81
405.317	104.81
405.541	106.81
405.765	103.81
405.988	97.81
406.212	153.81
406.436	225.81
406.66	148.81
406.883	111.81
407.107	91.81
407.331	95.81
407.555	90.81
407.778	108.81
408.002	82.81
408.226	90.81
408.449	72.81
408.673	95.81
408.896	96.81
409.12	104.81
409.344	101.81
409.567	79.81
409.791	107.81
410.014	81.81
410.238	93.81
410.461	90.81
410.685	92.81
410.908	95.81
411.132	100.81
411.355	93.81
411.578	96.81
411.802	78.81
412.025	88.81
412.249	87.81
412.472	85.81
412.695	107.81
412.919	84.81
413.142	96.81
413.365	89.81
413.589	89.81
413.812	82.81
414.035	100.81
414.258	89.81
414.482	89.81
414.705	100.81
414.928	102.81
415.151	75.81
415.374	101.81
415.597	83.81
415.821	104.81
416.044	87.81
416.267	96.81
416.49	109.81
416.713	86.81
416.936	96.81
417.159	98.81
417.382	87.81
417.605	84.81
417.828	97.81
418.051	97.81
418.274	105.81
418.497	99.81
418.72	72.81
418.943	77.81
419.166	83.81
419.389	89.81
419.611	80.81
419.834	88.81
420.057	98.81
420.28	86.81
420.503	81.81
420.726	90.81
420.948	90.81
421.171	100.81
421.394	99.81
421.617	90.81
421.839	93.81
422.062	85.81
422.285	96.81
422.507	100.81
422.73	93.81
422.953	101.81
423.175	93.81
423.398	75.81
423.621	89.81
423.843	100.81
424.066	83.81
424.288	95.81
424.511	73.81
424.733	103.81
424.956	94.81
425.178	108.81
425.401	88.81
425.623	88.81
425.846	94.81
426.068	88.81
426.291	95.81
426.513	88.81
426.735	76.81
426.958	99.81
427.18	110.81
427.402	136.81
427.625	150.81
427.847	127.81
428.069	128.81
428.292	111.81
428.514	91.81
428.736	86.81
428.958	78.81
429.181	87.81
429.403	94.81
429.625	80.81
429.847	86.81
430.069	96.81
430.292	89.81
430.514	87.81
430.736	83.81
430.958	90.81
431.18	91.81
431.402	91.81
431.624	91.81
431.846	84.81
432.068	105.81
432.29	90.81
432.512	94.81
432.734	101.81
432.956	83.81
433.178	93.81
433.4	93.81
433.622	85.81
433.844	96.81
434.066	79.81
434.287	77.81
434.509	83.81
434.731	81.81
434.953	76.81
435.175	81.81
435.397	91.81
435.618	86.81
435.84	100.81
436.062	108.81
436.284	116.81
436.505	103.81
436.727	85.81
436.949	91.81
437.17	84.81
437.392	90.81
437.614	96.81
437.835	94.81
438.057	109.81
438.278	114.81
438.5	98.81
438.721	108.81
438.943	101.81
439.165	82.81
439.386	72.81
439.608	76.81
439.829	103.81
440.05	111.81
440.272	136.81
440.493	95.81
440.715	80.81
440.936	92.81
441.158	95.81
441.379	87.81
441.6	101.81
441.822	96.81
442.043	85.81
442.264	103.81
442.486	92.81
442.707	91.81
442.928	98.81
443.149	116.81
443.371	116.81
443.592	119.81
443.813	99.81
444.034	102.81
444.255	90.81
444.476	82.81
444.698	74.81
444.919	82.81
445.14	133.81
445.361	125.81
445.582	121.81
445.803	118.81
446.024	128.81
446.245	102.81
446.466	101.81
446.687	85.81
446.908	90.81
447.129	85.81
447.35	92.81
447.571	87.81
447.792	81.81
448.013	103.81
448.234	106.81
448.455	90.81
448.675	106.81
448.896	113.81
449.117	99.81
449.338	104.81
449.559	128.81
449.779	110.81
450	102.81
450.221	82.81
450.442	96.81
450.662	83.81
450.883	89.81
451.104	105.81
451.324	93.81
451.545	104.81
451.766	70.81
451.986	91.81
452.207	81.81
452.428	82.81
452.648	94.81
452.869	101.81
453.089	103.81
453.31	113.81
453.53	68.81
453.751	92.81
453.971	100.81
454.192	111.81
454.412	92.81
454.633	87.81
454.853	93.81
455.073	93.81
455.294	83.81
455.514	88.81
455.734	91.81
455.955	92.81
456.175	84.81
456.395	87.81
456.616	85.81
456.836	78.81
457.056	78.81
457.276	92.81
457.497	92.81
457.717	73.81
457.937	94.81
458.157	79.81
458.377	101.81
458.598	111.81
458.818	129.81
459.038	165.81
459.258	106.81
459.478	82.81
459.698	86.81
459.918	87.81
460.138	98.81
460.358	106.81
460.578	85.81
460.798	92.81
461.018	81.81
461.238	88.81
461.458	97.81
461.678	84.81
461.898	100.81
462.118	90.81
462.338	83.81
462.558	83.81
462.777	89.81
462.997	83.81
463.217	83.81
463.437	87.81
463.657	99.81
463.876	72.81
464.096	92.81
464.316	95.81
464.536	90.81
464.755	87.81
464.975	102.81
465.195	142.81
465.414	148.81
465.634	98.81
465.854	99.81
466.073	105.81
466.293	104.81
466.512	80.81
466.732	95.81
466.951	78.81
467.171	82.81
467.391	90.81
467.61	86.81
467.829	105.81
468.049	146.81
468.268	173.81
468.488	94.81
468.707	94.81
468.927	82.81
469.146	90.81
469.365	95.81
469.585	85.81
469.804	97.81
470.023	110.81
470.243	102.81
470.462	100.81
470.681	87.81
470.901	81.81
471.12	80.81
471.339	94.81
471.558	110.81
471.777	88.81
471.997	109.81
472.216	224.81
472.435	404.81
472.654	147.81
472.873	96.81
473.092	86.81
473.311	81.81
473.53	77.81
473.749	81.81
473.968	103.81
474.187	95.81
474.406	90.81
474.625	65.81
474.844	91.81
475.063	81.81
475.282	77.81
475.501	93.81
475.72	90.81
475.939	76.81
476.158	91.81
476.377	87.81
476.596	77.81
476.814	100.81
477.033	94.81
477.252	97.81
477.471	90.81
477.69	91.81
477.908	73.81
478.127	88.81
478.346	91.81
478.564	87.81
478.783	97.81
479.002	89.81
479.22	85.81
479.439	86.81
479.658	101.81
479.876	94.81
480.095	89.81
480.313	93.81
480.532	98.81
480.751	105.81
480.969	196.81
481.188	620.81
481.406	410.81
481.624	120.81
481.843	99.81
482.061	88.81
482.28	93.81
482.498	76.81
482.717	95.81
482.935	91.81
483.153	90.81
483.372	94.81
483.59	84.81
483.808	96.81
484.027	93.81
484.245	101.81
484.463	88.81
484.681	86.81
484.9	98.81
485.118	108.81
485.336	86.81
485.554	103.81
485.772	102.81
485.99	89.81
486.209	96.81
486.427	102.81
486.645	104.81
486.863	106.81
487.081	95.81
487.299	90.81
487.517	93.81
487.735	90.81
487.953	100.81
488.171	88.81
488.389	93.81
488.607	101.81
488.825	88.81
489.043	94.81
489.261	80.81
489.479	97.81
489.696	103.81
489.914	102.81
490.132	95.81
490.35	83.81
490.568	84.81
490.786	88.81
491.003	80.81
491.221	92.81
491.439	103.81
491.657	97.81
491.874	83.81
492.092	89.81
492.31	96.81
492.527	97.81
492.745	76.81
492.963	94.81
493.18	85.81
493.398	83.81
493.615	81.81
493.833	92.81
494.05	77.81
494.268	84.81
494.485	94.81
494.703	93.81
494.92	95.81
495.138	85.81
495.355	86.81
495.573	82.81
495.79	79.81
496.008	86.81
496.225	85.81
496.442	80.81
496.66	93.81
496.877	76.81
497.094	100.81
497.312	92.81
497.529	89.81
497.746	88.81
497.963	100.81
498.181	94.81
498.398	87.81
498.615	100.81
498.832	97.81
499.049	104.81
499.267	97.81
499.484	81.81
499.701	87.81
499.918	97.81
500.135	95.81
500.352	108.81
500.569	86.81
500.786	80.81
501.003	98.81
501.22	82.81
501.437	73.81
501.654	94.81
501.871	114.81
502.088	82.81
502.305	92.81
502.522	90.81
502.739	85.81
502.956	94.81
503.172	87.81
503.389	98.81
503.606	111.81
503.823	92.81
504.04	91.81
504.256	100.81
504.473	94.81
504.69	72.81
504.907	78.81
505.123	83.81
505.34	91.81
505.557	94.81
505.773	98.81
505.99	93.81
506.207	87.81
506.423	89.81
506.64	97.81
506.856	97.81
507.073	78.81
507.289	84.81
507.506	104.81
507.722	89.81
507.939	112.81
508.155	95.81
508.372	91.81
508.588	94.81
508.805	97.81
509.021	89.81
509.238	90.81
509.454	90.81
509.67	96.81
509.887	104.81
510.103	125.81
510.319	194.81
510.536	628.81
510.752	2003.81
510.968	564.81
511.184	128.81
511.401	106.81
511.617	97.81
511.833	90.81
512.049	106.81
512.265	97.81
512.481	88.81
512.698	84.81
512.914	98.81
513.13	93.81
513.346	97.81
513.562	94.81
513.778	115.81
513.994	99.81
514.21	95.81
514.426	97.81
514.642	121.81
514.858	108.81
515.074	146.81
515.29	401.81
515.506	1267.81
515.721	487.81
