Data from Circ_2004_H10_HRD10591_00024.txt Node
Date: Wed Jan 03 10:33:19 EST 2024
User: Yrep
Spectrometer: HR+D1059
Trigger mode: 1
Integration Time (sec): 1.000000E-1
Scans to average: 1
Electric dark correction enabled: true
Nonlinearity correction enabled: false
Boxcar width: 0
XAxis mode: Wavelengths
Number of Pixels in Spectrum: 2048
>>>>>Begin Spectral Data<<<<<
223.165	-14.19
223.4	-14.19
223.635	-14.19
223.869	-19.19
224.104	-34.19
224.338	-5.19
224.573	-29.19
224.808	-8.19
225.042	-15.19
225.277	0.81
225.511	-1.19
225.746	7.81
225.98	5.81
226.215	9.81
226.449	29.81
226.683	17.81
226.918	27.81
227.152	26.81
227.387	47.81
227.621	30.81
227.856	39.81
228.09	55.81
228.324	67.81
228.559	62.81
228.793	50.81
229.027	67.81
229.262	53.81
229.496	76.81
229.73	72.81
229.964	87.81
230.199	76.81
230.433	74.81
230.667	89.81
230.901	78.81
231.136	73.81
231.37	82.81
231.604	81.81
231.838	77.81
232.072	86.81
232.306	82.81
232.541	82.81
232.775	73.81
233.009	82.81
233.243	71.81
233.477	73.81
233.711	84.81
233.945	85.81
234.179	78.81
234.413	80.81
234.647	65.81
234.881	82.81
235.115	74.81
235.349	74.81
235.583	78.81
235.817	72.81
236.051	81.81
236.285	73.81
236.519	82.81
236.753	82.81
236.987	79.81
237.221	80.81
237.455	89.81
237.689	78.81
237.922	77.81
238.156	76.81
238.39	78.81
238.624	81.81
238.858	82.81
239.091	79.81
239.325	82.81
239.559	69.81
239.793	85.81
240.027	72.81
240.26	79.81
240.494	80.81
240.728	79.81
240.961	63.81
241.195	70.81
241.429	78.81
241.662	77.81
241.896	66.81
242.13	81.81
242.363	70.81
242.597	79.81
242.83	83.81
243.064	68.81
243.298	66.81
243.531	78.81
243.765	84.81
243.998	75.81
244.232	82.81
244.465	86.81
244.699	78.81
244.932	83.81
245.166	74.81
245.399	91.81
245.633	84.81
245.866	80.81
246.099	79.81
246.333	78.81
246.566	85.81
246.8	75.81
247.033	83.81
247.266	77.81
247.5	76.81
247.733	73.81
247.966	78.81
248.2	81.81
248.433	84.81
248.666	81.81
248.899	79.81
249.133	84.81
249.366	93.81
249.599	91.81
249.832	108.81
250.066	78.81
250.299	81.81
250.532	73.81
250.765	68.81
250.998	70.81
251.231	86.81
251.465	87.81
251.698	86.81
251.931	82.81
252.164	88.81
252.397	77.81
252.63	88.81
252.863	83.81
253.096	85.81
253.329	79.81
253.562	88.81
253.795	82.81
254.028	76.81
254.261	77.81
254.494	84.81
254.727	80.81
254.96	86.81
255.193	87.81
255.426	87.81
255.659	95.81
255.892	100.81
256.124	79.81
256.357	64.81
256.59	81.81
256.823	81.81
257.056	82.81
257.289	88.81
257.521	79.81
257.754	74.81
257.987	79.81
258.22	84.81
258.452	93.81
258.685	97.81
258.918	96.81
259.151	83.81
259.383	79.81
259.616	98.81
259.849	80.81
260.081	73.81
260.314	87.81
260.547	85.81
260.779	90.81
261.012	94.81
261.244	88.81
261.477	85.81
261.71	89.81
261.942	101.81
262.175	91.81
262.407	94.81
262.64	87.81
262.872	97.81
263.105	86.81
263.337	89.81
263.57	87.81
263.802	73.81
264.035	89.81
264.267	88.81
264.499	81.81
264.732	86.81
264.964	78.81
265.197	65.81
265.429	80.81
265.661	89.81
265.894	86.81
266.126	76.81
266.358	80.81
266.591	72.81
266.823	89.81
267.055	74.81
267.287	89.81
267.52	84.81
267.752	92.81
267.984	77.81
268.216	87.81
268.448	85.81
268.681	88.81
268.913	89.81
269.145	104.81
269.377	79.81
269.609	76.81
269.841	83.81
270.073	83.81
270.306	95.81
270.538	89.81
270.77	88.81
271.002	77.81
271.234	94.81
271.466	89.81
271.698	86.81
271.93	97.81
272.162	97.81
272.394	88.81
272.626	90.81
272.858	80.81
273.09	87.81
273.322	80.81
273.553	84.81
273.785	87.81
274.017	74.81
274.249	85.81
274.481	89.81
274.713	87.81
274.945	98.81
275.176	107.81
275.408	94.81
275.64	83.81
275.872	77.81
276.104	81.81
276.335	88.81
276.567	89.81
276.799	99.81
277.031	103.81
277.262	98.81
277.494	93.81
277.726	79.81
277.957	83.81
278.189	80.81
278.421	95.81
278.652	89.81
278.884	81.81
279.115	90.81
279.347	88.81
279.579	90.81
279.81	76.81
280.042	88.81
280.273	100.81
280.505	99.81
280.736	86.81
280.968	75.81
281.199	81.81
281.431	92.81
281.662	101.81
281.894	99.81
282.125	94.81
282.356	120.81
282.588	136.81
282.819	108.81
283.051	76.81
283.282	79.81
283.513	89.81
283.745	96.81
283.976	94.81
284.207	68.81
284.439	85.81
284.67	88.81
284.901	101.81
285.132	79.81
285.364	100.81
285.595	77.81
285.826	88.81
286.057	97.81
286.288	89.81
286.52	95.81
286.751	88.81
286.982	93.81
287.213	96.81
287.444	75.81
287.675	90.81
287.906	92.81
288.138	88.81
288.369	85.81
288.6	86.81
288.831	74.81
289.062	104.81
289.293	74.81
289.524	91.81
289.755	82.81
289.986	96.81
290.217	89.81
290.448	90.81
290.679	78.81
290.91	94.81
291.141	81.81
291.371	91.81
291.602	99.81
291.833	98.81
292.064	96.81
292.295	85.81
292.526	102.81
292.757	105.81
292.987	95.81
293.218	87.81
293.449	79.81
293.68	81.81
293.91	97.81
294.141	96.81
294.372	85.81
294.603	89.81
294.833	88.81
295.064	85.81
295.295	107.81
295.525	93.81
295.756	92.81
295.987	96.81
296.217	128.81
296.448	117.81
296.679	90.81
296.909	79.81
297.14	87.81
297.37	94.81
297.601	84.81
297.831	85.81
298.062	93.81
298.292	97.81
298.523	79.81
298.753	73.81
298.984	85.81
299.214	93.81
299.445	81.81
299.675	86.81
299.905	85.81
300.136	81.81
300.366	85.81
300.597	85.81
300.827	93.81
301.057	96.81
301.288	86.81
301.518	96.81
301.748	89.81
301.979	97.81
302.209	92.81
302.439	78.81
302.669	108.81
302.9	96.81
303.13	99.81
303.36	88.81
303.59	96.81
303.82	105.81
304.051	99.81
304.281	102.81
304.511	104.81
304.741	99.81
304.971	76.81
305.201	94.81
305.431	89.81
305.661	92.81
305.891	90.81
306.121	94.81
306.352	95.81
306.582	100.81
306.812	83.81
307.042	114.81
307.272	98.81
307.502	112.81
307.731	101.81
307.961	116.81
308.191	86.81
308.421	108.81
308.651	94.81
308.881	100.81
309.111	92.81
309.341	101.81
309.571	86.81
309.8	101.81
310.03	103.81
310.26	92.81
310.49	95.81
310.72	113.81
310.949	81.81
311.179	102.81
311.409	98.81
311.639	88.81
311.868	82.81
312.098	90.81
312.328	92.81
312.557	110.81
312.787	98.81
313.017	95.81
313.246	84.81
313.476	80.81
313.706	88.81
313.935	103.81
314.165	94.81
314.394	98.81
314.624	100.81
314.853	89.81
315.083	90.81
315.312	66.81
315.542	95.81
315.771	93.81
316.001	81.81
316.23	90.81
316.46	95.81
316.689	89.81
316.919	82.81
317.148	93.81
317.377	81.81
317.607	94.81
317.836	93.81
318.065	95.81
318.295	98.81
318.524	101.81
318.753	84.81
318.983	92.81
319.212	97.81
319.441	92.81
319.67	104.81
319.9	94.81
320.129	77.81
320.358	94.81
320.587	97.81
320.816	102.81
321.046	101.81
321.275	90.81
321.504	105.81
321.733	94.81
321.962	108.81
322.191	102.81
322.42	90.81
322.649	114.81
322.878	94.81
323.108	101.81
323.337	105.81
323.566	121.81
323.795	129.81
324.024	185.81
324.253	330.81
324.482	700.81
324.71	1391.81
324.939	1797.81
325.168	665.81
325.397	221.81
325.626	156.81
325.855	116.81
326.084	117.81
326.313	129.81
326.542	140.81
326.77	204.81
326.999	408.81
327.228	787.81
327.457	1449.81
327.686	1097.81
327.914	332.81
328.143	218.81
328.372	191.81
328.6	144.81
328.829	129.81
329.058	118.81
329.287	118.81
329.515	110.81
329.744	118.81
329.972	165.81
330.201	213.81
330.43	268.81
330.658	184.81
330.887	142.81
331.115	124.81
331.344	102.81
331.572	111.81
331.801	90.81
332.03	110.81
332.258	103.81
332.486	90.81
332.715	74.81
332.943	96.81
333.172	98.81
333.4	88.81
333.629	98.81
333.857	144.81
334.085	162.81
334.314	201.81
334.542	323.81
334.771	293.81
334.999	130.81
335.227	120.81
335.455	107.81
335.684	94.81
335.912	102.81
336.14	94.81
336.369	96.81
336.597	107.81
336.825	96.81
337.053	95.81
337.281	109.81
337.51	97.81
337.738	87.81
337.966	92.81
338.194	102.81
338.422	90.81
338.65	90.81
338.878	100.81
339.106	96.81
339.334	100.81
339.562	100.81
339.79	108.81
340.018	103.81
340.246	104.81
340.474	97.81
340.702	97.81
340.93	95.81
341.158	99.81
341.386	94.81
341.614	96.81
341.842	96.81
342.07	88.81
342.298	96.81
342.526	77.81
342.754	78.81
342.981	90.81
343.209	90.81
343.437	104.81
343.665	101.81
343.893	89.81
344.12	94.81
344.348	97.81
344.576	76.81
344.804	95.81
345.031	81.81
345.259	86.81
345.487	87.81
345.714	88.81
345.942	99.81
346.17	104.81
346.397	94.81
346.625	99.81
346.853	94.81
347.08	90.81
347.308	86.81
347.535	110.81
347.763	87.81
347.99	89.81
348.218	94.81
348.445	105.81
348.673	95.81
348.9	101.81
349.128	102.81
349.355	89.81
349.583	88.81
349.81	84.81
350.037	90.81
350.265	85.81
350.492	86.81
350.72	100.81
350.947	77.81
351.174	100.81
351.402	104.81
351.629	102.81
351.856	101.81
352.083	104.81
352.311	104.81
352.538	104.81
352.765	92.81
352.992	104.81
353.22	114.81
353.447	109.81
353.674	97.81
353.901	112.81
354.128	108.81
354.355	94.81
354.583	96.81
354.81	98.81
355.037	103.81
355.264	91.81
355.491	91.81
355.718	102.81
355.945	100.81
356.172	96.81
356.399	100.81
356.626	96.81
356.853	90.81
357.08	95.81
357.307	88.81
357.534	93.81
357.761	102.81
357.988	97.81
358.215	98.81
358.441	98.81
358.668	105.81
358.895	93.81
359.122	79.81
359.349	87.81
359.576	88.81
359.802	89.81
360.029	98.81
360.256	111.81
360.483	88.81
360.709	80.81
360.936	87.81
361.163	83.81
361.39	105.81
361.616	100.81
361.843	83.81
362.07	92.81
362.296	99.81
362.523	94.81
362.749	88.81
362.976	74.81
363.203	97.81
363.429	113.81
363.656	95.81
363.882	80.81
364.109	96.81
364.335	85.81
364.562	80.81
364.788	97.81
365.015	84.81
365.241	94.81
365.468	125.81
365.694	107.81
365.92	101.81
366.147	90.81
366.373	89.81
366.599	98.81
366.826	102.81
367.052	77.81
367.278	90.81
367.505	110.81
367.731	78.81
367.957	78.81
368.184	90.81
368.41	96.81
368.636	105.81
368.862	106.81
369.089	105.81
369.315	104.81
369.541	95.81
369.767	92.81
369.993	94.81
370.219	85.81
370.445	95.81
370.672	90.81
370.898	90.81
371.124	102.81
371.35	87.81
371.576	96.81
371.802	87.81
372.028	97.81
372.254	97.81
372.48	90.81
372.706	99.81
372.932	100.81
373.158	82.81
373.384	94.81
373.61	102.81
373.835	107.81
374.061	92.81
374.287	90.81
374.513	79.81
374.739	95.81
374.965	89.81
375.191	94.81
375.416	84.81
375.642	88.81
375.868	94.81
376.094	90.81
376.319	87.81
376.545	88.81
376.771	84.81
376.997	88.81
377.222	86.81
377.448	81.81
377.674	89.81
377.899	82.81
378.125	104.81
378.35	94.81
378.576	83.81
378.802	99.81
379.027	89.81
379.253	97.81
379.478	101.81
379.704	97.81
379.929	93.81
380.155	80.81
380.38	104.81
380.606	107.81
380.831	79.81
381.057	94.81
381.282	100.81
381.507	88.81
381.733	95.81
381.958	103.81
382.184	113.81
382.409	94.81
382.634	106.81
382.86	97.81
383.085	106.81
383.31	92.81
383.535	97.81
383.761	98.81
383.986	103.81
384.211	94.81
384.436	104.81
384.662	95.81
384.887	97.81
385.112	115.81
385.337	110.81
385.562	121.81
385.787	102.81
386.013	92.81
386.238	117.81
386.463	111.81
386.688	104.81
386.913	94.81
387.138	101.81
387.363	116.81
387.588	88.81
387.813	96.81
388.038	100.81
388.263	124.81
388.488	104.81
388.713	97.81
388.938	101.81
389.163	86.81
389.387	96.81
389.612	88.81
389.837	86.81
390.062	97.81
390.287	82.81
390.512	90.81
390.736	92.81
390.961	98.81
391.186	100.81
391.411	102.81
391.636	83.81
391.86	93.81
392.085	100.81
392.31	90.81
392.534	86.81
392.759	83.81
392.984	86.81
393.208	87.81
393.433	93.81
393.658	82.81
393.882	83.81
394.107	100.81
394.331	73.81
394.556	69.81
394.78	106.81
395.005	87.81
395.229	91.81
395.454	77.81
395.678	88.81
395.903	80.81
396.127	87.81
396.352	94.81
396.576	98.81
396.801	97.81
397.025	97.81
397.249	86.81
397.474	85.81
397.698	77.81
397.922	72.81
398.147	76.81
398.371	79.81
398.595	72.81
398.82	82.81
399.044	85.81
399.268	73.81
399.492	100.81
399.717	85.81
399.941	90.81
400.165	97.81
400.389	104.81
400.613	80.81
400.837	78.81
401.062	90.81
401.286	78.81
401.51	84.81
401.734	92.81
401.958	103.81
402.182	106.81
402.406	150.81
402.63	127.81
402.854	91.81
403.078	90.81
403.302	78.81
403.526	71.81
403.75	94.81
403.974	82.81
404.198	93.81
404.422	97.81
404.645	79.81
404.869	77.81
405.093	96.81
405.317	105.81
405.541	90.81
405.765	85.81
405.988	99.81
406.212	144.81
406.436	198.81
406.66	161.81
406.883	98.81
407.107	95.81
407.331	84.81
407.555	71.81
407.778	99.81
408.002	86.81
408.226	80.81
408.449	84.81
408.673	88.81
408.896	97.81
409.12	84.81
409.344	94.81
409.567	99.81
409.791	83.81
410.014	87.81
410.238	99.81
410.461	100.81
410.685	95.81
410.908	97.81
411.132	104.81
411.355	90.81
411.578	99.81
411.802	80.81
412.025	76.81
412.249	82.81
412.472	90.81
412.695	110.81
412.919	104.81
413.142	91.81
413.365	94.81
413.589	85.81
413.812	101.81
414.035	92.81
414.258	94.81
414.482	87.81
414.705	83.81
414.928	96.81
415.151	89.81
415.374	99.81
415.597	93.81
415.821	83.81
416.044	94.81
416.267	82.81
416.49	89.81
416.713	91.81
416.936	98.81
417.159	83.81
417.382	88.81
417.605	93.81
417.828	80.81
418.051	85.81
418.274	90.81
418.497	94.81
418.72	93.81
418.943	95.81
419.166	73.81
419.389	92.81
419.611	84.81
419.834	87.81
420.057	86.81
420.28	87.81
420.503	83.81
420.726	85.81
420.948	91.81
421.171	85.81
421.394	91.81
421.617	88.81
421.839	88.81
422.062	77.81
422.285	94.81
422.507	104.81
422.73	107.81
422.953	110.81
423.175	87.81
423.398	77.81
423.621	85.81
423.843	102.81
424.066	93.81
424.288	76.81
424.511	84.81
424.733	83.81
424.956	100.81
425.178	104.81
425.401	86.81
425.623	90.81
425.846	81.81
426.068	74.81
426.291	95.81
426.513	95.81
426.735	100.81
426.958	100.81
427.18	75.81
427.402	117.81
427.625	145.81
427.847	118.81
428.069	129.81
428.292	105.81
428.514	86.81
428.736	84.81
428.958	78.81
429.181	90.81
429.403	94.81
429.625	89.81
429.847	99.81
430.069	90.81
430.292	80.81
430.514	87.81
430.736	79.81
430.958	80.81
431.18	85.81
431.402	73.81
431.624	100.81
431.846	105.81
432.068	97.81
432.29	96.81
432.512	93.81
432.734	87.81
432.956	81.81
433.178	101.81
433.4	103.81
433.622	90.81
433.844	85.81
434.066	91.81
434.287	94.81
434.509	89.81
434.731	92.81
434.953	84.81
435.175	84.81
435.397	81.81
435.618	84.81
435.84	104.81
436.062	108.81
436.284	96.81
436.505	83.81
436.727	96.81
436.949	94.81
437.17	94.81
437.392	92.81
437.614	88.81
437.835	99.81
438.057	113.81
438.278	99.81
438.5	92.81
438.721	109.81
438.943	93.81
439.165	103.81
439.386	97.81
439.608	100.81
439.829	97.81
440.05	115.81
440.272	103.81
440.493	100.81
440.715	91.81
440.936	88.81
441.158	90.81
441.379	86.81
441.6	76.81
441.822	89.81
442.043	100.81
442.264	81.81
442.486	90.81
442.707	73.81
442.928	104.81
443.149	118.81
443.371	131.81
443.592	105.81
443.813	103.81
444.034	96.81
444.255	95.81
444.476	94.81
444.698	87.81
444.919	95.81
445.14	140.81
445.361	110.81
445.582	92.81
445.803	117.81
446.024	117.81
446.245	118.81
446.466	102.81
446.687	74.81
446.908	70.81
447.129	101.81
447.35	88.81
447.571	88.81
447.792	92.81
448.013	103.81
448.234	96.81
448.455	95.81
448.675	112.81
448.896	111.81
449.117	98.81
449.338	109.81
449.559	121.81
449.779	105.81
450	96.81
450.221	95.81
450.442	90.81
450.662	96.81
450.883	79.81
451.104	97.81
451.324	91.81
451.545	87.81
451.766	68.81
451.986	88.81
452.207	105.81
452.428	83.81
452.648	88.81
452.869	100.81
453.089	102.81
453.31	99.81
453.53	92.81
453.751	88.81
453.971	97.81
454.192	104.81
454.412	94.81
454.633	90.81
454.853	103.81
455.073	72.81
455.294	78.81
455.514	79.81
455.734	84.81
455.955	83.81
456.175	90.81
456.395	78.81
456.616	84.81
456.836	101.81
457.056	87.81
457.276	98.81
457.497	76.81
457.717	84.81
457.937	79.81
458.157	83.81
458.377	95.81
458.598	108.81
458.818	147.81
459.038	134.81
459.258	97.81
459.478	80.81
459.698	83.81
459.918	88.81
460.138	84.81
460.358	85.81
460.578	88.81
460.798	90.81
461.018	77.81
461.238	81.81
461.458	88.81
461.678	99.81
461.898	92.81
462.118	89.81
462.338	88.81
462.558	83.81
462.777	94.81
462.997	80.81
463.217	71.81
463.437	68.81
463.657	79.81
463.876	92.81
464.096	86.81
464.316	91.81
464.536	87.81
464.755	97.81
464.975	111.81
465.195	132.81
465.414	142.81
465.634	87.81
465.854	84.81
466.073	94.81
466.293	85.81
466.512	77.81
466.732	92.81
466.951	94.81
467.171	94.81
467.391	88.81
467.61	112.81
467.829	111.81
468.049	140.81
468.268	195.81
468.488	100.81
468.707	84.81
468.927	94.81
469.146	85.81
469.365	88.81
469.585	76.81
469.804	98.81
470.023	97.81
470.243	87.81
470.462	87.81
470.681	96.81
470.901	78.81
471.12	85.81
471.339	85.81
471.558	98.81
471.777	86.81
471.997	113.81
472.216	255.81
472.435	432.81
472.654	159.81
472.873	101.81
473.092	84.81
473.311	79.81
473.53	76.81
473.749	93.81
473.968	94.81
474.187	92.81
474.406	93.81
474.625	95.81
474.844	75.81
475.063	89.81
475.282	71.81
475.501	78.81
475.72	99.81
475.939	91.81
476.158	83.81
476.377	78.81
476.596	78.81
476.814	78.81
477.033	91.81
477.252	89.81
477.471	84.81
477.69	87.81
477.908	90.81
478.127	94.81
478.346	88.81
478.564	85.81
478.783	102.81
479.002	94.81
479.22	85.81
479.439	110.81
479.658	114.81
479.876	93.81
480.095	81.81
480.313	96.81
480.532	108.81
480.751	121.81
480.969	263.81
481.188	744.81
481.406	460.81
481.624	131.81
481.843	105.81
482.061	85.81
482.28	78.81
482.498	95.81
482.717	82.81
482.935	77.81
483.153	84.81
483.372	83.81
483.59	79.81
483.808	90.81
484.027	101.81
484.245	84.81
484.463	85.81
484.681	90.81
484.9	99.81
485.118	100.81
485.336	91.81
485.554	89.81
485.772	105.81
485.99	91.81
486.209	106.81
486.427	102.81
486.645	105.81
486.863	99.81
487.081	100.81
487.299	90.81
487.517	93.81
487.735	96.81
487.953	89.81
488.171	92.81
488.389	104.81
488.607	89.81
488.825	89.81
489.043	89.81
489.261	89.81
489.479	83.81
489.696	93.81
489.914	93.81
490.132	103.81
490.35	93.81
490.568	89.81
490.786	88.81
491.003	94.81
491.221	95.81
491.439	89.81
491.657	89.81
491.874	95.81
492.092	99.81
492.31	96.81
492.527	78.81
492.745	101.81
492.963	95.81
493.18	92.81
493.398	97.81
493.615	98.81
493.833	95.81
494.05	86.81
494.268	85.81
494.485	95.81
494.703	76.81
494.92	80.81
495.138	86.81
495.355	88.81
495.573	82.81
495.79	88.81
496.008	91.81
496.225	92.81
496.442	87.81
496.66	86.81
496.877	85.81
497.094	105.81
497.312	99.81
497.529	87.81
497.746	89.81
497.963	81.81
498.181	88.81
498.398	97.81
498.615	103.81
498.832	102.81
499.049	91.81
499.267	90.81
499.484	81.81
499.701	84.81
499.918	99.81
500.135	92.81
500.352	100.81
500.569	93.81
500.786	97.81
501.003	94.81
501.22	97.81
501.437	88.81
501.654	86.81
501.871	101.81
502.088	88.81
502.305	93.81
502.522	86.81
502.739	93.81
502.956	90.81
503.172	87.81
503.389	85.81
503.606	108.81
503.823	93.81
504.04	95.81
504.256	90.81
504.473	94.81
504.69	76.81
504.907	95.81
505.123	90.81
505.34	96.81
505.557	98.81
505.773	92.81
505.99	79.81
506.207	101.81
506.423	104.81
506.64	86.81
506.856	92.81
507.073	97.81
507.289	99.81
507.506	85.81
507.722	112.81
507.939	112.81
508.155	88.81
508.372	77.81
508.588	86.81
508.805	82.81
509.021	88.81
509.238	82.81
509.454	92.81
509.67	99.81
509.887	109.81
510.103	119.81
510.319	188.81
510.536	643.81
510.752	1912.81
510.968	533.81
511.184	130.81
511.401	101.81
511.617	102.81
511.833	82.81
512.049	94.81
512.265	97.81
512.481	92.81
512.698	92.81
512.914	91.81
513.13	103.81
513.346	79.81
513.562	91.81
513.778	107.81
513.994	114.81
514.21	90.81
514.426	104.81
514.642	130.81
514.858	122.81
515.074	147.81
515.29	385.81
515.506	1216.81
515.721	456.81
