Data from Circ_2004_H10_HRD10591_00039.txt Node
Date: Wed Jan 03 10:33:22 EST 2024
User: Yrep
Spectrometer: HR+D1059
Trigger mode: 1
Integration Time (sec): 1.000000E-1
Scans to average: 1
Electric dark correction enabled: true
Nonlinearity correction enabled: false
Boxcar width: 0
XAxis mode: Wavelengths
Number of Pixels in Spectrum: 2048
>>>>>Begin Spectral Data<<<<<
223.165	-39.25
223.4	-39.25
223.635	-39.25
223.869	-11.25
224.104	-12.25
224.338	-19.25
224.573	-13.25
224.808	-22.25
225.042	9.75
225.277	-3.25
225.511	-9.25
225.746	-2.25
225.98	9.75
226.215	7.75
226.449	22.75
226.683	20.75
226.918	33.75
227.152	27.75
227.387	45.75
227.621	36.75
227.856	44.75
228.09	31.75
228.324	45.75
228.559	62.75
228.793	60.75
229.027	63.75
229.262	46.75
229.496	65.75
229.73	84.75
229.964	80.75
230.199	72.75
230.433	61.75
230.667	75.75
230.901	63.75
231.136	75.75
231.37	75.75
231.604	70.75
231.838	83.75
232.072	71.75
232.306	77.75
232.541	71.75
232.775	86.75
233.009	86.75
233.243	80.75
233.477	71.75
233.711	79.75
233.945	86.75
234.179	73.75
234.413	86.75
234.647	75.75
234.881	78.75
235.115	83.75
235.349	63.75
235.583	93.75
235.817	73.75
236.051	69.75
236.285	73.75
236.519	83.75
236.753	81.75
236.987	77.75
237.221	98.75
237.455	73.75
237.689	74.75
237.922	80.75
238.156	74.75
238.39	79.75
238.624	79.75
238.858	72.75
239.091	83.75
239.325	71.75
239.559	81.75
239.793	76.75
240.027	78.75
240.26	78.75
240.494	92.75
240.728	78.75
240.961	75.75
241.195	74.75
241.429	69.75
241.662	77.75
241.896	83.75
242.13	80.75
242.363	58.75
242.597	64.75
242.83	73.75
243.064	92.75
243.298	73.75
243.531	62.75
243.765	73.75
243.998	60.75
244.232	76.75
244.465	84.75
244.699	77.75
244.932	64.75
245.166	67.75
245.399	79.75
245.633	95.75
245.866	80.75
246.099	73.75
246.333	69.75
246.566	68.75
246.8	70.75
247.033	79.75
247.266	86.75
247.5	77.75
247.733	92.75
247.966	77.75
248.2	85.75
248.433	65.75
248.666	85.75
248.899	63.75
249.133	75.75
249.366	94.75
249.599	89.75
249.832	86.75
250.066	85.75
250.299	85.75
250.532	102.75
250.765	60.75
250.998	79.75
251.231	75.75
251.465	70.75
251.698	67.75
251.931	82.75
252.164	79.75
252.397	73.75
252.63	76.75
252.863	83.75
253.096	87.75
253.329	71.75
253.562	69.75
253.795	92.75
254.028	77.75
254.261	79.75
254.494	80.75
254.727	69.75
254.96	72.75
255.193	81.75
255.426	72.75
255.659	64.75
255.892	73.75
256.124	83.75
256.357	85.75
256.59	76.75
256.823	84.75
257.056	71.75
257.289	75.75
257.521	82.75
257.754	64.75
257.987	75.75
258.22	78.75
258.452	84.75
258.685	80.75
258.918	93.75
259.151	87.75
259.383	84.75
259.616	72.75
259.849	84.75
260.081	78.75
260.314	83.75
260.547	83.75
260.779	80.75
261.012	97.75
261.244	80.75
261.477	92.75
261.71	90.75
261.942	103.75
262.175	116.75
262.407	91.75
262.64	68.75
262.872	86.75
263.105	86.75
263.337	91.75
263.57	83.75
263.802	75.75
264.035	82.75
264.267	83.75
264.499	82.75
264.732	71.75
264.964	68.75
265.197	78.75
265.429	76.75
265.661	75.75
265.894	80.75
266.126	77.75
266.358	80.75
266.591	94.75
266.823	72.75
267.055	86.75
267.287	89.75
267.52	99.75
267.752	85.75
267.984	86.75
268.216	77.75
268.448	83.75
268.681	92.75
268.913	93.75
269.145	77.75
269.377	80.75
269.609	80.75
269.841	87.75
270.073	89.75
270.306	78.75
270.538	81.75
270.77	82.75
271.002	96.75
271.234	85.75
271.466	83.75
271.698	92.75
271.93	85.75
272.162	87.75
272.394	87.75
272.626	84.75
272.858	93.75
273.09	79.75
273.322	87.75
273.553	80.75
273.785	93.75
274.017	82.75
274.249	98.75
274.481	85.75
274.713	83.75
274.945	81.75
275.176	79.75
275.408	86.75
275.64	87.75
275.872	107.75
276.104	79.75
276.335	97.75
276.567	102.75
276.799	101.75
277.031	108.75
277.262	117.75
277.494	88.75
277.726	88.75
277.957	88.75
278.189	79.75
278.421	69.75
278.652	88.75
278.884	69.75
279.115	78.75
279.347	84.75
279.579	99.75
279.81	101.75
280.042	113.75
280.273	120.75
280.505	99.75
280.736	87.75
280.968	77.75
281.199	84.75
281.431	80.75
281.662	89.75
281.894	82.75
282.125	83.75
282.356	92.75
282.588	131.75
282.819	127.75
283.051	98.75
283.282	84.75
283.513	80.75
283.745	87.75
283.976	78.75
284.207	80.75
284.439	85.75
284.67	89.75
284.901	84.75
285.132	76.75
285.364	80.75
285.595	99.75
285.826	95.75
286.057	86.75
286.288	82.75
286.52	82.75
286.751	97.75
286.982	99.75
287.213	75.75
287.444	78.75
287.675	80.75
287.906	78.75
288.138	92.75
288.369	93.75
288.6	82.75
288.831	87.75
289.062	85.75
289.293	82.75
289.524	94.75
289.755	89.75
289.986	83.75
290.217	99.75
290.448	84.75
290.679	82.75
290.91	86.75
291.141	89.75
291.371	83.75
291.602	68.75
291.833	76.75
292.064	86.75
292.295	92.75
292.526	103.75
292.757	78.75
292.987	103.75
293.218	95.75
293.449	88.75
293.68	78.75
293.91	78.75
294.141	86.75
294.372	90.75
294.603	88.75
294.833	92.75
295.064	75.75
295.295	86.75
295.525	96.75
295.756	105.75
295.987	98.75
296.217	151.75
296.448	109.75
296.679	100.75
296.909	82.75
297.14	89.75
297.37	97.75
297.601	76.75
297.831	86.75
298.062	97.75
298.292	95.75
298.523	93.75
298.753	92.75
298.984	81.75
299.214	97.75
299.445	89.75
299.675	93.75
299.905	88.75
300.136	104.75
300.366	77.75
300.597	79.75
300.827	74.75
301.057	89.75
301.288	88.75
301.518	93.75
301.748	82.75
301.979	105.75
302.209	87.75
302.439	89.75
302.669	86.75
302.9	82.75
303.13	93.75
303.36	96.75
303.59	116.75
303.82	117.75
304.051	88.75
304.281	88.75
304.511	83.75
304.741	87.75
304.971	89.75
305.201	90.75
305.431	79.75
305.661	90.75
305.891	63.75
306.121	83.75
306.352	101.75
306.582	97.75
306.812	110.75
307.042	102.75
307.272	101.75
307.502	111.75
307.731	114.75
307.961	101.75
308.191	90.75
308.421	86.75
308.651	90.75
308.881	103.75
309.111	94.75
309.341	94.75
309.571	96.75
309.8	104.75
310.03	98.75
310.26	80.75
310.49	91.75
310.72	92.75
310.949	103.75
311.179	93.75
311.409	94.75
311.639	89.75
311.868	80.75
312.098	92.75
312.328	100.75
312.557	86.75
312.787	106.75
313.017	93.75
313.246	114.75
313.476	102.75
313.706	89.75
313.935	79.75
314.165	95.75
314.394	94.75
314.624	107.75
314.853	91.75
315.083	83.75
315.312	88.75
315.542	83.75
315.771	95.75
316.001	85.75
316.23	77.75
316.46	78.75
316.689	83.75
316.919	83.75
317.148	98.75
317.377	96.75
317.607	100.75
317.836	97.75
318.065	85.75
318.295	102.75
318.524	77.75
318.753	101.75
318.983	103.75
319.212	96.75
319.441	99.75
319.67	99.75
319.9	83.75
320.129	93.75
320.358	99.75
320.587	111.75
320.816	117.75
321.046	100.75
321.275	110.75
321.504	72.75
321.733	84.75
321.962	99.75
322.191	86.75
322.42	95.75
322.649	109.75
322.878	108.75
323.108	112.75
323.337	118.75
323.566	121.75
323.795	164.75
324.024	216.75
324.253	407.75
324.482	837.75
324.71	1762.75
324.939	2330.75
325.168	876.75
325.397	264.75
325.626	151.75
325.855	132.75
326.084	118.75
326.313	123.75
326.542	163.75
326.77	236.75
326.999	476.75
327.228	977.75
327.457	1805.75
327.686	1443.75
327.914	431.75
328.143	258.75
328.372	251.75
328.6	171.75
328.829	123.75
329.058	125.75
329.287	140.75
329.515	127.75
329.744	139.75
329.972	187.75
330.201	323.75
330.43	454.75
330.658	246.75
330.887	174.75
331.115	128.75
331.344	110.75
331.572	106.75
331.801	114.75
332.03	100.75
332.258	93.75
332.486	95.75
332.715	109.75
332.943	105.75
333.172	93.75
333.4	115.75
333.629	120.75
333.857	140.75
334.085	192.75
334.314	312.75
334.542	555.75
334.771	536.75
334.999	195.75
335.227	105.75
335.455	102.75
335.684	102.75
335.912	95.75
336.14	101.75
336.369	96.75
336.597	95.75
336.825	101.75
337.053	84.75
337.281	101.75
337.51	87.75
337.738	90.75
337.966	88.75
338.194	87.75
338.422	106.75
338.65	98.75
338.878	84.75
339.106	92.75
339.334	84.75
339.562	77.75
339.79	92.75
340.018	85.75
340.246	92.75
340.474	97.75
340.702	94.75
340.93	81.75
341.158	104.75
341.386	104.75
341.614	99.75
341.842	73.75
342.07	95.75
342.298	92.75
342.526	90.75
342.754	97.75
342.981	96.75
343.209	94.75
343.437	98.75
343.665	81.75
343.893	98.75
344.12	92.75
344.348	97.75
344.576	94.75
344.804	93.75
345.031	99.75
345.259	92.75
345.487	98.75
345.714	99.75
345.942	87.75
346.17	90.75
346.397	83.75
346.625	85.75
346.853	89.75
347.08	92.75
347.308	79.75
347.535	98.75
347.763	98.75
347.99	95.75
348.218	102.75
348.445	103.75
348.673	83.75
348.9	90.75
349.128	103.75
349.355	84.75
349.583	88.75
349.81	97.75
350.037	86.75
350.265	91.75
350.492	94.75
350.72	101.75
350.947	103.75
351.174	126.75
351.402	100.75
351.629	88.75
351.856	96.75
352.083	83.75
352.311	115.75
352.538	104.75
352.765	121.75
352.992	105.75
353.22	97.75
353.447	101.75
353.674	98.75
353.901	88.75
354.128	102.75
354.355	95.75
354.583	96.75
354.81	101.75
355.037	83.75
355.264	98.75
355.491	89.75
355.718	78.75
355.945	89.75
356.172	86.75
356.399	79.75
356.626	94.75
356.853	92.75
357.08	101.75
357.307	69.75
357.534	90.75
357.761	100.75
357.988	73.75
358.215	88.75
358.441	93.75
358.668	86.75
358.895	90.75
359.122	89.75
359.349	81.75
359.576	86.75
359.802	95.75
360.029	118.75
360.256	114.75
360.483	94.75
360.709	80.75
360.936	97.75
361.163	80.75
361.39	75.75
361.616	93.75
361.843	95.75
362.07	101.75
362.296	87.75
362.523	91.75
362.749	83.75
362.976	84.75
363.203	94.75
363.429	71.75
363.656	95.75
363.882	79.75
364.109	91.75
364.335	77.75
364.562	95.75
364.788	88.75
365.015	88.75
365.241	108.75
365.468	108.75
365.694	101.75
365.92	84.75
366.147	75.75
366.373	79.75
366.599	89.75
366.826	78.75
367.052	94.75
367.278	83.75
367.505	78.75
367.731	89.75
367.957	84.75
368.184	86.75
368.41	100.75
368.636	119.75
368.862	102.75
369.089	108.75
369.315	79.75
369.541	86.75
369.767	95.75
369.993	89.75
370.219	96.75
370.445	93.75
370.672	80.75
370.898	91.75
371.124	84.75
371.35	80.75
371.576	80.75
371.802	102.75
372.028	87.75
372.254	90.75
372.48	83.75
372.706	97.75
372.932	92.75
373.158	75.75
373.384	84.75
373.61	98.75
373.835	87.75
374.061	88.75
374.287	87.75
374.513	93.75
374.739	87.75
374.965	89.75
375.191	84.75
375.416	84.75
375.642	77.75
375.868	99.75
376.094	96.75
376.319	63.75
376.545	92.75
376.771	90.75
376.997	85.75
377.222	90.75
377.448	97.75
377.674	85.75
377.899	93.75
378.125	96.75
378.35	82.75
378.576	77.75
378.802	95.75
379.027	69.75
379.253	95.75
379.478	86.75
379.704	81.75
379.929	88.75
380.155	78.75
380.38	79.75
380.606	94.75
380.831	98.75
381.057	94.75
381.282	91.75
381.507	94.75
381.733	107.75
381.958	90.75
382.184	99.75
382.409	92.75
382.634	99.75
382.86	97.75
383.085	97.75
383.31	111.75
383.535	89.75
383.761	93.75
383.986	88.75
384.211	78.75
384.436	89.75
384.662	95.75
384.887	99.75
385.112	101.75
385.337	101.75
385.562	105.75
385.787	110.75
386.013	115.75
386.238	106.75
386.463	112.75
386.688	104.75
386.913	104.75
387.138	96.75
387.363	110.75
387.588	98.75
387.813	111.75
388.038	107.75
388.263	97.75
388.488	104.75
388.713	85.75
388.938	92.75
389.163	84.75
389.387	88.75
389.612	97.75
389.837	95.75
390.062	96.75
390.287	81.75
390.512	89.75
390.736	88.75
390.961	101.75
391.186	83.75
391.411	85.75
391.636	90.75
391.86	82.75
392.085	76.75
392.31	85.75
392.534	95.75
392.759	83.75
392.984	93.75
393.208	99.75
393.433	89.75
393.658	95.75
393.882	91.75
394.107	84.75
394.331	89.75
394.556	97.75
394.78	84.75
395.005	81.75
395.229	99.75
395.454	92.75
395.678	96.75
395.903	88.75
396.127	100.75
396.352	79.75
396.576	82.75
396.801	95.75
397.025	76.75
397.249	92.75
397.474	79.75
397.698	89.75
397.922	80.75
398.147	81.75
398.371	76.75
398.595	85.75
398.82	94.75
399.044	93.75
399.268	73.75
399.492	86.75
399.717	91.75
399.941	95.75
400.165	87.75
400.389	85.75
400.613	89.75
400.837	90.75
401.062	89.75
401.286	93.75
401.51	93.75
401.734	89.75
401.958	102.75
402.182	131.75
402.406	141.75
402.63	128.75
402.854	97.75
403.078	75.75
403.302	75.75
403.526	78.75
403.75	94.75
403.974	92.75
404.198	97.75
404.422	97.75
404.645	85.75
404.869	92.75
405.093	91.75
405.317	103.75
405.541	117.75
405.765	104.75
405.988	113.75
406.212	167.75
406.436	220.75
406.66	159.75
406.883	104.75
407.107	91.75
407.331	97.75
407.555	88.75
407.778	99.75
408.002	87.75
408.226	99.75
408.449	92.75
408.673	83.75
408.896	91.75
409.12	101.75
409.344	88.75
409.567	104.75
409.791	84.75
410.014	67.75
410.238	88.75
410.461	97.75
410.685	93.75
410.908	101.75
411.132	104.75
411.355	99.75
411.578	99.75
411.802	97.75
412.025	97.75
412.249	89.75
412.472	95.75
412.695	123.75
412.919	98.75
413.142	95.75
413.365	83.75
413.589	92.75
413.812	78.75
414.035	85.75
414.258	89.75
414.482	91.75
414.705	94.75
414.928	89.75
415.151	93.75
415.374	92.75
415.597	92.75
415.821	93.75
416.044	96.75
416.267	92.75
416.49	81.75
416.713	80.75
416.936	84.75
417.159	81.75
417.382	75.75
417.605	88.75
417.828	91.75
418.051	99.75
418.274	91.75
418.497	90.75
418.72	94.75
418.943	94.75
419.166	95.75
419.389	85.75
419.611	87.75
419.834	89.75
420.057	84.75
420.28	87.75
420.503	79.75
420.726	83.75
420.948	79.75
421.171	86.75
421.394	105.75
421.617	87.75
421.839	82.75
422.062	84.75
422.285	84.75
422.507	86.75
422.73	91.75
422.953	85.75
423.175	89.75
423.398	88.75
423.621	92.75
423.843	84.75
424.066	80.75
424.288	88.75
424.511	89.75
424.733	110.75
424.956	102.75
425.178	108.75
425.401	106.75
425.623	97.75
425.846	93.75
426.068	95.75
426.291	91.75
426.513	85.75
426.735	99.75
426.958	89.75
427.18	102.75
427.402	132.75
427.625	176.75
427.847	164.75
428.069	163.75
428.292	109.75
428.514	90.75
428.736	79.75
428.958	68.75
429.181	73.75
429.403	100.75
429.625	87.75
429.847	100.75
430.069	76.75
430.292	85.75
430.514	85.75
430.736	78.75
430.958	81.75
431.18	87.75
431.402	83.75
431.624	85.75
431.846	77.75
432.068	88.75
432.29	91.75
432.512	104.75
432.734	99.75
432.956	76.75
433.178	84.75
433.4	84.75
433.622	75.75
433.844	97.75
434.066	89.75
434.287	98.75
434.509	79.75
434.731	85.75
434.953	88.75
435.175	79.75
435.397	85.75
435.618	87.75
435.84	100.75
436.062	113.75
436.284	127.75
436.505	105.75
436.727	105.75
436.949	83.75
437.17	85.75
437.392	105.75
437.614	101.75
437.835	104.75
438.057	121.75
438.278	125.75
438.5	107.75
438.721	120.75
438.943	106.75
439.165	79.75
439.386	77.75
439.608	111.75
439.829	98.75
440.05	125.75
440.272	147.75
440.493	108.75
440.715	83.75
440.936	84.75
441.158	85.75
441.379	84.75
441.6	107.75
441.822	92.75
442.043	84.75
442.264	103.75
442.486	100.75
442.707	95.75
442.928	111.75
443.149	124.75
443.371	119.75
443.592	121.75
443.813	112.75
444.034	99.75
444.255	96.75
444.476	100.75
444.698	86.75
444.919	83.75
445.14	146.75
445.361	138.75
445.582	120.75
445.803	141.75
446.024	139.75
446.245	141.75
446.466	108.75
446.687	83.75
446.908	94.75
447.129	84.75
447.35	87.75
447.571	88.75
447.792	88.75
448.013	100.75
448.234	107.75
448.455	98.75
448.675	103.75
448.896	114.75
449.117	114.75
449.338	106.75
449.559	126.75
449.779	133.75
450	96.75
450.221	96.75
450.442	90.75
450.662	106.75
450.883	108.75
451.104	109.75
451.324	99.75
451.545	83.75
451.766	94.75
451.986	87.75
452.207	91.75
452.428	84.75
452.648	85.75
452.869	108.75
453.089	107.75
453.31	99.75
453.53	86.75
453.751	95.75
453.971	105.75
454.192	96.75
454.412	81.75
454.633	89.75
454.853	87.75
455.073	88.75
455.294	71.75
455.514	87.75
455.734	91.75
455.955	69.75
456.175	78.75
456.395	77.75
456.616	93.75
456.836	81.75
457.056	77.75
457.276	86.75
457.497	83.75
457.717	85.75
457.937	74.75
458.157	87.75
458.377	85.75
458.598	96.75
458.818	153.75
459.038	173.75
459.258	108.75
459.478	93.75
459.698	80.75
459.918	89.75
460.138	75.75
460.358	77.75
460.578	89.75
460.798	94.75
461.018	85.75
461.238	86.75
461.458	85.75
461.678	71.75
461.898	88.75
462.118	80.75
462.338	96.75
462.558	87.75
462.777	91.75
462.997	91.75
463.217	86.75
463.437	78.75
463.657	98.75
463.876	89.75
464.096	93.75
464.316	71.75
464.536	94.75
464.755	103.75
464.975	88.75
465.195	167.75
465.414	136.75
465.634	94.75
465.854	94.75
466.073	93.75
466.293	92.75
466.512	89.75
466.732	91.75
466.951	75.75
467.171	80.75
467.391	105.75
467.61	101.75
467.829	139.75
468.049	215.75
468.268	276.75
468.488	106.75
468.707	90.75
468.927	86.75
469.146	95.75
469.365	78.75
469.585	83.75
469.804	109.75
470.023	86.75
470.243	85.75
470.462	94.75
470.681	106.75
470.901	83.75
471.12	98.75
471.339	83.75
471.558	101.75
471.777	94.75
471.997	138.75
472.216	370.75
472.435	730.75
472.654	222.75
472.873	101.75
473.092	86.75
473.311	89.75
473.53	86.75
473.749	85.75
473.968	102.75
474.187	92.75
474.406	95.75
474.625	95.75
474.844	83.75
475.063	77.75
475.282	80.75
475.501	79.75
475.72	75.75
475.939	85.75
476.158	89.75
476.377	85.75
476.596	95.75
476.814	96.75
477.033	103.75
477.252	86.75
477.471	99.75
477.69	84.75
477.908	87.75
478.127	83.75
478.346	95.75
478.564	94.75
478.783	95.75
479.002	76.75
479.22	87.75
479.439	86.75
479.658	102.75
479.876	95.75
480.095	87.75
480.313	109.75
480.532	92.75
480.751	151.75
480.969	344.75
481.188	1251.75
481.406	772.75
481.624	171.75
481.843	93.75
482.061	92.75
482.28	92.75
482.498	93.75
482.717	97.75
482.935	84.75
483.153	88.75
483.372	91.75
483.59	75.75
483.808	92.75
484.027	99.75
484.245	88.75
484.463	94.75
484.681	89.75
484.9	87.75
485.118	88.75
485.336	86.75
485.554	97.75
485.772	98.75
485.99	99.75
486.209	112.75
486.427	95.75
486.645	109.75
486.863	112.75
487.081	98.75
487.299	102.75
487.517	83.75
487.735	97.75
487.953	95.75
488.171	91.75
488.389	81.75
488.607	91.75
488.825	83.75
489.043	82.75
489.261	93.75
489.479	89.75
489.696	95.75
489.914	101.75
490.132	80.75
490.35	89.75
490.568	100.75
490.786	82.75
491.003	72.75
491.221	88.75
491.439	90.75
491.657	85.75
491.874	93.75
492.092	93.75
492.31	85.75
492.527	78.75
492.745	72.75
492.963	88.75
493.18	92.75
493.398	106.75
493.615	96.75
493.833	82.75
494.05	101.75
494.268	82.75
494.485	86.75
494.703	95.75
494.92	95.75
495.138	84.75
495.355	91.75
495.573	94.75
495.79	95.75
496.008	95.75
496.225	82.75
496.442	90.75
496.66	95.75
496.877	97.75
497.094	88.75
497.312	101.75
497.529	100.75
497.746	81.75
497.963	90.75
498.181	100.75
498.398	97.75
498.615	113.75
498.832	102.75
499.049	84.75
499.267	112.75
499.484	84.75
499.701	80.75
499.918	80.75
500.135	86.75
500.352	96.75
500.569	97.75
500.786	86.75
501.003	96.75
501.22	73.75
501.437	88.75
501.654	93.75
501.871	111.75
502.088	81.75
502.305	100.75
502.522	77.75
502.739	82.75
502.956	81.75
503.172	90.75
503.389	91.75
503.606	107.75
503.823	82.75
504.04	98.75
504.256	85.75
504.473	80.75
504.69	103.75
504.907	97.75
505.123	83.75
505.34	91.75
505.557	86.75
505.773	87.75
505.99	76.75
506.207	88.75
506.423	101.75
506.64	97.75
506.856	83.75
507.073	94.75
507.289	85.75
507.506	73.75
507.722	94.75
507.939	108.75
508.155	97.75
508.372	77.75
508.588	101.75
508.805	89.75
509.021	99.75
509.238	84.75
509.454	92.75
509.67	95.75
509.887	113.75
510.103	126.75
510.319	193.75
510.536	730.75
510.752	2150.75
510.968	609.75
511.184	134.75
511.401	118.75
511.617	103.75
511.833	110.75
512.049	95.75
512.265	87.75
512.481	95.75
512.698	91.75
512.914	88.75
513.13	98.75
513.346	78.75
513.562	92.75
513.778	97.75
513.994	102.75
514.21	96.75
514.426	123.75
514.642	145.75
514.858	114.75
515.074	164.75
515.29	443.75
515.506	1447.75
515.721	545.75
515.937	152.75
