Data from Circ_2004_H10_HRD10591_00083.txt Node
Date: Wed Jan 03 10:33:30 EST 2024
User: Yrep
Spectrometer: HR+D1059
Trigger mode: 1
Integration Time (sec): 1.000000E-1
Scans to average: 1
Electric dark correction enabled: true
Nonlinearity correction enabled: false
Boxcar width: 0
XAxis mode: Wavelengths
Number of Pixels in Spectrum: 2048
>>>>>Begin Spectral Data<<<<<
223.165	-11.5
223.4	-11.5
223.635	-11.5
223.869	-13.5
224.104	-23.5
224.338	-30.5
224.573	-14.5
224.808	-9.5
225.042	-0.5
225.277	-16.5
225.511	-5.5
225.746	5.5
225.98	13.5
226.215	27.5
226.449	9.5
226.683	30.5
226.918	18.5
227.152	20.5
227.387	23.5
227.621	28.5
227.856	39.5
228.09	42.5
228.324	48.5
228.559	44.5
228.793	43.5
229.027	51.5
229.262	58.5
229.496	79.5
229.73	81.5
229.964	81.5
230.199	79.5
230.433	71.5
230.667	66.5
230.901	79.5
231.136	72.5
231.37	80.5
231.604	73.5
231.838	85.5
232.072	63.5
232.306	87.5
232.541	83.5
232.775	69.5
233.009	95.5
233.243	93.5
233.477	91.5
233.711	88.5
233.945	78.5
234.179	86.5
234.413	76.5
234.647	84.5
234.881	77.5
235.115	74.5
235.349	80.5
235.583	83.5
235.817	77.5
236.051	76.5
236.285	70.5
236.519	68.5
236.753	78.5
236.987	71.5
237.221	65.5
237.455	83.5
237.689	74.5
237.922	69.5
238.156	81.5
238.39	81.5
238.624	84.5
238.858	77.5
239.091	85.5
239.325	70.5
239.559	77.5
239.793	69.5
240.027	69.5
240.26	68.5
240.494	81.5
240.728	69.5
240.961	69.5
241.195	75.5
241.429	76.5
241.662	61.5
241.896	85.5
242.13	79.5
242.363	66.5
242.597	88.5
242.83	64.5
243.064	75.5
243.298	73.5
243.531	81.5
243.765	88.5
243.998	74.5
244.232	71.5
244.465	77.5
244.699	82.5
244.932	82.5
245.166	87.5
245.399	79.5
245.633	76.5
245.866	77.5
246.099	92.5
246.333	75.5
246.566	78.5
246.8	82.5
247.033	70.5
247.266	79.5
247.5	99.5
247.733	78.5
247.966	83.5
248.2	81.5
248.433	80.5
248.666	77.5
248.899	78.5
249.133	79.5
249.366	109.5
249.599	112.5
249.832	80.5
250.066	74.5
250.299	68.5
250.532	77.5
250.765	65.5
250.998	85.5
251.231	94.5
251.465	73.5
251.698	77.5
251.931	87.5
252.164	86.5
252.397	76.5
252.63	77.5
252.863	73.5
253.096	68.5
253.329	86.5
253.562	71.5
253.795	86.5
254.028	86.5
254.261	77.5
254.494	84.5
254.727	91.5
254.96	78.5
255.193	97.5
255.426	77.5
255.659	70.5
255.892	90.5
256.124	92.5
256.357	88.5
256.59	81.5
256.823	81.5
257.056	74.5
257.289	88.5
257.521	72.5
257.754	92.5
257.987	82.5
258.22	77.5
258.452	86.5
258.685	77.5
258.918	79.5
259.151	90.5
259.383	90.5
259.616	89.5
259.849	96.5
260.081	85.5
260.314	77.5
260.547	82.5
260.779	88.5
261.012	96.5
261.244	86.5
261.477	89.5
261.71	98.5
261.942	106.5
262.175	128.5
262.407	91.5
262.64	72.5
262.872	84.5
263.105	82.5
263.337	85.5
263.57	73.5
263.802	85.5
264.035	95.5
264.267	82.5
264.499	90.5
264.732	93.5
264.964	74.5
265.197	66.5
265.429	92.5
265.661	79.5
265.894	85.5
266.126	87.5
266.358	91.5
266.591	89.5
266.823	89.5
267.055	72.5
267.287	84.5
267.52	80.5
267.752	97.5
267.984	74.5
268.216	98.5
268.448	86.5
268.681	75.5
268.913	85.5
269.145	90.5
269.377	77.5
269.609	74.5
269.841	86.5
270.073	80.5
270.306	94.5
270.538	85.5
270.77	79.5
271.002	92.5
271.234	87.5
271.466	94.5
271.698	90.5
271.93	90.5
272.162	85.5
272.394	94.5
272.626	82.5
272.858	82.5
273.09	88.5
273.322	81.5
273.553	90.5
273.785	85.5
274.017	71.5
274.249	77.5
274.481	80.5
274.713	80.5
274.945	93.5
275.176	79.5
275.408	89.5
275.64	78.5
275.872	101.5
276.104	99.5
276.335	90.5
276.567	105.5
276.799	125.5
277.031	118.5
277.262	126.5
277.494	106.5
277.726	97.5
277.957	80.5
278.189	97.5
278.421	81.5
278.652	91.5
278.884	79.5
279.115	81.5
279.347	76.5
279.579	86.5
279.81	99.5
280.042	123.5
280.273	149.5
280.505	128.5
280.736	91.5
280.968	86.5
281.199	76.5
281.431	87.5
281.662	78.5
281.894	84.5
282.125	108.5
282.356	122.5
282.588	145.5
282.819	114.5
283.051	93.5
283.282	88.5
283.513	95.5
283.745	88.5
283.976	89.5
284.207	73.5
284.439	85.5
284.67	86.5
284.901	85.5
285.132	90.5
285.364	90.5
285.595	86.5
285.826	79.5
286.057	86.5
286.288	88.5
286.52	78.5
286.751	89.5
286.982	69.5
287.213	77.5
287.444	91.5
287.675	85.5
287.906	86.5
288.138	86.5
288.369	85.5
288.6	95.5
288.831	85.5
289.062	82.5
289.293	93.5
289.524	95.5
289.755	86.5
289.986	89.5
290.217	73.5
290.448	96.5
290.679	92.5
290.91	83.5
291.141	99.5
291.371	91.5
291.602	78.5
291.833	88.5
292.064	95.5
292.295	99.5
292.526	96.5
292.757	83.5
292.987	93.5
293.218	86.5
293.449	91.5
293.68	89.5
293.91	89.5
294.141	95.5
294.372	92.5
294.603	94.5
294.833	88.5
295.064	99.5
295.295	95.5
295.525	93.5
295.756	111.5
295.987	107.5
296.217	150.5
296.448	122.5
296.679	87.5
296.909	84.5
297.14	81.5
297.37	78.5
297.601	99.5
297.831	77.5
298.062	85.5
298.292	89.5
298.523	88.5
298.753	83.5
298.984	92.5
299.214	90.5
299.445	89.5
299.675	95.5
299.905	94.5
300.136	85.5
300.366	84.5
300.597	86.5
300.827	100.5
301.057	103.5
301.288	110.5
301.518	91.5
301.748	103.5
301.979	102.5
302.209	101.5
302.439	97.5
302.669	84.5
302.9	107.5
303.13	81.5
303.36	93.5
303.59	103.5
303.82	114.5
304.051	95.5
304.281	83.5
304.511	101.5
304.741	91.5
304.971	81.5
305.201	85.5
305.431	91.5
305.661	83.5
305.891	89.5
306.121	106.5
306.352	106.5
306.582	105.5
306.812	88.5
307.042	100.5
307.272	116.5
307.502	139.5
307.731	132.5
307.961	101.5
308.191	90.5
308.421	84.5
308.651	88.5
308.881	86.5
309.111	83.5
309.341	83.5
309.571	101.5
309.8	98.5
310.03	112.5
310.26	87.5
310.49	104.5
310.72	92.5
310.949	95.5
311.179	95.5
311.409	99.5
311.639	95.5
311.868	111.5
312.098	99.5
312.328	94.5
312.557	104.5
312.787	111.5
313.017	117.5
313.246	107.5
313.476	105.5
313.706	93.5
313.935	86.5
314.165	100.5
314.394	108.5
314.624	91.5
314.853	106.5
315.083	81.5
315.312	102.5
315.542	103.5
315.771	100.5
316.001	82.5
316.23	95.5
316.46	91.5
316.689	94.5
316.919	99.5
317.148	86.5
317.377	104.5
317.607	94.5
317.836	97.5
318.065	85.5
318.295	95.5
318.524	89.5
318.753	91.5
318.983	97.5
319.212	92.5
319.441	106.5
319.67	112.5
319.9	104.5
320.129	100.5
320.358	89.5
320.587	87.5
320.816	97.5
321.046	97.5
321.275	103.5
321.504	100.5
321.733	95.5
321.962	105.5
322.191	96.5
322.42	100.5
322.649	115.5
322.878	99.5
323.108	114.5
323.337	134.5
323.566	123.5
323.795	161.5
324.024	212.5
324.253	405.5
324.482	854.5
324.71	1734.5
324.939	2365.5
325.168	873.5
325.397	263.5
325.626	159.5
325.855	143.5
326.084	126.5
326.313	126.5
326.542	157.5
326.77	246.5
326.999	461.5
327.228	960.5
327.457	1797.5
327.686	1464.5
327.914	439.5
328.143	306.5
328.372	350.5
328.6	240.5
328.829	150.5
329.058	148.5
329.287	153.5
329.515	156.5
329.744	186.5
329.972	258.5
330.201	488.5
330.43	699.5
330.658	345.5
330.887	189.5
331.115	157.5
331.344	102.5
331.572	99.5
331.801	111.5
332.03	105.5
332.258	98.5
332.486	94.5
332.715	106.5
332.943	104.5
333.172	101.5
333.4	112.5
333.629	110.5
333.857	168.5
334.085	256.5
334.314	440.5
334.542	842.5
334.771	818.5
334.999	249.5
335.227	127.5
335.455	107.5
335.684	106.5
335.912	91.5
336.14	97.5
336.369	95.5
336.597	103.5
336.825	97.5
337.053	105.5
337.281	95.5
337.51	101.5
337.738	96.5
337.966	99.5
338.194	96.5
338.422	82.5
338.65	77.5
338.878	94.5
339.106	97.5
339.334	82.5
339.562	95.5
339.79	99.5
340.018	95.5
340.246	101.5
340.474	85.5
340.702	92.5
340.93	87.5
341.158	106.5
341.386	89.5
341.614	115.5
341.842	104.5
342.07	104.5
342.298	91.5
342.526	84.5
342.754	99.5
342.981	94.5
343.209	92.5
343.437	100.5
343.665	93.5
343.893	93.5
344.12	90.5
344.348	93.5
344.576	95.5
344.804	100.5
345.031	100.5
345.259	102.5
345.487	91.5
345.714	99.5
345.942	98.5
346.17	107.5
346.397	98.5
346.625	104.5
346.853	104.5
347.08	90.5
347.308	103.5
347.535	81.5
347.763	101.5
347.99	104.5
348.218	98.5
348.445	102.5
348.673	98.5
348.9	97.5
349.128	86.5
349.355	86.5
349.583	79.5
349.81	96.5
350.037	96.5
350.265	77.5
350.492	99.5
350.72	97.5
350.947	106.5
351.174	115.5
351.402	104.5
351.629	101.5
351.856	94.5
352.083	96.5
352.311	103.5
352.538	111.5
352.765	111.5
352.992	118.5
353.22	116.5
353.447	90.5
353.674	103.5
353.901	93.5
354.128	87.5
354.355	86.5
354.583	93.5
354.81	77.5
355.037	93.5
355.264	84.5
355.491	93.5
355.718	90.5
355.945	98.5
356.172	91.5
356.399	87.5
356.626	90.5
356.853	99.5
357.08	84.5
357.307	100.5
357.534	101.5
357.761	90.5
357.988	89.5
358.215	89.5
358.441	85.5
358.668	72.5
358.895	82.5
359.122	91.5
359.349	87.5
359.576	106.5
359.802	102.5
360.029	120.5
360.256	106.5
360.483	82.5
360.709	80.5
360.936	102.5
361.163	86.5
361.39	99.5
361.616	97.5
361.843	93.5
362.07	92.5
362.296	108.5
362.523	95.5
362.749	84.5
362.976	91.5
363.203	94.5
363.429	88.5
363.656	100.5
363.882	88.5
364.109	96.5
364.335	82.5
364.562	100.5
364.788	102.5
365.015	101.5
365.241	111.5
365.468	94.5
365.694	112.5
365.92	108.5
366.147	97.5
366.373	91.5
366.599	85.5
366.826	77.5
367.052	80.5
367.278	80.5
367.505	92.5
367.731	109.5
367.957	98.5
368.184	79.5
368.41	117.5
368.636	118.5
368.862	118.5
369.089	112.5
369.315	91.5
369.541	87.5
369.767	90.5
369.993	91.5
370.219	96.5
370.445	90.5
370.672	89.5
370.898	87.5
371.124	88.5
371.35	98.5
371.576	99.5
371.802	101.5
372.028	87.5
372.254	95.5
372.48	75.5
372.706	83.5
372.932	87.5
373.158	86.5
373.384	88.5
373.61	85.5
373.835	88.5
374.061	100.5
374.287	82.5
374.513	85.5
374.739	101.5
374.965	86.5
375.191	93.5
375.416	84.5
375.642	75.5
375.868	86.5
376.094	89.5
376.319	89.5
376.545	85.5
376.771	90.5
376.997	94.5
377.222	90.5
377.448	98.5
377.674	75.5
377.899	106.5
378.125	83.5
378.35	99.5
378.576	100.5
378.802	92.5
379.027	90.5
379.253	82.5
379.478	90.5
379.704	84.5
379.929	101.5
380.155	103.5
380.38	97.5
380.606	89.5
380.831	87.5
381.057	93.5
381.282	104.5
381.507	96.5
381.733	81.5
381.958	77.5
382.184	103.5
382.409	94.5
382.634	97.5
382.86	83.5
383.085	91.5
383.31	103.5
383.535	91.5
383.761	107.5
383.986	95.5
384.211	100.5
384.436	99.5
384.662	107.5
384.887	96.5
385.112	103.5
385.337	101.5
385.562	90.5
385.787	97.5
386.013	104.5
386.238	109.5
386.463	91.5
386.688	96.5
386.913	89.5
387.138	107.5
387.363	97.5
387.588	83.5
387.813	104.5
388.038	95.5
388.263	91.5
388.488	108.5
388.713	89.5
388.938	84.5
389.163	97.5
389.387	92.5
389.612	96.5
389.837	94.5
390.062	103.5
390.287	86.5
390.512	86.5
390.736	105.5
390.961	98.5
391.186	106.5
391.411	85.5
391.636	76.5
391.86	78.5
392.085	93.5
392.31	72.5
392.534	93.5
392.759	75.5
392.984	73.5
393.208	84.5
393.433	104.5
393.658	84.5
393.882	102.5
394.107	83.5
394.331	95.5
394.556	97.5
394.78	96.5
395.005	98.5
395.229	90.5
395.454	104.5
395.678	89.5
395.903	88.5
396.127	86.5
396.352	91.5
396.576	92.5
396.801	92.5
397.025	82.5
397.249	75.5
397.474	74.5
397.698	82.5
397.922	83.5
398.147	87.5
398.371	92.5
398.595	88.5
398.82	82.5
399.044	80.5
399.268	96.5
399.492	81.5
399.717	80.5
399.941	101.5
400.165	90.5
400.389	90.5
400.613	90.5
400.837	95.5
401.062	85.5
401.286	90.5
401.51	103.5
401.734	97.5
401.958	104.5
402.182	141.5
402.406	192.5
402.63	124.5
402.854	101.5
403.078	101.5
403.302	87.5
403.526	92.5
403.75	100.5
403.974	86.5
404.198	76.5
404.422	93.5
404.645	96.5
404.869	73.5
405.093	97.5
405.317	122.5
405.541	114.5
405.765	107.5
405.988	104.5
406.212	183.5
406.436	249.5
406.66	157.5
406.883	108.5
407.107	95.5
407.331	90.5
407.555	98.5
407.778	87.5
408.002	77.5
408.226	81.5
408.449	85.5
408.673	84.5
408.896	90.5
409.12	93.5
409.344	85.5
409.567	91.5
409.791	95.5
410.014	96.5
410.238	93.5
410.461	91.5
410.685	96.5
410.908	91.5
411.132	99.5
411.355	98.5
411.578	102.5
411.802	88.5
412.025	105.5
412.249	93.5
412.472	98.5
412.695	121.5
412.919	100.5
413.142	97.5
413.365	86.5
413.589	92.5
413.812	93.5
414.035	96.5
414.258	94.5
414.482	85.5
414.705	86.5
414.928	94.5
415.151	82.5
415.374	89.5
415.597	80.5
415.821	90.5
416.044	105.5
416.267	83.5
416.49	79.5
416.713	88.5
416.936	88.5
417.159	96.5
417.382	98.5
417.605	110.5
417.828	97.5
418.051	93.5
418.274	73.5
418.497	88.5
418.72	91.5
418.943	91.5
419.166	88.5
419.389	85.5
419.611	83.5
419.834	84.5
420.057	97.5
420.28	94.5
420.503	82.5
420.726	85.5
420.948	91.5
421.171	106.5
421.394	89.5
421.617	98.5
421.839	89.5
422.062	92.5
422.285	91.5
422.507	82.5
422.73	111.5
422.953	84.5
423.175	84.5
423.398	91.5
423.621	97.5
423.843	81.5
424.066	83.5
424.288	89.5
424.511	71.5
424.733	92.5
424.956	117.5
425.178	110.5
425.401	105.5
425.623	93.5
425.846	100.5
426.068	86.5
426.291	91.5
426.513	99.5
426.735	92.5
426.958	90.5
427.18	105.5
427.402	137.5
427.625	208.5
427.847	180.5
428.069	178.5
428.292	108.5
428.514	94.5
428.736	95.5
428.958	91.5
429.181	84.5
429.403	78.5
429.625	87.5
429.847	104.5
430.069	109.5
430.292	95.5
430.514	84.5
430.736	102.5
430.958	90.5
431.18	85.5
431.402	79.5
431.624	91.5
431.846	82.5
432.068	79.5
432.29	90.5
432.512	91.5
432.734	90.5
432.956	96.5
433.178	90.5
433.4	100.5
433.622	102.5
433.844	87.5
434.066	85.5
434.287	88.5
434.509	86.5
434.731	84.5
434.953	87.5
435.175	82.5
435.397	94.5
435.618	91.5
435.84	112.5
436.062	138.5
436.284	125.5
436.505	112.5
436.727	97.5
436.949	101.5
437.17	90.5
437.392	78.5
437.614	88.5
437.835	94.5
438.057	115.5
438.278	123.5
438.5	107.5
438.721	126.5
438.943	95.5
439.165	96.5
439.386	86.5
439.608	94.5
439.829	96.5
440.05	119.5
440.272	154.5
440.493	107.5
440.715	84.5
440.936	86.5
441.158	81.5
441.379	84.5
441.6	89.5
441.822	90.5
442.043	90.5
442.264	111.5
442.486	100.5
442.707	95.5
442.928	104.5
443.149	148.5
443.371	144.5
443.592	93.5
443.813	116.5
444.034	102.5
444.255	92.5
444.476	81.5
444.698	84.5
444.919	101.5
445.14	124.5
445.361	122.5
445.582	113.5
445.803	151.5
446.024	149.5
446.245	146.5
446.466	120.5
446.687	95.5
446.908	94.5
447.129	91.5
447.35	95.5
447.571	70.5
447.792	87.5
448.013	91.5
448.234	114.5
448.455	96.5
448.675	115.5
448.896	109.5
449.117	102.5
449.338	107.5
449.559	122.5
449.779	142.5
450	100.5
450.221	84.5
450.442	94.5
450.662	83.5
450.883	100.5
451.104	130.5
451.324	112.5
451.545	98.5
451.766	72.5
451.986	82.5
452.207	82.5
452.428	85.5
452.648	105.5
452.869	118.5
453.089	109.5
453.31	114.5
453.53	98.5
453.751	98.5
453.971	104.5
454.192	102.5
454.412	100.5
454.633	91.5
454.853	95.5
455.073	99.5
455.294	104.5
455.514	93.5
455.734	88.5
455.955	79.5
456.175	93.5
456.395	94.5
456.616	78.5
456.836	84.5
457.056	87.5
457.276	93.5
457.497	83.5
457.717	85.5
457.937	79.5
458.157	95.5
458.377	90.5
458.598	114.5
458.818	160.5
459.038	185.5
459.258	124.5
459.478	95.5
459.698	92.5
459.918	78.5
460.138	77.5
460.358	88.5
460.578	70.5
460.798	96.5
461.018	67.5
461.238	68.5
461.458	101.5
461.678	90.5
461.898	91.5
462.118	86.5
462.338	78.5
462.558	62.5
462.777	82.5
462.997	81.5
463.217	96.5
463.437	85.5
463.657	100.5
463.876	76.5
464.096	101.5
464.316	85.5
464.536	98.5
464.755	99.5
464.975	105.5
465.195	167.5
465.414	174.5
465.634	87.5
465.854	84.5
466.073	84.5
466.293	96.5
466.512	90.5
466.732	97.5
466.951	93.5
467.171	105.5
467.391	104.5
467.61	119.5
467.829	155.5
468.049	291.5
468.268	415.5
468.488	146.5
468.707	95.5
468.927	91.5
469.146	95.5
469.365	92.5
469.585	98.5
469.804	98.5
470.023	98.5
470.243	95.5
470.462	83.5
470.681	105.5
470.901	88.5
471.12	97.5
471.339	99.5
471.558	97.5
471.777	138.5
471.997	197.5
472.216	565.5
472.435	1159.5
472.654	310.5
472.873	122.5
473.092	112.5
473.311	104.5
473.53	88.5
473.749	87.5
473.968	101.5
474.187	109.5
474.406	101.5
474.625	97.5
474.844	81.5
475.063	86.5
475.282	96.5
475.501	103.5
475.72	87.5
475.939	88.5
476.158	85.5
476.377	95.5
476.596	88.5
476.814	89.5
477.033	103.5
477.252	83.5
477.471	102.5
477.69	92.5
477.908	102.5
478.127	103.5
478.346	93.5
478.564	99.5
478.783	95.5
479.002	98.5
479.22	106.5
479.439	106.5
479.658	114.5
479.876	78.5
480.095	96.5
480.313	110.5
480.532	121.5
480.751	190.5
480.969	518.5
481.188	1985.5
481.406	1173.5
481.624	215.5
481.843	115.5
482.061	101.5
482.28	91.5
482.498	94.5
482.717	93.5
482.935	95.5
483.153	85.5
483.372	81.5
483.59	88.5
483.808	91.5
484.027	95.5
484.245	77.5
484.463	83.5
484.681	95.5
484.9	98.5
485.118	101.5
485.336	98.5
485.554	96.5
485.772	91.5
485.99	91.5
486.209	98.5
486.427	102.5
486.645	120.5
486.863	119.5
487.081	101.5
487.299	93.5
487.517	95.5
487.735	88.5
487.953	94.5
488.171	100.5
488.389	109.5
488.607	104.5
488.825	95.5
489.043	94.5
489.261	103.5
489.479	103.5
489.696	80.5
489.914	84.5
490.132	97.5
490.35	87.5
490.568	85.5
490.786	86.5
491.003	90.5
491.221	99.5
491.439	89.5
491.657	98.5
491.874	74.5
492.092	97.5
492.31	81.5
492.527	81.5
492.745	91.5
492.963	90.5
493.18	88.5
493.398	98.5
493.615	93.5
493.833	83.5
494.05	90.5
494.268	90.5
494.485	90.5
494.703	89.5
494.92	79.5
495.138	82.5
495.355	89.5
495.573	86.5
495.79	96.5
496.008	85.5
496.225	88.5
496.442	97.5
496.66	100.5
496.877	83.5
497.094	95.5
497.312	95.5
497.529	103.5
497.746	89.5
497.963	91.5
498.181	98.5
498.398	91.5
498.615	98.5
498.832	104.5
499.049	99.5
499.267	96.5
499.484	87.5
499.701	99.5
499.918	86.5
500.135	87.5
500.352	75.5
500.569	80.5
500.786	98.5
501.003	98.5
501.22	93.5
501.437	104.5
501.654	107.5
501.871	105.5
502.088	93.5
502.305	79.5
502.522	90.5
502.739	85.5
502.956	97.5
503.172	84.5
503.389	81.5
503.606	115.5
503.823	106.5
504.04	94.5
504.256	80.5
504.473	83.5
504.69	90.5
504.907	100.5
505.123	78.5
505.34	82.5
505.557	94.5
505.773	99.5
505.99	76.5
506.207	102.5
506.423	98.5
506.64	89.5
506.856	91.5
507.073	76.5
507.289	104.5
507.506	114.5
507.722	106.5
507.939	113.5
508.155	93.5
508.372	94.5
508.588	89.5
508.805	98.5
509.021	93.5
509.238	98.5
509.454	101.5
509.67	108.5
509.887	99.5
510.103	123.5
510.319	216.5
510.536	753.5
510.752	2311.5
510.968	645.5
511.184	159.5
511.401	120.5
511.617	97.5
511.833	82.5
512.049	94.5
512.265	90.5
512.481	98.5
512.698	98.5
512.914	96.5
513.13	94.5
513.346	93.5
513.562	93.5
513.778	101.5
513.994	94.5
514.21	102.5
514.426	115.5
514.642	130.5
514.858	139.5
515.074	187.5
515.29	506.5
515.506	1687.5
515.721	623.5
515.937	200.5
516.153	106.5
516.369	101.5
516.585	97.5
516.801	99.5
517.016	99.5
517.232	98.5
517.448	104.5
517.664	96.5
517.879	96.5
518.095	86.5
518.311	98.5
518.527	104.5
518.742	96.5
518.958	94.5
519.173	99.5
519.389	108.5
519.605	99.5
519.82	106.5
520.036	99.5
520.251	131.5
520.467	110.5
520.682	100.5
520.898	109.5
521.113	104.5
521.329	139.5
521.544	239.5
521.76	617.5
521.975	2762.5
522.19	1678.5
522.406	349.5
522.621	131.5
522.836	105.5
523.052	97.5
523.267	99.5
523.482	94.5
523.698	109.5
523.913	116.5
524.128	112.5
524.343	104.5
524.559	99.5
524.774	86.5
524.989	82.5
525.204	102.5
525.419	96.5
525.634	105.5
525.849	85.5
526.064	92.5
526.28	84.5
526.495	91.5
526.71	91.5
526.925	89.5
527.14	86.5
527.355	91.5
527.57	95.5
527.785	97.5
527.999	98.5
528.214	95.5
528.429	90.5
528.644	88.5
528.859	93.5
529.074	85.5
529.289	122.5
529.503	201.5
529.718	111.5
529.933	90.5
530.148	90.5
530.363	88.5
530.577	93.5
530.792	92.5
531.007	81.5
531.221	106.5
531.436	89.5
531.651	90.5
531.865	98.5
532.08	100.5
532.295	86.5
532.509	85.5
532.724	85.5
532.938	95.5
533.153	81.5
533.367	96.5
533.582	101.5
533.796	106.5
534.011	95.5
534.225	73.5
