Data from Circ_2004_H10_HRD10591_00088.txt Node
Date: Wed Jan 03 10:33:31 EST 2024
User: Yrep
Spectrometer: HR+D1059
Trigger mode: 1
Integration Time (sec): 1.000000E-1
Scans to average: 1
Electric dark correction enabled: true
Nonlinearity correction enabled: false
Boxcar width: 0
XAxis mode: Wavelengths
Number of Pixels in Spectrum: 2048
>>>>>Begin Spectral Data<<<<<
223.165	-18.88
223.4	-18.88
223.635	-18.88
223.869	-27.88
224.104	-21.88
224.338	-5.88
224.573	-9.88
224.808	-9.88
225.042	-14.88
225.277	-10.88
225.511	5.12
225.746	3.12
225.98	19.12
226.215	2.12
226.449	16.12
226.683	18.12
226.918	23.12
227.152	33.12
227.387	25.12
227.621	47.12
227.856	45.12
228.09	42.12
228.324	48.12
228.559	59.12
228.793	69.12
229.027	58.12
229.262	70.12
229.496	71.12
229.73	84.12
229.964	89.12
230.199	75.12
230.433	75.12
230.667	77.12
230.901	90.12
231.136	67.12
231.37	77.12
231.604	95.12
231.838	73.12
232.072	76.12
232.306	76.12
232.541	79.12
232.775	80.12
233.009	67.12
233.243	81.12
233.477	78.12
233.711	81.12
233.945	84.12
234.179	85.12
234.413	84.12
234.647	80.12
234.881	72.12
235.115	99.12
235.349	85.12
235.583	81.12
235.817	68.12
236.051	82.12
236.285	71.12
236.519	84.12
236.753	82.12
236.987	95.12
237.221	94.12
237.455	86.12
237.689	84.12
237.922	79.12
238.156	64.12
238.39	83.12
238.624	86.12
238.858	77.12
239.091	70.12
239.325	85.12
239.559	88.12
239.793	73.12
240.027	86.12
240.26	84.12
240.494	88.12
240.728	84.12
240.961	77.12
241.195	65.12
241.429	74.12
241.662	77.12
241.896	73.12
242.13	63.12
242.363	90.12
242.597	80.12
242.83	87.12
243.064	86.12
243.298	72.12
243.531	73.12
243.765	75.12
243.998	82.12
244.232	95.12
244.465	78.12
244.699	85.12
244.932	85.12
245.166	69.12
245.399	85.12
245.633	89.12
245.866	78.12
246.099	78.12
246.333	82.12
246.566	82.12
246.8	75.12
247.033	79.12
247.266	73.12
247.5	82.12
247.733	85.12
247.966	65.12
248.2	81.12
248.433	81.12
248.666	78.12
248.899	68.12
249.133	90.12
249.366	95.12
249.599	86.12
249.832	81.12
250.066	74.12
250.299	81.12
250.532	84.12
250.765	83.12
250.998	65.12
251.231	93.12
251.465	76.12
251.698	83.12
251.931	86.12
252.164	77.12
252.397	73.12
252.63	78.12
252.863	80.12
253.096	77.12
253.329	85.12
253.562	82.12
253.795	90.12
254.028	85.12
254.261	91.12
254.494	86.12
254.727	90.12
254.96	71.12
255.193	73.12
255.426	79.12
255.659	78.12
255.892	102.12
256.124	83.12
256.357	81.12
256.59	84.12
256.823	81.12
257.056	79.12
257.289	78.12
257.521	80.12
257.754	72.12
257.987	83.12
258.22	82.12
258.452	82.12
258.685	81.12
258.918	91.12
259.151	80.12
259.383	80.12
259.616	96.12
259.849	89.12
260.081	102.12
260.314	86.12
260.547	82.12
260.779	89.12
261.012	80.12
261.244	109.12
261.477	90.12
261.71	102.12
261.942	119.12
262.175	125.12
262.407	91.12
262.64	86.12
262.872	96.12
263.105	81.12
263.337	73.12
263.57	83.12
263.802	86.12
264.035	98.12
264.267	70.12
264.499	74.12
264.732	81.12
264.964	88.12
265.197	70.12
265.429	78.12
265.661	86.12
265.894	79.12
266.126	82.12
266.358	94.12
266.591	79.12
266.823	72.12
267.055	82.12
267.287	76.12
267.52	95.12
267.752	77.12
267.984	87.12
268.216	82.12
268.448	91.12
268.681	89.12
268.913	86.12
269.145	78.12
269.377	77.12
269.609	78.12
269.841	96.12
270.073	80.12
270.306	88.12
270.538	90.12
270.77	93.12
271.002	67.12
271.234	88.12
271.466	89.12
271.698	95.12
271.93	87.12
272.162	106.12
272.394	84.12
272.626	75.12
272.858	92.12
273.09	78.12
273.322	86.12
273.553	78.12
273.785	69.12
274.017	81.12
274.249	87.12
274.481	90.12
274.713	91.12
274.945	89.12
275.176	87.12
275.408	87.12
275.64	99.12
275.872	97.12
276.104	96.12
276.335	86.12
276.567	104.12
276.799	129.12
277.031	127.12
277.262	133.12
277.494	122.12
277.726	100.12
277.957	96.12
278.189	83.12
278.421	97.12
278.652	91.12
278.884	92.12
279.115	93.12
279.347	84.12
279.579	105.12
279.81	110.12
280.042	137.12
280.273	166.12
280.505	119.12
280.736	93.12
280.968	85.12
281.199	77.12
281.431	81.12
281.662	102.12
281.894	87.12
282.125	92.12
282.356	129.12
282.588	145.12
282.819	116.12
283.051	100.12
283.282	85.12
283.513	86.12
283.745	91.12
283.976	90.12
284.207	88.12
284.439	98.12
284.67	94.12
284.901	91.12
285.132	74.12
285.364	75.12
285.595	72.12
285.826	94.12
286.057	94.12
286.288	82.12
286.52	90.12
286.751	100.12
286.982	83.12
287.213	77.12
287.444	91.12
287.675	103.12
287.906	94.12
288.138	87.12
288.369	102.12
288.6	90.12
288.831	94.12
289.062	90.12
289.293	83.12
289.524	86.12
289.755	93.12
289.986	99.12
290.217	78.12
290.448	92.12
290.679	75.12
290.91	89.12
291.141	85.12
291.371	90.12
291.602	82.12
291.833	97.12
292.064	98.12
292.295	81.12
292.526	96.12
292.757	100.12
292.987	78.12
293.218	93.12
293.449	97.12
293.68	93.12
293.91	100.12
294.141	91.12
294.372	85.12
294.603	87.12
294.833	90.12
295.064	79.12
295.295	94.12
295.525	97.12
295.756	99.12
295.987	120.12
296.217	130.12
296.448	120.12
296.679	95.12
296.909	90.12
297.14	80.12
297.37	97.12
297.601	91.12
297.831	88.12
298.062	83.12
298.292	89.12
298.523	91.12
298.753	95.12
298.984	101.12
299.214	82.12
299.445	109.12
299.675	93.12
299.905	90.12
300.136	110.12
300.366	76.12
300.597	98.12
300.827	97.12
301.057	110.12
301.288	105.12
301.518	90.12
301.748	95.12
301.979	111.12
302.209	94.12
302.439	103.12
302.669	86.12
302.9	80.12
303.13	106.12
303.36	104.12
303.59	107.12
303.82	120.12
304.051	98.12
304.281	107.12
304.511	85.12
304.741	88.12
304.971	98.12
305.201	103.12
305.431	90.12
305.661	86.12
305.891	87.12
306.121	97.12
306.352	117.12
306.582	119.12
306.812	92.12
307.042	109.12
307.272	136.12
307.502	139.12
307.731	131.12
307.961	104.12
308.191	89.12
308.421	105.12
308.651	100.12
308.881	87.12
309.111	94.12
309.341	96.12
309.571	93.12
309.8	99.12
310.03	104.12
310.26	111.12
310.49	89.12
310.72	112.12
310.949	103.12
311.179	100.12
311.409	101.12
311.639	105.12
311.868	95.12
312.098	88.12
312.328	95.12
312.557	119.12
312.787	117.12
313.017	109.12
313.246	106.12
313.476	95.12
313.706	99.12
313.935	87.12
314.165	103.12
314.394	103.12
314.624	101.12
314.853	89.12
315.083	101.12
315.312	95.12
315.542	109.12
315.771	91.12
316.001	84.12
316.23	95.12
316.46	96.12
316.689	106.12
316.919	97.12
317.148	92.12
317.377	100.12
317.607	96.12
317.836	91.12
318.065	88.12
318.295	101.12
318.524	99.12
318.753	100.12
318.983	81.12
319.212	115.12
319.441	95.12
319.67	129.12
319.9	90.12
320.129	101.12
320.358	97.12
320.587	103.12
320.816	90.12
321.046	90.12
321.275	114.12
321.504	109.12
321.733	104.12
321.962	101.12
322.191	114.12
322.42	107.12
322.649	119.12
322.878	127.12
323.108	119.12
323.337	127.12
323.566	155.12
323.795	176.12
324.024	224.12
324.253	444.12
324.482	933.12
324.71	1881.12
324.939	2434.12
325.168	889.12
325.397	269.12
325.626	161.12
325.855	145.12
326.084	133.12
326.313	141.12
326.542	167.12
326.77	243.12
326.999	498.12
327.228	1022.12
327.457	1829.12
327.686	1477.12
327.914	460.12
328.143	355.12
328.372	409.12
328.6	239.12
328.829	137.12
329.058	142.12
329.287	149.12
329.515	142.12
329.744	183.12
329.972	292.12
330.201	544.12
330.43	791.12
330.658	410.12
330.887	224.12
331.115	152.12
331.344	111.12
331.572	109.12
331.801	116.12
332.03	112.12
332.258	107.12
332.486	97.12
332.715	109.12
332.943	106.12
333.172	113.12
333.4	125.12
333.629	140.12
333.857	183.12
334.085	267.12
334.314	500.12
334.542	949.12
334.771	907.12
334.999	277.12
335.227	116.12
335.455	101.12
335.684	109.12
335.912	105.12
336.14	100.12
336.369	109.12
336.597	100.12
336.825	109.12
337.053	88.12
337.281	98.12
337.51	95.12
337.738	105.12
337.966	99.12
338.194	93.12
338.422	98.12
338.65	101.12
338.878	87.12
339.106	89.12
339.334	103.12
339.562	98.12
339.79	97.12
340.018	83.12
340.246	91.12
340.474	105.12
340.702	87.12
340.93	93.12
341.158	84.12
341.386	97.12
341.614	101.12
341.842	106.12
342.07	105.12
342.298	104.12
342.526	100.12
342.754	90.12
342.981	86.12
343.209	80.12
343.437	109.12
343.665	105.12
343.893	99.12
344.12	87.12
344.348	78.12
344.576	73.12
344.804	83.12
345.031	107.12
345.259	98.12
345.487	95.12
345.714	105.12
345.942	106.12
346.17	100.12
346.397	87.12
346.625	97.12
346.853	87.12
347.08	95.12
347.308	92.12
347.535	97.12
347.763	105.12
347.99	105.12
348.218	125.12
348.445	101.12
348.673	102.12
348.9	107.12
349.128	89.12
349.355	86.12
349.583	90.12
349.81	91.12
350.037	96.12
350.265	95.12
350.492	86.12
350.72	93.12
350.947	110.12
351.174	96.12
351.402	120.12
351.629	99.12
351.856	103.12
352.083	104.12
352.311	98.12
352.538	98.12
352.765	109.12
352.992	111.12
353.22	127.12
353.447	96.12
353.674	93.12
353.901	106.12
354.128	107.12
354.355	94.12
354.583	83.12
354.81	91.12
355.037	104.12
355.264	89.12
355.491	85.12
355.718	77.12
355.945	97.12
356.172	93.12
356.399	105.12
356.626	81.12
356.853	88.12
357.08	91.12
357.307	93.12
357.534	80.12
357.761	92.12
357.988	82.12
358.215	87.12
358.441	87.12
358.668	98.12
358.895	90.12
359.122	96.12
359.349	97.12
359.576	92.12
359.802	102.12
360.029	119.12
360.256	121.12
360.483	113.12
360.709	90.12
360.936	84.12
361.163	84.12
361.39	90.12
361.616	106.12
361.843	100.12
362.07	109.12
362.296	101.12
362.523	95.12
362.749	93.12
362.976	94.12
363.203	89.12
363.429	101.12
363.656	82.12
363.882	90.12
364.109	91.12
364.335	85.12
364.562	90.12
364.788	86.12
365.015	104.12
365.241	101.12
365.468	106.12
365.694	110.12
365.92	82.12
366.147	102.12
366.373	83.12
366.599	88.12
366.826	80.12
367.052	95.12
367.278	75.12
367.505	101.12
367.731	106.12
367.957	93.12
368.184	95.12
368.41	112.12
368.636	118.12
368.862	112.12
369.089	117.12
369.315	92.12
369.541	100.12
369.767	84.12
369.993	85.12
370.219	92.12
370.445	84.12
370.672	82.12
370.898	94.12
371.124	78.12
371.35	95.12
371.576	92.12
371.802	85.12
372.028	90.12
372.254	80.12
372.48	80.12
372.706	88.12
372.932	108.12
373.158	95.12
373.384	75.12
373.61	87.12
373.835	93.12
374.061	86.12
374.287	99.12
374.513	93.12
374.739	103.12
374.965	95.12
375.191	92.12
375.416	82.12
375.642	93.12
375.868	82.12
376.094	85.12
376.319	93.12
376.545	82.12
376.771	80.12
376.997	92.12
377.222	89.12
377.448	88.12
377.674	94.12
377.899	87.12
378.125	86.12
378.35	100.12
378.576	91.12
378.802	83.12
379.027	84.12
379.253	85.12
379.478	92.12
379.704	97.12
379.929	91.12
380.155	100.12
380.38	81.12
380.606	81.12
380.831	83.12
381.057	103.12
381.282	91.12
381.507	88.12
381.733	96.12
381.958	94.12
382.184	107.12
382.409	101.12
382.634	113.12
382.86	88.12
383.085	104.12
383.31	94.12
383.535	100.12
383.761	103.12
383.986	97.12
384.211	88.12
384.436	90.12
384.662	95.12
384.887	94.12
385.112	108.12
385.337	99.12
385.562	103.12
385.787	114.12
386.013	117.12
386.238	113.12
386.463	104.12
386.688	97.12
386.913	99.12
387.138	90.12
387.363	94.12
387.588	93.12
387.813	86.12
388.038	96.12
388.263	100.12
388.488	100.12
388.713	97.12
388.938	92.12
389.163	105.12
389.387	90.12
389.612	99.12
389.837	82.12
390.062	99.12
390.287	84.12
390.512	91.12
390.736	100.12
390.961	84.12
391.186	83.12
391.411	95.12
391.636	95.12
391.86	83.12
392.085	92.12
392.31	88.12
392.534	97.12
392.759	96.12
392.984	85.12
393.208	99.12
393.433	101.12
393.658	85.12
393.882	93.12
394.107	77.12
394.331	77.12
394.556	86.12
394.78	89.12
395.005	100.12
395.229	82.12
395.454	67.12
395.678	96.12
395.903	74.12
396.127	93.12
396.352	88.12
396.576	87.12
396.801	88.12
397.025	93.12
397.249	88.12
397.474	93.12
397.698	92.12
397.922	89.12
398.147	104.12
398.371	82.12
398.595	99.12
398.82	89.12
399.044	65.12
399.268	82.12
399.492	72.12
399.717	85.12
399.941	86.12
400.165	107.12
400.389	93.12
400.613	87.12
400.837	85.12
401.062	91.12
401.286	94.12
401.51	101.12
401.734	93.12
401.958	106.12
402.182	145.12
402.406	175.12
402.63	129.12
402.854	85.12
403.078	90.12
403.302	81.12
403.526	83.12
403.75	100.12
403.974	89.12
404.198	102.12
404.422	91.12
404.645	86.12
404.869	102.12
405.093	97.12
405.317	111.12
405.541	125.12
405.765	96.12
405.988	120.12
406.212	186.12
406.436	260.12
406.66	160.12
406.883	107.12
407.107	101.12
407.331	95.12
407.555	107.12
407.778	88.12
408.002	119.12
408.226	82.12
408.449	92.12
408.673	86.12
408.896	95.12
409.12	101.12
409.344	73.12
409.567	97.12
409.791	82.12
410.014	92.12
410.238	99.12
410.461	87.12
410.685	98.12
410.908	108.12
411.132	92.12
411.355	107.12
411.578	97.12
411.802	77.12
412.025	89.12
412.249	122.12
412.472	113.12
412.695	116.12
412.919	93.12
413.142	90.12
413.365	97.12
413.589	90.12
413.812	76.12
414.035	81.12
414.258	100.12
414.482	89.12
414.705	88.12
414.928	97.12
415.151	81.12
415.374	88.12
415.597	74.12
415.821	89.12
416.044	91.12
416.267	88.12
416.49	89.12
416.713	74.12
416.936	94.12
417.159	102.12
417.382	97.12
417.605	98.12
417.828	99.12
418.051	100.12
418.274	104.12
418.497	84.12
418.72	93.12
418.943	89.12
419.166	83.12
419.389	98.12
419.611	104.12
419.834	101.12
420.057	87.12
420.28	90.12
420.503	80.12
420.726	99.12
420.948	95.12
421.171	109.12
421.394	93.12
421.617	102.12
421.839	86.12
422.062	79.12
422.285	85.12
422.507	98.12
422.73	92.12
422.953	82.12
423.175	75.12
423.398	93.12
423.621	86.12
423.843	94.12
424.066	98.12
424.288	72.12
424.511	101.12
424.733	94.12
424.956	102.12
425.178	96.12
425.401	110.12
425.623	95.12
425.846	85.12
426.068	83.12
426.291	93.12
426.513	92.12
426.735	99.12
426.958	103.12
427.18	97.12
427.402	144.12
427.625	200.12
427.847	173.12
428.069	180.12
428.292	95.12
428.514	78.12
428.736	87.12
428.958	92.12
429.181	82.12
429.403	89.12
429.625	105.12
429.847	91.12
430.069	97.12
430.292	90.12
430.514	97.12
430.736	90.12
430.958	95.12
431.18	86.12
431.402	89.12
431.624	75.12
431.846	84.12
432.068	84.12
432.29	90.12
432.512	91.12
432.734	80.12
432.956	96.12
433.178	96.12
433.4	105.12
433.622	98.12
433.844	96.12
434.066	85.12
434.287	95.12
434.509	79.12
434.731	97.12
434.953	91.12
435.175	93.12
435.397	85.12
435.618	83.12
435.84	95.12
436.062	122.12
436.284	111.12
436.505	103.12
436.727	102.12
436.949	104.12
437.17	83.12
437.392	99.12
437.614	92.12
437.835	112.12
438.057	127.12
438.278	123.12
438.5	114.12
438.721	113.12
438.943	108.12
439.165	86.12
439.386	83.12
439.608	92.12
439.829	108.12
440.05	129.12
440.272	161.12
440.493	99.12
440.715	85.12
440.936	87.12
441.158	79.12
441.379	90.12
441.6	85.12
441.822	93.12
442.043	97.12
442.264	103.12
442.486	94.12
442.707	94.12
442.928	109.12
443.149	139.12
443.371	145.12
443.592	115.12
443.813	112.12
444.034	82.12
444.255	100.12
444.476	80.12
444.698	80.12
444.919	86.12
445.14	130.12
445.361	128.12
445.582	108.12
445.803	161.12
446.024	139.12
446.245	152.12
446.466	119.12
446.687	93.12
446.908	85.12
447.129	94.12
447.35	99.12
447.571	84.12
447.792	99.12
448.013	90.12
448.234	95.12
448.455	99.12
448.675	101.12
448.896	131.12
449.117	110.12
449.338	104.12
449.559	137.12
449.779	137.12
450	90.12
450.221	84.12
450.442	96.12
450.662	101.12
450.883	109.12
451.104	127.12
451.324	85.12
451.545	91.12
451.766	93.12
451.986	68.12
452.207	80.12
452.428	104.12
452.648	103.12
452.869	133.12
453.089	111.12
453.31	124.12
453.53	91.12
453.751	112.12
453.971	108.12
454.192	125.12
454.412	91.12
454.633	88.12
454.853	88.12
455.073	80.12
455.294	78.12
455.514	107.12
455.734	101.12
455.955	97.12
456.175	97.12
456.395	91.12
456.616	91.12
456.836	96.12
457.056	91.12
457.276	88.12
457.497	79.12
457.717	87.12
457.937	81.12
458.157	83.12
458.377	97.12
458.598	124.12
458.818	166.12
459.038	187.12
459.258	114.12
459.478	91.12
459.698	85.12
459.918	91.12
460.138	99.12
460.358	83.12
460.578	89.12
460.798	87.12
461.018	106.12
461.238	95.12
461.458	94.12
461.678	75.12
461.898	76.12
462.118	81.12
462.338	99.12
462.558	95.12
462.777	88.12
462.997	98.12
463.217	104.12
463.437	96.12
463.657	96.12
463.876	94.12
464.096	85.12
464.316	105.12
464.536	101.12
464.755	95.12
464.975	100.12
465.195	181.12
465.414	176.12
465.634	85.12
465.854	85.12
466.073	91.12
466.293	79.12
466.512	62.12
466.732	73.12
466.951	101.12
467.171	97.12
467.391	84.12
467.61	121.12
467.829	151.12
468.049	331.12
468.268	480.12
468.488	144.12
468.707	96.12
468.927	99.12
469.146	103.12
469.365	85.12
469.585	107.12
469.804	108.12
470.023	91.12
470.243	91.12
470.462	110.12
470.681	117.12
470.901	110.12
471.12	94.12
471.339	101.12
471.558	102.12
471.777	116.12
471.997	224.12
472.216	655.12
472.435	1365.12
472.654	376.12
472.873	132.12
473.092	101.12
473.311	90.12
473.53	89.12
473.749	104.12
473.968	109.12
474.187	125.12
474.406	94.12
474.625	86.12
474.844	88.12
475.063	88.12
475.282	98.12
475.501	90.12
475.72	95.12
475.939	79.12
476.158	82.12
476.377	104.12
476.596	89.12
476.814	93.12
477.033	110.12
477.252	92.12
477.471	88.12
477.69	102.12
477.908	87.12
478.127	87.12
478.346	91.12
478.564	103.12
478.783	105.12
479.002	106.12
479.22	112.12
479.439	108.12
479.658	109.12
479.876	103.12
480.095	93.12
480.313	110.12
480.532	126.12
480.751	192.12
480.969	615.12
481.188	2319.12
481.406	1370.12
481.624	253.12
481.843	121.12
482.061	93.12
482.28	99.12
482.498	106.12
482.717	73.12
482.935	86.12
483.153	86.12
483.372	95.12
483.59	74.12
483.808	81.12
484.027	95.12
484.245	85.12
484.463	86.12
484.681	98.12
484.9	89.12
485.118	95.12
485.336	86.12
485.554	100.12
485.772	87.12
485.99	101.12
486.209	89.12
486.427	102.12
486.645	110.12
486.863	115.12
487.081	113.12
487.299	88.12
487.517	96.12
487.735	91.12
487.953	93.12
488.171	87.12
488.389	105.12
488.607	96.12
488.825	91.12
489.043	87.12
489.261	94.12
489.479	73.12
489.696	95.12
489.914	97.12
490.132	97.12
490.35	91.12
490.568	86.12
490.786	86.12
491.003	106.12
491.221	100.12
491.439	85.12
491.657	85.12
491.874	104.12
492.092	97.12
492.31	88.12
492.527	101.12
492.745	95.12
492.963	81.12
493.18	94.12
493.398	84.12
493.615	94.12
493.833	99.12
494.05	89.12
494.268	96.12
494.485	96.12
494.703	92.12
494.92	86.12
495.138	93.12
495.355	89.12
495.573	97.12
495.79	84.12
496.008	82.12
496.225	84.12
496.442	93.12
496.66	81.12
496.877	84.12
497.094	84.12
497.312	101.12
497.529	81.12
497.746	80.12
497.963	88.12
498.181	89.12
498.398	111.12
498.615	126.12
498.832	103.12
499.049	95.12
499.267	85.12
499.484	92.12
499.701	99.12
499.918	87.12
500.135	78.12
500.352	99.12
500.569	98.12
500.786	81.12
501.003	99.12
501.22	90.12
501.437	87.12
501.654	95.12
501.871	109.12
502.088	82.12
502.305	83.12
502.522	106.12
502.739	88.12
502.956	84.12
503.172	77.12
503.389	103.12
503.606	106.12
503.823	101.12
504.04	99.12
504.256	90.12
504.473	99.12
504.69	90.12
504.907	91.12
505.123	87.12
505.34	94.12
505.557	81.12
505.773	93.12
505.99	74.12
506.207	90.12
506.423	66.12
506.64	80.12
506.856	95.12
507.073	82.12
507.289	104.12
507.506	101.12
507.722	115.12
507.939	119.12
508.155	97.12
508.372	84.12
508.588	81.12
508.805	106.12
509.021	93.12
509.238	84.12
509.454	100.12
509.67	105.12
509.887	112.12
510.103	135.12
510.319	221.12
510.536	819.12
510.752	2541.12
510.968	707.12
511.184	183.12
511.401	119.12
511.617	104.12
511.833	107.12
512.049	95.12
512.265	89.12
512.481	87.12
512.698	96.12
512.914	91.12
513.13	90.12
513.346	88.12
513.562	93.12
513.778	104.12
513.994	97.12
514.21	104.12
