Data from Circ_2004_H10_HRD10591_00019.txt Node
Date: Wed Jan 03 10:33:18 EST 2024
User: Yrep
Spectrometer: HR+D1059
Trigger mode: 1
Integration Time (sec): 1.000000E-1
Scans to average: 1
Electric dark correction enabled: true
Nonlinearity correction enabled: false
Boxcar width: 0
XAxis mode: Wavelengths
Number of Pixels in Spectrum: 2048
>>>>>Begin Spectral Data<<<<<
223.165	0.31
223.4	0.31
223.635	0.31
223.869	-10.69
224.104	-15.69
224.338	-7.69
224.573	-29.69
224.808	-24.69
225.042	-9.69
225.277	-7.69
225.511	-5.69
225.746	3.31
225.98	15.31
226.215	7.31
226.449	19.31
226.683	10.31
226.918	26.31
227.152	29.31
227.387	38.31
227.621	35.31
227.856	35.31
228.09	44.31
228.324	45.31
228.559	54.31
228.793	54.31
229.027	56.31
229.262	68.31
229.496	75.31
229.73	92.31
229.964	85.31
230.199	70.31
230.433	72.31
230.667	77.31
230.901	65.31
231.136	78.31
231.37	76.31
231.604	68.31
231.838	72.31
232.072	75.31
232.306	84.31
232.541	75.31
232.775	76.31
233.009	79.31
233.243	67.31
233.477	85.31
233.711	76.31
233.945	78.31
234.179	79.31
234.413	71.31
234.647	72.31
234.881	75.31
235.115	66.31
235.349	89.31
235.583	66.31
235.817	92.31
236.051	80.31
236.285	76.31
236.519	81.31
236.753	78.31
236.987	69.31
237.221	78.31
237.455	83.31
237.689	83.31
237.922	70.31
238.156	73.31
238.39	63.31
238.624	67.31
238.858	69.31
239.091	82.31
239.325	72.31
239.559	79.31
239.793	81.31
240.027	82.31
240.26	81.31
240.494	79.31
240.728	99.31
240.961	68.31
241.195	82.31
241.429	80.31
241.662	76.31
241.896	61.31
242.13	79.31
242.363	81.31
242.597	74.31
242.83	79.31
243.064	78.31
243.298	68.31
243.531	75.31
243.765	75.31
243.998	78.31
244.232	80.31
244.465	81.31
244.699	77.31
244.932	83.31
245.166	77.31
245.399	64.31
245.633	85.31
245.866	67.31
246.099	72.31
246.333	76.31
246.566	79.31
246.8	66.31
247.033	91.31
247.266	71.31
247.5	74.31
247.733	80.31
247.966	91.31
248.2	67.31
248.433	80.31
248.666	88.31
248.899	68.31
249.133	73.31
249.366	95.31
249.599	91.31
249.832	86.31
250.066	86.31
250.299	84.31
250.532	81.31
250.765	93.31
250.998	88.31
251.231	72.31
251.465	74.31
251.698	78.31
251.931	71.31
252.164	75.31
252.397	89.31
252.63	73.31
252.863	69.31
253.096	79.31
253.329	81.31
253.562	77.31
253.795	66.31
254.028	70.31
254.261	63.31
254.494	74.31
254.727	75.31
254.96	91.31
255.193	80.31
255.426	73.31
255.659	77.31
255.892	71.31
256.124	86.31
256.357	70.31
256.59	74.31
256.823	81.31
257.056	70.31
257.289	72.31
257.521	70.31
257.754	79.31
257.987	77.31
258.22	78.31
258.452	80.31
258.685	76.31
258.918	81.31
259.151	87.31
259.383	82.31
259.616	74.31
259.849	80.31
260.081	84.31
260.314	75.31
260.547	76.31
260.779	74.31
261.012	77.31
261.244	96.31
261.477	99.31
261.71	79.31
261.942	90.31
262.175	103.31
262.407	77.31
262.64	62.31
262.872	84.31
263.105	88.31
263.337	94.31
263.57	81.31
263.802	81.31
264.035	84.31
264.267	86.31
264.499	64.31
264.732	71.31
264.964	88.31
265.197	71.31
265.429	88.31
265.661	84.31
265.894	78.31
266.126	80.31
266.358	79.31
266.591	76.31
266.823	80.31
267.055	86.31
267.287	74.31
267.52	67.31
267.752	71.31
267.984	87.31
268.216	77.31
268.448	78.31
268.681	83.31
268.913	82.31
269.145	88.31
269.377	78.31
269.609	82.31
269.841	82.31
270.073	92.31
270.306	66.31
270.538	80.31
270.77	75.31
271.002	84.31
271.234	86.31
271.466	66.31
271.698	93.31
271.93	86.31
272.162	71.31
272.394	92.31
272.626	85.31
272.858	88.31
273.09	82.31
273.322	82.31
273.553	77.31
273.785	85.31
274.017	90.31
274.249	92.31
274.481	73.31
274.713	75.31
274.945	90.31
275.176	76.31
275.408	94.31
275.64	78.31
275.872	86.31
276.104	84.31
276.335	83.31
276.567	91.31
276.799	97.31
277.031	98.31
277.262	80.31
277.494	92.31
277.726	91.31
277.957	86.31
278.189	88.31
278.421	85.31
278.652	74.31
278.884	74.31
279.115	70.31
279.347	81.31
279.579	79.31
279.81	87.31
280.042	83.31
280.273	101.31
280.505	78.31
280.736	64.31
280.968	78.31
281.199	86.31
281.431	86.31
281.662	79.31
281.894	98.31
282.125	80.31
282.356	103.31
282.588	109.31
282.819	91.31
283.051	69.31
283.282	80.31
283.513	92.31
283.745	85.31
283.976	86.31
284.207	81.31
284.439	96.31
284.67	83.31
284.901	79.31
285.132	73.31
285.364	90.31
285.595	84.31
285.826	85.31
286.057	84.31
286.288	75.31
286.52	83.31
286.751	89.31
286.982	82.31
287.213	90.31
287.444	86.31
287.675	95.31
287.906	88.31
288.138	99.31
288.369	82.31
288.6	79.31
288.831	78.31
289.062	93.31
289.293	98.31
289.524	81.31
289.755	78.31
289.986	80.31
290.217	76.31
290.448	93.31
290.679	92.31
290.91	90.31
291.141	60.31
291.371	78.31
291.602	77.31
291.833	84.31
292.064	90.31
292.295	77.31
292.526	86.31
292.757	94.31
292.987	92.31
293.218	99.31
293.449	79.31
293.68	93.31
293.91	90.31
294.141	94.31
294.372	70.31
294.603	79.31
294.833	79.31
295.064	72.31
295.295	86.31
295.525	88.31
295.756	94.31
295.987	106.31
296.217	112.31
296.448	112.31
296.679	98.31
296.909	88.31
297.14	74.31
297.37	79.31
297.601	83.31
297.831	90.31
298.062	97.31
298.292	82.31
298.523	74.31
298.753	81.31
298.984	81.31
299.214	76.31
299.445	84.31
299.675	93.31
299.905	90.31
300.136	88.31
300.366	85.31
300.597	83.31
300.827	95.31
301.057	115.31
301.288	85.31
301.518	91.31
301.748	83.31
301.979	101.31
302.209	79.31
302.439	84.31
302.669	84.31
302.9	72.31
303.13	83.31
303.36	92.31
303.59	87.31
303.82	106.31
304.051	101.31
304.281	99.31
304.511	83.31
304.741	70.31
304.971	80.31
305.201	83.31
305.431	85.31
305.661	83.31
305.891	96.31
306.121	94.31
306.352	91.31
306.582	103.31
306.812	98.31
307.042	77.31
307.272	92.31
307.502	114.31
307.731	98.31
307.961	88.31
308.191	89.31
308.421	76.31
308.651	109.31
308.881	92.31
309.111	98.31
309.341	92.31
309.571	101.31
309.8	93.31
310.03	94.31
310.26	99.31
310.49	88.31
310.72	95.31
310.949	99.31
311.179	88.31
311.409	87.31
311.639	94.31
311.868	93.31
312.098	93.31
312.328	91.31
312.557	94.31
312.787	88.31
313.017	112.31
313.246	91.31
313.476	97.31
313.706	94.31
313.935	101.31
314.165	95.31
314.394	91.31
314.624	86.31
314.853	92.31
315.083	100.31
315.312	81.31
315.542	93.31
315.771	87.31
316.001	75.31
316.23	93.31
316.46	82.31
316.689	84.31
316.919	101.31
317.148	85.31
317.377	92.31
317.607	96.31
317.836	104.31
318.065	93.31
318.295	86.31
318.524	95.31
318.753	93.31
318.983	81.31
319.212	95.31
319.441	106.31
319.67	104.31
319.9	89.31
320.129	90.31
320.358	86.31
320.587	87.31
320.816	74.31
321.046	86.31
321.275	91.31
321.504	83.31
321.733	86.31
321.962	119.31
322.191	93.31
322.42	79.31
322.649	91.31
322.878	106.31
323.108	113.31
323.337	101.31
323.566	123.31
323.795	135.31
324.024	192.31
324.253	330.31
324.482	681.31
324.71	1358.31
324.939	1792.31
325.168	685.31
325.397	201.31
325.626	147.31
325.855	123.31
326.084	107.31
326.313	120.31
326.542	154.31
326.77	212.31
326.999	397.31
327.228	798.31
327.457	1430.31
327.686	1106.31
327.914	353.31
328.143	194.31
328.372	175.31
328.6	142.31
328.829	105.31
329.058	125.31
329.287	128.31
329.515	88.31
329.744	114.31
329.972	144.31
330.201	190.31
330.43	238.31
330.658	156.31
330.887	115.31
331.115	127.31
331.344	85.31
331.572	102.31
331.801	97.31
332.03	105.31
332.258	92.31
332.486	89.31
332.715	108.31
332.943	105.31
333.172	97.31
333.4	98.31
333.629	109.31
333.857	109.31
334.085	140.31
334.314	194.31
334.542	303.31
334.771	289.31
334.999	143.31
335.227	92.31
335.455	94.31
335.684	95.31
335.912	89.31
336.14	93.31
336.369	103.31
336.597	93.31
336.825	98.31
337.053	76.31
337.281	105.31
337.51	87.31
337.738	93.31
337.966	88.31
338.194	92.31
338.422	91.31
338.65	117.31
338.878	89.31
339.106	76.31
339.334	104.31
339.562	76.31
339.79	77.31
340.018	76.31
340.246	98.31
340.474	92.31
340.702	75.31
340.93	86.31
341.158	70.31
341.386	90.31
341.614	103.31
341.842	86.31
342.07	83.31
342.298	101.31
342.526	92.31
342.754	84.31
342.981	76.31
343.209	71.31
343.437	107.31
343.665	82.31
343.893	87.31
344.12	93.31
344.348	86.31
344.576	89.31
344.804	69.31
345.031	90.31
345.259	102.31
345.487	104.31
345.714	98.31
345.942	93.31
346.17	87.31
346.397	78.31
346.625	85.31
346.853	93.31
347.08	97.31
347.308	78.31
347.535	78.31
347.763	95.31
347.99	91.31
348.218	81.31
348.445	96.31
348.673	96.31
348.9	99.31
349.128	108.31
349.355	77.31
349.583	71.31
349.81	78.31
350.037	89.31
350.265	75.31
350.492	83.31
350.72	94.31
350.947	105.31
351.174	85.31
351.402	95.31
351.629	94.31
351.856	79.31
352.083	92.31
352.311	82.31
352.538	107.31
352.765	100.31
352.992	85.31
353.22	101.31
353.447	104.31
353.674	89.31
353.901	97.31
354.128	94.31
354.355	92.31
354.583	96.31
354.81	93.31
355.037	82.31
355.264	86.31
355.491	101.31
355.718	104.31
355.945	97.31
356.172	92.31
356.399	90.31
356.626	76.31
356.853	94.31
357.08	91.31
357.307	82.31
357.534	92.31
357.761	86.31
357.988	96.31
358.215	96.31
358.441	109.31
358.668	94.31
358.895	88.31
359.122	84.31
359.349	94.31
359.576	92.31
359.802	106.31
360.029	99.31
360.256	101.31
360.483	100.31
360.709	86.31
360.936	87.31
361.163	94.31
361.39	101.31
361.616	102.31
361.843	101.31
362.07	101.31
362.296	91.31
362.523	88.31
362.749	102.31
362.976	83.31
363.203	102.31
363.429	79.31
363.656	92.31
363.882	75.31
364.109	87.31
364.335	102.31
364.562	83.31
364.788	93.31
365.015	94.31
365.241	101.31
365.468	104.31
365.694	95.31
365.92	94.31
366.147	86.31
366.373	67.31
366.599	83.31
366.826	90.31
367.052	88.31
367.278	84.31
367.505	97.31
367.731	89.31
367.957	81.31
368.184	88.31
368.41	84.31
368.636	98.31
368.862	108.31
369.089	95.31
369.315	117.31
369.541	72.31
369.767	83.31
369.993	88.31
370.219	104.31
370.445	87.31
370.672	84.31
370.898	72.31
371.124	82.31
371.35	76.31
371.576	87.31
371.802	81.31
372.028	70.31
372.254	91.31
372.48	80.31
372.706	81.31
372.932	78.31
373.158	86.31
373.384	90.31
373.61	101.31
373.835	85.31
374.061	72.31
374.287	99.31
374.513	82.31
374.739	88.31
374.965	81.31
375.191	87.31
375.416	83.31
375.642	102.31
375.868	82.31
376.094	77.31
376.319	88.31
376.545	94.31
376.771	76.31
376.997	79.31
377.222	96.31
377.448	83.31
377.674	85.31
377.899	86.31
378.125	87.31
378.35	81.31
378.576	89.31
378.802	77.31
379.027	87.31
379.253	87.31
379.478	78.31
379.704	105.31
379.929	85.31
380.155	80.31
380.38	84.31
380.606	83.31
380.831	79.31
381.057	86.31
381.282	94.31
381.507	96.31
381.733	108.31
381.958	99.31
382.184	92.31
382.409	114.31
382.634	96.31
382.86	88.31
383.085	92.31
383.31	99.31
383.535	99.31
383.761	100.31
383.986	98.31
384.211	80.31
384.436	86.31
384.662	107.31
384.887	93.31
385.112	103.31
385.337	104.31
385.562	108.31
385.787	99.31
386.013	108.31
386.238	118.31
386.463	105.31
386.688	100.31
386.913	94.31
387.138	91.31
387.363	95.31
387.588	85.31
387.813	96.31
388.038	98.31
388.263	117.31
388.488	94.31
388.713	98.31
388.938	94.31
389.163	83.31
389.387	93.31
389.612	95.31
389.837	81.31
390.062	87.31
390.287	96.31
390.512	86.31
390.736	85.31
390.961	104.31
391.186	88.31
391.411	99.31
391.636	96.31
391.86	80.31
392.085	75.31
392.31	90.31
392.534	80.31
392.759	94.31
392.984	86.31
393.208	90.31
393.433	99.31
393.658	87.31
393.882	83.31
394.107	78.31
394.331	83.31
394.556	85.31
394.78	90.31
395.005	94.31
395.229	82.31
395.454	87.31
395.678	76.31
395.903	79.31
396.127	71.31
396.352	87.31
396.576	74.31
396.801	94.31
397.025	95.31
397.249	88.31
397.474	76.31
397.698	98.31
397.922	92.31
398.147	83.31
398.371	81.31
398.595	86.31
398.82	79.31
399.044	83.31
399.268	82.31
399.492	86.31
399.717	88.31
399.941	82.31
400.165	91.31
400.389	94.31
400.613	89.31
400.837	90.31
401.062	94.31
401.286	89.31
401.51	83.31
401.734	87.31
401.958	88.31
402.182	103.31
402.406	128.31
402.63	112.31
402.854	94.31
403.078	70.31
403.302	80.31
403.526	94.31
403.75	79.31
403.974	91.31
404.198	73.31
404.422	80.31
404.645	91.31
404.869	72.31
405.093	94.31
405.317	95.31
405.541	88.31
405.765	102.31
405.988	106.31
406.212	162.31
406.436	184.31
406.66	133.31
406.883	104.31
407.107	93.31
407.331	95.31
407.555	96.31
407.778	78.31
408.002	79.31
408.226	110.31
408.449	86.31
408.673	88.31
408.896	109.31
409.12	94.31
409.344	91.31
409.567	85.31
409.791	76.31
410.014	104.31
410.238	99.31
410.461	87.31
410.685	84.31
410.908	109.31
411.132	101.31
411.355	86.31
411.578	92.31
411.802	85.31
412.025	79.31
412.249	84.31
412.472	81.31
412.695	103.31
412.919	102.31
413.142	87.31
413.365	86.31
413.589	83.31
413.812	78.31
414.035	82.31
414.258	88.31
414.482	99.31
414.705	96.31
414.928	81.31
415.151	92.31
415.374	73.31
415.597	90.31
415.821	88.31
416.044	83.31
416.267	100.31
416.49	92.31
416.713	92.31
416.936	95.31
417.159	86.31
417.382	90.31
417.605	86.31
417.828	91.31
418.051	88.31
418.274	90.31
418.497	99.31
418.72	74.31
418.943	91.31
419.166	92.31
419.389	76.31
419.611	94.31
419.834	99.31
420.057	71.31
420.28	83.31
420.503	90.31
420.726	88.31
420.948	85.31
421.171	86.31
421.394	77.31
421.617	94.31
421.839	87.31
422.062	90.31
422.285	95.31
422.507	101.31
422.73	103.31
422.953	68.31
423.175	81.31
423.398	82.31
423.621	91.31
423.843	98.31
424.066	88.31
424.288	92.31
424.511	82.31
424.733	69.31
424.956	97.31
425.178	94.31
425.401	92.31
425.623	93.31
425.846	88.31
426.068	83.31
426.291	95.31
426.513	79.31
426.735	92.31
426.958	107.31
427.18	93.31
427.402	124.31
427.625	154.31
427.847	130.31
428.069	117.31
428.292	86.31
428.514	85.31
428.736	80.31
428.958	81.31
429.181	82.31
429.403	88.31
429.625	93.31
429.847	87.31
430.069	92.31
430.292	78.31
430.514	76.31
430.736	74.31
430.958	94.31
431.18	89.31
431.402	93.31
431.624	80.31
431.846	81.31
432.068	74.31
432.29	84.31
432.512	86.31
432.734	86.31
432.956	90.31
433.178	108.31
433.4	97.31
433.622	96.31
433.844	104.31
434.066	82.31
434.287	89.31
434.509	89.31
434.731	91.31
434.953	83.31
435.175	100.31
435.397	99.31
435.618	88.31
435.84	83.31
436.062	106.31
436.284	112.31
436.505	93.31
436.727	100.31
436.949	82.31
437.17	86.31
437.392	82.31
437.614	90.31
437.835	93.31
438.057	118.31
438.278	82.31
438.5	104.31
438.721	111.31
438.943	100.31
439.165	92.31
439.386	89.31
439.608	80.31
439.829	95.31
440.05	106.31
440.272	117.31
440.493	100.31
440.715	95.31
440.936	100.31
441.158	81.31
441.379	83.31
441.6	77.31
441.822	76.31
442.043	90.31
442.264	92.31
442.486	96.31
442.707	94.31
442.928	100.31
443.149	118.31
443.371	116.31
443.592	94.31
443.813	105.31
444.034	112.31
444.255	87.31
444.476	95.31
444.698	76.31
444.919	92.31
445.14	123.31
445.361	116.31
445.582	110.31
445.803	115.31
446.024	119.31
446.245	118.31
446.466	107.31
446.687	96.31
446.908	76.31
447.129	83.31
447.35	96.31
447.571	85.31
447.792	102.31
448.013	94.31
448.234	91.31
448.455	91.31
448.675	98.31
448.896	96.31
449.117	107.31
449.338	82.31
449.559	102.31
449.779	115.31
450	98.31
450.221	87.31
450.442	84.31
450.662	82.31
450.883	108.31
451.104	91.31
451.324	78.31
451.545	87.31
451.766	88.31
451.986	81.31
452.207	91.31
452.428	88.31
452.648	98.31
452.869	111.31
453.089	108.31
453.31	103.31
453.53	85.31
453.751	85.31
453.971	96.31
454.192	96.31
454.412	93.31
454.633	84.31
454.853	95.31
455.073	87.31
455.294	86.31
455.514	99.31
455.734	81.31
455.955	95.31
456.175	86.31
456.395	92.31
456.616	80.31
456.836	90.31
457.056	65.31
457.276	91.31
457.497	78.31
457.717	86.31
457.937	94.31
458.157	83.31
458.377	74.31
458.598	107.31
458.818	128.31
459.038	144.31
459.258	110.31
459.478	78.31
459.698	72.31
459.918	85.31
460.138	75.31
460.358	81.31
460.578	87.31
460.798	78.31
461.018	85.31
461.238	68.31
461.458	79.31
461.678	83.31
461.898	71.31
462.118	87.31
462.338	74.31
462.558	82.31
462.777	91.31
462.997	87.31
463.217	85.31
463.437	77.31
463.657	86.31
463.876	88.31
464.096	79.31
464.316	96.31
464.536	88.31
464.755	97.31
464.975	94.31
465.195	141.31
465.414	153.31
465.634	94.31
465.854	84.31
466.073	89.31
466.293	106.31
466.512	96.31
466.732	64.31
466.951	88.31
467.171	85.31
467.391	91.31
467.61	95.31
467.829	117.31
468.049	126.31
468.268	166.31
468.488	110.31
468.707	76.31
468.927	86.31
469.146	84.31
469.365	84.31
469.585	86.31
469.804	80.31
470.023	102.31
470.243	74.31
470.462	103.31
470.681	87.31
470.901	80.31
471.12	83.31
471.339	72.31
471.558	92.31
471.777	87.31
471.997	116.31
472.216	236.31
472.435	382.31
472.654	156.31
472.873	101.31
473.092	101.31
473.311	75.31
473.53	83.31
473.749	83.31
473.968	82.31
474.187	87.31
474.406	100.31
474.625	90.31
474.844	74.31
475.063	93.31
475.282	78.31
475.501	92.31
475.72	83.31
475.939	106.31
476.158	78.31
476.377	83.31
476.596	94.31
476.814	88.31
477.033	95.31
477.252	92.31
477.471	80.31
477.69	88.31
477.908	88.31
478.127	79.31
478.346	83.31
478.564	81.31
478.783	84.31
479.002	89.31
479.22	95.31
479.439	88.31
479.658	99.31
479.876	96.31
480.095	79.31
480.313	84.31
480.532	106.31
480.751	123.31
480.969	238.31
481.188	645.31
481.406	402.31
481.624	121.31
481.843	74.31
482.061	87.31
482.28	88.31
482.498	93.31
482.717	83.31
482.935	83.31
483.153	83.31
483.372	87.31
483.59	83.31
483.808	89.31
484.027	76.31
484.245	85.31
484.463	86.31
484.681	98.31
484.9	109.31
485.118	93.31
485.336	78.31
485.554	74.31
485.772	85.31
485.99	96.31
486.209	99.31
486.427	95.31
486.645	98.31
486.863	110.31
487.081	101.31
487.299	80.31
487.517	105.31
487.735	81.31
487.953	101.31
488.171	106.31
488.389	101.31
488.607	89.31
488.825	94.31
489.043	80.31
489.261	81.31
489.479	89.31
489.696	97.31
489.914	96.31
490.132	90.31
490.35	83.31
490.568	94.31
490.786	90.31
491.003	85.31
491.221	78.31
491.439	88.31
491.657	98.31
491.874	101.31
492.092	91.31
492.31	85.31
492.527	90.31
492.745	91.31
492.963	84.31
493.18	68.31
493.398	88.31
493.615	78.31
493.833	82.31
494.05	91.31
494.268	91.31
494.485	88.31
494.703	88.31
494.92	95.31
495.138	82.31
495.355	77.31
495.573	65.31
495.79	94.31
496.008	92.31
496.225	89.31
496.442	85.31
496.66	91.31
496.877	75.31
497.094	98.31
497.312	95.31
497.529	86.31
497.746	92.31
497.963	100.31
498.181	89.31
498.398	91.31
498.615	106.31
498.832	92.31
499.049	74.31
499.267	88.31
499.484	90.31
499.701	82.31
499.918	78.31
500.135	104.31
500.352	75.31
500.569	94.31
500.786	92.31
501.003	84.31
501.22	85.31
501.437	85.31
501.654	89.31
501.871	98.31
502.088	80.31
502.305	84.31
502.522	93.31
502.739	94.31
502.956	91.31
503.172	87.31
503.389	96.31
503.606	96.31
503.823	92.31
504.04	94.31
504.256	103.31
504.473	85.31
504.69	97.31
504.907	92.31
505.123	94.31
505.34	93.31
505.557	77.31
505.773	84.31
505.99	86.31
506.207	73.31
506.423	78.31
506.64	87.31
506.856	73.31
507.073	91.31
507.289	82.31
507.506	94.31
507.722	114.31
507.939	111.31
508.155	90.31
508.372	84.31
508.588	86.31
508.805	104.31
509.021	83.31
509.238	85.31
509.454	98.31
509.67	111.31
509.887	109.31
510.103	134.31
510.319	202.31
510.536	672.31
510.752	2016.31
510.968	580.31
511.184	142.31
511.401	114.31
511.617	94.31
511.833	92.31
512.049	91.31
512.265	84.31
512.481	90.31
512.698	88.31
512.914	90.31
513.13	91.31
513.346	80.31
513.562	90.31
513.778	87.31
513.994	88.31
514.21	103.31
514.426	101.31
514.642	126.31
514.858	115.31
515.074	158.31
515.29	397.31
515.506	1269.31
515.721	481.31
515.937	144.31
516.153	125.31
516.369	107.31
516.585	104.31
516.801	91.31
