Data from Circ_2004_H10_HRD10591_00008.txt Node
Date: Wed Jan 03 10:33:15 EST 2024
User: Yrep
Spectrometer: HR+D1059
Trigger mode: 1
Integration Time (sec): 1.000000E-1
Scans to average: 1
Electric dark correction enabled: true
Nonlinearity correction enabled: false
Boxcar width: 0
XAxis mode: Wavelengths
Number of Pixels in Spectrum: 2048
>>>>>Begin Spectral Data<<<<<
223.165	-26.5
223.4	-26.5
223.635	-26.5
223.869	-13.5
224.104	-12.5
224.338	-4.5
224.573	-22.5
224.808	-4.5
225.042	-13.5
225.277	0.5
225.511	-3.5
225.746	11.5
225.98	6.5
226.215	5.5
226.449	11.5
226.683	20.5
226.918	22.5
227.152	22.5
227.387	15.5
227.621	37.5
227.856	35.5
228.09	53.5
228.324	47.5
228.559	71.5
228.793	46.5
229.027	58.5
229.262	62.5
229.496	65.5
229.73	75.5
229.964	70.5
230.199	76.5
230.433	71.5
230.667	69.5
230.901	82.5
231.136	72.5
231.37	69.5
231.604	86.5
231.838	82.5
232.072	76.5
232.306	75.5
232.541	77.5
232.775	88.5
233.009	70.5
233.243	67.5
233.477	70.5
233.711	98.5
233.945	77.5
234.179	86.5
234.413	80.5
234.647	88.5
234.881	92.5
235.115	82.5
235.349	82.5
235.583	100.5
235.817	80.5
236.051	66.5
236.285	67.5
236.519	70.5
236.753	82.5
236.987	80.5
237.221	78.5
237.455	67.5
237.689	88.5
237.922	68.5
238.156	78.5
238.39	79.5
238.624	75.5
238.858	60.5
239.091	71.5
239.325	67.5
239.559	69.5
239.793	82.5
240.027	94.5
240.26	75.5
240.494	87.5
240.728	80.5
240.961	74.5
241.195	80.5
241.429	73.5
241.662	74.5
241.896	80.5
242.13	71.5
242.363	89.5
242.597	79.5
242.83	74.5
243.064	67.5
243.298	71.5
243.531	72.5
243.765	78.5
243.998	86.5
244.232	90.5
244.465	76.5
244.699	72.5
244.932	82.5
245.166	66.5
245.399	72.5
245.633	67.5
245.866	67.5
246.099	72.5
246.333	71.5
246.566	85.5
246.8	72.5
247.033	77.5
247.266	84.5
247.5	87.5
247.733	91.5
247.966	85.5
248.2	71.5
248.433	64.5
248.666	83.5
248.899	83.5
249.133	87.5
249.366	95.5
249.599	91.5
249.832	83.5
250.066	76.5
250.299	72.5
250.532	81.5
250.765	94.5
250.998	79.5
251.231	73.5
251.465	81.5
251.698	58.5
251.931	88.5
252.164	67.5
252.397	80.5
252.63	93.5
252.863	75.5
253.096	80.5
253.329	64.5
253.562	80.5
253.795	67.5
254.028	78.5
254.261	71.5
254.494	82.5
254.727	64.5
254.96	69.5
255.193	83.5
255.426	86.5
255.659	80.5
255.892	81.5
256.124	80.5
256.357	70.5
256.59	82.5
256.823	84.5
257.056	75.5
257.289	75.5
257.521	88.5
257.754	70.5
257.987	88.5
258.22	73.5
258.452	85.5
258.685	89.5
258.918	88.5
259.151	79.5
259.383	69.5
259.616	79.5
259.849	81.5
260.081	87.5
260.314	83.5
260.547	83.5
260.779	89.5
261.012	95.5
261.244	88.5
261.477	83.5
261.71	76.5
261.942	78.5
262.175	95.5
262.407	83.5
262.64	74.5
262.872	78.5
263.105	85.5
263.337	87.5
263.57	98.5
263.802	71.5
264.035	94.5
264.267	73.5
264.499	72.5
264.732	85.5
264.964	69.5
265.197	88.5
265.429	78.5
265.661	78.5
265.894	73.5
266.126	93.5
266.358	86.5
266.591	87.5
266.823	93.5
267.055	85.5
267.287	81.5
267.52	87.5
267.752	85.5
267.984	89.5
268.216	85.5
268.448	93.5
268.681	87.5
268.913	83.5
269.145	72.5
269.377	86.5
269.609	77.5
269.841	93.5
270.073	92.5
270.306	74.5
270.538	84.5
270.77	85.5
271.002	70.5
271.234	88.5
271.466	73.5
271.698	96.5
271.93	83.5
272.162	90.5
272.394	87.5
272.626	79.5
272.858	87.5
273.09	82.5
273.322	99.5
273.553	92.5
273.785	78.5
274.017	85.5
274.249	82.5
274.481	97.5
274.713	74.5
274.945	91.5
275.176	94.5
275.408	93.5
275.64	76.5
275.872	85.5
276.104	92.5
276.335	82.5
276.567	80.5
276.799	86.5
277.031	92.5
277.262	94.5
277.494	92.5
277.726	81.5
277.957	87.5
278.189	102.5
278.421	92.5
278.652	84.5
278.884	73.5
279.115	85.5
279.347	80.5
279.579	74.5
279.81	97.5
280.042	106.5
280.273	102.5
280.505	99.5
280.736	82.5
280.968	78.5
281.199	96.5
281.431	83.5
281.662	91.5
281.894	91.5
282.125	95.5
282.356	110.5
282.588	131.5
282.819	95.5
283.051	80.5
283.282	101.5
283.513	84.5
283.745	92.5
283.976	87.5
284.207	88.5
284.439	86.5
284.67	95.5
284.901	103.5
285.132	93.5
285.364	87.5
285.595	90.5
285.826	74.5
286.057	90.5
286.288	94.5
286.52	75.5
286.751	93.5
286.982	83.5
287.213	76.5
287.444	82.5
287.675	86.5
287.906	91.5
288.138	96.5
288.369	86.5
288.6	78.5
288.831	77.5
289.062	90.5
289.293	98.5
289.524	81.5
289.755	81.5
289.986	86.5
290.217	79.5
290.448	81.5
290.679	89.5
290.91	86.5
291.141	80.5
291.371	85.5
291.602	78.5
291.833	95.5
292.064	85.5
292.295	99.5
292.526	88.5
292.757	80.5
292.987	79.5
293.218	95.5
293.449	73.5
293.68	78.5
293.91	87.5
294.141	95.5
294.372	92.5
294.603	88.5
294.833	100.5
295.064	87.5
295.295	80.5
295.525	86.5
295.756	82.5
295.987	104.5
296.217	95.5
296.448	113.5
296.679	100.5
296.909	98.5
297.14	87.5
297.37	91.5
297.601	72.5
297.831	82.5
298.062	78.5
298.292	87.5
298.523	89.5
298.753	85.5
298.984	78.5
299.214	84.5
299.445	85.5
299.675	102.5
299.905	83.5
300.136	88.5
300.366	89.5
300.597	91.5
300.827	90.5
301.057	84.5
301.288	92.5
301.518	88.5
301.748	80.5
301.979	94.5
302.209	81.5
302.439	81.5
302.669	83.5
302.9	83.5
303.13	98.5
303.36	99.5
303.59	91.5
303.82	93.5
304.051	95.5
304.281	80.5
304.511	93.5
304.741	77.5
304.971	70.5
305.201	95.5
305.431	61.5
305.661	79.5
305.891	94.5
306.121	98.5
306.352	103.5
306.582	98.5
306.812	107.5
307.042	94.5
307.272	88.5
307.502	112.5
307.731	102.5
307.961	97.5
308.191	100.5
308.421	95.5
308.651	95.5
308.881	91.5
309.111	102.5
309.341	88.5
309.571	88.5
309.8	77.5
310.03	96.5
310.26	94.5
310.49	98.5
310.72	94.5
310.949	83.5
311.179	103.5
311.409	92.5
311.639	84.5
311.868	88.5
312.098	85.5
312.328	99.5
312.557	95.5
312.787	107.5
313.017	103.5
313.246	84.5
313.476	98.5
313.706	90.5
313.935	81.5
314.165	88.5
314.394	104.5
314.624	101.5
314.853	87.5
315.083	77.5
315.312	85.5
315.542	94.5
315.771	83.5
316.001	82.5
316.23	83.5
316.46	92.5
316.689	91.5
316.919	70.5
317.148	97.5
317.377	95.5
317.607	107.5
317.836	108.5
318.065	91.5
318.295	94.5
318.524	90.5
318.753	78.5
318.983	88.5
319.212	100.5
319.441	88.5
319.67	92.5
319.9	93.5
320.129	105.5
320.358	110.5
320.587	88.5
320.816	96.5
321.046	98.5
321.275	100.5
321.504	96.5
321.733	110.5
321.962	78.5
322.191	90.5
322.42	81.5
322.649	87.5
322.878	95.5
323.108	113.5
323.337	127.5
323.566	124.5
323.795	135.5
324.024	176.5
324.253	327.5
324.482	654.5
324.71	1254.5
324.939	1653.5
325.168	608.5
325.397	202.5
325.626	128.5
325.855	120.5
326.084	98.5
326.313	117.5
326.542	138.5
326.77	195.5
326.999	386.5
327.228	754.5
327.457	1326.5
327.686	1068.5
327.914	303.5
328.143	194.5
328.372	167.5
328.6	130.5
328.829	97.5
329.058	95.5
329.287	91.5
329.515	99.5
329.744	100.5
329.972	133.5
330.201	172.5
330.43	222.5
330.658	142.5
330.887	133.5
331.115	105.5
331.344	87.5
331.572	88.5
331.801	91.5
332.03	104.5
332.258	99.5
332.486	92.5
332.715	82.5
332.943	98.5
333.172	94.5
333.4	95.5
333.629	91.5
333.857	116.5
334.085	143.5
334.314	170.5
334.542	251.5
334.771	226.5
334.999	127.5
335.227	100.5
335.455	92.5
335.684	103.5
335.912	101.5
336.14	97.5
336.369	100.5
336.597	92.5
336.825	93.5
337.053	88.5
337.281	100.5
337.51	90.5
337.738	92.5
337.966	98.5
338.194	86.5
338.422	89.5
338.65	76.5
338.878	88.5
339.106	80.5
339.334	76.5
339.562	95.5
339.79	83.5
340.018	94.5
340.246	87.5
340.474	90.5
340.702	84.5
340.93	94.5
341.158	99.5
341.386	85.5
341.614	84.5
341.842	94.5
342.07	84.5
342.298	86.5
342.526	87.5
342.754	79.5
342.981	101.5
343.209	88.5
343.437	90.5
343.665	72.5
343.893	81.5
344.12	85.5
344.348	82.5
344.576	94.5
344.804	80.5
345.031	86.5
345.259	104.5
345.487	99.5
345.714	83.5
345.942	77.5
346.17	90.5
346.397	76.5
346.625	91.5
346.853	83.5
347.08	79.5
347.308	97.5
347.535	88.5
347.763	94.5
347.99	95.5
348.218	84.5
348.445	94.5
348.673	97.5
348.9	92.5
349.128	98.5
349.355	82.5
349.583	77.5
349.81	95.5
350.037	92.5
350.265	86.5
350.492	86.5
350.72	100.5
350.947	91.5
351.174	103.5
351.402	102.5
351.629	108.5
351.856	100.5
352.083	94.5
352.311	100.5
352.538	89.5
352.765	103.5
352.992	106.5
353.22	107.5
353.447	96.5
353.674	91.5
353.901	99.5
354.128	95.5
354.355	99.5
354.583	102.5
354.81	106.5
355.037	94.5
355.264	84.5
355.491	97.5
355.718	99.5
355.945	79.5
356.172	85.5
356.399	97.5
356.626	93.5
356.853	91.5
357.08	83.5
357.307	85.5
357.534	89.5
357.761	96.5
357.988	105.5
358.215	100.5
358.441	96.5
358.668	86.5
358.895	100.5
359.122	96.5
359.349	85.5
359.576	90.5
359.802	94.5
360.029	110.5
360.256	92.5
360.483	98.5
360.709	83.5
360.936	81.5
361.163	99.5
361.39	87.5
361.616	86.5
361.843	85.5
362.07	72.5
362.296	93.5
362.523	90.5
362.749	89.5
362.976	78.5
363.203	89.5
363.429	82.5
363.656	100.5
363.882	86.5
364.109	99.5
364.335	93.5
364.562	96.5
364.788	90.5
365.015	90.5
365.241	97.5
365.468	93.5
365.694	88.5
365.92	99.5
366.147	99.5
366.373	91.5
366.599	82.5
366.826	80.5
367.052	92.5
367.278	90.5
367.505	100.5
367.731	97.5
367.957	93.5
368.184	83.5
368.41	97.5
368.636	103.5
368.862	112.5
369.089	84.5
369.315	94.5
369.541	97.5
369.767	91.5
369.993	84.5
370.219	82.5
370.445	80.5
370.672	84.5
370.898	75.5
371.124	81.5
371.35	77.5
371.576	89.5
371.802	81.5
372.028	89.5
372.254	86.5
372.48	85.5
372.706	89.5
372.932	98.5
373.158	74.5
373.384	81.5
373.61	83.5
373.835	81.5
374.061	77.5
374.287	83.5
374.513	98.5
374.739	74.5
374.965	87.5
375.191	107.5
375.416	77.5
375.642	94.5
375.868	86.5
376.094	82.5
376.319	78.5
376.545	85.5
376.771	84.5
376.997	78.5
377.222	80.5
377.448	90.5
377.674	82.5
377.899	92.5
378.125	99.5
378.35	92.5
378.576	96.5
378.802	79.5
379.027	95.5
379.253	91.5
379.478	88.5
379.704	98.5
379.929	88.5
380.155	88.5
380.38	81.5
380.606	91.5
380.831	89.5
381.057	98.5
381.282	91.5
381.507	108.5
381.733	97.5
381.958	98.5
382.184	100.5
382.409	101.5
382.634	110.5
382.86	107.5
383.085	94.5
383.31	98.5
383.535	104.5
383.761	105.5
383.986	90.5
384.211	89.5
384.436	93.5
384.662	101.5
384.887	102.5
385.112	105.5
385.337	101.5
385.562	119.5
385.787	109.5
386.013	114.5
386.238	127.5
386.463	96.5
386.688	118.5
386.913	112.5
387.138	106.5
387.363	110.5
387.588	94.5
387.813	113.5
388.038	109.5
388.263	138.5
388.488	112.5
388.713	92.5
388.938	99.5
389.163	78.5
389.387	88.5
389.612	94.5
389.837	109.5
390.062	92.5
390.287	92.5
390.512	78.5
390.736	85.5
390.961	78.5
391.186	97.5
391.411	100.5
391.636	97.5
391.86	78.5
392.085	66.5
392.31	80.5
392.534	97.5
392.759	70.5
392.984	88.5
393.208	95.5
393.433	111.5
393.658	102.5
393.882	88.5
394.107	78.5
394.331	80.5
394.556	87.5
394.78	97.5
395.005	85.5
395.229	93.5
395.454	88.5
395.678	80.5
395.903	85.5
396.127	100.5
396.352	85.5
396.576	85.5
396.801	104.5
397.025	99.5
397.249	83.5
397.474	98.5
397.698	87.5
397.922	101.5
398.147	86.5
398.371	75.5
398.595	71.5
398.82	90.5
399.044	80.5
399.268	88.5
399.492	81.5
399.717	80.5
399.941	86.5
400.165	86.5
400.389	100.5
400.613	88.5
400.837	91.5
401.062	84.5
401.286	84.5
401.51	87.5
401.734	86.5
401.958	99.5
402.182	109.5
402.406	138.5
402.63	105.5
402.854	71.5
403.078	86.5
403.302	88.5
403.526	83.5
403.75	90.5
403.974	62.5
404.198	92.5
404.422	84.5
404.645	83.5
404.869	91.5
405.093	90.5
405.317	106.5
405.541	103.5
405.765	93.5
405.988	104.5
406.212	139.5
406.436	178.5
406.66	118.5
406.883	88.5
407.107	84.5
407.331	95.5
407.555	89.5
407.778	103.5
408.002	73.5
408.226	69.5
408.449	84.5
408.673	84.5
408.896	76.5
409.12	96.5
409.344	82.5
409.567	92.5
409.791	86.5
410.014	91.5
410.238	73.5
410.461	93.5
410.685	94.5
410.908	98.5
411.132	88.5
411.355	95.5
411.578	86.5
411.802	86.5
412.025	99.5
412.249	102.5
412.472	98.5
412.695	95.5
412.919	90.5
413.142	68.5
413.365	91.5
413.589	79.5
413.812	74.5
414.035	93.5
414.258	78.5
414.482	85.5
414.705	84.5
414.928	82.5
415.151	98.5
415.374	93.5
415.597	74.5
415.821	79.5
416.044	84.5
416.267	82.5
416.49	86.5
416.713	88.5
416.936	80.5
417.159	76.5
417.382	74.5
417.605	81.5
417.828	78.5
418.051	76.5
418.274	86.5
418.497	76.5
418.72	89.5
418.943	86.5
419.166	78.5
419.389	94.5
419.611	105.5
419.834	84.5
420.057	104.5
420.28	94.5
420.503	95.5
420.726	79.5
420.948	88.5
421.171	91.5
421.394	81.5
421.617	90.5
421.839	100.5
422.062	93.5
422.285	104.5
422.507	97.5
422.73	103.5
422.953	88.5
423.175	95.5
423.398	80.5
423.621	90.5
423.843	96.5
424.066	90.5
424.288	77.5
424.511	85.5
424.733	88.5
424.956	94.5
425.178	84.5
425.401	91.5
425.623	91.5
425.846	81.5
426.068	85.5
426.291	94.5
426.513	98.5
426.735	76.5
426.958	100.5
427.18	114.5
427.402	113.5
427.625	138.5
427.847	114.5
428.069	137.5
428.292	81.5
428.514	84.5
428.736	87.5
428.958	88.5
429.181	75.5
429.403	81.5
429.625	87.5
429.847	82.5
430.069	82.5
430.292	75.5
430.514	72.5
430.736	80.5
430.958	90.5
431.18	82.5
431.402	86.5
431.624	87.5
431.846	92.5
432.068	87.5
432.29	81.5
432.512	98.5
432.734	79.5
432.956	81.5
433.178	96.5
433.4	95.5
433.622	88.5
433.844	94.5
434.066	104.5
434.287	101.5
434.509	92.5
434.731	78.5
434.953	78.5
435.175	86.5
435.397	85.5
435.618	94.5
435.84	96.5
436.062	123.5
436.284	96.5
436.505	100.5
436.727	92.5
436.949	84.5
437.17	90.5
437.392	82.5
437.614	76.5
437.835	102.5
438.057	106.5
438.278	97.5
438.5	85.5
438.721	105.5
438.943	98.5
439.165	86.5
439.386	92.5
439.608	69.5
439.829	105.5
440.05	121.5
440.272	122.5
440.493	107.5
440.715	92.5
440.936	78.5
441.158	76.5
441.379	84.5
441.6	92.5
441.822	95.5
442.043	99.5
442.264	83.5
442.486	72.5
442.707	69.5
442.928	76.5
443.149	117.5
443.371	116.5
443.592	89.5
443.813	100.5
444.034	97.5
444.255	96.5
444.476	81.5
444.698	91.5
444.919	82.5
445.14	133.5
445.361	111.5
445.582	109.5
445.803	126.5
446.024	132.5
446.245	109.5
446.466	89.5
446.687	89.5
446.908	90.5
447.129	94.5
447.35	82.5
447.571	93.5
447.792	81.5
448.013	73.5
448.234	95.5
448.455	107.5
448.675	95.5
448.896	109.5
449.117	94.5
449.338	90.5
449.559	125.5
449.779	114.5
450	94.5
450.221	83.5
450.442	86.5
450.662	95.5
450.883	106.5
451.104	96.5
451.324	96.5
451.545	96.5
451.766	85.5
451.986	87.5
452.207	90.5
452.428	80.5
452.648	76.5
452.869	92.5
453.089	111.5
453.31	100.5
453.53	92.5
453.751	93.5
453.971	85.5
454.192	105.5
454.412	86.5
454.633	79.5
454.853	86.5
455.073	86.5
455.294	90.5
455.514	88.5
455.734	80.5
455.955	77.5
456.175	90.5
456.395	94.5
456.616	77.5
456.836	87.5
457.056	88.5
457.276	85.5
457.497	94.5
457.717	86.5
457.937	94.5
458.157	71.5
458.377	94.5
458.598	92.5
458.818	120.5
459.038	135.5
459.258	103.5
459.478	93.5
459.698	81.5
459.918	92.5
460.138	87.5
460.358	93.5
460.578	86.5
460.798	80.5
461.018	82.5
461.238	79.5
461.458	74.5
461.678	82.5
461.898	76.5
462.118	88.5
462.338	93.5
462.558	81.5
462.777	94.5
462.997	94.5
463.217	88.5
463.437	77.5
463.657	77.5
463.876	89.5
464.096	84.5
464.316	87.5
464.536	85.5
464.755	99.5
464.975	97.5
465.195	124.5
465.414	127.5
465.634	88.5
465.854	86.5
466.073	79.5
466.293	95.5
466.512	89.5
466.732	87.5
466.951	86.5
467.171	90.5
467.391	88.5
467.61	101.5
467.829	103.5
468.049	130.5
468.268	160.5
468.488	84.5
468.707	83.5
468.927	88.5
469.146	83.5
469.365	75.5
469.585	96.5
469.804	84.5
470.023	105.5
470.243	85.5
470.462	94.5
470.681	96.5
470.901	84.5
471.12	70.5
471.339	84.5
471.558	85.5
471.777	91.5
471.997	99.5
472.216	202.5
472.435	316.5
472.654	133.5
472.873	81.5
473.092	82.5
473.311	82.5
473.53	78.5
473.749	94.5
473.968	98.5
474.187	94.5
474.406	100.5
474.625	86.5
474.844	78.5
475.063	88.5
475.282	80.5
475.501	92.5
475.72	87.5
475.939	94.5
476.158	80.5
476.377	81.5
476.596	83.5
476.814	72.5
477.033	93.5
477.252	79.5
477.471	81.5
477.69	94.5
477.908	78.5
478.127	84.5
478.346	89.5
478.564	103.5
478.783	84.5
479.002	83.5
479.22	88.5
479.439	102.5
479.658	83.5
479.876	96.5
480.095	87.5
480.313	91.5
480.532	111.5
480.751	92.5
480.969	186.5
481.188	518.5
481.406	334.5
481.624	107.5
481.843	90.5
482.061	93.5
482.28	83.5
482.498	80.5
482.717	78.5
482.935	84.5
483.153	82.5
483.372	87.5
483.59	95.5
483.808	96.5
484.027	95.5
484.245	92.5
484.463	99.5
484.681	83.5
484.9	91.5
485.118	84.5
485.336	87.5
485.554	98.5
485.772	96.5
485.99	103.5
486.209	99.5
486.427	95.5
486.645	94.5
486.863	107.5
487.081	106.5
487.299	97.5
487.517	87.5
487.735	97.5
487.953	100.5
488.171	99.5
488.389	89.5
488.607	100.5
488.825	66.5
489.043	84.5
489.261	93.5
489.479	78.5
489.696	81.5
489.914	79.5
490.132	79.5
490.35	90.5
490.568	85.5
490.786	81.5
491.003	94.5
491.221	86.5
491.439	104.5
491.657	73.5
491.874	82.5
492.092	72.5
492.31	103.5
492.527	95.5
492.745	88.5
492.963	83.5
493.18	87.5
493.398	104.5
493.615	92.5
493.833	100.5
494.05	72.5
494.268	87.5
494.485	89.5
494.703	99.5
494.92	83.5
495.138	81.5
495.355	78.5
495.573	88.5
495.79	82.5
496.008	97.5
496.225	103.5
496.442	91.5
496.66	98.5
496.877	79.5
497.094	88.5
497.312	80.5
497.529	80.5
497.746	99.5
497.963	88.5
498.181	87.5
498.398	83.5
498.615	104.5
498.832	92.5
499.049	101.5
499.267	103.5
499.484	99.5
499.701	87.5
499.918	78.5
500.135	88.5
500.352	102.5
500.569	89.5
500.786	87.5
501.003	84.5
501.22	76.5
501.437	78.5
501.654	107.5
501.871	94.5
502.088	91.5
502.305	87.5
502.522	83.5
502.739	85.5
502.956	91.5
503.172	68.5
503.389	95.5
503.606	100.5
503.823	89.5
504.04	91.5
504.256	86.5
504.473	82.5
504.69	99.5
504.907	82.5
505.123	90.5
505.34	86.5
505.557	80.5
505.773	86.5
505.99	97.5
506.207	93.5
506.423	82.5
506.64	85.5
506.856	98.5
507.073	91.5
507.289	85.5
507.506	94.5
507.722	100.5
507.939	104.5
508.155	97.5
508.372	90.5
508.588	90.5
508.805	95.5
509.021	107.5
509.238	95.5
509.454	98.5
509.67	91.5
509.887	103.5
510.103	116.5
510.319	190.5
510.536	548.5
510.752	1666.5
510.968	462.5
511.184	138.5
511.401	100.5
511.617	90.5
511.833	101.5
512.049	74.5
512.265	87.5
512.481	91.5
512.698	70.5
512.914	91.5
513.13	74.5
513.346	84.5
513.562	89.5
513.778	103.5
513.994	91.5
514.21	103.5
514.426	97.5
514.642	92.5
514.858	99.5
515.074	114.5
515.29	335.5
515.506	985.5
515.721	382.5
515.937	126.5
516.153	101.5
516.369	93.5
516.585	90.5
516.801	91.5
517.016	85.5
517.232	90.5
517.448	96.5
517.664	101.5
517.879	95.5
518.095	86.5
518.311	103.5
518.527	99.5
518.742	91.5
518.958	93.5
519.173	83.5
519.389	87.5
519.605	100.5
519.82	96.5
520.036	97.5
520.251	108.5
520.467	87.5
520.682	97.5
520.898	99.5
521.113	102.5
521.329	106.5
521.544	173.5
521.76	409.5
521.975	1596.5
522.19	994.5
522.406	239.5
522.621	106.5
522.836	90.5
523.052	94.5
523.267	95.5
523.482	96.5
523.698	96.5
523.913	93.5
524.128	92.5
524.343	83.5
524.559	84.5
524.774	83.5
524.989	85.5
525.204	89.5
525.419	85.5
525.634	82.5
525.849	83.5
526.064	87.5
526.28	81.5
526.495	93.5
526.71	78.5
526.925	87.5
527.14	94.5
527.355	80.5
527.57	65.5
527.785	80.5
527.999	84.5
528.214	90.5
528.429	70.5
528.644	103.5
528.859	98.5
529.074	99.5
529.289	104.5
529.503	128.5
529.718	87.5
529.933	87.5
530.148	96.5
530.363	86.5
530.577	67.5
530.792	79.5
531.007	88.5
531.221	92.5
531.436	92.5
531.651	94.5
531.865	75.5
532.08	85.5
532.295	92.5
532.509	78.5
532.724	91.5
532.938	90.5
533.153	90.5
533.367	83.5
533.582	96.5
533.796	81.5
534.011	85.5
534.225	91.5
534.44	93.5
534.654	95.5
534.868	84.5
535.083	82.5
535.297	89.5
535.511	97.5
535.726	94.5
535.94	91.5
536.154	89.5
536.369	85.5
536.583	78.5
536.797	97.5
