Data from Circ_2004_H10_HRD10591_00081.txt Node
Date: Wed Jan 03 10:33:30 EST 2024
User: Yrep
Spectrometer: HR+D1059
Trigger mode: 1
Integration Time (sec): 1.000000E-1
Scans to average: 1
Electric dark correction enabled: true
Nonlinearity correction enabled: false
Boxcar width: 0
XAxis mode: Wavelengths
Number of Pixels in Spectrum: 2048
>>>>>Begin Spectral Data<<<<<
223.165	-15.69
223.4	-15.69
223.635	-15.69
223.869	-30.69
224.104	-13.69
224.338	-2.69
224.573	-9.69
224.808	-4.69
225.042	-13.69
225.277	-13.69
225.511	-11.69
225.746	16.31
225.98	13.31
226.215	16.31
226.449	13.31
226.683	16.31
226.918	29.31
227.152	11.31
227.387	26.31
227.621	46.31
227.856	46.31
228.09	50.31
228.324	57.31
228.559	53.31
228.793	49.31
229.027	67.31
229.262	67.31
229.496	72.31
229.73	76.31
229.964	71.31
230.199	81.31
230.433	89.31
230.667	74.31
230.901	89.31
231.136	73.31
231.37	85.31
231.604	65.31
231.838	75.31
232.072	92.31
232.306	77.31
232.541	79.31
232.775	74.31
233.009	77.31
233.243	73.31
233.477	78.31
233.711	79.31
233.945	89.31
234.179	70.31
234.413	83.31
234.647	80.31
234.881	83.31
235.115	82.31
235.349	82.31
235.583	75.31
235.817	85.31
236.051	86.31
236.285	80.31
236.519	84.31
236.753	87.31
236.987	90.31
237.221	100.31
237.455	90.31
237.689	81.31
237.922	89.31
238.156	91.31
238.39	86.31
238.624	74.31
238.858	69.31
239.091	66.31
239.325	71.31
239.559	80.31
239.793	77.31
240.027	71.31
240.26	94.31
240.494	73.31
240.728	74.31
240.961	93.31
241.195	84.31
241.429	87.31
241.662	72.31
241.896	81.31
242.13	85.31
242.363	62.31
242.597	88.31
242.83	88.31
243.064	77.31
243.298	74.31
243.531	77.31
243.765	92.31
243.998	86.31
244.232	70.31
244.465	91.31
244.699	76.31
244.932	74.31
245.166	84.31
245.399	71.31
245.633	89.31
245.866	69.31
246.099	69.31
246.333	89.31
246.566	78.31
246.8	96.31
247.033	82.31
247.266	73.31
247.5	79.31
247.733	69.31
247.966	77.31
248.2	72.31
248.433	81.31
248.666	64.31
248.899	81.31
249.133	83.31
249.366	117.31
249.599	92.31
249.832	84.31
250.066	76.31
250.299	84.31
250.532	91.31
250.765	91.31
250.998	83.31
251.231	86.31
251.465	93.31
251.698	84.31
251.931	85.31
252.164	82.31
252.397	100.31
252.63	69.31
252.863	76.31
253.096	85.31
253.329	77.31
253.562	82.31
253.795	78.31
254.028	81.31
254.261	78.31
254.494	79.31
254.727	76.31
254.96	84.31
255.193	82.31
255.426	52.31
255.659	85.31
255.892	88.31
256.124	74.31
256.357	91.31
256.59	75.31
256.823	90.31
257.056	76.31
257.289	88.31
257.521	96.31
257.754	86.31
257.987	88.31
258.22	102.31
258.452	83.31
258.685	83.31
258.918	75.31
259.151	84.31
259.383	81.31
259.616	89.31
259.849	99.31
260.081	85.31
260.314	80.31
260.547	83.31
260.779	80.31
261.012	87.31
261.244	83.31
261.477	89.31
261.71	91.31
261.942	105.31
262.175	118.31
262.407	89.31
262.64	85.31
262.872	79.31
263.105	85.31
263.337	86.31
263.57	74.31
263.802	84.31
264.035	79.31
264.267	89.31
264.499	78.31
264.732	72.31
264.964	71.31
265.197	91.31
265.429	96.31
265.661	82.31
265.894	89.31
266.126	90.31
266.358	74.31
266.591	82.31
266.823	96.31
267.055	84.31
267.287	88.31
267.52	97.31
267.752	95.31
267.984	80.31
268.216	85.31
268.448	95.31
268.681	86.31
268.913	80.31
269.145	87.31
269.377	87.31
269.609	97.31
269.841	82.31
270.073	75.31
270.306	86.31
270.538	85.31
270.77	60.31
271.002	93.31
271.234	82.31
271.466	92.31
271.698	81.31
271.93	86.31
272.162	73.31
272.394	82.31
272.626	87.31
272.858	79.31
273.09	90.31
273.322	91.31
273.553	76.31
273.785	97.31
274.017	74.31
274.249	77.31
274.481	86.31
274.713	90.31
274.945	83.31
275.176	87.31
275.408	90.31
275.64	98.31
275.872	119.31
276.104	97.31
276.335	91.31
276.567	107.31
276.799	110.31
277.031	113.31
277.262	138.31
277.494	100.31
277.726	99.31
277.957	87.31
278.189	68.31
278.421	97.31
278.652	77.31
278.884	78.31
279.115	94.31
279.347	93.31
279.579	90.31
279.81	125.31
280.042	132.31
280.273	153.31
280.505	112.31
280.736	96.31
280.968	86.31
281.199	70.31
281.431	90.31
281.662	101.31
281.894	98.31
282.125	106.31
282.356	115.31
282.588	144.31
282.819	111.31
283.051	84.31
283.282	82.31
283.513	96.31
283.745	86.31
283.976	82.31
284.207	84.31
284.439	80.31
284.67	85.31
284.901	89.31
285.132	89.31
285.364	89.31
285.595	85.31
285.826	86.31
286.057	89.31
286.288	81.31
286.52	91.31
286.751	82.31
286.982	87.31
287.213	84.31
287.444	69.31
287.675	92.31
287.906	81.31
288.138	82.31
288.369	93.31
288.6	86.31
288.831	79.31
289.062	79.31
289.293	88.31
289.524	81.31
289.755	84.31
289.986	96.31
290.217	92.31
290.448	77.31
290.679	86.31
290.91	96.31
291.141	81.31
291.371	88.31
291.602	77.31
291.833	85.31
292.064	81.31
292.295	68.31
292.526	86.31
292.757	92.31
292.987	84.31
293.218	93.31
293.449	91.31
293.68	92.31
293.91	85.31
294.141	90.31
294.372	77.31
294.603	80.31
294.833	90.31
295.064	90.31
295.295	84.31
295.525	97.31
295.756	103.31
295.987	105.31
296.217	134.31
296.448	116.31
296.679	92.31
296.909	98.31
297.14	96.31
297.37	85.31
297.601	86.31
297.831	88.31
298.062	89.31
298.292	84.31
298.523	92.31
298.753	73.31
298.984	82.31
299.214	99.31
299.445	102.31
299.675	87.31
299.905	99.31
300.136	81.31
300.366	82.31
300.597	99.31
300.827	88.31
301.057	88.31
301.288	105.31
301.518	97.31
301.748	91.31
301.979	110.31
302.209	98.31
302.439	98.31
302.669	87.31
302.9	87.31
303.13	102.31
303.36	108.31
303.59	121.31
303.82	125.31
304.051	103.31
304.281	94.31
304.511	76.31
304.741	84.31
304.971	82.31
305.201	88.31
305.431	81.31
305.661	101.31
305.891	87.31
306.121	89.31
306.352	113.31
306.582	119.31
306.812	105.31
307.042	110.31
307.272	131.31
307.502	133.31
307.731	143.31
307.961	119.31
308.191	96.31
308.421	89.31
308.651	97.31
308.881	100.31
309.111	94.31
309.341	99.31
309.571	86.31
309.8	97.31
310.03	109.31
310.26	111.31
310.49	118.31
310.72	93.31
310.949	120.31
311.179	105.31
311.409	89.31
311.639	104.31
311.868	100.31
312.098	104.31
312.328	94.31
312.557	98.31
312.787	120.31
313.017	111.31
313.246	107.31
313.476	98.31
313.706	80.31
313.935	88.31
314.165	95.31
314.394	109.31
314.624	111.31
314.853	109.31
315.083	79.31
315.312	86.31
315.542	96.31
315.771	92.31
316.001	98.31
316.23	98.31
316.46	96.31
316.689	90.31
316.919	98.31
317.148	105.31
317.377	89.31
317.607	95.31
317.836	91.31
318.065	90.31
318.295	104.31
318.524	102.31
318.753	80.31
318.983	106.31
319.212	84.31
319.441	106.31
319.67	100.31
319.9	78.31
320.129	100.31
320.358	101.31
320.587	96.31
320.816	105.31
321.046	103.31
321.275	101.31
321.504	102.31
321.733	100.31
321.962	105.31
322.191	101.31
322.42	97.31
322.649	113.31
322.878	120.31
323.108	136.31
323.337	121.31
323.566	147.31
323.795	168.31
324.024	220.31
324.253	447.31
324.482	922.31
324.71	1953.31
324.939	2609.31
325.168	944.31
325.397	279.31
325.626	161.31
325.855	138.31
326.084	132.31
326.313	141.31
326.542	165.31
326.77	248.31
326.999	515.31
327.228	1046.31
327.457	1947.31
327.686	1572.31
327.914	475.31
328.143	361.31
328.372	410.31
328.6	245.31
328.829	166.31
329.058	152.31
329.287	160.31
329.515	149.31
329.744	171.31
329.972	301.31
330.201	530.31
330.43	805.31
330.658	395.31
330.887	215.31
331.115	173.31
331.344	124.31
331.572	112.31
331.801	101.31
332.03	99.31
332.258	103.31
332.486	97.31
332.715	102.31
332.943	109.31
333.172	104.31
333.4	96.31
333.629	134.31
333.857	167.31
334.085	267.31
334.314	520.31
334.542	971.31
334.771	968.31
334.999	290.31
335.227	139.31
335.455	110.31
335.684	103.31
335.912	95.31
336.14	94.31
336.369	103.31
336.597	98.31
336.825	100.31
337.053	95.31
337.281	105.31
337.51	88.31
337.738	92.31
337.966	94.31
338.194	101.31
338.422	97.31
338.65	103.31
338.878	90.31
339.106	74.31
339.334	87.31
339.562	91.31
339.79	88.31
340.018	89.31
340.246	98.31
340.474	102.31
340.702	107.31
340.93	90.31
341.158	98.31
341.386	93.31
341.614	94.31
341.842	102.31
342.07	101.31
342.298	98.31
342.526	91.31
342.754	100.31
342.981	84.31
343.209	76.31
343.437	103.31
343.665	97.31
343.893	95.31
344.12	99.31
344.348	82.31
344.576	94.31
344.804	99.31
345.031	99.31
345.259	93.31
345.487	96.31
345.714	97.31
345.942	84.31
346.17	89.31
346.397	87.31
346.625	100.31
346.853	92.31
347.08	106.31
347.308	112.31
347.535	96.31
347.763	106.31
347.99	108.31
348.218	108.31
348.445	116.31
348.673	112.31
348.9	94.31
349.128	96.31
349.355	97.31
349.583	96.31
349.81	88.31
350.037	96.31
350.265	88.31
350.492	98.31
350.72	83.31
350.947	96.31
351.174	96.31
351.402	116.31
351.629	113.31
351.856	104.31
352.083	116.31
352.311	98.31
352.538	116.31
352.765	109.31
352.992	115.31
353.22	103.31
353.447	110.31
353.674	95.31
353.901	97.31
354.128	104.31
354.355	94.31
354.583	101.31
354.81	102.31
355.037	104.31
355.264	97.31
355.491	106.31
355.718	97.31
355.945	103.31
356.172	85.31
356.399	94.31
356.626	90.31
356.853	88.31
357.08	78.31
357.307	96.31
357.534	84.31
357.761	86.31
357.988	101.31
358.215	105.31
358.441	95.31
358.668	99.31
358.895	104.31
359.122	98.31
359.349	97.31
359.576	85.31
359.802	106.31
360.029	122.31
360.256	115.31
360.483	91.31
360.709	95.31
360.936	87.31
361.163	92.31
361.39	98.31
361.616	98.31
361.843	97.31
362.07	87.31
362.296	79.31
362.523	96.31
362.749	97.31
362.976	93.31
363.203	101.31
363.429	99.31
363.656	89.31
363.882	90.31
364.109	82.31
364.335	81.31
364.562	95.31
364.788	94.31
365.015	102.31
365.241	118.31
365.468	106.31
365.694	102.31
365.92	91.31
366.147	102.31
366.373	102.31
366.599	96.31
366.826	98.31
367.052	94.31
367.278	84.31
367.505	101.31
367.731	97.31
367.957	81.31
368.184	102.31
368.41	91.31
368.636	117.31
368.862	132.31
369.089	102.31
369.315	107.31
369.541	112.31
369.767	89.31
369.993	94.31
370.219	94.31
370.445	82.31
370.672	96.31
370.898	90.31
371.124	93.31
371.35	89.31
371.576	78.31
371.802	93.31
372.028	83.31
372.254	101.31
372.48	88.31
372.706	99.31
372.932	92.31
373.158	92.31
373.384	87.31
373.61	89.31
373.835	75.31
374.061	95.31
374.287	88.31
374.513	74.31
374.739	97.31
374.965	102.31
375.191	79.31
375.416	97.31
375.642	88.31
375.868	93.31
376.094	90.31
376.319	86.31
376.545	87.31
376.771	98.31
376.997	86.31
377.222	82.31
377.448	87.31
377.674	77.31
377.899	82.31
378.125	96.31
378.35	93.31
378.576	96.31
378.802	90.31
379.027	81.31
379.253	72.31
379.478	82.31
379.704	90.31
379.929	94.31
380.155	105.31
380.38	86.31
380.606	85.31
380.831	84.31
381.057	100.31
381.282	99.31
381.507	104.31
381.733	97.31
381.958	97.31
382.184	87.31
382.409	96.31
382.634	97.31
382.86	103.31
383.085	104.31
383.31	88.31
383.535	84.31
383.761	107.31
383.986	105.31
384.211	86.31
384.436	90.31
384.662	89.31
384.887	90.31
385.112	118.31
385.337	95.31
385.562	99.31
385.787	90.31
386.013	98.31
386.238	114.31
386.463	106.31
386.688	98.31
386.913	97.31
387.138	102.31
387.363	108.31
387.588	89.31
387.813	106.31
388.038	99.31
388.263	105.31
388.488	113.31
388.713	89.31
388.938	82.31
389.163	103.31
389.387	103.31
389.612	99.31
389.837	105.31
390.062	110.31
390.287	89.31
390.512	94.31
390.736	96.31
390.961	87.31
391.186	97.31
391.411	89.31
391.636	83.31
391.86	101.31
392.085	84.31
392.31	87.31
392.534	80.31
392.759	82.31
392.984	85.31
393.208	73.31
393.433	94.31
393.658	87.31
393.882	104.31
394.107	95.31
394.331	97.31
394.556	80.31
394.78	95.31
395.005	104.31
395.229	83.31
395.454	100.31
395.678	90.31
395.903	70.31
396.127	81.31
396.352	103.31
396.576	91.31
396.801	86.31
397.025	92.31
397.249	104.31
397.474	87.31
397.698	93.31
397.922	96.31
398.147	88.31
398.371	92.31
398.595	101.31
398.82	104.31
399.044	90.31
399.268	88.31
399.492	93.31
399.717	82.31
399.941	98.31
400.165	94.31
400.389	95.31
400.613	81.31
400.837	91.31
401.062	84.31
401.286	91.31
401.51	81.31
401.734	90.31
401.958	113.31
402.182	117.31
402.406	163.31
402.63	120.31
402.854	105.31
403.078	87.31
403.302	82.31
403.526	82.31
403.75	97.31
403.974	89.31
404.198	82.31
404.422	89.31
404.645	92.31
404.869	92.31
405.093	106.31
405.317	126.31
405.541	130.31
405.765	100.31
405.988	127.31
406.212	168.31
406.436	240.31
406.66	171.31
406.883	117.31
407.107	87.31
407.331	93.31
407.555	99.31
407.778	104.31
408.002	88.31
408.226	82.31
408.449	97.31
408.673	103.31
408.896	91.31
409.12	101.31
409.344	100.31
409.567	90.31
409.791	98.31
410.014	94.31
410.238	89.31
410.461	88.31
410.685	95.31
410.908	103.31
411.132	113.31
411.355	113.31
411.578	86.31
411.802	91.31
412.025	89.31
412.249	94.31
412.472	116.31
412.695	132.31
412.919	109.31
413.142	92.31
413.365	92.31
413.589	94.31
413.812	89.31
414.035	90.31
414.258	102.31
414.482	90.31
414.705	103.31
414.928	95.31
415.151	89.31
415.374	101.31
415.597	103.31
415.821	96.31
416.044	91.31
416.267	85.31
416.49	75.31
416.713	98.31
416.936	85.31
417.159	109.31
417.382	92.31
417.605	104.31
417.828	105.31
418.051	91.31
418.274	80.31
418.497	88.31
418.72	90.31
418.943	89.31
419.166	93.31
419.389	102.31
419.611	86.31
419.834	93.31
420.057	90.31
420.28	87.31
420.503	91.31
420.726	87.31
420.948	84.31
421.171	110.31
421.394	98.31
421.617	85.31
421.839	82.31
422.062	88.31
422.285	82.31
422.507	91.31
422.73	100.31
422.953	102.31
423.175	91.31
423.398	91.31
423.621	87.31
423.843	78.31
424.066	66.31
424.288	90.31
424.511	98.31
424.733	93.31
424.956	125.31
425.178	96.31
425.401	119.31
425.623	104.31
425.846	76.31
426.068	92.31
426.291	96.31
426.513	70.31
426.735	95.31
426.958	102.31
427.18	114.31
427.402	153.31
427.625	216.31
427.847	193.31
428.069	180.31
428.292	117.31
428.514	104.31
428.736	97.31
428.958	95.31
429.181	101.31
429.403	96.31
429.625	86.31
429.847	82.31
430.069	88.31
430.292	83.31
430.514	86.31
430.736	91.31
430.958	83.31
431.18	84.31
431.402	96.31
431.624	88.31
431.846	96.31
432.068	93.31
432.29	90.31
432.512	97.31
432.734	89.31
432.956	100.31
433.178	101.31
433.4	107.31
433.622	90.31
433.844	100.31
434.066	88.31
434.287	87.31
434.509	98.31
434.731	85.31
434.953	93.31
435.175	102.31
435.397	82.31
435.618	96.31
435.84	113.31
436.062	148.31
436.284	133.31
436.505	89.31
436.727	103.31
436.949	105.31
437.17	77.31
437.392	81.31
437.614	94.31
437.835	115.31
438.057	116.31
438.278	112.31
438.5	105.31
438.721	127.31
438.943	117.31
439.165	96.31
439.386	79.31
439.608	88.31
439.829	102.31
440.05	140.31
440.272	172.31
440.493	118.31
440.715	93.31
440.936	92.31
441.158	89.31
441.379	92.31
441.6	81.31
441.822	113.31
442.043	95.31
442.264	105.31
442.486	110.31
442.707	92.31
442.928	104.31
443.149	160.31
443.371	128.31
443.592	118.31
443.813	137.31
444.034	124.31
444.255	103.31
444.476	100.31
444.698	96.31
444.919	98.31
445.14	148.31
445.361	140.31
445.582	110.31
445.803	160.31
446.024	152.31
446.245	157.31
446.466	126.31
446.687	81.31
446.908	86.31
447.129	97.31
447.35	77.31
447.571	90.31
447.792	98.31
448.013	99.31
448.234	105.31
448.455	111.31
448.675	129.31
448.896	124.31
449.117	110.31
449.338	106.31
449.559	148.31
449.779	158.31
450	105.31
450.221	101.31
450.442	95.31
450.662	85.31
450.883	115.31
451.104	102.31
451.324	90.31
451.545	107.31
451.766	87.31
451.986	82.31
452.207	91.31
452.428	105.31
452.648	95.31
452.869	116.31
453.089	119.31
453.31	118.31
453.53	94.31
453.751	93.31
453.971	108.31
454.192	121.31
454.412	89.31
454.633	76.31
454.853	87.31
455.073	80.31
455.294	90.31
455.514	114.31
455.734	87.31
455.955	87.31
456.175	93.31
456.395	85.31
456.616	100.31
456.836	79.31
457.056	98.31
457.276	100.31
457.497	99.31
457.717	88.31
457.937	95.31
458.157	96.31
458.377	74.31
458.598	96.31
458.818	166.31
459.038	184.31
459.258	140.31
459.478	77.31
459.698	78.31
459.918	89.31
460.138	88.31
460.358	78.31
460.578	98.31
460.798	101.31
461.018	80.31
461.238	94.31
461.458	81.31
461.678	78.31
461.898	91.31
462.118	90.31
462.338	92.31
462.558	71.31
462.777	85.31
462.997	79.31
463.217	102.31
463.437	89.31
463.657	84.31
463.876	88.31
464.096	90.31
464.316	81.31
464.536	89.31
464.755	96.31
464.975	110.31
465.195	184.31
465.414	198.31
465.634	118.31
465.854	92.31
466.073	84.31
466.293	95.31
466.512	88.31
466.732	93.31
466.951	105.31
467.171	86.31
467.391	103.31
467.61	109.31
467.829	147.31
468.049	319.31
468.268	458.31
468.488	150.31
468.707	89.31
468.927	85.31
469.146	89.31
469.365	85.31
469.585	99.31
469.804	96.31
470.023	111.31
470.243	95.31
470.462	107.31
470.681	110.31
470.901	90.31
471.12	96.31
471.339	88.31
471.558	118.31
471.777	111.31
471.997	184.31
472.216	606.31
472.435	1346.31
472.654	356.31
472.873	130.31
473.092	88.31
473.311	87.31
473.53	96.31
473.749	89.31
473.968	98.31
474.187	107.31
474.406	93.31
474.625	90.31
474.844	96.31
475.063	93.31
475.282	78.31
475.501	92.31
475.72	78.31
475.939	72.31
476.158	86.31
476.377	89.31
476.596	88.31
476.814	87.31
477.033	112.31
477.252	92.31
477.471	85.31
477.69	87.31
477.908	96.31
478.127	102.31
478.346	105.31
478.564	92.31
478.783	105.31
479.002	92.31
479.22	110.31
479.439	112.31
479.658	121.31
479.876	106.31
480.095	91.31
480.313	115.31
480.532	120.31
480.751	177.31
480.969	577.31
481.188	2260.31
481.406	1362.31
481.624	236.31
481.843	116.31
482.061	105.31
482.28	105.31
482.498	85.31
482.717	93.31
482.935	95.31
483.153	92.31
483.372	91.31
483.59	91.31
483.808	90.31
484.027	89.31
484.245	89.31
484.463	92.31
484.681	103.31
484.9	94.31
485.118	103.31
485.336	91.31
485.554	101.31
485.772	106.31
485.99	104.31
486.209	99.31
486.427	108.31
486.645	121.31
486.863	110.31
487.081	93.31
487.299	97.31
487.517	105.31
487.735	80.31
487.953	103.31
488.171	100.31
488.389	107.31
488.607	98.31
488.825	90.31
489.043	92.31
489.261	87.31
489.479	84.31
489.696	94.31
489.914	94.31
490.132	101.31
490.35	96.31
490.568	84.31
490.786	89.31
491.003	84.31
491.221	89.31
491.439	89.31
491.657	88.31
491.874	89.31
492.092	97.31
492.31	105.31
492.527	93.31
492.745	89.31
492.963	98.31
493.18	104.31
493.398	83.31
493.615	89.31
493.833	100.31
494.05	76.31
494.268	102.31
494.485	88.31
494.703	72.31
494.92	95.31
495.138	84.31
495.355	99.31
495.573	94.31
495.79	93.31
496.008	90.31
496.225	108.31
496.442	88.31
496.66	101.31
496.877	102.31
497.094	88.31
497.312	90.31
497.529	92.31
497.746	96.31
497.963	103.31
498.181	100.31
498.398	97.31
498.615	128.31
498.832	88.31
499.049	89.31
499.267	83.31
499.484	96.31
499.701	83.31
499.918	82.31
500.135	86.31
500.352	95.31
500.569	94.31
500.786	95.31
501.003	84.31
501.22	90.31
501.437	95.31
501.654	98.31
501.871	103.31
502.088	104.31
502.305	81.31
502.522	81.31
502.739	84.31
502.956	96.31
503.172	89.31
503.389	106.31
503.606	98.31
503.823	82.31
504.04	96.31
504.256	108.31
504.473	90.31
504.69	93.31
504.907	89.31
505.123	96.31
505.34	93.31
505.557	104.31
505.773	101.31
505.99	88.31
506.207	81.31
506.423	81.31
506.64	90.31
506.856	101.31
507.073	90.31
507.289	88.31
507.506	89.31
507.722	115.31
507.939	133.31
508.155	100.31
508.372	101.31
508.588	94.31
508.805	84.31
509.021	99.31
509.238	93.31
509.454	103.31
509.67	97.31
509.887	112.31
510.103	111.31
510.319	217.31
510.536	755.31
510.752	2426.31
510.968	692.31
511.184	166.31
511.401	108.31
511.617	104.31
511.833	96.31
512.049	106.31
512.265	95.31
512.481	97.31
512.698	96.31
512.914	104.31
513.13	84.31
513.346	82.31
513.562	99.31
513.778	107.31
513.994	99.31
514.21	110.31
