Data from Circ_2004_H10_HRD10591_00033.txt Node
Date: Wed Jan 03 10:33:20 EST 2024
User: Yrep
Spectrometer: HR+D1059
Trigger mode: 1
Integration Time (sec): 1.000000E-1
Scans to average: 1
Electric dark correction enabled: true
Nonlinearity correction enabled: false
Boxcar width: 0
XAxis mode: Wavelengths
Number of Pixels in Spectrum: 2048
>>>>>Begin Spectral Data<<<<<
223.165	-17.12
223.4	-17.12
223.635	-17.12
223.869	-18.12
224.104	-7.12
224.338	-17.12
224.573	-10.12
224.808	-0.12
225.042	-13.12
225.277	-17.12
225.511	5.88
225.746	6.88
225.98	-3.12
226.215	1.88
226.449	21.88
226.683	19.88
226.918	14.88
227.152	31.88
227.387	42.88
227.621	36.88
227.856	34.88
228.09	49.88
228.324	40.88
228.559	54.88
228.793	64.88
229.027	64.88
229.262	67.88
229.496	59.88
229.73	80.88
229.964	93.88
230.199	75.88
230.433	68.88
230.667	78.88
230.901	70.88
231.136	70.88
231.37	80.88
231.604	78.88
231.838	80.88
232.072	89.88
232.306	92.88
232.541	91.88
232.775	68.88
233.009	79.88
233.243	79.88
233.477	92.88
233.711	83.88
233.945	86.88
234.179	85.88
234.413	62.88
234.647	75.88
234.881	72.88
235.115	100.88
235.349	98.88
235.583	80.88
235.817	75.88
236.051	67.88
236.285	67.88
236.519	86.88
236.753	91.88
236.987	78.88
237.221	84.88
237.455	76.88
237.689	83.88
237.922	66.88
238.156	72.88
238.39	70.88
238.624	69.88
238.858	81.88
239.091	75.88
239.325	78.88
239.559	79.88
239.793	76.88
240.027	85.88
240.26	81.88
240.494	88.88
240.728	80.88
240.961	72.88
241.195	72.88
241.429	85.88
241.662	72.88
241.896	81.88
242.13	74.88
242.363	70.88
242.597	67.88
242.83	67.88
243.064	86.88
243.298	93.88
243.531	81.88
243.765	85.88
243.998	85.88
244.232	84.88
244.465	88.88
244.699	80.88
244.932	84.88
245.166	79.88
245.399	79.88
245.633	72.88
245.866	72.88
246.099	82.88
246.333	70.88
246.566	76.88
246.8	91.88
247.033	81.88
247.266	80.88
247.5	79.88
247.733	86.88
247.966	78.88
248.2	68.88
248.433	88.88
248.666	95.88
248.899	81.88
249.133	94.88
249.366	95.88
249.599	82.88
249.832	72.88
250.066	92.88
250.299	80.88
250.532	72.88
250.765	84.88
250.998	83.88
251.231	79.88
251.465	76.88
251.698	81.88
251.931	80.88
252.164	88.88
252.397	79.88
252.63	83.88
252.863	73.88
253.096	72.88
253.329	90.88
253.562	73.88
253.795	88.88
254.028	75.88
254.261	72.88
254.494	74.88
254.727	91.88
254.96	99.88
255.193	84.88
255.426	73.88
255.659	63.88
255.892	83.88
256.124	89.88
256.357	76.88
256.59	85.88
256.823	83.88
257.056	82.88
257.289	85.88
257.521	72.88
257.754	91.88
257.987	77.88
258.22	79.88
258.452	88.88
258.685	79.88
258.918	72.88
259.151	95.88
259.383	75.88
259.616	72.88
259.849	75.88
260.081	84.88
260.314	94.88
260.547	81.88
260.779	84.88
261.012	80.88
261.244	80.88
261.477	89.88
261.71	105.88
261.942	106.88
262.175	111.88
262.407	81.88
262.64	88.88
262.872	84.88
263.105	76.88
263.337	71.88
263.57	75.88
263.802	94.88
264.035	79.88
264.267	75.88
264.499	86.88
264.732	89.88
264.964	80.88
265.197	85.88
265.429	74.88
265.661	95.88
265.894	99.88
266.126	68.88
266.358	84.88
266.591	84.88
266.823	99.88
267.055	96.88
267.287	86.88
267.52	85.88
267.752	79.88
267.984	79.88
268.216	79.88
268.448	75.88
268.681	82.88
268.913	80.88
269.145	74.88
269.377	84.88
269.609	76.88
269.841	78.88
270.073	78.88
270.306	77.88
270.538	87.88
270.77	84.88
271.002	74.88
271.234	86.88
271.466	86.88
271.698	78.88
271.93	86.88
272.162	75.88
272.394	72.88
272.626	77.88
272.858	87.88
273.09	80.88
273.322	94.88
273.553	77.88
273.785	91.88
274.017	87.88
274.249	71.88
274.481	79.88
274.713	71.88
274.945	85.88
275.176	86.88
275.408	89.88
275.64	79.88
275.872	79.88
276.104	98.88
276.335	87.88
276.567	91.88
276.799	120.88
277.031	116.88
277.262	107.88
277.494	83.88
277.726	83.88
277.957	84.88
278.189	86.88
278.421	85.88
278.652	80.88
278.884	77.88
279.115	84.88
279.347	99.88
279.579	84.88
279.81	99.88
280.042	101.88
280.273	96.88
280.505	99.88
280.736	97.88
280.968	83.88
281.199	86.88
281.431	79.88
281.662	86.88
281.894	95.88
282.125	98.88
282.356	122.88
282.588	115.88
282.819	124.88
283.051	87.88
283.282	81.88
283.513	99.88
283.745	84.88
283.976	71.88
284.207	87.88
284.439	83.88
284.67	95.88
284.901	86.88
285.132	93.88
285.364	96.88
285.595	92.88
285.826	85.88
286.057	83.88
286.288	83.88
286.52	80.88
286.751	76.88
286.982	88.88
287.213	80.88
287.444	83.88
287.675	88.88
287.906	83.88
288.138	86.88
288.369	97.88
288.6	93.88
288.831	79.88
289.062	83.88
289.293	89.88
289.524	80.88
289.755	92.88
289.986	92.88
290.217	68.88
290.448	90.88
290.679	93.88
290.91	93.88
291.141	83.88
291.371	86.88
291.602	103.88
291.833	79.88
292.064	91.88
292.295	84.88
292.526	109.88
292.757	93.88
292.987	86.88
293.218	86.88
293.449	73.88
293.68	82.88
293.91	93.88
294.141	92.88
294.372	83.88
294.603	77.88
294.833	82.88
295.064	78.88
295.295	90.88
295.525	102.88
295.756	88.88
295.987	102.88
296.217	126.88
296.448	104.88
296.679	82.88
296.909	87.88
297.14	92.88
297.37	89.88
297.601	93.88
297.831	92.88
298.062	89.88
298.292	104.88
298.523	81.88
298.753	81.88
298.984	88.88
299.214	80.88
299.445	99.88
299.675	96.88
299.905	82.88
300.136	91.88
300.366	65.88
300.597	85.88
300.827	86.88
301.057	99.88
301.288	90.88
301.518	95.88
301.748	95.88
301.979	96.88
302.209	93.88
302.439	98.88
302.669	70.88
302.9	84.88
303.13	93.88
303.36	107.88
303.59	112.88
303.82	104.88
304.051	83.88
304.281	85.88
304.511	84.88
304.741	85.88
304.971	81.88
305.201	97.88
305.431	84.88
305.661	95.88
305.891	83.88
306.121	102.88
306.352	97.88
306.582	101.88
306.812	90.88
307.042	103.88
307.272	99.88
307.502	95.88
307.731	127.88
307.961	89.88
308.191	71.88
308.421	80.88
308.651	75.88
308.881	95.88
309.111	92.88
309.341	105.88
309.571	96.88
309.8	89.88
310.03	89.88
310.26	78.88
310.49	85.88
310.72	97.88
310.949	96.88
311.179	99.88
311.409	89.88
311.639	92.88
311.868	97.88
312.098	98.88
312.328	101.88
312.557	91.88
312.787	91.88
313.017	105.88
313.246	94.88
313.476	91.88
313.706	87.88
313.935	102.88
314.165	97.88
314.394	102.88
314.624	100.88
314.853	88.88
315.083	92.88
315.312	96.88
315.542	89.88
315.771	97.88
316.001	88.88
316.23	75.88
316.46	95.88
316.689	85.88
316.919	82.88
317.148	93.88
317.377	94.88
317.607	93.88
317.836	87.88
318.065	95.88
318.295	80.88
318.524	88.88
318.753	85.88
318.983	88.88
319.212	104.88
319.441	102.88
319.67	111.88
319.9	83.88
320.129	76.88
320.358	89.88
320.587	97.88
320.816	91.88
321.046	95.88
321.275	104.88
321.504	95.88
321.733	103.88
321.962	110.88
322.191	95.88
322.42	95.88
322.649	104.88
322.878	119.88
323.108	118.88
323.337	131.88
323.566	117.88
323.795	135.88
324.024	199.88
324.253	360.88
324.482	777.88
324.71	1537.88
324.939	2045.88
325.168	752.88
325.397	237.88
325.626	127.88
325.855	114.88
326.084	116.88
326.313	133.88
326.542	154.88
326.77	235.88
326.999	434.88
327.228	899.88
327.457	1615.88
327.686	1279.88
327.914	368.88
328.143	224.88
328.372	220.88
328.6	159.88
328.829	120.88
329.058	127.88
329.287	112.88
329.515	110.88
329.744	111.88
329.972	161.88
330.201	264.88
330.43	331.88
330.658	198.88
330.887	132.88
331.115	116.88
331.344	102.88
331.572	101.88
331.801	110.88
332.03	101.88
332.258	103.88
332.486	94.88
332.715	84.88
332.943	95.88
333.172	112.88
333.4	112.88
333.629	128.88
333.857	120.88
334.085	161.88
334.314	261.88
334.542	411.88
334.771	399.88
334.999	147.88
335.227	99.88
335.455	93.88
335.684	81.88
335.912	104.88
336.14	104.88
336.369	102.88
336.597	106.88
336.825	86.88
337.053	77.88
337.281	92.88
337.51	89.88
337.738	91.88
337.966	78.88
338.194	95.88
338.422	88.88
338.65	96.88
338.878	96.88
339.106	104.88
339.334	83.88
339.562	99.88
339.79	93.88
340.018	91.88
340.246	84.88
340.474	86.88
340.702	84.88
340.93	93.88
341.158	81.88
341.386	90.88
341.614	88.88
341.842	80.88
342.07	84.88
342.298	84.88
342.526	80.88
342.754	96.88
342.981	83.88
343.209	94.88
343.437	98.88
343.665	91.88
343.893	86.88
344.12	97.88
344.348	106.88
344.576	94.88
344.804	79.88
345.031	94.88
345.259	95.88
345.487	94.88
345.714	96.88
345.942	95.88
346.17	91.88
346.397	91.88
346.625	95.88
346.853	91.88
347.08	94.88
347.308	88.88
347.535	83.88
347.763	93.88
347.99	97.88
348.218	93.88
348.445	99.88
348.673	86.88
348.9	84.88
349.128	92.88
349.355	93.88
349.583	89.88
349.81	93.88
350.037	93.88
350.265	87.88
350.492	94.88
350.72	98.88
350.947	98.88
351.174	101.88
351.402	101.88
351.629	103.88
351.856	95.88
352.083	98.88
352.311	112.88
352.538	103.88
352.765	115.88
352.992	108.88
353.22	99.88
353.447	107.88
353.674	100.88
353.901	91.88
354.128	71.88
354.355	105.88
354.583	89.88
354.81	77.88
355.037	91.88
355.264	94.88
355.491	87.88
355.718	86.88
355.945	90.88
356.172	93.88
356.399	83.88
356.626	109.88
356.853	92.88
357.08	98.88
357.307	80.88
357.534	78.88
357.761	88.88
357.988	93.88
358.215	98.88
358.441	88.88
358.668	80.88
358.895	84.88
359.122	87.88
359.349	86.88
359.576	89.88
359.802	94.88
360.029	108.88
360.256	100.88
360.483	86.88
360.709	89.88
360.936	92.88
361.163	88.88
361.39	94.88
361.616	84.88
361.843	96.88
362.07	98.88
362.296	92.88
362.523	100.88
362.749	89.88
362.976	99.88
363.203	100.88
363.429	88.88
363.656	89.88
363.882	100.88
364.109	83.88
364.335	95.88
364.562	102.88
364.788	82.88
365.015	84.88
365.241	94.88
365.468	90.88
365.694	93.88
365.92	100.88
366.147	102.88
366.373	100.88
366.599	99.88
366.826	82.88
367.052	79.88
367.278	96.88
367.505	77.88
367.731	90.88
367.957	91.88
368.184	97.88
368.41	104.88
368.636	103.88
368.862	115.88
369.089	95.88
369.315	89.88
369.541	99.88
369.767	88.88
369.993	93.88
370.219	93.88
370.445	85.88
370.672	83.88
370.898	82.88
371.124	84.88
371.35	77.88
371.576	87.88
371.802	71.88
372.028	98.88
372.254	64.88
372.48	91.88
372.706	80.88
372.932	85.88
373.158	83.88
373.384	81.88
373.61	87.88
373.835	80.88
374.061	92.88
374.287	88.88
374.513	81.88
374.739	90.88
374.965	78.88
375.191	82.88
375.416	71.88
375.642	73.88
375.868	88.88
376.094	100.88
376.319	87.88
376.545	81.88
376.771	86.88
376.997	86.88
377.222	89.88
377.448	85.88
377.674	82.88
377.899	87.88
378.125	85.88
378.35	86.88
378.576	83.88
378.802	105.88
379.027	86.88
379.253	75.88
379.478	91.88
379.704	84.88
379.929	90.88
380.155	86.88
380.38	86.88
380.606	93.88
380.831	88.88
381.057	89.88
381.282	118.88
381.507	98.88
381.733	85.88
381.958	103.88
382.184	85.88
382.409	112.88
382.634	92.88
382.86	82.88
383.085	108.88
383.31	104.88
383.535	108.88
383.761	109.88
383.986	110.88
384.211	88.88
384.436	80.88
384.662	97.88
384.887	103.88
385.112	90.88
385.337	115.88
385.562	92.88
385.787	86.88
386.013	111.88
386.238	104.88
386.463	103.88
386.688	103.88
386.913	111.88
387.138	90.88
387.363	99.88
387.588	87.88
387.813	96.88
388.038	99.88
388.263	113.88
388.488	106.88
388.713	84.88
388.938	91.88
389.163	93.88
389.387	96.88
389.612	88.88
389.837	87.88
390.062	89.88
390.287	105.88
390.512	79.88
390.736	97.88
390.961	89.88
391.186	93.88
391.411	96.88
391.636	98.88
391.86	83.88
392.085	66.88
392.31	93.88
392.534	86.88
392.759	79.88
392.984	80.88
393.208	102.88
393.433	93.88
393.658	93.88
393.882	92.88
394.107	91.88
394.331	93.88
394.556	90.88
394.78	94.88
395.005	75.88
395.229	69.88
395.454	81.88
395.678	86.88
395.903	83.88
396.127	86.88
396.352	80.88
396.576	71.88
396.801	100.88
397.025	82.88
397.249	91.88
397.474	78.88
397.698	76.88
397.922	75.88
398.147	88.88
398.371	86.88
398.595	90.88
398.82	92.88
399.044	82.88
399.268	79.88
399.492	82.88
399.717	78.88
399.941	84.88
400.165	85.88
400.389	99.88
400.613	79.88
400.837	73.88
401.062	87.88
401.286	82.88
401.51	83.88
401.734	94.88
401.958	105.88
402.182	118.88
402.406	151.88
402.63	106.88
402.854	88.88
403.078	79.88
403.302	98.88
403.526	92.88
403.75	82.88
403.974	87.88
404.198	93.88
404.422	71.88
404.645	89.88
404.869	91.88
405.093	91.88
405.317	110.88
405.541	99.88
405.765	92.88
405.988	111.88
406.212	161.88
406.436	199.88
406.66	145.88
406.883	103.88
407.107	100.88
407.331	89.88
407.555	103.88
407.778	94.88
408.002	88.88
408.226	82.88
408.449	98.88
408.673	83.88
408.896	86.88
409.12	95.88
409.344	95.88
409.567	85.88
409.791	86.88
410.014	108.88
410.238	83.88
410.461	78.88
410.685	94.88
410.908	78.88
411.132	91.88
411.355	95.88
411.578	99.88
411.802	83.88
412.025	82.88
412.249	84.88
412.472	91.88
412.695	102.88
412.919	89.88
413.142	93.88
413.365	80.88
413.589	95.88
413.812	86.88
414.035	87.88
414.258	86.88
414.482	84.88
414.705	87.88
414.928	91.88
415.151	97.88
415.374	90.88
415.597	96.88
415.821	78.88
416.044	82.88
416.267	88.88
416.49	92.88
416.713	86.88
416.936	83.88
417.159	88.88
417.382	64.88
417.605	84.88
417.828	88.88
418.051	101.88
418.274	87.88
418.497	87.88
418.72	94.88
418.943	80.88
419.166	87.88
419.389	74.88
419.611	89.88
419.834	95.88
420.057	86.88
420.28	86.88
420.503	85.88
420.726	89.88
420.948	88.88
421.171	96.88
421.394	97.88
421.617	89.88
421.839	79.88
422.062	78.88
422.285	86.88
422.507	87.88
422.73	116.88
422.953	97.88
423.175	88.88
423.398	96.88
423.621	79.88
423.843	68.88
424.066	73.88
424.288	80.88
424.511	80.88
424.733	87.88
424.956	101.88
425.178	95.88
425.401	101.88
425.623	95.88
425.846	95.88
426.068	72.88
426.291	96.88
426.513	89.88
426.735	89.88
426.958	102.88
427.18	96.88
427.402	117.88
427.625	158.88
427.847	154.88
428.069	137.88
428.292	97.88
428.514	92.88
428.736	81.88
428.958	79.88
429.181	88.88
429.403	91.88
429.625	87.88
429.847	93.88
430.069	86.88
430.292	84.88
430.514	92.88
430.736	80.88
430.958	86.88
431.18	86.88
431.402	87.88
431.624	80.88
431.846	80.88
432.068	83.88
432.29	96.88
432.512	101.88
432.734	91.88
432.956	84.88
433.178	97.88
433.4	85.88
433.622	94.88
433.844	94.88
434.066	88.88
434.287	95.88
434.509	85.88
434.731	87.88
434.953	107.88
435.175	100.88
435.397	101.88
435.618	95.88
435.84	104.88
436.062	114.88
436.284	118.88
436.505	103.88
436.727	92.88
436.949	83.88
437.17	70.88
437.392	94.88
437.614	84.88
437.835	105.88
438.057	109.88
438.278	106.88
438.5	101.88
438.721	106.88
438.943	97.88
439.165	78.88
439.386	95.88
439.608	81.88
439.829	91.88
440.05	114.88
440.272	129.88
440.493	97.88
440.715	79.88
440.936	84.88
441.158	70.88
441.379	92.88
441.6	89.88
441.822	80.88
442.043	94.88
442.264	92.88
442.486	90.88
442.707	91.88
442.928	105.88
443.149	116.88
443.371	109.88
443.592	100.88
443.813	105.88
444.034	93.88
444.255	95.88
444.476	82.88
444.698	73.88
444.919	89.88
445.14	114.88
445.361	115.88
445.582	114.88
445.803	118.88
446.024	113.88
446.245	121.88
446.466	104.88
446.687	91.88
446.908	95.88
447.129	87.88
447.35	80.88
447.571	89.88
447.792	100.88
448.013	95.88
448.234	116.88
448.455	85.88
448.675	110.88
448.896	115.88
449.117	95.88
449.338	94.88
449.559	110.88
449.779	115.88
450	80.88
450.221	85.88
450.442	71.88
450.662	83.88
450.883	89.88
451.104	89.88
451.324	93.88
451.545	77.88
451.766	94.88
451.986	80.88
452.207	95.88
452.428	91.88
452.648	94.88
452.869	110.88
453.089	104.88
453.31	102.88
453.53	84.88
453.751	88.88
453.971	96.88
454.192	100.88
454.412	76.88
454.633	88.88
454.853	85.88
455.073	67.88
455.294	85.88
455.514	91.88
455.734	97.88
455.955	79.88
456.175	91.88
456.395	80.88
456.616	74.88
456.836	74.88
457.056	79.88
457.276	87.88
457.497	87.88
457.717	84.88
457.937	86.88
458.157	79.88
458.377	90.88
458.598	99.88
458.818	141.88
459.038	139.88
459.258	112.88
459.478	91.88
459.698	105.88
459.918	88.88
460.138	71.88
460.358	68.88
460.578	89.88
460.798	91.88
461.018	89.88
461.238	93.88
461.458	91.88
461.678	76.88
461.898	67.88
462.118	90.88
462.338	72.88
462.558	82.88
462.777	86.88
462.997	78.88
463.217	90.88
463.437	84.88
463.657	83.88
463.876	83.88
464.096	70.88
464.316	95.88
464.536	83.88
464.755	95.88
464.975	108.88
465.195	131.88
465.414	153.88
465.634	81.88
465.854	96.88
466.073	88.88
466.293	74.88
466.512	95.88
466.732	77.88
466.951	85.88
467.171	89.88
467.391	97.88
467.61	112.88
467.829	120.88
468.049	179.88
468.268	222.88
468.488	112.88
468.707	82.88
468.927	88.88
469.146	76.88
469.365	72.88
469.585	95.88
469.804	84.88
470.023	95.88
470.243	86.88
470.462	86.88
470.681	102.88
470.901	101.88
471.12	94.88
471.339	88.88
471.558	92.88
471.777	87.88
471.997	131.88
472.216	314.88
472.435	543.88
472.654	178.88
472.873	121.88
473.092	99.88
473.311	92.88
473.53	72.88
473.749	76.88
473.968	84.88
474.187	95.88
474.406	79.88
474.625	88.88
474.844	88.88
475.063	88.88
475.282	75.88
475.501	86.88
475.72	85.88
475.939	99.88
476.158	77.88
476.377	76.88
476.596	82.88
476.814	83.88
477.033	108.88
477.252	92.88
477.471	77.88
477.69	92.88
477.908	88.88
478.127	86.88
478.346	108.88
478.564	94.88
478.783	85.88
479.002	88.88
479.22	75.88
479.439	98.88
479.658	96.88
479.876	84.88
480.095	94.88
480.313	80.88
480.532	102.88
480.751	137.88
480.969	299.88
481.188	911.88
481.406	562.88
481.624	159.88
481.843	98.88
482.061	96.88
482.28	84.88
482.498	95.88
482.717	91.88
482.935	85.88
483.153	79.88
483.372	88.88
483.59	77.88
483.808	91.88
484.027	80.88
484.245	77.88
484.463	96.88
484.681	83.88
484.9	93.88
485.118	94.88
485.336	102.88
485.554	99.88
485.772	111.88
485.99	96.88
486.209	114.88
486.427	96.88
486.645	101.88
486.863	115.88
487.081	97.88
487.299	96.88
487.517	79.88
487.735	83.88
487.953	86.88
488.171	89.88
488.389	89.88
488.607	89.88
488.825	86.88
489.043	86.88
489.261	92.88
489.479	86.88
489.696	84.88
489.914	97.88
490.132	101.88
490.35	92.88
490.568	94.88
490.786	79.88
491.003	90.88
491.221	85.88
491.439	88.88
491.657	99.88
491.874	103.88
492.092	88.88
492.31	79.88
492.527	81.88
492.745	97.88
492.963	84.88
493.18	94.88
493.398	91.88
493.615	94.88
493.833	90.88
494.05	89.88
494.268	91.88
494.485	89.88
494.703	90.88
494.92	89.88
495.138	84.88
495.355	85.88
495.573	92.88
495.79	92.88
496.008	95.88
496.225	86.88
496.442	95.88
496.66	85.88
496.877	75.88
497.094	87.88
497.312	98.88
497.529	96.88
497.746	97.88
497.963	79.88
498.181	93.88
498.398	87.88
498.615	93.88
498.832	77.88
499.049	97.88
499.267	100.88
499.484	82.88
499.701	97.88
499.918	86.88
500.135	86.88
500.352	100.88
500.569	93.88
500.786	101.88
501.003	83.88
501.22	72.88
501.437	93.88
501.654	102.88
501.871	110.88
502.088	89.88
502.305	93.88
502.522	87.88
502.739	88.88
502.956	86.88
503.172	92.88
503.389	84.88
503.606	102.88
503.823	108.88
504.04	93.88
504.256	98.88
504.473	89.88
504.69	97.88
504.907	102.88
505.123	94.88
505.34	81.88
505.557	97.88
505.773	85.88
505.99	76.88
506.207	91.88
506.423	95.88
506.64	85.88
506.856	84.88
507.073	93.88
507.289	84.88
507.506	88.88
507.722	116.88
507.939	87.88
508.155	99.88
508.372	93.88
508.588	93.88
508.805	93.88
509.021	97.88
509.238	95.88
509.454	95.88
509.67	104.88
509.887	101.88
510.103	124.88
510.319	194.88
510.536	679.88
510.752	2017.88
510.968	567.88
511.184	156.88
511.401	104.88
511.617	103.88
511.833	94.88
512.049	80.88
512.265	96.88
512.481	90.88
512.698	88.88
512.914	87.88
513.13	89.88
513.346	91.88
513.562	86.88
513.778	98.88
513.994	97.88
514.21	110.88
514.426	135.88
514.642	119.88
514.858	117.88
515.074	176.88
515.29	405.88
515.506	1361.88
515.721	510.88
515.937	141.88
516.153	102.88
516.369	99.88
