Data from Circ_2004_H10_HRD10591_00058.txt Node
Date: Wed Jan 03 10:33:25 EST 2024
User: Yrep
Spectrometer: HR+D1059
Trigger mode: 1
Integration Time (sec): 1.000000E-1
Scans to average: 1
Electric dark correction enabled: true
Nonlinearity correction enabled: false
Boxcar width: 0
XAxis mode: Wavelengths
Number of Pixels in Spectrum: 2048
>>>>>Begin Spectral Data<<<<<
223.165	-12.38
223.4	-12.38
223.635	-12.38
223.869	-31.38
224.104	-26.38
224.338	-20.38
224.573	-4.38
224.808	-13.38
225.042	2.62
225.277	-1.38
225.511	-1.38
225.746	0.62
225.98	6.62
226.215	10.62
226.449	22.62
226.683	14.62
226.918	26.62
227.152	26.62
227.387	46.62
227.621	30.62
227.856	48.62
228.09	56.62
228.324	56.62
228.559	61.62
228.793	58.62
229.027	74.62
229.262	66.62
229.496	83.62
229.73	92.62
229.964	91.62
230.199	83.62
230.433	71.62
230.667	89.62
230.901	93.62
231.136	81.62
231.37	64.62
231.604	73.62
231.838	75.62
232.072	64.62
232.306	78.62
232.541	83.62
232.775	79.62
233.009	71.62
233.243	75.62
233.477	76.62
233.711	85.62
233.945	77.62
234.179	80.62
234.413	70.62
234.647	92.62
234.881	72.62
235.115	60.62
235.349	76.62
235.583	71.62
235.817	87.62
236.051	79.62
236.285	69.62
236.519	77.62
236.753	77.62
236.987	83.62
237.221	91.62
237.455	77.62
237.689	79.62
237.922	68.62
238.156	68.62
238.39	63.62
238.624	88.62
238.858	63.62
239.091	70.62
239.325	92.62
239.559	91.62
239.793	82.62
240.027	81.62
240.26	75.62
240.494	62.62
240.728	79.62
240.961	70.62
241.195	74.62
241.429	79.62
241.662	83.62
241.896	79.62
242.13	69.62
242.363	68.62
242.597	80.62
242.83	78.62
243.064	78.62
243.298	80.62
243.531	77.62
243.765	80.62
243.998	84.62
244.232	80.62
244.465	83.62
244.699	87.62
244.932	75.62
245.166	77.62
245.399	71.62
245.633	70.62
245.866	75.62
246.099	101.62
246.333	80.62
246.566	84.62
246.8	73.62
247.033	82.62
247.266	70.62
247.5	71.62
247.733	81.62
247.966	73.62
248.2	86.62
248.433	87.62
248.666	70.62
248.899	81.62
249.133	83.62
249.366	95.62
249.599	109.62
249.832	88.62
250.066	82.62
250.299	82.62
250.532	77.62
250.765	87.62
250.998	78.62
251.231	68.62
251.465	78.62
251.698	82.62
251.931	58.62
252.164	84.62
252.397	52.62
252.63	86.62
252.863	84.62
253.096	68.62
253.329	82.62
253.562	79.62
253.795	78.62
254.028	73.62
254.261	77.62
254.494	86.62
254.727	79.62
254.96	86.62
255.193	86.62
255.426	84.62
255.659	75.62
255.892	81.62
256.124	86.62
256.357	69.62
256.59	78.62
256.823	82.62
257.056	75.62
257.289	83.62
257.521	90.62
257.754	85.62
257.987	83.62
258.22	90.62
258.452	77.62
258.685	85.62
258.918	83.62
259.151	83.62
259.383	77.62
259.616	83.62
259.849	78.62
260.081	87.62
260.314	67.62
260.547	83.62
260.779	86.62
261.012	95.62
261.244	79.62
261.477	88.62
261.71	96.62
261.942	124.62
262.175	130.62
262.407	84.62
262.64	86.62
262.872	85.62
263.105	65.62
263.337	76.62
263.57	92.62
263.802	93.62
264.035	68.62
264.267	83.62
264.499	89.62
264.732	84.62
264.964	77.62
265.197	81.62
265.429	83.62
265.661	83.62
265.894	77.62
266.126	76.62
266.358	87.62
266.591	72.62
266.823	78.62
267.055	90.62
267.287	75.62
267.52	83.62
267.752	81.62
267.984	90.62
268.216	73.62
268.448	92.62
268.681	85.62
268.913	82.62
269.145	76.62
269.377	84.62
269.609	75.62
269.841	69.62
270.073	95.62
270.306	72.62
270.538	78.62
270.77	82.62
271.002	81.62
271.234	87.62
271.466	84.62
271.698	78.62
271.93	80.62
272.162	92.62
272.394	97.62
272.626	77.62
272.858	73.62
273.09	84.62
273.322	79.62
273.553	94.62
273.785	94.62
274.017	71.62
274.249	88.62
274.481	79.62
274.713	88.62
274.945	83.62
275.176	88.62
275.408	85.62
275.64	99.62
275.872	97.62
276.104	84.62
276.335	93.62
276.567	94.62
276.799	122.62
277.031	129.62
277.262	140.62
277.494	108.62
277.726	93.62
277.957	80.62
278.189	84.62
278.421	78.62
278.652	84.62
278.884	84.62
279.115	73.62
279.347	91.62
279.579	86.62
279.81	92.62
280.042	140.62
280.273	159.62
280.505	106.62
280.736	85.62
280.968	94.62
281.199	84.62
281.431	88.62
281.662	106.62
281.894	103.62
282.125	115.62
282.356	110.62
282.588	144.62
282.819	117.62
283.051	80.62
283.282	84.62
283.513	103.62
283.745	83.62
283.976	82.62
284.207	106.62
284.439	90.62
284.67	100.62
284.901	85.62
285.132	88.62
285.364	91.62
285.595	89.62
285.826	82.62
286.057	74.62
286.288	73.62
286.52	95.62
286.751	76.62
286.982	87.62
287.213	80.62
287.444	91.62
287.675	93.62
287.906	83.62
288.138	79.62
288.369	96.62
288.6	85.62
288.831	84.62
289.062	87.62
289.293	78.62
289.524	94.62
289.755	87.62
289.986	81.62
290.217	91.62
290.448	83.62
290.679	91.62
290.91	87.62
291.141	93.62
291.371	80.62
291.602	85.62
291.833	92.62
292.064	95.62
292.295	90.62
292.526	84.62
292.757	83.62
292.987	86.62
293.218	82.62
293.449	96.62
293.68	82.62
293.91	88.62
294.141	93.62
294.372	78.62
294.603	93.62
294.833	82.62
295.064	93.62
295.295	84.62
295.525	95.62
295.756	94.62
295.987	116.62
296.217	150.62
296.448	133.62
296.679	97.62
296.909	80.62
297.14	98.62
297.37	92.62
297.601	83.62
297.831	78.62
298.062	76.62
298.292	91.62
298.523	99.62
298.753	80.62
298.984	91.62
299.214	80.62
299.445	81.62
299.675	91.62
299.905	99.62
300.136	91.62
300.366	94.62
300.597	91.62
300.827	98.62
301.057	103.62
301.288	109.62
301.518	104.62
301.748	97.62
301.979	90.62
302.209	91.62
302.439	95.62
302.669	89.62
302.9	77.62
303.13	85.62
303.36	101.62
303.59	111.62
303.82	117.62
304.051	81.62
304.281	91.62
304.511	90.62
304.741	84.62
304.971	84.62
305.201	87.62
305.431	89.62
305.661	90.62
305.891	94.62
306.121	98.62
306.352	99.62
306.582	111.62
306.812	107.62
307.042	109.62
307.272	111.62
307.502	140.62
307.731	122.62
307.961	98.62
308.191	100.62
308.421	91.62
308.651	85.62
308.881	95.62
309.111	86.62
309.341	91.62
309.571	117.62
309.8	92.62
310.03	101.62
310.26	101.62
310.49	87.62
310.72	103.62
310.949	94.62
311.179	98.62
311.409	105.62
311.639	103.62
311.868	106.62
312.098	78.62
312.328	87.62
312.557	90.62
312.787	100.62
313.017	94.62
313.246	96.62
313.476	99.62
313.706	88.62
313.935	92.62
314.165	96.62
314.394	84.62
314.624	101.62
314.853	90.62
315.083	82.62
315.312	87.62
315.542	82.62
315.771	94.62
316.001	97.62
316.23	99.62
316.46	88.62
316.689	79.62
316.919	90.62
317.148	90.62
317.377	100.62
317.607	96.62
317.836	81.62
318.065	89.62
318.295	98.62
318.524	103.62
318.753	92.62
318.983	102.62
319.212	98.62
319.441	108.62
319.67	125.62
319.9	111.62
320.129	96.62
320.358	83.62
320.587	98.62
320.816	89.62
321.046	122.62
321.275	88.62
321.504	82.62
321.733	108.62
321.962	96.62
322.191	106.62
322.42	106.62
322.649	114.62
322.878	113.62
323.108	121.62
323.337	134.62
323.566	142.62
323.795	170.62
324.024	218.62
324.253	432.62
324.482	977.62
324.71	2031.62
324.939	2702.62
325.168	962.62
325.397	274.62
325.626	159.62
325.855	146.62
326.084	140.62
326.313	141.62
326.542	163.62
326.77	238.62
326.999	509.62
327.228	1100.62
327.457	2042.62
327.686	1613.62
327.914	469.62
328.143	330.62
328.372	353.62
328.6	208.62
328.829	156.62
329.058	150.62
329.287	158.62
329.515	140.62
329.744	184.62
329.972	246.62
330.201	469.62
330.43	655.62
330.658	334.62
330.887	202.62
331.115	145.62
331.344	109.62
331.572	99.62
331.801	119.62
332.03	107.62
332.258	114.62
332.486	83.62
332.715	96.62
332.943	110.62
333.172	118.62
333.4	102.62
333.629	126.62
333.857	161.62
334.085	233.62
334.314	433.62
334.542	832.62
334.771	750.62
334.999	252.62
335.227	131.62
335.455	107.62
335.684	102.62
335.912	97.62
336.14	108.62
336.369	100.62
336.597	106.62
336.825	114.62
337.053	99.62
337.281	91.62
337.51	86.62
337.738	106.62
337.966	99.62
338.194	95.62
338.422	98.62
338.65	98.62
338.878	95.62
339.106	91.62
339.334	90.62
339.562	82.62
339.79	90.62
340.018	91.62
340.246	85.62
340.474	102.62
340.702	91.62
340.93	101.62
341.158	98.62
341.386	119.62
341.614	99.62
341.842	98.62
342.07	105.62
342.298	85.62
342.526	103.62
342.754	95.62
342.981	81.62
343.209	101.62
343.437	87.62
343.665	84.62
343.893	86.62
344.12	71.62
344.348	95.62
344.576	98.62
344.804	92.62
345.031	100.62
345.259	109.62
345.487	100.62
345.714	88.62
345.942	92.62
346.17	105.62
346.397	93.62
346.625	77.62
346.853	100.62
347.08	92.62
347.308	104.62
347.535	109.62
347.763	81.62
347.99	98.62
348.218	99.62
348.445	118.62
348.673	114.62
348.9	94.62
349.128	94.62
349.355	83.62
349.583	93.62
349.81	88.62
350.037	97.62
350.265	103.62
350.492	86.62
350.72	82.62
350.947	92.62
351.174	109.62
351.402	110.62
351.629	104.62
351.856	105.62
352.083	88.62
352.311	109.62
352.538	126.62
352.765	113.62
352.992	102.62
353.22	120.62
353.447	94.62
353.674	96.62
353.901	95.62
354.128	102.62
354.355	94.62
354.583	91.62
354.81	100.62
355.037	94.62
355.264	93.62
355.491	87.62
355.718	88.62
355.945	97.62
356.172	87.62
356.399	89.62
356.626	81.62
356.853	94.62
357.08	93.62
357.307	93.62
357.534	91.62
357.761	93.62
357.988	92.62
358.215	92.62
358.441	108.62
358.668	97.62
358.895	89.62
359.122	97.62
359.349	102.62
359.576	88.62
359.802	92.62
360.029	117.62
360.256	132.62
360.483	93.62
360.709	88.62
360.936	71.62
361.163	95.62
361.39	102.62
361.616	100.62
361.843	83.62
362.07	97.62
362.296	101.62
362.523	102.62
362.749	94.62
362.976	79.62
363.203	100.62
363.429	93.62
363.656	94.62
363.882	83.62
364.109	90.62
364.335	84.62
364.562	91.62
364.788	92.62
365.015	97.62
365.241	95.62
365.468	118.62
365.694	110.62
365.92	92.62
366.147	100.62
366.373	103.62
366.599	86.62
366.826	81.62
367.052	78.62
367.278	84.62
367.505	90.62
367.731	87.62
367.957	97.62
368.184	82.62
368.41	111.62
368.636	116.62
368.862	108.62
369.089	100.62
369.315	89.62
369.541	90.62
369.767	80.62
369.993	105.62
370.219	79.62
370.445	90.62
370.672	83.62
370.898	91.62
371.124	96.62
371.35	88.62
371.576	86.62
371.802	97.62
372.028	88.62
372.254	78.62
372.48	93.62
372.706	91.62
372.932	87.62
373.158	85.62
373.384	73.62
373.61	85.62
373.835	75.62
374.061	99.62
374.287	95.62
374.513	83.62
374.739	96.62
374.965	83.62
375.191	87.62
375.416	84.62
375.642	84.62
375.868	97.62
376.094	90.62
376.319	84.62
376.545	94.62
376.771	99.62
376.997	94.62
377.222	91.62
377.448	88.62
377.674	86.62
377.899	85.62
378.125	85.62
378.35	104.62
378.576	88.62
378.802	86.62
379.027	87.62
379.253	97.62
379.478	92.62
379.704	94.62
379.929	100.62
380.155	90.62
380.38	90.62
380.606	82.62
380.831	94.62
381.057	86.62
381.282	92.62
381.507	77.62
381.733	94.62
381.958	95.62
382.184	102.62
382.409	89.62
382.634	83.62
382.86	81.62
383.085	91.62
383.31	93.62
383.535	87.62
383.761	88.62
383.986	81.62
384.211	90.62
384.436	93.62
384.662	97.62
384.887	96.62
385.112	88.62
385.337	94.62
385.562	94.62
385.787	106.62
386.013	102.62
386.238	116.62
386.463	98.62
386.688	114.62
386.913	103.62
387.138	122.62
387.363	98.62
387.588	100.62
387.813	94.62
388.038	88.62
388.263	101.62
388.488	96.62
388.713	90.62
388.938	96.62
389.163	112.62
389.387	88.62
389.612	100.62
389.837	82.62
390.062	99.62
390.287	97.62
390.512	106.62
390.736	94.62
390.961	92.62
391.186	92.62
391.411	98.62
391.636	78.62
391.86	100.62
392.085	74.62
392.31	84.62
392.534	95.62
392.759	85.62
392.984	83.62
393.208	89.62
393.433	83.62
393.658	88.62
393.882	91.62
394.107	78.62
394.331	93.62
394.556	89.62
394.78	84.62
395.005	76.62
395.229	83.62
395.454	85.62
395.678	92.62
395.903	92.62
396.127	90.62
396.352	91.62
396.576	98.62
396.801	105.62
397.025	85.62
397.249	84.62
397.474	93.62
397.698	87.62
397.922	84.62
398.147	97.62
398.371	87.62
398.595	83.62
398.82	75.62
399.044	72.62
399.268	97.62
399.492	78.62
399.717	100.62
399.941	65.62
400.165	83.62
400.389	82.62
400.613	85.62
400.837	75.62
401.062	86.62
401.286	86.62
401.51	86.62
401.734	81.62
401.958	108.62
402.182	135.62
402.406	154.62
402.63	119.62
402.854	103.62
403.078	93.62
403.302	90.62
403.526	101.62
403.75	99.62
403.974	94.62
404.198	91.62
404.422	79.62
404.645	90.62
404.869	103.62
405.093	107.62
405.317	127.62
405.541	127.62
405.765	106.62
405.988	132.62
406.212	176.62
406.436	251.62
406.66	162.62
406.883	110.62
407.107	92.62
407.331	95.62
407.555	99.62
407.778	111.62
408.002	88.62
408.226	95.62
408.449	86.62
408.673	87.62
408.896	96.62
409.12	93.62
409.344	92.62
409.567	86.62
409.791	88.62
410.014	87.62
410.238	91.62
410.461	77.62
410.685	93.62
410.908	105.62
411.132	108.62
411.355	91.62
411.578	94.62
411.802	91.62
412.025	78.62
412.249	85.62
412.472	101.62
412.695	116.62
412.919	108.62
413.142	92.62
413.365	91.62
413.589	74.62
413.812	89.62
414.035	78.62
414.258	86.62
414.482	84.62
414.705	84.62
414.928	92.62
415.151	76.62
415.374	75.62
415.597	91.62
415.821	73.62
416.044	77.62
416.267	92.62
416.49	80.62
416.713	75.62
416.936	92.62
417.159	96.62
417.382	83.62
417.605	91.62
417.828	99.62
418.051	100.62
418.274	79.62
418.497	81.62
418.72	92.62
418.943	104.62
419.166	86.62
419.389	73.62
419.611	89.62
419.834	91.62
420.057	83.62
420.28	85.62
420.503	87.62
420.726	106.62
420.948	82.62
421.171	85.62
421.394	85.62
421.617	94.62
421.839	95.62
422.062	76.62
422.285	84.62
422.507	116.62
422.73	97.62
422.953	98.62
423.175	96.62
423.398	95.62
423.621	79.62
423.843	99.62
424.066	89.62
424.288	86.62
424.511	87.62
424.733	110.62
424.956	109.62
425.178	92.62
425.401	113.62
425.623	93.62
425.846	89.62
426.068	104.62
426.291	86.62
426.513	98.62
426.735	90.62
426.958	97.62
427.18	124.62
427.402	148.62
427.625	209.62
427.847	188.62
428.069	163.62
428.292	103.62
428.514	93.62
428.736	94.62
428.958	71.62
429.181	85.62
429.403	85.62
429.625	80.62
429.847	86.62
430.069	94.62
430.292	95.62
430.514	78.62
430.736	81.62
430.958	73.62
431.18	79.62
431.402	82.62
431.624	85.62
431.846	75.62
432.068	81.62
432.29	77.62
432.512	86.62
432.734	93.62
432.956	91.62
433.178	86.62
433.4	90.62
433.622	86.62
433.844	94.62
434.066	82.62
434.287	105.62
434.509	84.62
434.731	100.62
434.953	92.62
435.175	78.62
435.397	82.62
435.618	92.62
435.84	101.62
436.062	122.62
436.284	125.62
436.505	108.62
436.727	117.62
436.949	95.62
437.17	72.62
437.392	88.62
437.614	87.62
437.835	119.62
438.057	121.62
438.278	122.62
438.5	114.62
438.721	126.62
438.943	115.62
439.165	86.62
439.386	83.62
439.608	87.62
439.829	94.62
440.05	138.62
440.272	154.62
440.493	111.62
440.715	101.62
440.936	83.62
441.158	79.62
441.379	84.62
441.6	109.62
441.822	88.62
442.043	88.62
442.264	96.62
442.486	103.62
442.707	93.62
442.928	110.62
443.149	136.62
443.371	133.62
443.592	122.62
443.813	130.62
444.034	108.62
444.255	99.62
444.476	86.62
444.698	86.62
444.919	106.62
445.14	118.62
445.361	124.62
445.582	131.62
445.803	168.62
446.024	140.62
446.245	146.62
446.466	120.62
446.687	91.62
446.908	96.62
447.129	84.62
447.35	103.62
447.571	102.62
447.792	92.62
448.013	95.62
448.234	116.62
448.455	97.62
448.675	111.62
448.896	113.62
449.117	101.62
449.338	109.62
449.559	141.62
449.779	146.62
450	106.62
450.221	80.62
450.442	91.62
450.662	102.62
450.883	113.62
451.104	117.62
451.324	109.62
451.545	87.62
451.766	90.62
451.986	81.62
452.207	82.62
452.428	98.62
452.648	108.62
452.869	115.62
453.089	132.62
453.31	117.62
453.53	88.62
453.751	113.62
453.971	115.62
454.192	103.62
454.412	95.62
454.633	85.62
454.853	75.62
455.073	90.62
455.294	102.62
455.514	85.62
455.734	89.62
455.955	88.62
456.175	82.62
456.395	83.62
456.616	79.62
456.836	65.62
457.056	86.62
457.276	87.62
457.497	76.62
457.717	87.62
457.937	85.62
458.157	88.62
458.377	77.62
458.598	104.62
458.818	168.62
459.038	189.62
459.258	117.62
459.478	84.62
459.698	90.62
459.918	79.62
460.138	78.62
460.358	79.62
460.578	106.62
460.798	90.62
461.018	85.62
461.238	89.62
461.458	72.62
461.678	79.62
461.898	79.62
462.118	77.62
462.338	85.62
462.558	76.62
462.777	93.62
462.997	91.62
463.217	95.62
463.437	88.62
463.657	84.62
463.876	96.62
464.096	80.62
464.316	88.62
464.536	94.62
464.755	88.62
464.975	104.62
465.195	179.62
465.414	181.62
465.634	97.62
465.854	92.62
466.073	82.62
466.293	86.62
466.512	72.62
466.732	100.62
466.951	86.62
467.171	95.62
467.391	93.62
467.61	126.62
467.829	152.62
468.049	306.62
468.268	420.62
468.488	146.62
468.707	90.62
468.927	97.62
469.146	80.62
469.365	90.62
469.585	83.62
469.804	94.62
470.023	115.62
470.243	95.62
470.462	108.62
470.681	125.62
470.901	95.62
471.12	87.62
471.339	95.62
471.558	94.62
471.777	115.62
471.997	180.62
472.216	536.62
472.435	1129.62
472.654	319.62
472.873	116.62
473.092	95.62
473.311	87.62
473.53	88.62
473.749	71.62
473.968	90.62
474.187	106.62
474.406	99.62
474.625	96.62
474.844	87.62
475.063	83.62
475.282	85.62
475.501	90.62
475.72	94.62
475.939	78.62
476.158	87.62
476.377	88.62
476.596	98.62
476.814	85.62
477.033	93.62
477.252	92.62
477.471	80.62
477.69	91.62
477.908	102.62
478.127	100.62
478.346	102.62
478.564	93.62
478.783	100.62
479.002	94.62
479.22	107.62
479.439	89.62
479.658	113.62
479.876	108.62
480.095	103.62
480.313	102.62
480.532	128.62
480.751	167.62
480.969	496.62
481.188	1954.62
481.406	1187.62
481.624	218.62
481.843	117.62
482.061	106.62
482.28	101.62
482.498	87.62
482.717	82.62
482.935	79.62
483.153	85.62
483.372	83.62
483.59	92.62
483.808	94.62
484.027	94.62
484.245	86.62
484.463	86.62
484.681	109.62
484.9	78.62
485.118	96.62
485.336	92.62
485.554	99.62
485.772	91.62
485.99	96.62
486.209	109.62
486.427	103.62
486.645	102.62
486.863	110.62
487.081	90.62
487.299	88.62
487.517	99.62
487.735	93.62
487.953	101.62
488.171	80.62
488.389	95.62
488.607	96.62
488.825	86.62
489.043	82.62
489.261	80.62
489.479	76.62
489.696	95.62
489.914	90.62
490.132	89.62
490.35	85.62
490.568	93.62
490.786	94.62
491.003	79.62
491.221	87.62
491.439	102.62
491.657	92.62
491.874	89.62
492.092	86.62
492.31	88.62
492.527	81.62
492.745	91.62
492.963	75.62
493.18	84.62
493.398	92.62
493.615	94.62
493.833	98.62
494.05	94.62
494.268	82.62
494.485	87.62
494.703	101.62
494.92	93.62
495.138	79.62
495.355	100.62
495.573	92.62
495.79	90.62
496.008	85.62
496.225	88.62
496.442	102.62
496.66	89.62
496.877	89.62
497.094	86.62
497.312	78.62
497.529	87.62
497.746	72.62
497.963	88.62
498.181	81.62
498.398	84.62
498.615	124.62
498.832	103.62
499.049	86.62
499.267	82.62
499.484	87.62
499.701	90.62
499.918	82.62
500.135	88.62
500.352	94.62
500.569	74.62
500.786	101.62
501.003	88.62
501.22	83.62
501.437	82.62
501.654	102.62
501.871	106.62
502.088	88.62
502.305	91.62
502.522	89.62
502.739	84.62
502.956	87.62
503.172	92.62
503.389	95.62
503.606	114.62
503.823	102.62
504.04	91.62
504.256	87.62
504.473	85.62
504.69	89.62
504.907	102.62
505.123	87.62
505.34	80.62
505.557	94.62
505.773	83.62
505.99	94.62
506.207	75.62
506.423	98.62
506.64	94.62
506.856	94.62
507.073	89.62
507.289	93.62
507.506	99.62
507.722	109.62
507.939	135.62
508.155	92.62
508.372	84.62
508.588	103.62
508.805	78.62
509.021	90.62
509.238	91.62
509.454	111.62
509.67	99.62
509.887	107.62
510.103	129.62
510.319	224.62
510.536	806.62
510.752	2644.62
510.968	736.62
511.184	170.62
511.401	116.62
511.617	99.62
511.833	107.62
512.049	91.62
512.265	95.62
512.481	78.62
512.698	99.62
512.914	91.62
513.13	91.62
513.346	95.62
513.562	97.62
513.778	104.62
513.994	87.62
514.21	108.62
514.426	125.62
514.642	147.62
514.858	126.62
515.074	187.62
