Data from Circ_2004_H10_HRD10591_00016.txt Node
Date: Wed Jan 03 10:33:17 EST 2024
User: Yrep
Spectrometer: HR+D1059
Trigger mode: 1
Integration Time (sec): 1.000000E-1
Scans to average: 1
Electric dark correction enabled: true
Nonlinearity correction enabled: false
Boxcar width: 0
XAxis mode: Wavelengths
Number of Pixels in Spectrum: 2048
>>>>>Begin Spectral Data<<<<<
223.165	-16.69
223.4	-16.69
223.635	-16.69
223.869	-21.69
224.104	-13.69
224.338	-16.69
224.573	-11.69
224.808	-4.69
225.042	-21.69
225.277	-6.69
225.511	-11.69
225.746	15.31
225.98	11.31
226.215	15.31
226.449	17.31
226.683	8.31
226.918	29.31
227.152	28.31
227.387	21.31
227.621	33.31
227.856	52.31
228.09	48.31
228.324	65.31
228.559	47.31
228.793	60.31
229.027	70.31
229.262	72.31
229.496	78.31
229.73	82.31
229.964	72.31
230.199	82.31
230.433	75.31
230.667	70.31
230.901	86.31
231.136	83.31
231.37	69.31
231.604	84.31
231.838	85.31
232.072	77.31
232.306	77.31
232.541	87.31
232.775	101.31
233.009	89.31
233.243	93.31
233.477	77.31
233.711	85.31
233.945	67.31
234.179	90.31
234.413	82.31
234.647	90.31
234.881	79.31
235.115	85.31
235.349	82.31
235.583	68.31
235.817	77.31
236.051	74.31
236.285	86.31
236.519	73.31
236.753	92.31
236.987	73.31
237.221	102.31
237.455	92.31
237.689	83.31
237.922	81.31
238.156	76.31
238.39	82.31
238.624	78.31
238.858	74.31
239.091	74.31
239.325	88.31
239.559	77.31
239.793	78.31
240.027	98.31
240.26	72.31
240.494	71.31
240.728	79.31
240.961	67.31
241.195	82.31
241.429	85.31
241.662	79.31
241.896	80.31
242.13	81.31
242.363	73.31
242.597	75.31
242.83	77.31
243.064	79.31
243.298	86.31
243.531	93.31
243.765	80.31
243.998	80.31
244.232	69.31
244.465	82.31
244.699	79.31
244.932	81.31
245.166	68.31
245.399	78.31
245.633	74.31
245.866	75.31
246.099	77.31
246.333	84.31
246.566	77.31
246.8	103.31
247.033	85.31
247.266	83.31
247.5	80.31
247.733	85.31
247.966	85.31
248.2	73.31
248.433	78.31
248.666	65.31
248.899	83.31
249.133	95.31
249.366	86.31
249.599	87.31
249.832	86.31
250.066	89.31
250.299	87.31
250.532	81.31
250.765	81.31
250.998	83.31
251.231	82.31
251.465	86.31
251.698	89.31
251.931	81.31
252.164	86.31
252.397	80.31
252.63	81.31
252.863	86.31
253.096	87.31
253.329	80.31
253.562	81.31
253.795	74.31
254.028	92.31
254.261	80.31
254.494	90.31
254.727	84.31
254.96	96.31
255.193	67.31
255.426	71.31
255.659	76.31
255.892	97.31
256.124	80.31
256.357	72.31
256.59	81.31
256.823	83.31
257.056	91.31
257.289	87.31
257.521	82.31
257.754	91.31
257.987	80.31
258.22	92.31
258.452	83.31
258.685	82.31
258.918	74.31
259.151	81.31
259.383	65.31
259.616	85.31
259.849	89.31
260.081	88.31
260.314	81.31
260.547	93.31
260.779	78.31
261.012	85.31
261.244	86.31
261.477	96.31
261.71	103.31
261.942	121.31
262.175	114.31
262.407	81.31
262.64	87.31
262.872	87.31
263.105	87.31
263.337	77.31
263.57	69.31
263.802	73.31
264.035	97.31
264.267	75.31
264.499	76.31
264.732	84.31
264.964	89.31
265.197	93.31
265.429	77.31
265.661	79.31
265.894	90.31
266.126	85.31
266.358	82.31
266.591	84.31
266.823	97.31
267.055	67.31
267.287	90.31
267.52	87.31
267.752	103.31
267.984	74.31
268.216	84.31
268.448	87.31
268.681	90.31
268.913	94.31
269.145	95.31
269.377	73.31
269.609	81.31
269.841	89.31
270.073	74.31
270.306	105.31
270.538	79.31
270.77	80.31
271.002	75.31
271.234	80.31
271.466	88.31
271.698	95.31
271.93	85.31
272.162	79.31
272.394	94.31
272.626	86.31
272.858	92.31
273.09	91.31
273.322	82.31
273.553	80.31
273.785	76.31
274.017	90.31
274.249	81.31
274.481	90.31
274.713	89.31
274.945	105.31
275.176	98.31
275.408	94.31
275.64	97.31
275.872	103.31
276.104	82.31
276.335	96.31
276.567	84.31
276.799	106.31
277.031	99.31
277.262	97.31
277.494	103.31
277.726	90.31
277.957	88.31
278.189	81.31
278.421	84.31
278.652	79.31
278.884	87.31
279.115	81.31
279.347	86.31
279.579	98.31
279.81	89.31
280.042	95.31
280.273	95.31
280.505	97.31
280.736	88.31
280.968	97.31
281.199	74.31
281.431	91.31
281.662	80.31
281.894	98.31
282.125	96.31
282.356	104.31
282.588	126.31
282.819	114.31
283.051	89.31
283.282	79.31
283.513	92.31
283.745	92.31
283.976	98.31
284.207	97.31
284.439	84.31
284.67	90.31
284.901	94.31
285.132	90.31
285.364	86.31
285.595	78.31
285.826	92.31
286.057	82.31
286.288	82.31
286.52	82.31
286.751	86.31
286.982	95.31
287.213	89.31
287.444	87.31
287.675	84.31
287.906	85.31
288.138	85.31
288.369	80.31
288.6	91.31
288.831	86.31
289.062	83.31
289.293	77.31
289.524	82.31
289.755	83.31
289.986	87.31
290.217	91.31
290.448	87.31
290.679	76.31
290.91	87.31
291.141	85.31
291.371	86.31
291.602	90.31
291.833	86.31
292.064	91.31
292.295	93.31
292.526	88.31
292.757	85.31
292.987	100.31
293.218	95.31
293.449	73.31
293.68	78.31
293.91	77.31
294.141	81.31
294.372	87.31
294.603	105.31
294.833	82.31
295.064	93.31
295.295	91.31
295.525	81.31
295.756	88.31
295.987	118.31
296.217	127.31
296.448	107.31
296.679	90.31
296.909	104.31
297.14	84.31
297.37	91.31
297.601	84.31
297.831	84.31
298.062	91.31
298.292	91.31
298.523	98.31
298.753	104.31
298.984	97.31
299.214	84.31
299.445	84.31
299.675	89.31
299.905	99.31
300.136	89.31
300.366	87.31
300.597	83.31
300.827	92.31
301.057	92.31
301.288	102.31
301.518	100.31
301.748	91.31
301.979	87.31
302.209	98.31
302.439	87.31
302.669	87.31
302.9	82.31
303.13	105.31
303.36	94.31
303.59	103.31
303.82	96.31
304.051	109.31
304.281	90.31
304.511	89.31
304.741	93.31
304.971	92.31
305.201	100.31
305.431	100.31
305.661	94.31
305.891	103.31
306.121	96.31
306.352	105.31
306.582	94.31
306.812	87.31
307.042	88.31
307.272	106.31
307.502	102.31
307.731	98.31
307.961	111.31
308.191	87.31
308.421	101.31
308.651	89.31
308.881	84.31
309.111	89.31
309.341	96.31
309.571	107.31
309.8	91.31
310.03	91.31
310.26	105.31
310.49	95.31
310.72	88.31
310.949	106.31
311.179	95.31
311.409	90.31
311.639	101.31
311.868	102.31
312.098	79.31
312.328	100.31
312.557	107.31
312.787	109.31
313.017	94.31
313.246	85.31
313.476	85.31
313.706	91.31
313.935	106.31
314.165	96.31
314.394	83.31
314.624	101.31
314.853	83.31
315.083	87.31
315.312	93.31
315.542	91.31
315.771	99.31
316.001	91.31
316.23	106.31
316.46	95.31
316.689	99.31
316.919	93.31
317.148	93.31
317.377	102.31
317.607	102.31
317.836	89.31
318.065	95.31
318.295	99.31
318.524	107.31
318.753	94.31
318.983	94.31
319.212	100.31
319.441	100.31
319.67	101.31
319.9	97.31
320.129	111.31
320.358	87.31
320.587	101.31
320.816	111.31
321.046	93.31
321.275	91.31
321.504	96.31
321.733	103.31
321.962	100.31
322.191	106.31
322.42	105.31
322.649	109.31
322.878	97.31
323.108	104.31
323.337	130.31
323.566	112.31
323.795	150.31
324.024	198.31
324.253	342.31
324.482	694.31
324.71	1370.31
324.939	1827.31
325.168	703.31
325.397	218.31
325.626	141.31
325.855	111.31
326.084	121.31
326.313	125.31
326.542	144.31
326.77	228.31
326.999	403.31
327.228	838.31
327.457	1430.31
327.686	1174.31
327.914	351.31
328.143	198.31
328.372	169.31
328.6	130.31
328.829	131.31
329.058	126.31
329.287	126.31
329.515	111.31
329.744	106.31
329.972	144.31
330.201	172.31
330.43	210.31
330.658	142.31
330.887	142.31
331.115	120.31
331.344	98.31
331.572	84.31
331.801	103.31
332.03	97.31
332.258	112.31
332.486	98.31
332.715	102.31
332.943	109.31
333.172	96.31
333.4	85.31
333.629	93.31
333.857	121.31
334.085	120.31
334.314	175.31
334.542	231.31
334.771	228.31
334.999	122.31
335.227	97.31
335.455	88.31
335.684	103.31
335.912	98.31
336.14	110.31
336.369	98.31
336.597	109.31
336.825	87.31
337.053	114.31
337.281	96.31
337.51	91.31
337.738	101.31
337.966	107.31
338.194	87.31
338.422	100.31
338.65	99.31
338.878	91.31
339.106	98.31
339.334	97.31
339.562	97.31
339.79	88.31
340.018	92.31
340.246	97.31
340.474	96.31
340.702	90.31
340.93	80.31
341.158	103.31
341.386	99.31
341.614	87.31
341.842	100.31
342.07	93.31
342.298	86.31
342.526	87.31
342.754	81.31
342.981	92.31
343.209	88.31
343.437	106.31
343.665	86.31
343.893	82.31
344.12	97.31
344.348	97.31
344.576	93.31
344.804	85.31
345.031	96.31
345.259	101.31
345.487	96.31
345.714	99.31
345.942	93.31
346.17	88.31
346.397	96.31
346.625	100.31
346.853	93.31
347.08	80.31
347.308	75.31
347.535	83.31
347.763	95.31
347.99	101.31
348.218	92.31
348.445	105.31
348.673	88.31
348.9	78.31
349.128	93.31
349.355	94.31
349.583	91.31
349.81	96.31
350.037	91.31
350.265	97.31
350.492	99.31
350.72	88.31
350.947	101.31
351.174	110.31
351.402	101.31
351.629	91.31
351.856	101.31
352.083	96.31
352.311	98.31
352.538	105.31
352.765	110.31
352.992	114.31
353.22	116.31
353.447	117.31
353.674	97.31
353.901	96.31
354.128	85.31
354.355	94.31
354.583	105.31
354.81	96.31
355.037	102.31
355.264	91.31
355.491	91.31
355.718	100.31
355.945	91.31
356.172	86.31
356.399	80.31
356.626	93.31
356.853	97.31
357.08	87.31
357.307	87.31
357.534	91.31
357.761	98.31
357.988	101.31
358.215	107.31
358.441	100.31
358.668	80.31
358.895	86.31
359.122	90.31
359.349	94.31
359.576	106.31
359.802	113.31
360.029	90.31
360.256	112.31
360.483	101.31
360.709	91.31
360.936	110.31
361.163	91.31
361.39	82.31
361.616	99.31
361.843	96.31
362.07	93.31
362.296	83.31
362.523	87.31
362.749	108.31
362.976	88.31
363.203	88.31
363.429	88.31
363.656	102.31
363.882	90.31
364.109	99.31
364.335	92.31
364.562	90.31
364.788	88.31
365.015	104.31
365.241	102.31
365.468	112.31
365.694	110.31
365.92	88.31
366.147	85.31
366.373	101.31
366.599	85.31
366.826	82.31
367.052	109.31
367.278	105.31
367.505	100.31
367.731	90.31
367.957	79.31
368.184	87.31
368.41	100.31
368.636	113.31
368.862	98.31
369.089	109.31
369.315	102.31
369.541	70.31
369.767	89.31
369.993	88.31
370.219	83.31
370.445	93.31
370.672	97.31
370.898	87.31
371.124	95.31
371.35	87.31
371.576	84.31
371.802	104.31
372.028	79.31
372.254	95.31
372.48	68.31
372.706	74.31
372.932	98.31
373.158	87.31
373.384	84.31
373.61	85.31
373.835	89.31
374.061	105.31
374.287	89.31
374.513	81.31
374.739	90.31
374.965	79.31
375.191	87.31
375.416	87.31
375.642	99.31
375.868	103.31
376.094	88.31
376.319	93.31
376.545	91.31
376.771	90.31
376.997	91.31
377.222	92.31
377.448	106.31
377.674	85.31
377.899	94.31
378.125	92.31
378.35	109.31
378.576	68.31
378.802	90.31
379.027	84.31
379.253	78.31
379.478	89.31
379.704	90.31
379.929	91.31
380.155	97.31
380.38	98.31
380.606	98.31
380.831	97.31
381.057	101.31
381.282	96.31
381.507	92.31
381.733	100.31
381.958	111.31
382.184	106.31
382.409	89.31
382.634	98.31
382.86	89.31
383.085	91.31
383.31	102.31
383.535	103.31
383.761	107.31
383.986	103.31
384.211	86.31
384.436	95.31
384.662	81.31
384.887	110.31
385.112	117.31
385.337	110.31
385.562	110.31
385.787	102.31
386.013	103.31
386.238	115.31
386.463	108.31
386.688	102.31
386.913	96.31
387.138	108.31
387.363	114.31
387.588	109.31
387.813	91.31
388.038	103.31
388.263	106.31
388.488	112.31
388.713	92.31
388.938	86.31
389.163	83.31
389.387	94.31
389.612	79.31
389.837	87.31
390.062	91.31
390.287	91.31
390.512	97.31
390.736	88.31
390.961	84.31
391.186	88.31
391.411	103.31
391.636	91.31
391.86	77.31
392.085	90.31
392.31	79.31
392.534	94.31
392.759	79.31
392.984	93.31
393.208	98.31
393.433	113.31
393.658	123.31
393.882	88.31
394.107	90.31
394.331	83.31
394.556	80.31
394.78	87.31
395.005	77.31
395.229	87.31
395.454	78.31
395.678	90.31
395.903	92.31
396.127	85.31
396.352	96.31
396.576	88.31
396.801	88.31
397.025	113.31
397.249	89.31
397.474	95.31
397.698	93.31
397.922	74.31
398.147	89.31
398.371	86.31
398.595	95.31
398.82	91.31
399.044	93.31
399.268	88.31
399.492	91.31
399.717	78.31
399.941	93.31
400.165	91.31
400.389	97.31
400.613	77.31
400.837	99.31
401.062	93.31
401.286	82.31
401.51	101.31
401.734	90.31
401.958	91.31
402.182	119.31
402.406	138.31
402.63	127.31
402.854	99.31
403.078	87.31
403.302	97.31
403.526	98.31
403.75	90.31
403.974	78.31
404.198	76.31
404.422	86.31
404.645	89.31
404.869	97.31
405.093	89.31
405.317	98.31
405.541	99.31
405.765	104.31
405.988	109.31
406.212	158.31
406.436	199.31
406.66	141.31
406.883	96.31
407.107	92.31
407.331	80.31
407.555	98.31
407.778	103.31
408.002	85.31
408.226	91.31
408.449	86.31
408.673	85.31
408.896	91.31
409.12	84.31
409.344	79.31
409.567	90.31
409.791	100.31
410.014	106.31
410.238	72.31
410.461	97.31
410.685	91.31
410.908	88.31
411.132	104.31
411.355	108.31
411.578	90.31
411.802	87.31
412.025	84.31
412.249	100.31
412.472	98.31
412.695	91.31
412.919	98.31
413.142	95.31
413.365	97.31
413.589	81.31
413.812	82.31
414.035	92.31
414.258	94.31
414.482	87.31
414.705	96.31
414.928	83.31
415.151	97.31
415.374	92.31
415.597	90.31
415.821	92.31
416.044	97.31
416.267	96.31
416.49	99.31
416.713	108.31
416.936	103.31
417.159	85.31
417.382	74.31
417.605	80.31
417.828	103.31
418.051	91.31
418.274	85.31
418.497	110.31
418.72	80.31
418.943	79.31
419.166	86.31
419.389	97.31
419.611	84.31
419.834	99.31
420.057	102.31
420.28	89.31
420.503	103.31
420.726	96.31
420.948	90.31
421.171	99.31
421.394	95.31
421.617	94.31
421.839	89.31
422.062	83.31
422.285	92.31
422.507	99.31
422.73	109.31
422.953	103.31
423.175	100.31
423.398	87.31
423.621	103.31
423.843	89.31
424.066	88.31
424.288	80.31
424.511	96.31
424.733	107.31
424.956	92.31
425.178	77.31
425.401	88.31
425.623	91.31
425.846	78.31
426.068	93.31
426.291	87.31
426.513	83.31
426.735	96.31
426.958	90.31
427.18	92.31
427.402	127.31
427.625	121.31
427.847	123.31
428.069	109.31
428.292	102.31
428.514	86.31
428.736	84.31
428.958	90.31
429.181	79.31
429.403	87.31
429.625	83.31
429.847	88.31
430.069	98.31
430.292	91.31
430.514	85.31
430.736	73.31
430.958	82.31
431.18	78.31
431.402	94.31
431.624	95.31
431.846	88.31
432.068	86.31
432.29	89.31
432.512	90.31
432.734	94.31
432.956	95.31
433.178	99.31
433.4	107.31
433.622	99.31
433.844	97.31
434.066	88.31
434.287	85.31
434.509	90.31
434.731	71.31
434.953	82.31
435.175	85.31
435.397	91.31
435.618	82.31
435.84	103.31
436.062	104.31
436.284	99.31
436.505	107.31
436.727	100.31
436.949	91.31
437.17	81.31
437.392	84.31
437.614	82.31
437.835	109.31
438.057	109.31
438.278	98.31
438.5	91.31
438.721	104.31
438.943	101.31
439.165	90.31
439.386	83.31
439.608	90.31
439.829	96.31
440.05	114.31
440.272	130.31
440.493	83.31
440.715	84.31
440.936	90.31
441.158	91.31
441.379	86.31
441.6	91.31
441.822	88.31
442.043	90.31
442.264	91.31
442.486	109.31
442.707	103.31
442.928	96.31
443.149	126.31
443.371	126.31
443.592	104.31
443.813	103.31
444.034	100.31
444.255	101.31
444.476	99.31
444.698	79.31
444.919	78.31
445.14	134.31
445.361	115.31
445.582	106.31
445.803	125.31
446.024	120.31
446.245	125.31
446.466	108.31
446.687	92.31
446.908	101.31
447.129	82.31
447.35	87.31
447.571	97.31
447.792	80.31
448.013	106.31
448.234	97.31
448.455	100.31
448.675	109.31
448.896	90.31
449.117	92.31
449.338	113.31
449.559	98.31
449.779	106.31
450	100.31
450.221	88.31
450.442	94.31
450.662	90.31
450.883	98.31
451.104	88.31
451.324	99.31
451.545	99.31
451.766	83.31
451.986	83.31
452.207	88.31
452.428	91.31
452.648	89.31
452.869	97.31
453.089	106.31
453.31	115.31
453.53	84.31
453.751	94.31
453.971	94.31
454.192	98.31
454.412	96.31
454.633	87.31
454.853	85.31
455.073	94.31
455.294	86.31
455.514	100.31
455.734	80.31
455.955	89.31
456.175	89.31
456.395	83.31
456.616	92.31
456.836	98.31
457.056	77.31
457.276	73.31
457.497	81.31
457.717	73.31
457.937	89.31
458.157	90.31
458.377	73.31
458.598	94.31
458.818	131.31
459.038	140.31
459.258	107.31
459.478	87.31
459.698	85.31
459.918	83.31
460.138	93.31
460.358	93.31
460.578	87.31
460.798	94.31
461.018	85.31
461.238	83.31
461.458	89.31
461.678	90.31
461.898	82.31
462.118	78.31
462.338	82.31
462.558	81.31
462.777	97.31
462.997	91.31
463.217	87.31
463.437	105.31
463.657	74.31
463.876	91.31
464.096	82.31
464.316	94.31
464.536	82.31
464.755	100.31
464.975	114.31
465.195	159.31
465.414	155.31
465.634	93.31
465.854	79.31
466.073	91.31
466.293	86.31
466.512	97.31
466.732	97.31
466.951	89.31
467.171	93.31
467.391	83.31
467.61	94.31
467.829	106.31
468.049	134.31
468.268	149.31
468.488	82.31
468.707	83.31
468.927	82.31
469.146	78.31
469.365	78.31
469.585	76.31
469.804	86.31
470.023	91.31
470.243	92.31
470.462	95.31
470.681	117.31
470.901	87.31
471.12	84.31
471.339	85.31
471.558	91.31
471.777	95.31
471.997	117.31
472.216	199.31
472.435	291.31
472.654	127.31
472.873	79.31
473.092	91.31
473.311	88.31
473.53	82.31
473.749	75.31
473.968	97.31
474.187	115.31
474.406	97.31
474.625	94.31
474.844	90.31
475.063	97.31
475.282	83.31
475.501	79.31
475.72	101.31
475.939	90.31
476.158	89.31
476.377	86.31
476.596	91.31
476.814	95.31
477.033	81.31
477.252	83.31
477.471	86.31
477.69	95.31
477.908	83.31
478.127	96.31
478.346	94.31
478.564	94.31
478.783	97.31
479.002	90.31
479.22	92.31
479.439	112.31
479.658	87.31
479.876	79.31
480.095	100.31
480.313	105.31
480.532	95.31
480.751	103.31
480.969	176.31
481.188	479.31
481.406	293.31
481.624	109.31
481.843	91.31
482.061	87.31
482.28	94.31
482.498	70.31
482.717	89.31
482.935	98.31
483.153	88.31
483.372	87.31
483.59	88.31
483.808	85.31
484.027	109.31
484.245	96.31
484.463	89.31
484.681	91.31
484.9	82.31
485.118	98.31
485.336	97.31
485.554	106.31
485.772	96.31
485.99	107.31
486.209	118.31
486.427	111.31
486.645	108.31
486.863	112.31
487.081	101.31
487.299	78.31
487.517	99.31
487.735	89.31
487.953	87.31
488.171	93.31
488.389	106.31
488.607	86.31
488.825	87.31
489.043	89.31
489.261	89.31
489.479	100.31
489.696	92.31
489.914	91.31
490.132	81.31
490.35	96.31
490.568	83.31
490.786	102.31
491.003	100.31
491.221	110.31
491.439	96.31
491.657	91.31
491.874	77.31
492.092	96.31
492.31	96.31
492.527	95.31
492.745	88.31
492.963	89.31
493.18	96.31
493.398	95.31
493.615	97.31
493.833	90.31
494.05	95.31
494.268	84.31
494.485	88.31
494.703	90.31
494.92	94.31
495.138	90.31
495.355	104.31
495.573	79.31
495.79	90.31
496.008	78.31
496.225	91.31
496.442	85.31
496.66	100.31
496.877	97.31
497.094	99.31
497.312	84.31
497.529	99.31
497.746	96.31
497.963	90.31
498.181	96.31
498.398	89.31
498.615	101.31
498.832	109.31
499.049	88.31
499.267	84.31
499.484	78.31
499.701	80.31
499.918	96.31
500.135	82.31
500.352	99.31
500.569	100.31
500.786	117.31
501.003	86.31
501.22	97.31
501.437	85.31
501.654	92.31
501.871	95.31
502.088	94.31
502.305	99.31
502.522	82.31
502.739	89.31
502.956	89.31
503.172	80.31
503.389	83.31
503.606	102.31
503.823	107.31
504.04	103.31
504.256	89.31
504.473	82.31
504.69	100.31
504.907	85.31
505.123	90.31
505.34	94.31
505.557	89.31
505.773	93.31
505.99	84.31
506.207	78.31
506.423	99.31
506.64	88.31
506.856	95.31
507.073	74.31
507.289	96.31
507.506	94.31
507.722	114.31
507.939	108.31
508.155	97.31
508.372	89.31
508.588	103.31
508.805	94.31
509.021	85.31
509.238	99.31
509.454	99.31
509.67	98.31
509.887	103.31
510.103	129.31
510.319	213.31
510.536	659.31
510.752	2049.31
510.968	577.31
511.184	157.31
511.401	112.31
511.617	89.31
511.833	98.31
512.049	102.31
512.265	95.31
512.481	89.31
512.698	89.31
512.914	96.31
513.13	100.31
513.346	89.31
513.562	85.31
513.778	99.31
513.994	108.31
514.21	111.31
514.426	122.31
514.642	111.31
514.858	115.31
515.074	149.31
515.29	412.31
515.506	1266.31
