Data from Circ_2004_H10_HRD10591_00052.txt Node
Date: Wed Jan 03 10:33:24 EST 2024
User: Yrep
Spectrometer: HR+D1059
Trigger mode: 1
Integration Time (sec): 1.000000E-1
Scans to average: 1
Electric dark correction enabled: true
Nonlinearity correction enabled: false
Boxcar width: 0
XAxis mode: Wavelengths
Number of Pixels in Spectrum: 2048
>>>>>Begin Spectral Data<<<<<
223.165	-26
223.4	-26
223.635	-26
223.869	-15
224.104	-9
224.338	-14
224.573	-15
224.808	-8
225.042	7
225.277	1
225.511	-9
225.746	4
225.98	-3
226.215	10
226.449	1
226.683	17
226.918	26
227.152	33
227.387	18
227.621	41
227.856	39
228.09	40
228.324	57
228.559	72
228.793	46
229.027	57
229.262	69
229.496	67
229.73	83
229.964	71
230.199	77
230.433	71
230.667	78
230.901	70
231.136	86
231.37	76
231.604	71
231.838	83
232.072	86
232.306	86
232.541	80
232.775	75
233.009	78
233.243	82
233.477	96
233.711	76
233.945	85
234.179	84
234.413	94
234.647	97
234.881	85
235.115	84
235.349	75
235.583	72
235.817	60
236.051	72
236.285	72
236.519	67
236.753	71
236.987	80
237.221	82
237.455	91
237.689	75
237.922	73
238.156	73
238.39	78
238.624	72
238.858	82
239.091	72
239.325	81
239.559	93
239.793	85
240.027	82
240.26	59
240.494	86
240.728	78
240.961	78
241.195	79
241.429	82
241.662	73
241.896	83
242.13	73
242.363	79
242.597	76
242.83	70
243.064	78
243.298	84
243.531	81
243.765	93
243.998	71
244.232	85
244.465	84
244.699	85
244.932	80
245.166	80
245.399	73
245.633	79
245.866	82
246.099	66
246.333	81
246.566	77
246.8	80
247.033	82
247.266	87
247.5	81
247.733	80
247.966	68
248.2	79
248.433	84
248.666	76
248.899	84
249.133	96
249.366	102
249.599	77
249.832	82
250.066	82
250.299	68
250.532	94
250.765	87
250.998	66
251.231	83
251.465	72
251.698	90
251.931	90
252.164	75
252.397	78
252.63	78
252.863	74
253.096	77
253.329	90
253.562	89
253.795	83
254.028	83
254.261	86
254.494	66
254.727	79
254.96	82
255.193	89
255.426	77
255.659	82
255.892	85
256.124	74
256.357	74
256.59	72
256.823	98
257.056	85
257.289	70
257.521	91
257.754	91
257.987	91
258.22	79
258.452	102
258.685	89
258.918	86
259.151	90
259.383	81
259.616	89
259.849	91
260.081	83
260.314	84
260.547	87
260.779	88
261.012	100
261.244	83
261.477	83
261.71	75
261.942	110
262.175	98
262.407	94
262.64	74
262.872	67
263.105	75
263.337	85
263.57	80
263.802	80
264.035	75
264.267	90
264.499	88
264.732	84
264.964	84
265.197	92
265.429	70
265.661	90
265.894	78
266.126	89
266.358	89
266.591	87
266.823	85
267.055	87
267.287	89
267.52	79
267.752	77
267.984	84
268.216	82
268.448	78
268.681	67
268.913	73
269.145	79
269.377	76
269.609	83
269.841	69
270.073	71
270.306	88
270.538	89
270.77	86
271.002	97
271.234	79
271.466	79
271.698	77
271.93	84
272.162	83
272.394	90
272.626	87
272.858	71
273.09	78
273.322	83
273.553	79
273.785	77
274.017	72
274.249	78
274.481	70
274.713	78
274.945	106
275.176	95
275.408	87
275.64	95
275.872	97
276.104	98
276.335	98
276.567	97
276.799	100
277.031	114
277.262	115
277.494	103
277.726	88
277.957	86
278.189	85
278.421	85
278.652	82
278.884	94
279.115	72
279.347	69
279.579	89
279.81	97
280.042	108
280.273	129
280.505	119
280.736	89
280.968	83
281.199	80
281.431	96
281.662	89
281.894	101
282.125	94
282.356	117
282.588	118
282.819	109
283.051	84
283.282	83
283.513	94
283.745	102
283.976	97
284.207	83
284.439	100
284.67	93
284.901	89
285.132	79
285.364	81
285.595	90
285.826	83
286.057	92
286.288	95
286.52	85
286.751	94
286.982	89
287.213	88
287.444	99
287.675	97
287.906	96
288.138	86
288.369	89
288.6	92
288.831	73
289.062	94
289.293	108
289.524	73
289.755	86
289.986	95
290.217	88
290.448	82
290.679	95
290.91	75
291.141	97
291.371	87
291.602	92
291.833	82
292.064	95
292.295	92
292.526	90
292.757	88
292.987	89
293.218	91
293.449	82
293.68	100
293.91	94
294.141	87
294.372	94
294.603	90
294.833	91
295.064	98
295.295	100
295.525	110
295.756	98
295.987	109
296.217	130
296.448	107
296.679	99
296.909	90
297.14	85
297.37	79
297.601	88
297.831	95
298.062	94
298.292	87
298.523	87
298.753	86
298.984	81
299.214	81
299.445	87
299.675	101
299.905	89
300.136	91
300.366	75
300.597	85
300.827	85
301.057	95
301.288	100
301.518	91
301.748	91
301.979	90
302.209	95
302.439	95
302.669	83
302.9	89
303.13	88
303.36	105
303.59	101
303.82	107
304.051	101
304.281	76
304.511	99
304.741	97
304.971	85
305.201	85
305.431	88
305.661	87
305.891	90
306.121	89
306.352	103
306.582	97
306.812	89
307.042	83
307.272	128
307.502	125
307.731	113
307.961	91
308.191	91
308.421	80
308.651	96
308.881	97
309.111	93
309.341	99
309.571	94
309.8	102
310.03	94
310.26	89
310.49	91
310.72	87
310.949	106
311.179	93
311.409	102
311.639	97
311.868	96
312.098	95
312.328	100
312.557	87
312.787	95
313.017	104
313.246	93
313.476	93
313.706	94
313.935	89
314.165	103
314.394	94
314.624	86
314.853	88
315.083	90
315.312	99
315.542	83
315.771	105
316.001	87
316.23	88
316.46	89
316.689	102
316.919	90
317.148	101
317.377	101
317.607	95
317.836	98
318.065	93
318.295	92
318.524	80
318.753	88
318.983	93
319.212	102
319.441	126
319.67	97
319.9	86
320.129	104
320.358	91
320.587	97
320.816	107
321.046	93
321.275	86
321.504	96
321.733	104
321.962	108
322.191	101
322.42	103
322.649	106
322.878	108
323.108	116
323.337	130
323.566	145
323.795	155
324.024	199
324.253	384
324.482	835
324.71	1719
324.939	2218
325.168	807
325.397	255
325.626	169
325.855	131
326.084	126
326.313	124
326.542	153
326.77	260
326.999	467
327.228	933
327.457	1743
327.686	1387
327.914	408
328.143	261
328.372	274
328.6	174
328.829	133
329.058	129
329.287	117
329.515	122
329.744	145
329.972	199
330.201	333
330.43	428
330.658	263
330.887	161
331.115	139
331.344	104
331.572	113
331.801	113
332.03	109
332.258	84
332.486	93
332.715	97
332.943	109
333.172	111
333.4	94
333.629	105
333.857	133
334.085	195
334.314	320
334.542	542
334.771	527
334.999	183
335.227	115
335.455	85
335.684	93
335.912	102
336.14	94
336.369	105
336.597	88
336.825	105
337.053	101
337.281	100
337.51	101
337.738	98
337.966	109
338.194	97
338.422	89
338.65	92
338.878	96
339.106	84
339.334	88
339.562	87
339.79	86
340.018	81
340.246	82
340.474	91
340.702	86
340.93	100
341.158	91
341.386	94
341.614	107
341.842	94
342.07	91
342.298	90
342.526	86
342.754	97
342.981	95
343.209	97
343.437	116
343.665	93
343.893	96
344.12	102
344.348	103
344.576	99
344.804	79
345.031	96
345.259	102
345.487	100
345.714	110
345.942	96
346.17	80
346.397	102
346.625	89
346.853	93
347.08	102
347.308	99
347.535	105
347.763	97
347.99	101
348.218	99
348.445	103
348.673	108
348.9	101
349.128	99
349.355	97
349.583	98
349.81	102
350.037	83
350.265	106
350.492	90
350.72	98
350.947	98
351.174	109
351.402	111
351.629	106
351.856	102
352.083	87
352.311	105
352.538	107
352.765	117
352.992	116
353.22	107
353.447	97
353.674	107
353.901	96
354.128	102
354.355	109
354.583	105
354.81	102
355.037	101
355.264	107
355.491	93
355.718	98
355.945	91
356.172	100
356.399	91
356.626	86
356.853	104
357.08	87
357.307	98
357.534	92
357.761	102
357.988	98
358.215	86
358.441	99
358.668	93
358.895	95
359.122	92
359.349	88
359.576	91
359.802	90
360.029	117
360.256	97
360.483	92
360.709	89
360.936	98
361.163	86
361.39	99
361.616	97
361.843	89
362.07	91
362.296	92
362.523	87
362.749	92
362.976	98
363.203	107
363.429	84
363.656	80
363.882	79
364.109	94
364.335	106
364.562	94
364.788	91
365.015	97
365.241	106
365.468	116
365.694	104
365.92	106
366.147	111
366.373	93
366.599	91
366.826	82
367.052	100
367.278	96
367.505	89
367.731	89
367.957	93
368.184	98
368.41	101
368.636	101
368.862	112
369.089	120
369.315	98
369.541	91
369.767	88
369.993	100
370.219	98
370.445	89
370.672	78
370.898	88
371.124	82
371.35	96
371.576	99
371.802	86
372.028	87
372.254	85
372.48	98
372.706	87
372.932	89
373.158	86
373.384	97
373.61	103
373.835	85
374.061	100
374.287	85
374.513	77
374.739	79
374.965	85
375.191	90
375.416	90
375.642	92
375.868	84
376.094	87
376.319	86
376.545	79
376.771	80
376.997	103
377.222	95
377.448	85
377.674	101
377.899	92
378.125	95
378.35	86
378.576	87
378.802	85
379.027	89
379.253	91
379.478	83
379.704	96
379.929	92
380.155	91
380.38	98
380.606	91
380.831	109
381.057	87
381.282	98
381.507	95
381.733	90
381.958	89
382.184	104
382.409	111
382.634	91
382.86	100
383.085	98
383.31	102
383.535	99
383.761	105
383.986	92
384.211	95
384.436	104
384.662	102
384.887	97
385.112	105
385.337	89
385.562	90
385.787	106
386.013	100
386.238	104
386.463	93
386.688	101
386.913	109
387.138	104
387.363	111
387.588	109
387.813	90
388.038	113
388.263	100
388.488	101
388.713	98
388.938	91
389.163	95
389.387	98
389.612	88
389.837	91
390.062	86
390.287	92
390.512	86
390.736	95
390.961	77
391.186	98
391.411	91
391.636	96
391.86	76
392.085	88
392.31	92
392.534	79
392.759	85
392.984	97
393.208	94
393.433	102
393.658	95
393.882	95
394.107	89
394.331	96
394.556	71
394.78	84
395.005	85
395.229	93
395.454	87
395.678	79
395.903	94
396.127	89
396.352	91
396.576	85
396.801	84
397.025	95
397.249	79
397.474	97
397.698	94
397.922	92
398.147	75
398.371	87
398.595	81
398.82	77
399.044	108
399.268	77
399.492	93
399.717	94
399.941	101
400.165	88
400.389	86
400.613	71
400.837	91
401.062	91
401.286	87
401.51	93
401.734	83
401.958	115
402.182	119
402.406	155
402.63	126
402.854	81
403.078	79
403.302	91
403.526	91
403.75	85
403.974	91
404.198	92
404.422	90
404.645	90
404.869	86
405.093	114
405.317	112
405.541	106
405.765	97
405.988	120
406.212	171
406.436	233
406.66	130
406.883	89
407.107	106
407.331	93
407.555	97
407.778	102
408.002	88
408.226	97
408.449	82
408.673	87
408.896	89
409.12	101
409.344	91
409.567	94
409.791	104
410.014	94
410.238	101
410.461	96
410.685	84
410.908	105
411.132	114
411.355	119
411.578	99
411.802	97
412.025	89
412.249	81
412.472	74
412.695	104
412.919	100
413.142	101
413.365	100
413.589	89
413.812	78
414.035	88
414.258	87
414.482	88
414.705	89
414.928	92
415.151	83
415.374	90
415.597	91
415.821	88
416.044	95
416.267	98
416.49	94
416.713	86
416.936	93
417.159	90
417.382	86
417.605	91
417.828	94
418.051	90
418.274	88
418.497	91
418.72	81
418.943	79
419.166	75
419.389	98
419.611	94
419.834	97
420.057	85
420.28	87
420.503	89
420.726	98
420.948	82
421.171	102
421.394	100
421.617	98
421.839	83
422.062	84
422.285	82
422.507	96
422.73	109
422.953	86
423.175	96
423.398	91
423.621	83
423.843	86
424.066	90
424.288	71
424.511	86
424.733	85
424.956	101
425.178	87
425.401	106
425.623	101
425.846	90
426.068	95
426.291	80
426.513	91
426.735	101
426.958	106
427.18	105
427.402	131
427.625	158
427.847	159
428.069	157
428.292	97
428.514	90
428.736	84
428.958	98
429.181	91
429.403	91
429.625	110
429.847	88
430.069	104
430.292	85
430.514	92
430.736	86
430.958	85
431.18	78
431.402	84
431.624	83
431.846	89
432.068	87
432.29	87
432.512	88
432.734	98
432.956	84
433.178	108
433.4	110
433.622	81
433.844	78
434.066	99
434.287	85
434.509	92
434.731	86
434.953	101
435.175	74
435.397	83
435.618	89
435.84	101
436.062	133
436.284	99
436.505	93
436.727	97
436.949	99
437.17	75
437.392	88
437.614	90
437.835	112
438.057	112
438.278	114
438.5	104
438.721	126
438.943	110
439.165	99
439.386	102
439.608	99
439.829	107
440.05	115
440.272	142
440.493	94
440.715	78
440.936	93
441.158	97
441.379	83
441.6	91
441.822	93
442.043	86
442.264	100
442.486	97
442.707	84
442.928	93
443.149	113
443.371	114
443.592	100
443.813	100
444.034	130
444.255	98
444.476	89
444.698	92
444.919	96
445.14	118
445.361	115
445.582	118
445.803	143
446.024	139
446.245	122
446.466	105
446.687	94
446.908	99
447.129	86
447.35	89
447.571	106
447.792	94
448.013	100
448.234	100
448.455	94
448.675	114
448.896	103
449.117	95
449.338	93
449.559	129
449.779	139
450	110
450.221	85
450.442	93
450.662	90
450.883	109
451.104	120
451.324	98
451.545	84
451.766	78
451.986	90
452.207	95
452.428	82
452.648	98
452.869	120
453.089	103
453.31	108
453.53	104
453.751	93
453.971	104
454.192	118
454.412	84
454.633	86
454.853	68
455.073	104
455.294	85
455.514	106
455.734	89
455.955	87
456.175	73
456.395	77
456.616	82
456.836	86
457.056	88
457.276	81
457.497	85
457.717	92
457.937	86
458.157	97
458.377	83
458.598	99
458.818	150
459.038	159
459.258	116
459.478	96
459.698	89
459.918	88
460.138	89
460.358	83
460.578	83
460.798	74
461.018	90
461.238	97
461.458	82
461.678	81
461.898	90
462.118	97
462.338	79
462.558	82
462.777	88
462.997	74
463.217	82
463.437	86
463.657	93
463.876	88
464.096	88
464.316	96
464.536	97
464.755	94
464.975	91
465.195	165
465.414	151
465.634	110
465.854	86
466.073	85
466.293	83
466.512	85
466.732	74
466.951	100
467.171	100
467.391	114
467.61	119
467.829	118
468.049	209
468.268	271
468.488	112
468.707	93
468.927	95
469.146	90
469.365	70
469.585	100
469.804	97
470.023	104
470.243	97
470.462	101
470.681	97
470.901	102
471.12	87
471.339	71
471.558	85
471.777	105
471.997	142
472.216	397
472.435	753
472.654	229
472.873	118
473.092	91
473.311	75
473.53	80
473.749	93
473.968	89
474.187	104
474.406	100
474.625	91
474.844	85
475.063	81
475.282	81
475.501	95
475.72	97
475.939	89
476.158	102
476.377	95
476.596	81
476.814	98
477.033	88
477.252	83
477.471	81
477.69	81
477.908	91
478.127	95
478.346	97
478.564	86
478.783	98
479.002	109
479.22	101
479.439	94
479.658	95
479.876	91
480.095	97
480.313	102
480.532	113
480.751	161
480.969	372
481.188	1267
481.406	756
481.624	175
481.843	97
482.061	91
482.28	102
482.498	79
482.717	95
482.935	84
483.153	94
483.372	88
483.59	78
483.808	82
484.027	89
484.245	85
484.463	109
484.681	89
484.9	99
485.118	98
485.336	95
485.554	99
485.772	102
485.99	98
486.209	89
486.427	106
486.645	101
486.863	117
487.081	113
487.299	91
487.517	102
487.735	86
487.953	99
488.171	85
488.389	94
488.607	93
488.825	95
489.043	93
489.261	96
489.479	80
489.696	92
489.914	80
490.132	88
490.35	105
490.568	102
490.786	76
491.003	85
491.221	84
491.439	91
491.657	90
491.874	93
492.092	94
492.31	83
492.527	91
492.745	98
492.963	95
493.18	92
493.398	91
493.615	93
493.833	95
494.05	97
494.268	96
494.485	86
494.703	83
494.92	83
495.138	78
495.355	83
495.573	107
495.79	100
496.008	84
496.225	91
496.442	83
496.66	91
496.877	84
497.094	93
497.312	83
497.529	86
497.746	93
497.963	100
498.181	85
498.398	86
498.615	107
498.832	98
499.049	83
499.267	88
499.484	93
499.701	88
499.918	101
500.135	80
500.352	79
500.569	74
500.786	111
501.003	90
501.22	92
501.437	93
501.654	93
501.871	111
502.088	95
502.305	94
502.522	101
502.739	97
502.956	99
503.172	97
503.389	87
503.606	112
503.823	102
504.04	96
504.256	94
504.473	73
504.69	93
504.907	105
505.123	101
505.34	98
505.557	89
505.773	87
505.99	81
506.207	81
506.423	85
506.64	91
506.856	84
507.073	96
507.289	99
507.506	95
507.722	113
507.939	118
508.155	111
508.372	91
508.588	98
508.805	100
509.021	100
509.238	87
509.454	95
509.67	95
509.887	96
510.103	113
510.319	195
510.536	657
510.752	2077
510.968	587
511.184	147
511.401	103
511.617	107
511.833	104
512.049	95
512.265	91
512.481	94
512.698	97
512.914	83
513.13	90
513.346	84
513.562	99
513.778	83
513.994	111
514.21	103
514.426	125
514.642	129
514.858	116
515.074	149
515.29	469
515.506	1408
515.721	510
515.937	151
516.153	109
516.369	93
516.585	101
516.801	105
517.016	92
517.232	90
517.448	101
517.664	99
517.879	92
518.095	88
518.311	100
518.527	88
518.742	88
518.958	84
519.173	100
519.389	99
519.605	107
519.82	98
520.036	101
520.251	118
520.467	114
520.682	105
520.898	101
521.113	109
521.329	128
521.544	191
521.76	567
521.975	2352
522.19	1410
522.406	303
522.621	112
522.836	99
523.052	89
523.267	97
523.482	103
523.698	110
523.913	127
524.128	100
524.343	83
524.559	94
524.774	95
524.989	98
525.204	119
525.419	95
525.634	100
525.849	102
526.064	81
526.28	98
526.495	91
526.71	82
526.925	93
527.14	82
527.355	91
527.57	91
527.785	89
527.999	83
528.214	86
528.429	98
528.644	95
528.859	106
529.074	89
529.289	115
529.503	184
529.718	111
529.933	93
530.148	69
530.363	97
530.577	98
530.792	91
531.007	97
531.221	98
531.436	98
531.651	86
531.865	82
532.08	82
532.295	93
532.509	82
532.724	100
532.938	85
533.153	107
533.367	111
533.582	87
533.796	90
534.011	100
534.225	81
534.44	88
534.654	88
534.868	97
535.083	100
535.297	98
535.511	95
535.726	97
535.94	100
536.154	78
536.369	81
536.583	89
536.797	87
537.011	96
537.225	95
537.44	91
537.654	90
537.868	88
538.082	90
538.296	92
538.51	86
538.724	93
538.938	97
539.153	90
539.367	112
539.581	106
539.795	86
540.009	84
540.222	105
540.436	103
540.65	94
540.864	88
541.078	92
541.292	104
541.506	80
541.72	87
541.934	88
542.147	97
542.361	86
542.575	90
542.789	91
543.002	83
543.216	106
543.43	97
543.644	99
543.857	89
544.071	100
544.285	88
544.498	96
544.712	96
544.925	75
545.139	77
545.352	70
545.566	75
545.779	105
545.993	98
546.206	97
546.42	85
546.633	93
546.847	89
547.06	91
547.274	87
547.487	101
547.7	82
547.914	95
548.127	89
548.34	87
548.554	89
548.767	86
548.98	85
549.193	80
549.407	97
549.62	111
549.833	95
550.046	106
550.259	98
550.473	89
550.686	70
550.899	95
551.112	99
551.325	95
551.538	102
551.751	90
551.964	99
552.177	92
552.39	99
552.603	96
552.816	93
553.029	90
553.242	88
553.455	97
553.667	107
553.88	118
554.093	88
554.306	89
554.519	106
554.732	109
554.944	81
555.157	90
555.37	83
555.583	102
555.795	97
556.008	85
556.221	98
556.433	82
556.646	91
556.859	88
557.071	83
557.284	100
557.496	90
557.709	95
557.921	85
558.134	95
558.346	98
558.559	79
558.771	82
558.984	89
559.196	98
559.409	108
559.621	96
559.833	92
560.046	88
560.258	83
560.47	101
560.683	85
560.895	91
561.107	93
561.32	93
561.532	89
561.744	89
561.956	91
562.168	89
562.381	96
562.593	100
562.805	104
563.017	92
563.229	84
563.441	91
563.653	78
563.865	79
564.077	88
564.289	90
564.501	90
564.713	99
564.925	88
565.137	107
565.349	93
565.561	90
565.773	74
565.985	102
566.197	109
566.408	78
566.62	83
566.832	94
567.044	81
567.255	88
567.467	83
567.679	78
567.891	80
568.102	98
568.314	90
568.526	85
568.737	95
568.949	90
569.161	85
569.372	94
569.584	81
569.795	87
570.007	104
570.218	206
570.43	125
570.641	89
570.853	67
571.064	79
571.276	88
571.487	100
571.698	105
571.91	107
572.121	95
572.333	99
572.544	97
572.755	92
572.966	98
573.178	81
573.389	103
573.6	106
573.811	80
574.023	80
574.234	88
574.445	97
574.656	92
574.867	96
575.078	80
575.289	98
575.501	87
575.712	80
575.923	93
576.134	88
576.345	90
576.556	91
576.767	85
576.978	106
577.188	88
577.399	103
577.61	91
577.821	98
578.032	109
578.243	256
578.454	683
578.665	199
578.875	114
579.086	96
579.297	88
579.508	79
579.718	103
579.929	88
580.14	92
580.35	87
580.561	96
580.772	81
580.982	99
581.193	97
581.403	77
581.614	87
581.825	76
582.035	92
582.246	85
582.456	88
582.667	76
582.877	97
583.087	101
583.298	87
