Data from Circ_2004_H10_HRD10591_00085.txt Node
Date: Wed Jan 03 10:33:31 EST 2024
User: Yrep
Spectrometer: HR+D1059
Trigger mode: 1
Integration Time (sec): 1.000000E-1
Scans to average: 1
Electric dark correction enabled: true
Nonlinearity correction enabled: false
Boxcar width: 0
XAxis mode: Wavelengths
Number of Pixels in Spectrum: 2048
>>>>>Begin Spectral Data<<<<<
223.165	-19.81
223.4	-19.81
223.635	-19.81
223.869	-28.81
224.104	-19.81
224.338	-7.81
224.573	-11.81
224.808	-20.81
225.042	-0.81
225.277	-13.81
225.511	2.19
225.746	9.19
225.98	-2.81
226.215	3.19
226.449	11.19
226.683	25.19
226.918	48.19
227.152	27.19
227.387	51.19
227.621	43.19
227.856	32.19
228.09	44.19
228.324	42.19
228.559	60.19
228.793	59.19
229.027	59.19
229.262	62.19
229.496	82.19
229.73	93.19
229.964	101.19
230.199	80.19
230.433	80.19
230.667	86.19
230.901	80.19
231.136	89.19
231.37	88.19
231.604	73.19
231.838	90.19
232.072	77.19
232.306	93.19
232.541	82.19
232.775	71.19
233.009	94.19
233.243	86.19
233.477	68.19
233.711	73.19
233.945	75.19
234.179	83.19
234.413	75.19
234.647	77.19
234.881	80.19
235.115	76.19
235.349	82.19
235.583	76.19
235.817	69.19
236.051	76.19
236.285	81.19
236.519	84.19
236.753	81.19
236.987	84.19
237.221	79.19
237.455	96.19
237.689	69.19
237.922	78.19
238.156	65.19
238.39	60.19
238.624	76.19
238.858	73.19
239.091	71.19
239.325	79.19
239.559	78.19
239.793	83.19
240.027	80.19
240.26	67.19
240.494	66.19
240.728	81.19
240.961	79.19
241.195	71.19
241.429	78.19
241.662	75.19
241.896	91.19
242.13	84.19
242.363	76.19
242.597	79.19
242.83	83.19
243.064	89.19
243.298	89.19
243.531	93.19
243.765	84.19
243.998	64.19
244.232	89.19
244.465	93.19
244.699	77.19
244.932	78.19
245.166	68.19
245.399	65.19
245.633	87.19
245.866	77.19
246.099	77.19
246.333	78.19
246.566	75.19
246.8	93.19
247.033	78.19
247.266	64.19
247.5	73.19
247.733	86.19
247.966	76.19
248.2	73.19
248.433	71.19
248.666	84.19
248.899	80.19
249.133	82.19
249.366	97.19
249.599	99.19
249.832	82.19
250.066	74.19
250.299	88.19
250.532	78.19
250.765	86.19
250.998	70.19
251.231	87.19
251.465	69.19
251.698	75.19
251.931	85.19
252.164	77.19
252.397	88.19
252.63	94.19
252.863	91.19
253.096	67.19
253.329	78.19
253.562	69.19
253.795	91.19
254.028	95.19
254.261	80.19
254.494	86.19
254.727	81.19
254.96	83.19
255.193	82.19
255.426	79.19
255.659	72.19
255.892	93.19
256.124	95.19
256.357	98.19
256.59	84.19
256.823	77.19
257.056	87.19
257.289	76.19
257.521	86.19
257.754	69.19
257.987	80.19
258.22	91.19
258.452	87.19
258.685	87.19
258.918	82.19
259.151	84.19
259.383	84.19
259.616	71.19
259.849	92.19
260.081	87.19
260.314	90.19
260.547	104.19
260.779	95.19
261.012	97.19
261.244	125.19
261.477	92.19
261.71	100.19
261.942	137.19
262.175	126.19
262.407	98.19
262.64	93.19
262.872	90.19
263.105	86.19
263.337	86.19
263.57	87.19
263.802	84.19
264.035	73.19
264.267	74.19
264.499	81.19
264.732	92.19
264.964	77.19
265.197	76.19
265.429	89.19
265.661	64.19
265.894	91.19
266.126	88.19
266.358	72.19
266.591	70.19
266.823	99.19
267.055	87.19
267.287	94.19
267.52	85.19
267.752	84.19
267.984	76.19
268.216	95.19
268.448	93.19
268.681	88.19
268.913	77.19
269.145	80.19
269.377	92.19
269.609	89.19
269.841	81.19
270.073	96.19
270.306	85.19
270.538	82.19
270.77	77.19
271.002	74.19
271.234	97.19
271.466	100.19
271.698	80.19
271.93	94.19
272.162	79.19
272.394	93.19
272.626	91.19
272.858	102.19
273.09	81.19
273.322	92.19
273.553	85.19
273.785	84.19
274.017	81.19
274.249	81.19
274.481	102.19
274.713	83.19
274.945	85.19
275.176	87.19
275.408	95.19
275.64	106.19
275.872	108.19
276.104	95.19
276.335	89.19
276.567	103.19
276.799	136.19
277.031	142.19
277.262	139.19
277.494	131.19
277.726	97.19
277.957	82.19
278.189	91.19
278.421	88.19
278.652	74.19
278.884	81.19
279.115	88.19
279.347	95.19
279.579	93.19
279.81	114.19
280.042	152.19
280.273	196.19
280.505	131.19
280.736	94.19
280.968	85.19
281.199	75.19
281.431	83.19
281.662	87.19
281.894	96.19
282.125	83.19
282.356	126.19
282.588	143.19
282.819	124.19
283.051	84.19
283.282	89.19
283.513	88.19
283.745	75.19
283.976	86.19
284.207	89.19
284.439	75.19
284.67	98.19
284.901	89.19
285.132	91.19
285.364	87.19
285.595	89.19
285.826	93.19
286.057	94.19
286.288	83.19
286.52	88.19
286.751	86.19
286.982	87.19
287.213	97.19
287.444	93.19
287.675	90.19
287.906	92.19
288.138	76.19
288.369	89.19
288.6	93.19
288.831	92.19
289.062	87.19
289.293	83.19
289.524	77.19
289.755	83.19
289.986	90.19
290.217	82.19
290.448	82.19
290.679	80.19
290.91	86.19
291.141	77.19
291.371	86.19
291.602	82.19
291.833	96.19
292.064	80.19
292.295	81.19
292.526	87.19
292.757	81.19
292.987	94.19
293.218	92.19
293.449	71.19
293.68	93.19
293.91	96.19
294.141	75.19
294.372	88.19
294.603	87.19
294.833	93.19
295.064	96.19
295.295	90.19
295.525	88.19
295.756	103.19
295.987	127.19
296.217	159.19
296.448	138.19
296.679	83.19
296.909	102.19
297.14	88.19
297.37	100.19
297.601	71.19
297.831	77.19
298.062	93.19
298.292	98.19
298.523	83.19
298.753	95.19
298.984	87.19
299.214	95.19
299.445	93.19
299.675	96.19
299.905	93.19
300.136	109.19
300.366	94.19
300.597	94.19
300.827	110.19
301.057	96.19
301.288	111.19
301.518	111.19
301.748	85.19
301.979	105.19
302.209	99.19
302.439	89.19
302.669	95.19
302.9	98.19
303.13	104.19
303.36	93.19
303.59	111.19
303.82	129.19
304.051	108.19
304.281	87.19
304.511	91.19
304.741	95.19
304.971	88.19
305.201	93.19
305.431	113.19
305.661	95.19
305.891	93.19
306.121	111.19
306.352	110.19
306.582	125.19
306.812	97.19
307.042	107.19
307.272	135.19
307.502	135.19
307.731	134.19
307.961	103.19
308.191	91.19
308.421	94.19
308.651	92.19
308.881	103.19
309.111	96.19
309.341	97.19
309.571	96.19
309.8	81.19
310.03	93.19
310.26	86.19
310.49	89.19
310.72	111.19
310.949	113.19
311.179	108.19
311.409	101.19
311.639	101.19
311.868	100.19
312.098	93.19
312.328	85.19
312.557	104.19
312.787	112.19
313.017	113.19
313.246	95.19
313.476	95.19
313.706	84.19
313.935	92.19
314.165	91.19
314.394	107.19
314.624	100.19
314.853	105.19
315.083	104.19
315.312	93.19
315.542	101.19
315.771	102.19
316.001	99.19
316.23	96.19
316.46	88.19
316.689	92.19
316.919	100.19
317.148	98.19
317.377	103.19
317.607	91.19
317.836	96.19
318.065	80.19
318.295	107.19
318.524	107.19
318.753	93.19
318.983	97.19
319.212	116.19
319.441	117.19
319.67	118.19
319.9	94.19
320.129	98.19
320.358	94.19
320.587	95.19
320.816	97.19
321.046	109.19
321.275	109.19
321.504	84.19
321.733	98.19
321.962	99.19
322.191	104.19
322.42	116.19
322.649	125.19
322.878	118.19
323.108	137.19
323.337	136.19
323.566	136.19
323.795	183.19
324.024	240.19
324.253	490.19
324.482	1001.19
324.71	2018.19
324.939	2741.19
325.168	998.19
325.397	272.19
325.626	157.19
325.855	123.19
326.084	144.19
326.313	139.19
326.542	166.19
326.77	249.19
326.999	523.19
327.228	1097.19
327.457	2005.19
327.686	1630.19
327.914	515.19
328.143	389.19
328.372	475.19
328.6	285.19
328.829	167.19
329.058	167.19
329.287	172.19
329.515	149.19
329.744	171.19
329.972	323.19
330.201	623.19
330.43	896.19
330.658	437.19
330.887	229.19
331.115	172.19
331.344	118.19
331.572	125.19
331.801	117.19
332.03	109.19
332.258	119.19
332.486	111.19
332.715	116.19
332.943	112.19
333.172	116.19
333.4	109.19
333.629	149.19
333.857	181.19
334.085	292.19
334.314	565.19
334.542	1103.19
334.771	1055.19
334.999	307.19
335.227	143.19
335.455	111.19
335.684	95.19
335.912	97.19
336.14	101.19
336.369	98.19
336.597	99.19
336.825	92.19
337.053	106.19
337.281	98.19
337.51	91.19
337.738	100.19
337.966	93.19
338.194	104.19
338.422	90.19
338.65	99.19
338.878	111.19
339.106	80.19
339.334	92.19
339.562	93.19
339.79	88.19
340.018	94.19
340.246	104.19
340.474	87.19
340.702	92.19
340.93	82.19
341.158	96.19
341.386	95.19
341.614	98.19
341.842	116.19
342.07	84.19
342.298	94.19
342.526	86.19
342.754	99.19
342.981	89.19
343.209	79.19
343.437	102.19
343.665	77.19
343.893	88.19
344.12	95.19
344.348	80.19
344.576	101.19
344.804	86.19
345.031	90.19
345.259	89.19
345.487	95.19
345.714	103.19
345.942	85.19
346.17	109.19
346.397	95.19
346.625	84.19
346.853	100.19
347.08	97.19
347.308	96.19
347.535	99.19
347.763	116.19
347.99	99.19
348.218	109.19
348.445	125.19
348.673	113.19
348.9	101.19
349.128	92.19
349.355	98.19
349.583	86.19
349.81	89.19
350.037	88.19
350.265	89.19
350.492	94.19
350.72	91.19
350.947	103.19
351.174	107.19
351.402	116.19
351.629	105.19
351.856	118.19
352.083	107.19
352.311	107.19
352.538	111.19
352.765	116.19
352.992	114.19
353.22	115.19
353.447	115.19
353.674	111.19
353.901	88.19
354.128	90.19
354.355	100.19
354.583	93.19
354.81	110.19
355.037	94.19
355.264	94.19
355.491	93.19
355.718	96.19
355.945	101.19
356.172	90.19
356.399	81.19
356.626	92.19
356.853	92.19
357.08	96.19
357.307	84.19
357.534	88.19
357.761	91.19
357.988	89.19
358.215	79.19
358.441	84.19
358.668	89.19
358.895	86.19
359.122	84.19
359.349	85.19
359.576	95.19
359.802	104.19
360.029	129.19
360.256	127.19
360.483	95.19
360.709	92.19
360.936	88.19
361.163	93.19
361.39	93.19
361.616	119.19
361.843	95.19
362.07	93.19
362.296	104.19
362.523	92.19
362.749	111.19
362.976	92.19
363.203	87.19
363.429	97.19
363.656	93.19
363.882	91.19
364.109	92.19
364.335	97.19
364.562	97.19
364.788	84.19
365.015	99.19
365.241	100.19
365.468	117.19
365.694	115.19
365.92	98.19
366.147	101.19
366.373	84.19
366.599	88.19
366.826	78.19
367.052	97.19
367.278	104.19
367.505	93.19
367.731	95.19
367.957	109.19
368.184	95.19
368.41	97.19
368.636	117.19
368.862	111.19
369.089	123.19
369.315	92.19
369.541	85.19
369.767	86.19
369.993	95.19
370.219	99.19
370.445	78.19
370.672	96.19
370.898	84.19
371.124	86.19
371.35	78.19
371.576	91.19
371.802	88.19
372.028	84.19
372.254	100.19
372.48	79.19
372.706	87.19
372.932	68.19
373.158	84.19
373.384	88.19
373.61	85.19
373.835	95.19
374.061	95.19
374.287	80.19
374.513	71.19
374.739	82.19
374.965	91.19
375.191	84.19
375.416	88.19
375.642	79.19
375.868	83.19
376.094	95.19
376.319	89.19
376.545	92.19
376.771	98.19
376.997	86.19
377.222	85.19
377.448	87.19
377.674	82.19
377.899	83.19
378.125	113.19
378.35	70.19
378.576	72.19
378.802	83.19
379.027	96.19
379.253	96.19
379.478	85.19
379.704	99.19
379.929	85.19
380.155	96.19
380.38	80.19
380.606	97.19
380.831	89.19
381.057	102.19
381.282	87.19
381.507	102.19
381.733	89.19
381.958	99.19
382.184	97.19
382.409	96.19
382.634	84.19
382.86	99.19
383.085	100.19
383.31	101.19
383.535	91.19
383.761	81.19
383.986	99.19
384.211	94.19
384.436	92.19
384.662	98.19
384.887	102.19
385.112	95.19
385.337	101.19
385.562	107.19
385.787	94.19
386.013	107.19
386.238	122.19
386.463	91.19
386.688	107.19
386.913	99.19
387.138	101.19
387.363	99.19
387.588	100.19
387.813	97.19
388.038	103.19
388.263	101.19
388.488	97.19
388.713	109.19
388.938	96.19
389.163	104.19
389.387	88.19
389.612	83.19
389.837	81.19
390.062	103.19
390.287	92.19
390.512	70.19
390.736	88.19
390.961	86.19
391.186	94.19
391.411	87.19
391.636	95.19
391.86	102.19
392.085	86.19
392.31	89.19
392.534	96.19
392.759	83.19
392.984	87.19
393.208	76.19
393.433	85.19
393.658	89.19
393.882	78.19
394.107	99.19
394.331	87.19
394.556	84.19
394.78	96.19
395.005	85.19
395.229	85.19
395.454	104.19
395.678	75.19
395.903	79.19
396.127	70.19
396.352	76.19
396.576	77.19
396.801	81.19
397.025	88.19
397.249	94.19
397.474	95.19
397.698	88.19
397.922	76.19
398.147	81.19
398.371	86.19
398.595	95.19
398.82	79.19
399.044	94.19
399.268	86.19
399.492	85.19
399.717	100.19
399.941	101.19
400.165	88.19
400.389	96.19
400.613	77.19
400.837	87.19
401.062	89.19
401.286	87.19
401.51	78.19
401.734	104.19
401.958	115.19
402.182	139.19
402.406	164.19
402.63	137.19
402.854	97.19
403.078	89.19
403.302	96.19
403.526	93.19
403.75	92.19
403.974	91.19
404.198	90.19
404.422	92.19
404.645	81.19
404.869	96.19
405.093	120.19
405.317	131.19
405.541	130.19
405.765	111.19
405.988	151.19
406.212	195.19
406.436	254.19
406.66	184.19
406.883	120.19
407.107	97.19
407.331	112.19
407.555	112.19
407.778	103.19
408.002	94.19
408.226	89.19
408.449	98.19
408.673	90.19
408.896	102.19
409.12	98.19
409.344	95.19
409.567	91.19
409.791	88.19
410.014	77.19
410.238	100.19
410.461	98.19
410.685	100.19
410.908	84.19
411.132	97.19
411.355	100.19
411.578	80.19
411.802	83.19
412.025	87.19
412.249	84.19
412.472	107.19
412.695	126.19
412.919	99.19
413.142	82.19
413.365	83.19
413.589	89.19
413.812	93.19
414.035	99.19
414.258	99.19
414.482	81.19
414.705	75.19
414.928	86.19
415.151	98.19
415.374	99.19
415.597	83.19
415.821	86.19
416.044	77.19
416.267	75.19
416.49	86.19
416.713	94.19
416.936	95.19
417.159	96.19
417.382	102.19
417.605	91.19
417.828	97.19
418.051	78.19
418.274	81.19
418.497	88.19
418.72	85.19
418.943	83.19
419.166	92.19
419.389	97.19
419.611	87.19
419.834	92.19
420.057	98.19
420.28	108.19
420.503	89.19
420.726	93.19
420.948	104.19
421.171	97.19
421.394	89.19
421.617	101.19
421.839	85.19
422.062	95.19
422.285	104.19
422.507	101.19
422.73	106.19
422.953	108.19
423.175	91.19
423.398	89.19
423.621	107.19
423.843	92.19
424.066	97.19
424.288	81.19
424.511	104.19
424.733	92.19
424.956	105.19
425.178	106.19
425.401	118.19
425.623	105.19
425.846	85.19
426.068	87.19
426.291	98.19
426.513	95.19
426.735	81.19
426.958	88.19
427.18	108.19
427.402	161.19
427.625	203.19
427.847	205.19
428.069	200.19
428.292	125.19
428.514	101.19
428.736	79.19
428.958	82.19
429.181	89.19
429.403	86.19
429.625	89.19
429.847	93.19
430.069	100.19
430.292	95.19
430.514	85.19
430.736	94.19
430.958	100.19
431.18	84.19
431.402	77.19
431.624	93.19
431.846	98.19
432.068	88.19
432.29	77.19
432.512	97.19
432.734	89.19
432.956	84.19
433.178	89.19
433.4	100.19
433.622	88.19
433.844	94.19
434.066	105.19
434.287	96.19
434.509	86.19
434.731	94.19
434.953	84.19
435.175	72.19
435.397	87.19
435.618	92.19
435.84	103.19
436.062	125.19
436.284	119.19
436.505	117.19
436.727	103.19
436.949	96.19
437.17	84.19
437.392	92.19
437.614	92.19
437.835	112.19
438.057	128.19
438.278	115.19
438.5	116.19
438.721	132.19
438.943	99.19
439.165	86.19
439.386	79.19
439.608	83.19
439.829	110.19
440.05	134.19
440.272	161.19
440.493	103.19
440.715	94.19
440.936	87.19
441.158	89.19
441.379	92.19
441.6	93.19
441.822	91.19
442.043	112.19
442.264	116.19
442.486	110.19
442.707	103.19
442.928	115.19
443.149	154.19
443.371	162.19
443.592	133.19
443.813	109.19
444.034	111.19
444.255	91.19
444.476	73.19
444.698	95.19
444.919	83.19
445.14	127.19
445.361	118.19
445.582	120.19
445.803	153.19
446.024	163.19
446.245	157.19
446.466	128.19
446.687	98.19
446.908	95.19
447.129	101.19
447.35	91.19
447.571	93.19
447.792	89.19
448.013	113.19
448.234	89.19
448.455	86.19
448.675	117.19
448.896	124.19
449.117	106.19
449.338	104.19
449.559	136.19
449.779	139.19
450	93.19
450.221	90.19
450.442	94.19
450.662	87.19
450.883	113.19
451.104	125.19
451.324	111.19
451.545	87.19
451.766	89.19
451.986	83.19
452.207	97.19
452.428	86.19
452.648	104.19
452.869	115.19
453.089	138.19
453.31	139.19
453.53	108.19
453.751	94.19
453.971	113.19
454.192	125.19
454.412	92.19
454.633	82.19
454.853	91.19
455.073	75.19
455.294	91.19
455.514	103.19
455.734	99.19
455.955	84.19
456.175	91.19
456.395	85.19
456.616	85.19
456.836	85.19
457.056	99.19
457.276	89.19
457.497	78.19
457.717	89.19
457.937	83.19
458.157	93.19
458.377	84.19
458.598	120.19
458.818	188.19
459.038	208.19
459.258	142.19
459.478	87.19
459.698	99.19
459.918	80.19
460.138	81.19
460.358	84.19
460.578	95.19
460.798	95.19
461.018	98.19
461.238	80.19
461.458	89.19
461.678	89.19
461.898	73.19
462.118	84.19
462.338	88.19
462.558	91.19
462.777	91.19
462.997	83.19
463.217	93.19
463.437	100.19
463.657	95.19
463.876	92.19
464.096	96.19
464.316	73.19
464.536	104.19
464.755	102.19
464.975	126.19
465.195	191.19
465.414	213.19
465.634	104.19
465.854	88.19
466.073	99.19
466.293	86.19
466.512	85.19
466.732	68.19
466.951	86.19
467.171	88.19
467.391	95.19
467.61	131.19
467.829	159.19
468.049	368.19
468.268	567.19
468.488	153.19
468.707	99.19
468.927	89.19
469.146	85.19
469.365	91.19
469.585	93.19
469.804	89.19
470.023	100.19
470.243	108.19
470.462	102.19
470.681	125.19
470.901	106.19
471.12	92.19
471.339	104.19
471.558	110.19
471.777	108.19
471.997	207.19
472.216	697.19
472.435	1562.19
472.654	392.19
472.873	143.19
473.092	89.19
473.311	85.19
473.53	94.19
473.749	91.19
473.968	83.19
474.187	124.19
474.406	98.19
474.625	71.19
474.844	82.19
475.063	77.19
475.282	77.19
475.501	80.19
475.72	77.19
475.939	87.19
476.158	83.19
476.377	89.19
476.596	99.19
476.814	91.19
477.033	90.19
477.252	84.19
477.471	99.19
477.69	95.19
477.908	88.19
478.127	95.19
478.346	86.19
478.564	102.19
478.783	115.19
479.002	107.19
479.22	104.19
479.439	106.19
479.658	119.19
479.876	103.19
480.095	107.19
480.313	123.19
480.532	137.19
480.751	210.19
480.969	642.19
481.188	2642.19
481.406	1604.19
481.624	265.19
481.843	119.19
482.061	82.19
482.28	96.19
482.498	77.19
482.717	94.19
482.935	101.19
483.153	99.19
483.372	84.19
483.59	91.19
483.808	88.19
484.027	98.19
484.245	105.19
484.463	107.19
484.681	87.19
484.9	86.19
485.118	87.19
485.336	87.19
485.554	98.19
485.772	92.19
485.99	87.19
486.209	99.19
486.427	98.19
486.645	110.19
486.863	121.19
487.081	107.19
487.299	87.19
487.517	87.19
487.735	72.19
487.953	99.19
488.171	89.19
488.389	92.19
488.607	88.19
488.825	87.19
489.043	94.19
489.261	96.19
489.479	94.19
489.696	82.19
489.914	96.19
490.132	88.19
490.35	83.19
490.568	89.19
490.786	94.19
491.003	81.19
491.221	88.19
491.439	91.19
491.657	96.19
491.874	92.19
492.092	76.19
492.31	86.19
492.527	93.19
492.745	101.19
492.963	101.19
493.18	85.19
493.398	80.19
493.615	107.19
493.833	81.19
494.05	76.19
494.268	79.19
494.485	91.19
494.703	109.19
494.92	91.19
495.138	89.19
495.355	88.19
495.573	92.19
495.79	78.19
496.008	108.19
496.225	105.19
496.442	97.19
496.66	74.19
496.877	93.19
497.094	95.19
497.312	107.19
497.529	99.19
497.746	89.19
497.963	84.19
498.181	95.19
498.398	96.19
498.615	113.19
498.832	103.19
499.049	97.19
499.267	71.19
499.484	79.19
499.701	100.19
499.918	83.19
500.135	73.19
500.352	98.19
500.569	87.19
500.786	100.19
501.003	80.19
501.22	94.19
501.437	96.19
501.654	99.19
501.871	110.19
502.088	88.19
502.305	87.19
502.522	92.19
502.739	91.19
502.956	102.19
503.172	100.19
503.389	109.19
503.606	116.19
503.823	102.19
504.04	88.19
504.256	111.19
504.473	95.19
504.69	95.19
504.907	92.19
505.123	73.19
505.34	85.19
505.557	89.19
505.773	91.19
505.99	82.19
506.207	80.19
506.423	85.19
506.64	98.19
506.856	86.19
507.073	99.19
507.289	101.19
507.506	90.19
507.722	125.19
507.939	123.19
508.155	94.19
508.372	93.19
508.588	86.19
508.805	89.19
509.021	102.19
509.238	107.19
509.454	93.19
509.67	107.19
509.887	119.19
510.103	140.19
510.319	222.19
510.536	832.19
510.752	2674.19
510.968	752.19
511.184	162.19
511.401	111.19
511.617	107.19
511.833	101.19
512.049	99.19
512.265	102.19
512.481	84.19
512.698	73.19
512.914	87.19
513.13	97.19
513.346	79.19
513.562	97.19
513.778	101.19
513.994	89.19
514.21	107.19
514.426	116.19
