Data from Circ_2004_H10_HRD10591_00002.txt Node
Date: Wed Jan 03 10:33:14 EST 2024
User: Yrep
Spectrometer: HR+D1059
Trigger mode: 1
Integration Time (sec): 1.000000E-1
Scans to average: 1
Electric dark correction enabled: true
Nonlinearity correction enabled: false
Boxcar width: 0
XAxis mode: Wavelengths
Number of Pixels in Spectrum: 2048
>>>>>Begin Spectral Data<<<<<
223.165	-18.44
223.4	-18.44
223.635	-18.44
223.869	-22.44
224.104	-11.44
224.338	-6.44
224.573	-14.44
224.808	-8.44
225.042	-6.44
225.277	-7.44
225.511	-4.44
225.746	-0.44
225.98	6.56
226.215	8.56
226.449	22.56
226.683	24.56
226.918	21.56
227.152	16.56
227.387	33.56
227.621	39.56
227.856	46.56
228.09	35.56
228.324	44.56
228.559	52.56
228.793	43.56
229.027	65.56
229.262	71.56
229.496	70.56
229.73	83.56
229.964	73.56
230.199	75.56
230.433	75.56
230.667	60.56
230.901	78.56
231.136	85.56
231.37	86.56
231.604	73.56
231.838	88.56
232.072	78.56
232.306	78.56
232.541	76.56
232.775	78.56
233.009	63.56
233.243	86.56
233.477	94.56
233.711	87.56
233.945	86.56
234.179	86.56
234.413	93.56
234.647	79.56
234.881	83.56
235.115	80.56
235.349	83.56
235.583	80.56
235.817	77.56
236.051	81.56
236.285	72.56
236.519	67.56
236.753	77.56
236.987	70.56
237.221	79.56
237.455	87.56
237.689	76.56
237.922	79.56
238.156	63.56
238.39	68.56
238.624	88.56
238.858	76.56
239.091	77.56
239.325	65.56
239.559	83.56
239.793	75.56
240.027	70.56
240.26	83.56
240.494	81.56
240.728	80.56
240.961	76.56
241.195	66.56
241.429	73.56
241.662	69.56
241.896	69.56
242.13	61.56
242.363	79.56
242.597	74.56
242.83	71.56
243.064	61.56
243.298	66.56
243.531	77.56
243.765	73.56
243.998	81.56
244.232	68.56
244.465	86.56
244.699	77.56
244.932	88.56
245.166	76.56
245.399	80.56
245.633	79.56
245.866	67.56
246.099	73.56
246.333	67.56
246.566	68.56
246.8	75.56
247.033	79.56
247.266	76.56
247.5	80.56
247.733	73.56
247.966	73.56
248.2	81.56
248.433	71.56
248.666	96.56
248.899	92.56
249.133	85.56
249.366	87.56
249.599	73.56
249.832	82.56
250.066	76.56
250.299	83.56
250.532	86.56
250.765	65.56
250.998	80.56
251.231	77.56
251.465	79.56
251.698	71.56
251.931	84.56
252.164	75.56
252.397	76.56
252.63	82.56
252.863	88.56
253.096	82.56
253.329	78.56
253.562	80.56
253.795	95.56
254.028	83.56
254.261	79.56
254.494	73.56
254.727	72.56
254.96	63.56
255.193	88.56
255.426	76.56
255.659	87.56
255.892	91.56
256.124	83.56
256.357	86.56
256.59	85.56
256.823	78.56
257.056	72.56
257.289	70.56
257.521	79.56
257.754	85.56
257.987	82.56
258.22	91.56
258.452	80.56
258.685	76.56
258.918	80.56
259.151	82.56
259.383	81.56
259.616	82.56
259.849	86.56
260.081	85.56
260.314	88.56
260.547	94.56
260.779	63.56
261.012	68.56
261.244	82.56
261.477	88.56
261.71	92.56
261.942	94.56
262.175	102.56
262.407	84.56
262.64	89.56
262.872	84.56
263.105	80.56
263.337	98.56
263.57	91.56
263.802	84.56
264.035	85.56
264.267	79.56
264.499	98.56
264.732	81.56
264.964	86.56
265.197	74.56
265.429	70.56
265.661	78.56
265.894	86.56
266.126	94.56
266.358	73.56
266.591	74.56
266.823	80.56
267.055	89.56
267.287	90.56
267.52	89.56
267.752	97.56
267.984	83.56
268.216	79.56
268.448	97.56
268.681	93.56
268.913	95.56
269.145	96.56
269.377	72.56
269.609	84.56
269.841	90.56
270.073	86.56
270.306	78.56
270.538	89.56
270.77	87.56
271.002	66.56
271.234	80.56
271.466	80.56
271.698	83.56
271.93	85.56
272.162	76.56
272.394	97.56
272.626	88.56
272.858	73.56
273.09	80.56
273.322	90.56
273.553	87.56
273.785	86.56
274.017	77.56
274.249	71.56
274.481	90.56
274.713	87.56
274.945	87.56
275.176	78.56
275.408	85.56
275.64	84.56
275.872	93.56
276.104	95.56
276.335	87.56
276.567	103.56
276.799	99.56
277.031	92.56
277.262	91.56
277.494	88.56
277.726	80.56
277.957	98.56
278.189	88.56
278.421	84.56
278.652	80.56
278.884	97.56
279.115	72.56
279.347	84.56
279.579	85.56
279.81	86.56
280.042	95.56
280.273	92.56
280.505	88.56
280.736	80.56
280.968	89.56
281.199	77.56
281.431	87.56
281.662	86.56
281.894	90.56
282.125	84.56
282.356	101.56
282.588	108.56
282.819	92.56
283.051	80.56
283.282	81.56
283.513	87.56
283.745	73.56
283.976	81.56
284.207	88.56
284.439	79.56
284.67	88.56
284.901	77.56
285.132	93.56
285.364	85.56
285.595	81.56
285.826	90.56
286.057	81.56
286.288	75.56
286.52	70.56
286.751	82.56
286.982	85.56
287.213	89.56
287.444	95.56
287.675	90.56
287.906	96.56
288.138	96.56
288.369	87.56
288.6	85.56
288.831	77.56
289.062	93.56
289.293	83.56
289.524	93.56
289.755	83.56
289.986	86.56
290.217	87.56
290.448	89.56
290.679	93.56
290.91	77.56
291.141	81.56
291.371	77.56
291.602	76.56
291.833	84.56
292.064	85.56
292.295	87.56
292.526	94.56
292.757	83.56
292.987	88.56
293.218	89.56
293.449	81.56
293.68	96.56
293.91	85.56
294.141	97.56
294.372	89.56
294.603	92.56
294.833	74.56
295.064	81.56
295.295	91.56
295.525	81.56
295.756	101.56
295.987	114.56
296.217	116.56
296.448	95.56
296.679	86.56
296.909	92.56
297.14	78.56
297.37	86.56
297.601	92.56
297.831	91.56
298.062	85.56
298.292	84.56
298.523	93.56
298.753	93.56
298.984	90.56
299.214	82.56
299.445	94.56
299.675	99.56
299.905	97.56
300.136	81.56
300.366	79.56
300.597	81.56
300.827	86.56
301.057	99.56
301.288	91.56
301.518	101.56
301.748	88.56
301.979	104.56
302.209	77.56
302.439	88.56
302.669	88.56
302.9	72.56
303.13	87.56
303.36	90.56
303.59	115.56
303.82	107.56
304.051	100.56
304.281	88.56
304.511	86.56
304.741	82.56
304.971	85.56
305.201	75.56
305.431	89.56
305.661	91.56
305.891	82.56
306.121	73.56
306.352	104.56
306.582	96.56
306.812	91.56
307.042	86.56
307.272	67.56
307.502	88.56
307.731	103.56
307.961	94.56
308.191	107.56
308.421	96.56
308.651	95.56
308.881	74.56
309.111	89.56
309.341	94.56
309.571	101.56
309.8	93.56
310.03	104.56
310.26	86.56
310.49	87.56
310.72	83.56
310.949	88.56
311.179	87.56
311.409	80.56
311.639	99.56
311.868	102.56
312.098	114.56
312.328	87.56
312.557	93.56
312.787	94.56
313.017	110.56
313.246	94.56
313.476	72.56
313.706	81.56
313.935	98.56
314.165	89.56
314.394	87.56
314.624	95.56
314.853	81.56
315.083	96.56
315.312	101.56
315.542	74.56
315.771	94.56
316.001	78.56
316.23	99.56
316.46	93.56
316.689	81.56
316.919	92.56
317.148	99.56
317.377	98.56
317.607	93.56
317.836	99.56
318.065	93.56
318.295	79.56
318.524	86.56
318.753	74.56
318.983	96.56
319.212	102.56
319.441	94.56
319.67	95.56
319.9	81.56
320.129	83.56
320.358	77.56
320.587	89.56
320.816	85.56
321.046	87.56
321.275	100.56
321.504	94.56
321.733	100.56
321.962	89.56
322.191	105.56
322.42	105.56
322.649	108.56
322.878	95.56
323.108	106.56
323.337	118.56
323.566	120.56
323.795	151.56
324.024	187.56
324.253	330.56
324.482	674.56
324.71	1355.56
324.939	1701.56
325.168	659.56
325.397	214.56
325.626	128.56
325.855	109.56
326.084	110.56
326.313	119.56
326.542	151.56
326.77	198.56
326.999	369.56
327.228	787.56
327.457	1351.56
327.686	1129.56
327.914	323.56
328.143	196.56
328.372	160.56
328.6	125.56
328.829	123.56
329.058	119.56
329.287	114.56
329.515	107.56
329.744	112.56
329.972	133.56
330.201	190.56
330.43	212.56
330.658	144.56
330.887	131.56
331.115	117.56
331.344	102.56
331.572	89.56
331.801	107.56
332.03	95.56
332.258	108.56
332.486	102.56
332.715	94.56
332.943	96.56
333.172	95.56
333.4	94.56
333.629	109.56
333.857	111.56
334.085	122.56
334.314	158.56
334.542	244.56
334.771	232.56
334.999	118.56
335.227	106.56
335.455	95.56
335.684	96.56
335.912	100.56
336.14	102.56
336.369	91.56
336.597	106.56
336.825	107.56
337.053	88.56
337.281	93.56
337.51	104.56
337.738	92.56
337.966	96.56
338.194	85.56
338.422	95.56
338.65	85.56
338.878	95.56
339.106	75.56
339.334	93.56
339.562	100.56
339.79	82.56
340.018	94.56
340.246	99.56
340.474	85.56
340.702	93.56
340.93	92.56
341.158	86.56
341.386	80.56
341.614	87.56
341.842	96.56
342.07	71.56
342.298	87.56
342.526	89.56
342.754	81.56
342.981	89.56
343.209	84.56
343.437	98.56
343.665	79.56
343.893	66.56
344.12	89.56
344.348	102.56
344.576	90.56
344.804	78.56
345.031	87.56
345.259	107.56
345.487	87.56
345.714	99.56
345.942	101.56
346.17	88.56
346.397	98.56
346.625	93.56
346.853	100.56
347.08	83.56
347.308	87.56
347.535	91.56
347.763	102.56
347.99	91.56
348.218	89.56
348.445	99.56
348.673	99.56
348.9	100.56
349.128	96.56
349.355	94.56
349.583	84.56
349.81	94.56
350.037	92.56
350.265	85.56
350.492	92.56
350.72	93.56
350.947	89.56
351.174	100.56
351.402	112.56
351.629	120.56
351.856	96.56
352.083	94.56
352.311	107.56
352.538	108.56
352.765	101.56
352.992	94.56
353.22	99.56
353.447	96.56
353.674	96.56
353.901	96.56
354.128	88.56
354.355	93.56
354.583	98.56
354.81	108.56
355.037	89.56
355.264	107.56
355.491	97.56
355.718	95.56
355.945	101.56
356.172	100.56
356.399	93.56
356.626	95.56
356.853	92.56
357.08	95.56
357.307	87.56
357.534	87.56
357.761	95.56
357.988	86.56
358.215	98.56
358.441	103.56
358.668	95.56
358.895	89.56
359.122	82.56
359.349	87.56
359.576	104.56
359.802	100.56
360.029	97.56
360.256	102.56
360.483	104.56
360.709	88.56
360.936	108.56
361.163	87.56
361.39	86.56
361.616	84.56
361.843	76.56
362.07	105.56
362.296	104.56
362.523	87.56
362.749	97.56
362.976	79.56
363.203	95.56
363.429	83.56
363.656	90.56
363.882	94.56
364.109	85.56
364.335	106.56
364.562	87.56
364.788	95.56
365.015	104.56
365.241	105.56
365.468	104.56
365.694	89.56
365.92	98.56
366.147	82.56
366.373	94.56
366.599	86.56
366.826	108.56
367.052	92.56
367.278	91.56
367.505	93.56
367.731	97.56
367.957	88.56
368.184	87.56
368.41	83.56
368.636	100.56
368.862	111.56
369.089	98.56
369.315	89.56
369.541	87.56
369.767	92.56
369.993	86.56
370.219	91.56
370.445	88.56
370.672	88.56
370.898	94.56
371.124	85.56
371.35	82.56
371.576	94.56
371.802	85.56
372.028	84.56
372.254	70.56
372.48	93.56
372.706	98.56
372.932	95.56
373.158	103.56
373.384	93.56
373.61	97.56
373.835	83.56
374.061	89.56
374.287	101.56
374.513	92.56
374.739	100.56
374.965	97.56
375.191	88.56
375.416	88.56
375.642	101.56
375.868	96.56
376.094	85.56
376.319	111.56
376.545	95.56
376.771	88.56
376.997	84.56
377.222	79.56
377.448	98.56
377.674	86.56
377.899	84.56
378.125	96.56
378.35	97.56
378.576	96.56
378.802	87.56
379.027	89.56
379.253	86.56
379.478	88.56
379.704	91.56
379.929	86.56
380.155	95.56
380.38	95.56
380.606	82.56
380.831	93.56
381.057	102.56
381.282	96.56
381.507	102.56
381.733	87.56
381.958	117.56
382.184	93.56
382.409	99.56
382.634	98.56
382.86	111.56
383.085	112.56
383.31	102.56
383.535	103.56
383.761	95.56
383.986	123.56
384.211	99.56
384.436	99.56
384.662	104.56
384.887	113.56
385.112	116.56
385.337	101.56
385.562	112.56
385.787	114.56
386.013	117.56
386.238	119.56
386.463	114.56
386.688	117.56
386.913	92.56
387.138	105.56
387.363	108.56
387.588	109.56
387.813	113.56
388.038	116.56
388.263	118.56
388.488	106.56
388.713	91.56
388.938	88.56
389.163	97.56
389.387	92.56
389.612	88.56
389.837	100.56
390.062	86.56
390.287	112.56
390.512	100.56
390.736	112.56
390.961	77.56
391.186	93.56
391.411	89.56
391.636	78.56
391.86	93.56
392.085	92.56
392.31	93.56
392.534	81.56
392.759	81.56
392.984	96.56
393.208	121.56
393.433	113.56
393.658	102.56
393.882	81.56
394.107	100.56
394.331	86.56
394.556	93.56
394.78	103.56
395.005	76.56
395.229	81.56
395.454	95.56
395.678	77.56
395.903	74.56
396.127	85.56
396.352	96.56
396.576	85.56
396.801	103.56
397.025	87.56
397.249	73.56
397.474	97.56
397.698	83.56
397.922	89.56
398.147	79.56
398.371	83.56
398.595	78.56
398.82	89.56
399.044	93.56
399.268	80.56
399.492	80.56
399.717	89.56
399.941	92.56
400.165	81.56
400.389	84.56
400.613	91.56
400.837	84.56
401.062	80.56
401.286	89.56
401.51	88.56
401.734	87.56
401.958	95.56
402.182	115.56
402.406	129.56
402.63	113.56
402.854	102.56
403.078	84.56
403.302	87.56
403.526	90.56
403.75	97.56
403.974	87.56
404.198	84.56
404.422	69.56
404.645	96.56
404.869	76.56
405.093	87.56
405.317	92.56
405.541	95.56
405.765	97.56
405.988	101.56
406.212	134.56
406.436	183.56
406.66	126.56
406.883	96.56
407.107	93.56
407.331	105.56
407.555	100.56
407.778	107.56
408.002	87.56
408.226	95.56
408.449	96.56
408.673	76.56
408.896	84.56
409.12	85.56
409.344	86.56
409.567	93.56
409.791	94.56
410.014	95.56
410.238	84.56
410.461	95.56
410.685	109.56
410.908	108.56
411.132	109.56
411.355	104.56
411.578	87.56
411.802	100.56
412.025	93.56
412.249	97.56
412.472	87.56
412.695	107.56
412.919	86.56
413.142	89.56
413.365	100.56
413.589	77.56
413.812	83.56
414.035	99.56
414.258	93.56
414.482	85.56
414.705	100.56
414.928	95.56
415.151	98.56
415.374	101.56
415.597	90.56
415.821	82.56
416.044	88.56
416.267	95.56
416.49	71.56
416.713	97.56
416.936	92.56
417.159	84.56
417.382	94.56
417.605	87.56
417.828	108.56
418.051	81.56
418.274	87.56
418.497	96.56
418.72	94.56
418.943	88.56
419.166	89.56
419.389	92.56
419.611	92.56
419.834	83.56
420.057	80.56
420.28	99.56
420.503	84.56
420.726	91.56
420.948	101.56
421.171	88.56
421.394	98.56
421.617	93.56
421.839	79.56
422.062	91.56
422.285	97.56
422.507	89.56
422.73	110.56
422.953	111.56
423.175	95.56
423.398	89.56
423.621	88.56
423.843	88.56
424.066	98.56
424.288	83.56
424.511	76.56
424.733	93.56
424.956	94.56
425.178	99.56
425.401	99.56
425.623	111.56
425.846	88.56
426.068	85.56
426.291	84.56
426.513	96.56
426.735	84.56
426.958	91.56
427.18	108.56
427.402	130.56
427.625	155.56
427.847	126.56
428.069	123.56
428.292	110.56
428.514	87.56
428.736	89.56
428.958	78.56
429.181	80.56
429.403	88.56
429.625	81.56
429.847	92.56
430.069	108.56
430.292	89.56
430.514	78.56
430.736	88.56
430.958	81.56
431.18	89.56
431.402	87.56
431.624	74.56
431.846	89.56
432.068	69.56
432.29	77.56
432.512	90.56
432.734	93.56
432.956	98.56
433.178	103.56
433.4	92.56
433.622	90.56
433.844	82.56
434.066	95.56
434.287	102.56
434.509	88.56
434.731	94.56
434.953	84.56
435.175	96.56
435.397	83.56
435.618	84.56
435.84	108.56
436.062	105.56
436.284	116.56
436.505	103.56
436.727	92.56
436.949	95.56
437.17	100.56
437.392	77.56
437.614	96.56
437.835	98.56
438.057	109.56
438.278	101.56
438.5	99.56
438.721	116.56
438.943	98.56
439.165	89.56
439.386	96.56
439.608	91.56
439.829	92.56
440.05	105.56
440.272	118.56
440.493	97.56
440.715	84.56
440.936	87.56
441.158	88.56
441.379	88.56
441.6	87.56
441.822	88.56
442.043	82.56
442.264	102.56
442.486	97.56
442.707	81.56
442.928	102.56
443.149	125.56
443.371	118.56
443.592	91.56
443.813	94.56
444.034	83.56
444.255	89.56
444.476	84.56
444.698	101.56
444.919	88.56
445.14	127.56
445.361	117.56
445.582	96.56
445.803	123.56
446.024	110.56
446.245	126.56
446.466	101.56
446.687	100.56
446.908	87.56
447.129	89.56
447.35	85.56
447.571	95.56
447.792	79.56
448.013	95.56
448.234	83.56
448.455	99.56
448.675	91.56
448.896	124.56
449.117	97.56
449.338	98.56
449.559	111.56
449.779	117.56
450	98.56
450.221	86.56
450.442	88.56
450.662	79.56
450.883	107.56
451.104	99.56
451.324	83.56
451.545	71.56
451.766	85.56
451.986	87.56
452.207	90.56
452.428	81.56
452.648	92.56
452.869	98.56
453.089	99.56
453.31	111.56
453.53	99.56
453.751	88.56
453.971	99.56
454.192	101.56
454.412	100.56
454.633	97.56
454.853	84.56
455.073	77.56
455.294	83.56
455.514	80.56
455.734	77.56
455.955	87.56
456.175	83.56
456.395	84.56
456.616	85.56
456.836	83.56
457.056	87.56
457.276	85.56
457.497	80.56
457.717	88.56
457.937	83.56
458.157	102.56
458.377	77.56
458.598	93.56
458.818	137.56
459.038	143.56
459.258	95.56
459.478	83.56
459.698	82.56
459.918	89.56
460.138	88.56
460.358	94.56
460.578	78.56
460.798	91.56
461.018	95.56
461.238	78.56
461.458	72.56
461.678	73.56
461.898	92.56
462.118	87.56
462.338	87.56
462.558	88.56
462.777	83.56
462.997	88.56
463.217	100.56
463.437	89.56
463.657	81.56
463.876	92.56
464.096	96.56
464.316	79.56
464.536	83.56
464.755	68.56
464.975	96.56
465.195	157.56
465.414	145.56
465.634	86.56
465.854	91.56
466.073	89.56
466.293	83.56
466.512	77.56
466.732	91.56
466.951	80.56
467.171	84.56
467.391	98.56
467.61	97.56
467.829	95.56
468.049	143.56
468.268	150.56
468.488	81.56
468.707	77.56
468.927	92.56
469.146	77.56
469.365	88.56
469.585	96.56
469.804	90.56
470.023	81.56
470.243	88.56
470.462	86.56
470.681	116.56
470.901	81.56
471.12	99.56
471.339	95.56
471.558	85.56
471.777	89.56
471.997	103.56
472.216	189.56
472.435	312.56
472.654	115.56
472.873	91.56
473.092	77.56
473.311	87.56
473.53	86.56
473.749	86.56
473.968	89.56
474.187	87.56
474.406	81.56
474.625	92.56
474.844	97.56
475.063	80.56
475.282	94.56
475.501	76.56
475.72	92.56
475.939	88.56
476.158	86.56
476.377	84.56
476.596	81.56
476.814	95.56
477.033	84.56
477.252	88.56
477.471	89.56
477.69	85.56
477.908	72.56
478.127	91.56
478.346	68.56
478.564	91.56
478.783	94.56
479.002	85.56
479.22	91.56
479.439	85.56
479.658	89.56
479.876	87.56
480.095	109.56
480.313	92.56
480.532	88.56
480.751	109.56
480.969	215.56
481.188	504.56
481.406	338.56
481.624	117.56
481.843	91.56
482.061	87.56
482.28	80.56
482.498	75.56
482.717	94.56
482.935	79.56
483.153	82.56
483.372	89.56
483.59	95.56
483.808	95.56
484.027	91.56
484.245	84.56
484.463	79.56
484.681	87.56
484.9	101.56
485.118	91.56
485.336	79.56
485.554	108.56
485.772	93.56
485.99	102.56
486.209	104.56
486.427	111.56
486.645	106.56
486.863	115.56
487.081	93.56
487.299	79.56
487.517	86.56
487.735	87.56
487.953	83.56
488.171	114.56
488.389	116.56
488.607	85.56
488.825	93.56
489.043	88.56
489.261	93.56
489.479	98.56
489.696	79.56
489.914	96.56
490.132	85.56
490.35	83.56
490.568	82.56
490.786	79.56
491.003	86.56
491.221	99.56
491.439	75.56
491.657	100.56
491.874	80.56
492.092	68.56
492.31	101.56
492.527	83.56
492.745	78.56
492.963	94.56
493.18	85.56
493.398	86.56
493.615	88.56
493.833	76.56
494.05	80.56
494.268	97.56
494.485	108.56
494.703	102.56
494.92	87.56
495.138	88.56
495.355	94.56
495.573	100.56
495.79	94.56
496.008	100.56
496.225	105.56
496.442	89.56
496.66	96.56
496.877	88.56
497.094	89.56
497.312	78.56
497.529	85.56
497.746	91.56
497.963	93.56
498.181	83.56
498.398	86.56
498.615	111.56
498.832	102.56
499.049	90.56
499.267	87.56
499.484	81.56
499.701	91.56
499.918	86.56
500.135	88.56
500.352	80.56
500.569	72.56
500.786	91.56
501.003	94.56
501.22	74.56
501.437	89.56
501.654	87.56
501.871	86.56
502.088	90.56
502.305	84.56
502.522	90.56
502.739	85.56
502.956	96.56
503.172	68.56
503.389	101.56
503.606	100.56
503.823	96.56
504.04	79.56
504.256	82.56
504.473	97.56
504.69	94.56
504.907	95.56
505.123	102.56
505.34	87.56
505.557	76.56
505.773	97.56
505.99	87.56
506.207	73.56
506.423	82.56
506.64	99.56
506.856	71.56
507.073	95.56
507.289	106.56
507.506	97.56
507.722	84.56
507.939	104.56
508.155	110.56
508.372	95.56
508.588	79.56
508.805	96.56
509.021	110.56
509.238	84.56
509.454	91.56
509.67	86.56
509.887	93.56
510.103	120.56
510.319	197.56
510.536	577.56
510.752	1739.56
510.968	516.56
511.184	135.56
511.401	103.56
511.617	95.56
511.833	92.56
512.049	79.56
512.265	104.56
512.481	93.56
512.698	80.56
512.914	83.56
513.13	91.56
513.346	81.56
513.562	97.56
513.778	97.56
513.994	84.56
514.21	88.56
514.426	104.56
514.642	116.56
514.858	120.56
515.074	145.56
515.29	367.56
515.506	1075.56
515.721	414.56
515.937	135.56
516.153	90.56
