Data from Circ_2004_H10_HRD10591_00084.txt Node
Date: Wed Jan 03 10:33:31 EST 2024
User: Yrep
Spectrometer: HR+D1059
Trigger mode: 1
Integration Time (sec): 1.000000E-1
Scans to average: 1
Electric dark correction enabled: true
Nonlinearity correction enabled: false
Boxcar width: 0
XAxis mode: Wavelengths
Number of Pixels in Spectrum: 2048
>>>>>Begin Spectral Data<<<<<
223.165	-15.5
223.4	-15.5
223.635	-15.5
223.869	-26.5
224.104	-17.5
224.338	-18.5
224.573	-21.5
224.808	-20.5
225.042	-7.5
225.277	-1.5
225.511	-13.5
225.746	8.5
225.98	13.5
226.215	12.5
226.449	29.5
226.683	21.5
226.918	25.5
227.152	31.5
227.387	32.5
227.621	47.5
227.856	42.5
228.09	44.5
228.324	40.5
228.559	54.5
228.793	63.5
229.027	58.5
229.262	65.5
229.496	79.5
229.73	100.5
229.964	92.5
230.199	77.5
230.433	80.5
230.667	81.5
230.901	73.5
231.136	69.5
231.37	74.5
231.604	75.5
231.838	97.5
232.072	79.5
232.306	84.5
232.541	85.5
232.775	83.5
233.009	81.5
233.243	91.5
233.477	102.5
233.711	69.5
233.945	89.5
234.179	91.5
234.413	72.5
234.647	81.5
234.881	83.5
235.115	68.5
235.349	75.5
235.583	92.5
235.817	72.5
236.051	80.5
236.285	77.5
236.519	80.5
236.753	82.5
236.987	77.5
237.221	106.5
237.455	96.5
237.689	77.5
237.922	61.5
238.156	68.5
238.39	74.5
238.624	78.5
238.858	83.5
239.091	90.5
239.325	80.5
239.559	66.5
239.793	88.5
240.027	93.5
240.26	72.5
240.494	67.5
240.728	76.5
240.961	69.5
241.195	85.5
241.429	83.5
241.662	80.5
241.896	79.5
242.13	82.5
242.363	72.5
242.597	78.5
242.83	69.5
243.064	72.5
243.298	77.5
243.531	67.5
243.765	72.5
243.998	82.5
244.232	85.5
244.465	103.5
244.699	69.5
244.932	69.5
245.166	77.5
245.399	56.5
245.633	85.5
245.866	76.5
246.099	75.5
246.333	86.5
246.566	84.5
246.8	81.5
247.033	76.5
247.266	84.5
247.5	90.5
247.733	78.5
247.966	88.5
248.2	84.5
248.433	83.5
248.666	85.5
248.899	95.5
249.133	98.5
249.366	107.5
249.599	108.5
249.832	85.5
250.066	76.5
250.299	78.5
250.532	80.5
250.765	92.5
250.998	77.5
251.231	84.5
251.465	76.5
251.698	89.5
251.931	100.5
252.164	77.5
252.397	70.5
252.63	85.5
252.863	78.5
253.096	91.5
253.329	80.5
253.562	76.5
253.795	84.5
254.028	89.5
254.261	78.5
254.494	76.5
254.727	93.5
254.96	92.5
255.193	88.5
255.426	80.5
255.659	83.5
255.892	87.5
256.124	84.5
256.357	89.5
256.59	78.5
256.823	82.5
257.056	94.5
257.289	81.5
257.521	87.5
257.754	108.5
257.987	88.5
258.22	99.5
258.452	88.5
258.685	92.5
258.918	87.5
259.151	95.5
259.383	74.5
259.616	82.5
259.849	89.5
260.081	90.5
260.314	87.5
260.547	70.5
260.779	80.5
261.012	97.5
261.244	101.5
261.477	101.5
261.71	85.5
261.942	111.5
262.175	122.5
262.407	97.5
262.64	78.5
262.872	79.5
263.105	94.5
263.337	93.5
263.57	96.5
263.802	91.5
264.035	86.5
264.267	88.5
264.499	89.5
264.732	93.5
264.964	89.5
265.197	73.5
265.429	90.5
265.661	89.5
265.894	87.5
266.126	97.5
266.358	88.5
266.591	91.5
266.823	76.5
267.055	79.5
267.287	76.5
267.52	81.5
267.752	74.5
267.984	101.5
268.216	91.5
268.448	70.5
268.681	73.5
268.913	109.5
269.145	80.5
269.377	77.5
269.609	94.5
269.841	77.5
270.073	93.5
270.306	87.5
270.538	89.5
270.77	79.5
271.002	84.5
271.234	107.5
271.466	105.5
271.698	101.5
271.93	71.5
272.162	81.5
272.394	91.5
272.626	92.5
272.858	86.5
273.09	91.5
273.322	84.5
273.553	93.5
273.785	81.5
274.017	104.5
274.249	98.5
274.481	82.5
274.713	92.5
274.945	92.5
275.176	84.5
275.408	89.5
275.64	99.5
275.872	107.5
276.104	98.5
276.335	83.5
276.567	107.5
276.799	129.5
277.031	145.5
277.262	155.5
277.494	123.5
277.726	103.5
277.957	79.5
278.189	105.5
278.421	90.5
278.652	80.5
278.884	91.5
279.115	92.5
279.347	87.5
279.579	84.5
279.81	118.5
280.042	142.5
280.273	184.5
280.505	136.5
280.736	88.5
280.968	89.5
281.199	83.5
281.431	75.5
281.662	92.5
281.894	97.5
282.125	103.5
282.356	124.5
282.588	155.5
282.819	119.5
283.051	94.5
283.282	82.5
283.513	97.5
283.745	89.5
283.976	97.5
284.207	90.5
284.439	96.5
284.67	82.5
284.901	95.5
285.132	101.5
285.364	97.5
285.595	95.5
285.826	75.5
286.057	96.5
286.288	89.5
286.52	95.5
286.751	84.5
286.982	91.5
287.213	101.5
287.444	95.5
287.675	81.5
287.906	106.5
288.138	92.5
288.369	92.5
288.6	76.5
288.831	84.5
289.062	83.5
289.293	83.5
289.524	104.5
289.755	105.5
289.986	87.5
290.217	91.5
290.448	95.5
290.679	96.5
290.91	92.5
291.141	96.5
291.371	83.5
291.602	81.5
291.833	100.5
292.064	87.5
292.295	89.5
292.526	99.5
292.757	86.5
292.987	95.5
293.218	95.5
293.449	91.5
293.68	78.5
293.91	86.5
294.141	86.5
294.372	99.5
294.603	97.5
294.833	100.5
295.064	92.5
295.295	78.5
295.525	94.5
295.756	100.5
295.987	120.5
296.217	147.5
296.448	133.5
296.679	95.5
296.909	91.5
297.14	109.5
297.37	92.5
297.601	101.5
297.831	98.5
298.062	83.5
298.292	92.5
298.523	93.5
298.753	96.5
298.984	104.5
299.214	98.5
299.445	85.5
299.675	97.5
299.905	109.5
300.136	77.5
300.366	104.5
300.597	105.5
300.827	86.5
301.057	95.5
301.288	103.5
301.518	116.5
301.748	102.5
301.979	104.5
302.209	86.5
302.439	85.5
302.669	89.5
302.9	81.5
303.13	98.5
303.36	117.5
303.59	106.5
303.82	119.5
304.051	104.5
304.281	89.5
304.511	91.5
304.741	93.5
304.971	96.5
305.201	79.5
305.431	103.5
305.661	97.5
305.891	100.5
306.121	104.5
306.352	107.5
306.582	111.5
306.812	113.5
307.042	101.5
307.272	136.5
307.502	167.5
307.731	139.5
307.961	111.5
308.191	104.5
308.421	83.5
308.651	101.5
308.881	91.5
309.111	92.5
309.341	95.5
309.571	102.5
309.8	107.5
310.03	104.5
310.26	84.5
310.49	91.5
310.72	100.5
310.949	127.5
311.179	103.5
311.409	99.5
311.639	102.5
311.868	83.5
312.098	88.5
312.328	106.5
312.557	109.5
312.787	113.5
313.017	121.5
313.246	108.5
313.476	108.5
313.706	86.5
313.935	106.5
314.165	94.5
314.394	110.5
314.624	92.5
314.853	91.5
315.083	93.5
315.312	96.5
315.542	96.5
315.771	97.5
316.001	100.5
316.23	96.5
316.46	82.5
316.689	95.5
316.919	98.5
317.148	94.5
317.377	92.5
317.607	98.5
317.836	110.5
318.065	107.5
318.295	94.5
318.524	98.5
318.753	86.5
318.983	104.5
319.212	109.5
319.441	102.5
319.67	126.5
319.9	99.5
320.129	94.5
320.358	93.5
320.587	92.5
320.816	102.5
321.046	108.5
321.275	109.5
321.504	95.5
321.733	97.5
321.962	119.5
322.191	116.5
322.42	111.5
322.649	132.5
322.878	129.5
323.108	117.5
323.337	149.5
323.566	148.5
323.795	177.5
324.024	248.5
324.253	461.5
324.482	967.5
324.71	2068.5
324.939	2746.5
325.168	984.5
325.397	289.5
325.626	157.5
325.855	147.5
326.084	140.5
326.313	129.5
326.542	161.5
326.77	265.5
326.999	531.5
327.228	1059.5
327.457	2063.5
327.686	1649.5
327.914	493.5
328.143	404.5
328.372	460.5
328.6	263.5
328.829	157.5
329.058	182.5
329.287	171.5
329.515	144.5
329.744	197.5
329.972	312.5
330.201	620.5
330.43	902.5
330.658	443.5
330.887	233.5
331.115	164.5
331.344	121.5
331.572	111.5
331.801	118.5
332.03	120.5
332.258	113.5
332.486	112.5
332.715	111.5
332.943	96.5
333.172	118.5
333.4	121.5
333.629	147.5
333.857	195.5
334.085	295.5
334.314	575.5
334.542	1119.5
334.771	1102.5
334.999	313.5
335.227	151.5
335.455	112.5
335.684	111.5
335.912	106.5
336.14	107.5
336.369	112.5
336.597	109.5
336.825	113.5
337.053	93.5
337.281	98.5
337.51	103.5
337.738	89.5
337.966	92.5
338.194	105.5
338.422	90.5
338.65	97.5
338.878	108.5
339.106	91.5
339.334	96.5
339.562	82.5
339.79	86.5
340.018	99.5
340.246	109.5
340.474	108.5
340.702	104.5
340.93	93.5
341.158	95.5
341.386	106.5
341.614	107.5
341.842	101.5
342.07	96.5
342.298	99.5
342.526	100.5
342.754	104.5
342.981	104.5
343.209	105.5
343.437	98.5
343.665	101.5
343.893	93.5
344.12	90.5
344.348	86.5
344.576	93.5
344.804	90.5
345.031	106.5
345.259	103.5
345.487	95.5
345.714	102.5
345.942	108.5
346.17	90.5
346.397	84.5
346.625	78.5
346.853	104.5
347.08	99.5
347.308	93.5
347.535	98.5
347.763	101.5
347.99	102.5
348.218	97.5
348.445	112.5
348.673	102.5
348.9	103.5
349.128	97.5
349.355	102.5
349.583	104.5
349.81	89.5
350.037	92.5
350.265	103.5
350.492	83.5
350.72	100.5
350.947	96.5
351.174	114.5
351.402	120.5
351.629	119.5
351.856	107.5
352.083	109.5
352.311	106.5
352.538	109.5
352.765	105.5
352.992	120.5
353.22	105.5
353.447	110.5
353.674	91.5
353.901	109.5
354.128	107.5
354.355	100.5
354.583	98.5
354.81	104.5
355.037	89.5
355.264	93.5
355.491	91.5
355.718	83.5
355.945	89.5
356.172	103.5
356.399	110.5
356.626	84.5
356.853	87.5
357.08	92.5
357.307	89.5
357.534	88.5
357.761	92.5
357.988	93.5
358.215	96.5
358.441	96.5
358.668	91.5
358.895	109.5
359.122	93.5
359.349	86.5
359.576	96.5
359.802	114.5
360.029	129.5
360.256	130.5
360.483	98.5
360.709	97.5
360.936	100.5
361.163	89.5
361.39	98.5
361.616	103.5
361.843	91.5
362.07	93.5
362.296	113.5
362.523	104.5
362.749	93.5
362.976	103.5
363.203	90.5
363.429	98.5
363.656	92.5
363.882	89.5
364.109	104.5
364.335	102.5
364.562	98.5
364.788	112.5
365.015	107.5
365.241	112.5
365.468	97.5
365.694	108.5
365.92	94.5
366.147	91.5
366.373	84.5
366.599	97.5
366.826	88.5
367.052	101.5
367.278	102.5
367.505	88.5
367.731	92.5
367.957	103.5
368.184	103.5
368.41	101.5
368.636	121.5
368.862	128.5
369.089	128.5
369.315	107.5
369.541	101.5
369.767	95.5
369.993	107.5
370.219	96.5
370.445	83.5
370.672	90.5
370.898	94.5
371.124	83.5
371.35	91.5
371.576	85.5
371.802	76.5
372.028	91.5
372.254	93.5
372.48	92.5
372.706	88.5
372.932	73.5
373.158	88.5
373.384	92.5
373.61	98.5
373.835	94.5
374.061	93.5
374.287	90.5
374.513	94.5
374.739	100.5
374.965	102.5
375.191	100.5
375.416	78.5
375.642	94.5
375.868	98.5
376.094	90.5
376.319	95.5
376.545	81.5
376.771	97.5
376.997	85.5
377.222	90.5
377.448	79.5
377.674	107.5
377.899	93.5
378.125	91.5
378.35	109.5
378.576	97.5
378.802	83.5
379.027	97.5
379.253	104.5
379.478	105.5
379.704	81.5
379.929	92.5
380.155	89.5
380.38	91.5
380.606	102.5
380.831	95.5
381.057	97.5
381.282	100.5
381.507	90.5
381.733	99.5
381.958	84.5
382.184	96.5
382.409	93.5
382.634	85.5
382.86	93.5
383.085	88.5
383.31	94.5
383.535	76.5
383.761	93.5
383.986	99.5
384.211	88.5
384.436	90.5
384.662	111.5
384.887	110.5
385.112	89.5
385.337	108.5
385.562	112.5
385.787	130.5
386.013	116.5
386.238	108.5
386.463	107.5
386.688	120.5
386.913	106.5
387.138	110.5
387.363	100.5
387.588	104.5
387.813	107.5
388.038	107.5
388.263	110.5
388.488	91.5
388.713	110.5
388.938	103.5
389.163	87.5
389.387	97.5
389.612	99.5
389.837	78.5
390.062	95.5
390.287	92.5
390.512	101.5
390.736	107.5
390.961	83.5
391.186	99.5
391.411	105.5
391.636	105.5
391.86	81.5
392.085	87.5
392.31	85.5
392.534	97.5
392.759	90.5
392.984	83.5
393.208	80.5
393.433	85.5
393.658	76.5
393.882	85.5
394.107	106.5
394.331	78.5
394.556	92.5
394.78	108.5
395.005	92.5
395.229	75.5
395.454	75.5
395.678	86.5
395.903	92.5
396.127	91.5
396.352	95.5
396.576	88.5
396.801	87.5
397.025	77.5
397.249	88.5
397.474	96.5
397.698	87.5
397.922	88.5
398.147	90.5
398.371	99.5
398.595	77.5
398.82	93.5
399.044	88.5
399.268	86.5
399.492	92.5
399.717	83.5
399.941	85.5
400.165	90.5
400.389	92.5
400.613	91.5
400.837	105.5
401.062	96.5
401.286	77.5
401.51	103.5
401.734	96.5
401.958	111.5
402.182	142.5
402.406	173.5
402.63	132.5
402.854	88.5
403.078	96.5
403.302	98.5
403.526	104.5
403.75	99.5
403.974	94.5
404.198	98.5
404.422	97.5
404.645	96.5
404.869	90.5
405.093	109.5
405.317	123.5
405.541	137.5
405.765	118.5
405.988	132.5
406.212	201.5
406.436	268.5
406.66	170.5
406.883	106.5
407.107	92.5
407.331	107.5
407.555	101.5
407.778	93.5
408.002	99.5
408.226	108.5
408.449	83.5
408.673	88.5
408.896	96.5
409.12	97.5
409.344	88.5
409.567	89.5
409.791	107.5
410.014	102.5
410.238	91.5
410.461	100.5
410.685	89.5
410.908	112.5
411.132	109.5
411.355	105.5
411.578	96.5
411.802	104.5
412.025	93.5
412.249	93.5
412.472	129.5
412.695	129.5
412.919	107.5
413.142	91.5
413.365	90.5
413.589	83.5
413.812	88.5
414.035	100.5
414.258	96.5
414.482	86.5
414.705	93.5
414.928	98.5
415.151	93.5
415.374	99.5
415.597	87.5
415.821	106.5
416.044	99.5
416.267	91.5
416.49	95.5
416.713	97.5
416.936	85.5
417.159	87.5
417.382	99.5
417.605	93.5
417.828	111.5
418.051	103.5
418.274	89.5
418.497	100.5
418.72	97.5
418.943	83.5
419.166	88.5
419.389	92.5
419.611	95.5
419.834	93.5
420.057	83.5
420.28	95.5
420.503	93.5
420.726	96.5
420.948	87.5
421.171	106.5
421.394	105.5
421.617	87.5
421.839	108.5
422.062	96.5
422.285	99.5
422.507	105.5
422.73	113.5
422.953	120.5
423.175	90.5
423.398	98.5
423.621	75.5
423.843	80.5
424.066	75.5
424.288	90.5
424.511	91.5
424.733	97.5
424.956	122.5
425.178	104.5
425.401	101.5
425.623	96.5
425.846	93.5
426.068	102.5
426.291	95.5
426.513	100.5
426.735	91.5
426.958	87.5
427.18	123.5
427.402	167.5
427.625	228.5
427.847	199.5
428.069	187.5
428.292	116.5
428.514	100.5
428.736	98.5
428.958	98.5
429.181	92.5
429.403	84.5
429.625	99.5
429.847	99.5
430.069	101.5
430.292	101.5
430.514	81.5
430.736	81.5
430.958	92.5
431.18	82.5
431.402	92.5
431.624	75.5
431.846	78.5
432.068	95.5
432.29	98.5
432.512	87.5
432.734	97.5
432.956	99.5
433.178	111.5
433.4	100.5
433.622	89.5
433.844	83.5
434.066	74.5
434.287	103.5
434.509	107.5
434.731	86.5
434.953	69.5
435.175	98.5
435.397	96.5
435.618	100.5
435.84	120.5
436.062	135.5
436.284	124.5
436.505	106.5
436.727	113.5
436.949	86.5
437.17	81.5
437.392	97.5
437.614	93.5
437.835	118.5
438.057	134.5
438.278	130.5
438.5	109.5
438.721	139.5
438.943	111.5
439.165	100.5
439.386	114.5
439.608	82.5
439.829	101.5
440.05	147.5
440.272	173.5
440.493	107.5
440.715	96.5
440.936	84.5
441.158	110.5
441.379	82.5
441.6	70.5
441.822	103.5
442.043	92.5
442.264	112.5
442.486	124.5
442.707	103.5
442.928	121.5
443.149	177.5
443.371	163.5
443.592	111.5
443.813	125.5
444.034	129.5
444.255	88.5
444.476	90.5
444.698	93.5
444.919	106.5
445.14	145.5
445.361	133.5
445.582	127.5
445.803	163.5
446.024	167.5
446.245	163.5
446.466	135.5
446.687	106.5
446.908	103.5
447.129	81.5
447.35	105.5
447.571	97.5
447.792	106.5
448.013	98.5
448.234	115.5
448.455	112.5
448.675	107.5
448.896	136.5
449.117	107.5
449.338	114.5
449.559	143.5
449.779	150.5
450	116.5
450.221	87.5
450.442	107.5
450.662	119.5
450.883	132.5
451.104	133.5
451.324	97.5
451.545	92.5
451.766	86.5
451.986	92.5
452.207	91.5
452.428	80.5
452.648	105.5
452.869	120.5
453.089	109.5
453.31	131.5
453.53	108.5
453.751	85.5
453.971	103.5
454.192	130.5
454.412	96.5
454.633	105.5
454.853	102.5
455.073	86.5
455.294	89.5
455.514	113.5
455.734	101.5
455.955	83.5
456.175	95.5
456.395	90.5
456.616	91.5
456.836	92.5
457.056	89.5
457.276	72.5
457.497	90.5
457.717	96.5
457.937	85.5
458.157	96.5
458.377	105.5
458.598	123.5
458.818	186.5
459.038	191.5
459.258	136.5
459.478	104.5
459.698	96.5
459.918	82.5
460.138	93.5
460.358	97.5
460.578	93.5
460.798	89.5
461.018	102.5
461.238	107.5
461.458	94.5
461.678	85.5
461.898	87.5
462.118	85.5
462.338	103.5
462.558	71.5
462.777	85.5
462.997	94.5
463.217	88.5
463.437	88.5
463.657	77.5
463.876	89.5
464.096	90.5
464.316	106.5
464.536	81.5
464.755	106.5
464.975	117.5
465.195	190.5
465.414	200.5
465.634	121.5
465.854	99.5
466.073	91.5
466.293	84.5
466.512	97.5
466.732	98.5
466.951	99.5
467.171	98.5
467.391	115.5
467.61	128.5
467.829	177.5
468.049	371.5
468.268	521.5
468.488	177.5
468.707	108.5
468.927	87.5
469.146	92.5
469.365	80.5
469.585	89.5
469.804	104.5
470.023	107.5
470.243	106.5
470.462	124.5
470.681	123.5
470.901	105.5
471.12	101.5
471.339	110.5
471.558	99.5
471.777	123.5
471.997	219.5
472.216	704.5
472.435	1577.5
472.654	405.5
472.873	136.5
473.092	117.5
473.311	98.5
473.53	100.5
473.749	111.5
473.968	101.5
474.187	112.5
474.406	110.5
474.625	78.5
474.844	99.5
475.063	87.5
475.282	94.5
475.501	86.5
475.72	93.5
475.939	88.5
476.158	108.5
476.377	95.5
476.596	88.5
476.814	89.5
477.033	96.5
477.252	103.5
477.471	89.5
477.69	80.5
477.908	85.5
478.127	99.5
478.346	98.5
478.564	90.5
478.783	109.5
479.002	99.5
479.22	102.5
479.439	108.5
479.658	122.5
479.876	97.5
480.095	108.5
480.313	115.5
480.532	156.5
480.751	208.5
480.969	654.5
481.188	2597.5
481.406	1612.5
481.624	266.5
481.843	123.5
482.061	105.5
482.28	101.5
482.498	93.5
482.717	98.5
482.935	90.5
483.153	90.5
483.372	99.5
483.59	93.5
483.808	89.5
484.027	101.5
484.245	101.5
484.463	86.5
484.681	88.5
484.9	101.5
485.118	90.5
485.336	95.5
485.554	100.5
485.772	115.5
485.99	105.5
486.209	102.5
486.427	114.5
486.645	124.5
486.863	129.5
487.081	101.5
487.299	103.5
487.517	104.5
487.735	84.5
487.953	110.5
488.171	104.5
488.389	102.5
488.607	97.5
488.825	97.5
489.043	95.5
489.261	100.5
489.479	88.5
489.696	77.5
489.914	89.5
490.132	100.5
490.35	79.5
490.568	96.5
490.786	97.5
491.003	86.5
491.221	108.5
491.439	85.5
491.657	99.5
491.874	89.5
492.092	94.5
492.31	102.5
492.527	91.5
492.745	93.5
492.963	82.5
493.18	92.5
493.398	85.5
493.615	105.5
493.833	90.5
494.05	87.5
494.268	96.5
494.485	98.5
494.703	96.5
494.92	88.5
495.138	84.5
495.355	86.5
495.573	88.5
495.79	91.5
496.008	92.5
496.225	84.5
496.442	84.5
496.66	88.5
496.877	76.5
497.094	78.5
497.312	97.5
497.529	91.5
497.746	85.5
497.963	88.5
498.181	91.5
498.398	104.5
498.615	97.5
498.832	99.5
499.049	78.5
499.267	91.5
499.484	86.5
499.701	94.5
499.918	97.5
500.135	79.5
500.352	100.5
500.569	83.5
500.786	93.5
501.003	104.5
501.22	92.5
501.437	81.5
501.654	100.5
501.871	119.5
502.088	84.5
502.305	88.5
502.522	95.5
502.739	86.5
502.956	104.5
503.172	88.5
503.389	94.5
503.606	102.5
503.823	111.5
504.04	106.5
504.256	109.5
504.473	87.5
504.69	79.5
504.907	80.5
505.123	85.5
505.34	89.5
505.557	80.5
505.773	84.5
505.99	98.5
506.207	84.5
506.423	83.5
506.64	88.5
506.856	96.5
507.073	86.5
507.289	87.5
507.506	96.5
507.722	118.5
507.939	118.5
508.155	107.5
508.372	93.5
508.588	88.5
508.805	107.5
509.021	97.5
509.238	98.5
509.454	93.5
509.67	108.5
509.887	127.5
510.103	135.5
510.319	219.5
510.536	832.5
510.752	2658.5
510.968	754.5
511.184	172.5
511.401	115.5
511.617	104.5
511.833	97.5
512.049	102.5
512.265	90.5
512.481	97.5
512.698	91.5
512.914	88.5
513.13	92.5
513.346	93.5
513.562	96.5
513.778	89.5
513.994	111.5
514.21	104.5
514.426	138.5
514.642	168.5
514.858	152.5
515.074	202.5
515.29	588.5
515.506	2083.5
515.721	759.5
515.937	199.5
516.153	122.5
516.369	106.5
516.585	90.5
516.801	89.5
517.016	113.5
517.232	97.5
517.448	89.5
517.664	98.5
517.879	112.5
518.095	105.5
518.311	111.5
518.527	100.5
518.742	99.5
518.958	95.5
519.173	89.5
519.389	113.5
519.605	93.5
519.82	99.5
520.036	108.5
520.251	141.5
520.467	130.5
520.682	108.5
520.898	112.5
521.113	123.5
521.329	139.5
521.544	241.5
521.76	773.5
521.975	3471.5
522.19	2096.5
522.406	412.5
522.621	133.5
522.836	127.5
523.052	115.5
523.267	106.5
523.482	87.5
523.698	104.5
523.913	132.5
524.128	116.5
524.343	106.5
524.559	100.5
524.774	104.5
524.989	92.5
525.204	110.5
525.419	116.5
525.634	88.5
525.849	86.5
526.064	96.5
526.28	101.5
526.495	88.5
526.71	102.5
526.925	92.5
527.14	97.5
527.355	89.5
527.57	92.5
527.785	105.5
527.999	90.5
528.214	102.5
528.429	99.5
528.644	100.5
528.859	97.5
529.074	103.5
529.289	135.5
529.503	235.5
529.718	122.5
529.933	83.5
530.148	85.5
530.363	85.5
530.577	89.5
530.792	105.5
531.007	92.5
531.221	97.5
531.436	99.5
531.651	103.5
531.865	82.5
