Data from Circ_2004_H10_HRD10591_00063.txt Node
Date: Wed Jan 03 10:33:26 EST 2024
User: Yrep
Spectrometer: HR+D1059
Trigger mode: 1
Integration Time (sec): 1.000000E-1
Scans to average: 1
Electric dark correction enabled: true
Nonlinearity correction enabled: false
Boxcar width: 0
XAxis mode: Wavelengths
Number of Pixels in Spectrum: 2048
>>>>>Begin Spectral Data<<<<<
223.165	-11
223.4	-11
223.635	-11
223.869	-17
224.104	-18
224.338	-20
224.573	-9
224.808	-17
225.042	-9
225.277	1
225.511	0
225.746	4
225.98	11
226.215	12
226.449	13
226.683	10
226.918	22
227.152	28
227.387	13
227.621	35
227.856	48
228.09	43
228.324	52
228.559	54
228.793	51
229.027	54
229.262	70
229.496	67
229.73	86
229.964	80
230.199	90
230.433	72
230.667	69
230.901	78
231.136	80
231.37	74
231.604	80
231.838	90
232.072	90
232.306	84
232.541	87
232.775	75
233.009	71
233.243	72
233.477	69
233.711	66
233.945	78
234.179	74
234.413	77
234.647	75
234.881	78
235.115	90
235.349	85
235.583	75
235.817	70
236.051	66
236.285	83
236.519	94
236.753	80
236.987	74
237.221	82
237.455	58
237.689	71
237.922	79
238.156	77
238.39	78
238.624	81
238.858	64
239.091	77
239.325	79
239.559	85
239.793	67
240.027	78
240.26	84
240.494	74
240.728	83
240.961	75
241.195	64
241.429	95
241.662	70
241.896	71
242.13	78
242.363	86
242.597	78
242.83	74
243.064	67
243.298	74
243.531	80
243.765	75
243.998	68
244.232	84
244.465	83
244.699	76
244.932	71
245.166	82
245.399	79
245.633	55
245.866	77
246.099	82
246.333	80
246.566	68
246.8	85
247.033	69
247.266	84
247.5	84
247.733	66
247.966	83
248.2	82
248.433	74
248.666	92
248.899	68
249.133	92
249.366	83
249.599	88
249.832	92
250.066	72
250.299	77
250.532	75
250.765	75
250.998	86
251.231	83
251.465	76
251.698	69
251.931	100
252.164	77
252.397	88
252.63	75
252.863	84
253.096	70
253.329	73
253.562	84
253.795	70
254.028	82
254.261	76
254.494	84
254.727	86
254.96	88
255.193	83
255.426	81
255.659	87
255.892	89
256.124	78
256.357	72
256.59	85
256.823	76
257.056	71
257.289	85
257.521	76
257.754	85
257.987	84
258.22	86
258.452	81
258.685	87
258.918	83
259.151	79
259.383	82
259.616	72
259.849	85
260.081	84
260.314	68
260.547	85
260.779	80
261.012	85
261.244	92
261.477	90
261.71	75
261.942	113
262.175	122
262.407	96
262.64	84
262.872	75
263.105	80
263.337	86
263.57	91
263.802	87
264.035	90
264.267	88
264.499	99
264.732	80
264.964	76
265.197	85
265.429	87
265.661	68
265.894	81
266.126	82
266.358	74
266.591	70
266.823	72
267.055	81
267.287	69
267.52	67
267.752	84
267.984	76
268.216	68
268.448	85
268.681	81
268.913	91
269.145	87
269.377	74
269.609	86
269.841	76
270.073	82
270.306	74
270.538	75
270.77	80
271.002	87
271.234	75
271.466	83
271.698	66
271.93	88
272.162	93
272.394	94
272.626	93
272.858	84
273.09	74
273.322	91
273.553	71
273.785	77
274.017	83
274.249	85
274.481	88
274.713	82
274.945	77
275.176	84
275.408	86
275.64	82
275.872	89
276.104	87
276.335	92
276.567	94
276.799	118
277.031	131
277.262	129
277.494	100
277.726	77
277.957	72
278.189	62
278.421	82
278.652	80
278.884	92
279.115	78
279.347	87
279.579	99
279.81	103
280.042	107
280.273	149
280.505	123
280.736	90
280.968	86
281.199	104
281.431	86
281.662	69
281.894	74
282.125	102
282.356	105
282.588	146
282.819	97
283.051	94
283.282	84
283.513	103
283.745	92
283.976	83
284.207	83
284.439	83
284.67	83
284.901	78
285.132	80
285.364	81
285.595	86
285.826	81
286.057	91
286.288	84
286.52	82
286.751	78
286.982	87
287.213	78
287.444	99
287.675	77
287.906	97
288.138	91
288.369	100
288.6	86
288.831	78
289.062	88
289.293	88
289.524	82
289.755	85
289.986	83
290.217	94
290.448	97
290.679	95
290.91	86
291.141	83
291.371	73
291.602	79
291.833	75
292.064	68
292.295	76
292.526	86
292.757	79
292.987	91
293.218	72
293.449	84
293.68	78
293.91	74
294.141	89
294.372	81
294.603	93
294.833	97
295.064	98
295.295	93
295.525	94
295.756	89
295.987	108
296.217	122
296.448	125
296.679	98
296.909	96
297.14	94
297.37	82
297.601	78
297.831	80
298.062	82
298.292	91
298.523	96
298.753	88
298.984	95
299.214	96
299.445	94
299.675	90
299.905	101
300.136	97
300.366	92
300.597	86
300.827	90
301.057	101
301.288	103
301.518	86
301.748	87
301.979	92
302.209	96
302.439	94
302.669	91
302.9	78
303.13	86
303.36	97
303.59	104
303.82	117
304.051	94
304.281	87
304.511	103
304.741	92
304.971	87
305.201	68
305.431	75
305.661	74
305.891	97
306.121	99
306.352	99
306.582	100
306.812	91
307.042	94
307.272	119
307.502	122
307.731	116
307.961	103
308.191	82
308.421	95
308.651	80
308.881	78
309.111	86
309.341	84
309.571	91
309.8	82
310.03	78
310.26	102
310.49	97
310.72	97
310.949	97
311.179	100
311.409	80
311.639	97
311.868	103
312.098	94
312.328	82
312.557	95
312.787	101
313.017	101
313.246	97
313.476	88
313.706	92
313.935	86
314.165	90
314.394	109
314.624	97
314.853	100
315.083	92
315.312	77
315.542	75
315.771	101
316.001	88
316.23	95
316.46	95
316.689	83
316.919	95
317.148	85
317.377	92
317.607	96
317.836	83
318.065	70
318.295	98
318.524	92
318.753	86
318.983	96
319.212	94
319.441	109
319.67	98
319.9	91
320.129	95
320.358	97
320.587	100
320.816	106
321.046	108
321.275	87
321.504	90
321.733	99
321.962	104
322.191	96
322.42	118
322.649	112
322.878	119
323.108	116
323.337	129
323.566	138
323.795	149
324.024	204
324.253	384
324.482	804
324.71	1687
324.939	2221
325.168	793
325.397	234
325.626	141
325.855	118
326.084	127
326.313	144
326.542	152
326.77	231
326.999	468
327.228	926
327.457	1643
327.686	1350
327.914	411
328.143	280
328.372	335
328.6	202
328.829	139
329.058	133
329.287	140
329.515	126
329.744	150
329.972	231
330.201	419
330.43	583
330.658	309
330.887	174
331.115	144
331.344	98
331.572	111
331.801	102
332.03	112
332.258	90
332.486	103
332.715	89
332.943	109
333.172	99
333.4	107
333.629	130
333.857	143
334.085	221
334.314	369
334.542	689
334.771	689
334.999	211
335.227	136
335.455	106
335.684	99
335.912	108
336.14	86
336.369	92
336.597	103
336.825	103
337.053	88
337.281	106
337.51	87
337.738	88
337.966	81
338.194	98
338.422	95
338.65	91
338.878	109
339.106	97
339.334	86
339.562	85
339.79	89
340.018	87
340.246	101
340.474	99
340.702	94
340.93	78
341.158	96
341.386	82
341.614	86
341.842	102
342.07	93
342.298	103
342.526	99
342.754	86
342.981	94
343.209	86
343.437	100
343.665	93
343.893	84
344.12	91
344.348	85
344.576	74
344.804	82
345.031	100
345.259	102
345.487	92
345.714	87
345.942	103
346.17	86
346.397	83
346.625	91
346.853	92
347.08	92
347.308	93
347.535	108
347.763	87
347.99	116
348.218	96
348.445	90
348.673	95
348.9	88
349.128	89
349.355	99
349.583	90
349.81	100
350.037	94
350.265	86
350.492	94
350.72	95
350.947	101
351.174	99
351.402	99
351.629	95
351.856	105
352.083	94
352.311	111
352.538	115
352.765	95
352.992	103
353.22	93
353.447	96
353.674	93
353.901	88
354.128	97
354.355	90
354.583	100
354.81	98
355.037	92
355.264	88
355.491	88
355.718	82
355.945	97
356.172	92
356.399	98
356.626	95
356.853	100
357.08	91
357.307	88
357.534	82
357.761	86
357.988	100
358.215	88
358.441	80
358.668	91
358.895	80
359.122	85
359.349	110
359.576	80
359.802	87
360.029	112
360.256	112
360.483	90
360.709	88
360.936	98
361.163	80
361.39	98
361.616	94
361.843	72
362.07	85
362.296	107
362.523	82
362.749	96
362.976	90
363.203	85
363.429	85
363.656	80
363.882	86
364.109	70
364.335	79
364.562	93
364.788	80
365.015	90
365.241	109
365.468	106
365.694	95
365.92	87
366.147	94
366.373	92
366.599	85
366.826	83
367.052	95
367.278	90
367.505	98
367.731	77
367.957	87
368.184	102
368.41	91
368.636	95
368.862	112
369.089	96
369.315	94
369.541	82
369.767	103
369.993	77
370.219	85
370.445	93
370.672	95
370.898	88
371.124	95
371.35	74
371.576	95
371.802	79
372.028	101
372.254	77
372.48	78
372.706	74
372.932	87
373.158	74
373.384	80
373.61	96
373.835	94
374.061	91
374.287	99
374.513	91
374.739	93
374.965	77
375.191	90
375.416	89
375.642	79
375.868	94
376.094	85
376.319	87
376.545	88
376.771	64
376.997	83
377.222	74
377.448	82
377.674	79
377.899	98
378.125	88
378.35	82
378.576	107
378.802	86
379.027	85
379.253	91
379.478	88
379.704	83
379.929	91
380.155	91
380.38	84
380.606	91
380.831	88
381.057	97
381.282	93
381.507	91
381.733	94
381.958	86
382.184	110
382.409	109
382.634	96
382.86	90
383.085	85
383.31	96
383.535	95
383.761	76
383.986	90
384.211	94
384.436	82
384.662	106
384.887	113
385.112	100
385.337	91
385.562	96
385.787	109
386.013	95
386.238	107
386.463	84
386.688	118
386.913	93
387.138	88
387.363	89
387.588	85
387.813	87
388.038	105
388.263	90
388.488	96
388.713	91
388.938	92
389.163	104
389.387	88
389.612	99
389.837	88
390.062	83
390.287	93
390.512	103
390.736	99
390.961	76
391.186	111
391.411	96
391.636	92
391.86	87
392.085	87
392.31	85
392.534	90
392.759	85
392.984	86
393.208	95
393.433	85
393.658	93
393.882	78
394.107	73
394.331	92
394.556	99
394.78	89
395.005	80
395.229	93
395.454	82
395.678	92
395.903	70
396.127	83
396.352	84
396.576	90
396.801	76
397.025	91
397.249	101
397.474	99
397.698	78
397.922	80
398.147	77
398.371	78
398.595	84
398.82	100
399.044	92
399.268	83
399.492	87
399.717	88
399.941	86
400.165	100
400.389	86
400.613	78
400.837	87
401.062	91
401.286	93
401.51	87
401.734	89
401.958	92
402.182	129
402.406	165
402.63	102
402.854	94
403.078	82
403.302	96
403.526	102
403.75	63
403.974	79
404.198	84
404.422	88
404.645	82
404.869	89
405.093	102
405.317	112
405.541	119
405.765	103
405.988	111
406.212	187
406.436	245
406.66	157
406.883	114
407.107	98
407.331	97
407.555	100
407.778	105
408.002	88
408.226	92
408.449	66
408.673	92
408.896	98
409.12	77
409.344	86
409.567	94
409.791	74
410.014	82
410.238	84
410.461	89
410.685	106
410.908	90
411.132	93
411.355	99
411.578	104
411.802	91
412.025	87
412.249	84
412.472	88
412.695	101
412.919	107
413.142	82
413.365	91
413.589	84
413.812	97
414.035	78
414.258	93
414.482	86
414.705	76
414.928	90
415.151	97
415.374	87
415.597	91
415.821	82
416.044	92
416.267	95
416.49	86
416.713	80
416.936	79
417.159	87
417.382	95
417.605	90
417.828	108
418.051	91
418.274	103
418.497	85
418.72	73
418.943	87
419.166	79
419.389	80
419.611	82
419.834	93
420.057	95
420.28	87
420.503	88
420.726	77
420.948	85
421.171	94
421.394	79
421.617	92
421.839	87
422.062	94
422.285	88
422.507	79
422.73	104
422.953	99
423.175	86
423.398	82
423.621	76
423.843	79
424.066	85
424.288	76
424.511	91
424.733	101
424.956	92
425.178	89
425.401	98
425.623	95
425.846	86
426.068	94
426.291	87
426.513	93
426.735	84
426.958	97
427.18	104
427.402	138
427.625	167
427.847	157
428.069	130
428.292	104
428.514	95
428.736	72
428.958	70
429.181	80
429.403	74
429.625	85
429.847	83
430.069	92
430.292	94
430.514	92
430.736	82
430.958	81
431.18	82
431.402	81
431.624	83
431.846	77
432.068	93
432.29	88
432.512	97
432.734	90
432.956	80
433.178	76
433.4	99
433.622	95
433.844	91
434.066	91
434.287	96
434.509	79
434.731	99
434.953	105
435.175	94
435.397	77
435.618	94
435.84	99
436.062	115
436.284	103
436.505	101
436.727	110
436.949	87
437.17	82
437.392	79
437.614	98
437.835	101
438.057	115
438.278	114
438.5	112
438.721	116
438.943	86
439.165	82
439.386	82
439.608	87
439.829	99
440.05	115
440.272	147
440.493	89
440.715	91
440.936	89
441.158	76
441.379	79
441.6	93
441.822	99
442.043	85
442.264	96
442.486	102
442.707	83
442.928	101
443.149	131
443.371	131
443.592	107
443.813	88
444.034	95
444.255	96
444.476	76
444.698	90
444.919	85
445.14	121
445.361	117
445.582	108
445.803	139
446.024	124
446.245	124
446.466	93
446.687	89
446.908	75
447.129	88
447.35	97
447.571	95
447.792	101
448.013	104
448.234	95
448.455	86
448.675	108
448.896	130
449.117	76
449.338	88
449.559	125
449.779	119
450	94
450.221	79
450.442	84
450.662	83
450.883	101
451.104	113
451.324	85
451.545	91
451.766	80
451.986	79
452.207	93
452.428	81
452.648	96
452.869	104
453.089	118
453.31	119
453.53	91
453.751	86
453.971	99
454.192	112
454.412	79
454.633	83
454.853	85
455.073	80
455.294	80
455.514	102
455.734	93
455.955	75
456.175	79
456.395	77
456.616	84
456.836	95
457.056	85
457.276	71
457.497	93
457.717	83
457.937	90
458.157	87
458.377	74
458.598	95
458.818	152
459.038	168
459.258	104
459.478	91
459.698	84
459.918	75
460.138	72
460.358	89
460.578	85
460.798	88
461.018	96
461.238	93
461.458	83
461.678	87
461.898	89
462.118	90
462.338	74
462.558	94
462.777	73
462.997	91
463.217	85
463.437	87
463.657	96
463.876	87
464.096	83
464.316	86
464.536	95
464.755	96
464.975	102
465.195	181
465.414	156
465.634	87
465.854	90
466.073	72
466.293	78
466.512	83
466.732	78
466.951	82
467.171	70
467.391	95
467.61	106
467.829	122
468.049	252
468.268	359
468.488	132
468.707	81
468.927	96
469.146	90
469.365	82
469.585	90
469.804	85
470.023	98
470.243	87
470.462	101
470.681	100
470.901	103
471.12	96
471.339	96
471.558	94
471.777	102
471.997	174
472.216	484
472.435	1008
472.654	282
472.873	126
473.092	103
473.311	92
473.53	92
473.749	87
473.968	102
474.187	116
474.406	91
474.625	92
474.844	79
475.063	88
475.282	84
475.501	80
475.72	94
475.939	100
476.158	71
476.377	76
476.596	80
476.814	101
477.033	99
477.252	96
477.471	71
477.69	87
477.908	72
478.127	92
478.346	63
478.564	102
478.783	94
479.002	104
479.22	101
479.439	106
479.658	115
479.876	128
480.095	94
480.313	100
480.532	125
480.751	164
480.969	447
481.188	1724
481.406	1064
481.624	201
481.843	100
482.061	102
482.28	96
482.498	69
482.717	74
482.935	84
483.153	92
483.372	91
483.59	84
483.808	88
484.027	83
484.245	90
484.463	104
484.681	85
484.9	86
485.118	80
485.336	72
485.554	100
485.772	92
485.99	97
486.209	98
486.427	87
486.645	101
486.863	94
487.081	99
487.299	89
487.517	108
487.735	94
487.953	83
488.171	92
488.389	84
488.607	83
488.825	95
489.043	84
489.261	94
489.479	82
489.696	87
489.914	90
490.132	78
490.35	88
490.568	83
490.786	83
491.003	83
491.221	93
491.439	102
491.657	87
491.874	107
492.092	87
492.31	102
492.527	86
492.745	98
492.963	98
493.18	88
493.398	75
493.615	90
493.833	81
494.05	86
494.268	81
494.485	81
494.703	87
494.92	81
495.138	86
495.355	84
495.573	95
495.79	84
496.008	85
496.225	95
496.442	92
496.66	92
496.877	83
497.094	87
497.312	86
497.529	95
497.746	89
497.963	94
498.181	85
498.398	82
498.615	118
498.832	101
499.049	87
499.267	98
499.484	104
499.701	85
499.918	84
500.135	83
500.352	94
500.569	87
500.786	92
501.003	91
501.22	92
501.437	82
501.654	88
501.871	106
502.088	85
502.305	88
502.522	90
502.739	106
502.956	92
503.172	104
503.389	93
503.606	110
503.823	101
504.04	99
504.256	84
504.473	81
504.69	80
504.907	89
505.123	80
505.34	85
505.557	76
505.773	93
505.99	95
506.207	92
506.423	98
506.64	86
506.856	96
507.073	91
507.289	87
507.506	86
507.722	107
507.939	112
508.155	88
508.372	96
508.588	95
508.805	94
509.021	97
509.238	93
509.454	91
509.67	99
509.887	103
510.103	139
510.319	224
510.536	735
510.752	2335
510.968	656
511.184	159
511.401	102
511.617	108
511.833	87
512.049	102
512.265	88
512.481	75
512.698	108
512.914	109
513.13	96
513.346	90
513.562	89
513.778	92
513.994	91
514.21	96
514.426	100
514.642	133
514.858	132
515.074	174
515.29	494
515.506	1621
515.721	608
515.937	162
516.153	117
516.369	93
516.585	86
516.801	83
517.016	101
517.232	91
517.448	88
517.664	93
517.879	97
518.095	98
518.311	87
518.527	98
518.742	87
518.958	103
519.173	91
519.389	100
519.605	85
519.82	101
520.036	108
520.251	106
520.467	93
520.682	113
520.898	113
521.113	112
521.329	144
521.544	227
521.76	622
521.975	2670
522.19	1649
522.406	344
522.621	117
522.836	80
523.052	94
523.267	84
523.482	85
523.698	94
523.913	134
524.128	112
524.343	91
524.559	94
524.774	84
524.989	86
525.204	106
525.419	103
525.634	98
525.849	84
526.064	87
526.28	92
526.495	96
526.71	96
526.925	87
527.14	76
527.355	88
527.57	80
527.785	92
527.999	78
528.214	98
528.429	92
528.644	91
528.859	93
529.074	84
529.289	139
529.503	182
529.718	108
529.933	92
530.148	87
530.363	79
530.577	84
530.792	78
531.007	90
531.221	78
531.436	93
531.651	102
531.865	84
532.08	78
532.295	108
532.509	95
532.724	80
532.938	94
533.153	94
533.367	97
533.582	80
533.796	88
534.011	76
534.225	85
534.44	94
534.654	93
534.868	80
535.083	67
535.297	87
535.511	108
535.726	86
535.94	87
536.154	90
536.369	77
536.583	83
536.797	79
537.011	72
537.225	86
537.44	88
537.654	95
537.868	71
538.082	79
538.296	104
538.51	84
538.724	89
538.938	80
539.153	97
539.367	92
539.581	90
539.795	106
540.009	87
540.222	87
540.436	96
540.65	87
540.864	87
541.078	100
541.292	85
541.506	76
541.72	75
541.934	88
542.147	87
542.361	88
542.575	71
542.789	91
543.002	90
543.216	83
543.43	97
543.644	95
543.857	93
544.071	80
544.285	80
544.498	81
544.712	79
544.925	80
545.139	94
545.352	96
545.566	85
545.779	93
545.993	107
546.206	90
546.42	97
546.633	77
546.847	82
547.06	90
547.274	93
547.487	77
547.7	90
547.914	83
548.127	85
548.34	84
548.554	89
548.767	82
548.98	92
549.193	93
549.407	91
549.62	84
549.833	96
550.046	93
550.259	80
550.473	70
550.686	75
550.899	85
551.112	76
551.325	94
551.538	91
551.751	102
551.964	85
552.177	84
552.39	86
552.603	79
552.816	85
553.029	100
553.242	81
553.455	94
553.667	109
553.88	117
554.093	90
554.306	100
554.519	88
554.732	90
554.944	82
555.157	82
555.37	86
555.583	87
555.795	84
556.008	91
556.221	85
556.433	95
556.646	90
556.859	74
557.071	96
557.284	93
557.496	75
557.709	90
557.921	85
558.134	80
558.346	95
558.559	84
558.771	85
558.984	94
559.196	84
559.409	93
559.621	87
559.833	84
560.046	84
560.258	98
560.47	94
560.683	101
560.895	92
561.107	81
561.32	84
561.532	88
561.744	97
561.956	84
562.168	83
562.381	87
562.593	101
562.805	99
563.017	92
563.229	94
563.441	85
563.653	86
563.865	81
564.077	81
564.289	100
564.501	83
564.713	77
564.925	93
565.137	102
565.349	87
565.561	85
565.773	91
565.985	94
566.197	87
566.408	98
566.62	92
566.832	80
567.044	93
567.255	86
567.467	102
567.679	84
567.891	91
568.102	78
568.314	80
568.526	85
568.737	97
568.949	79
569.161	95
569.372	86
569.584	76
569.795	82
570.007	112
570.218	238
570.43	136
570.641	96
570.853	104
571.064	80
571.276	82
571.487	93
571.698	78
571.91	104
572.121	91
572.333	86
572.544	85
572.755	83
572.966	102
573.178	88
573.389	76
573.6	70
573.811	87
574.023	85
574.234	80
574.445	95
574.656	88
574.867	81
575.078	86
575.289	81
575.501	75
575.712	72
575.923	87
576.134	85
576.345	75
576.556	82
576.767	87
576.978	94
577.188	88
577.399	95
577.61	78
577.821	97
578.032	116
578.243	262
578.454	759
578.665	207
578.875	92
579.086	87
579.297	90
579.508	80
579.718	92
579.929	95
580.14	68
580.35	84
580.561	89
580.772	90
580.982	92
581.193	95
581.403	81
581.614	85
581.825	87
582.035	83
582.246	91
582.456	99
582.667	79
582.877	87
583.087	88
583.298	71
583.508	71
583.719	79
583.929	80
584.139	86
584.35	85
584.56	90
584.77	83
