Data from Circ_2004_H10_HRD10591_00014.txt Node
Date: Wed Jan 03 10:33:17 EST 2024
User: Yrep
Spectrometer: HR+D1059
Trigger mode: 1
Integration Time (sec): 1.000000E-1
Scans to average: 1
Electric dark correction enabled: true
Nonlinearity correction enabled: false
Boxcar width: 0
XAxis mode: Wavelengths
Number of Pixels in Spectrum: 2048
>>>>>Begin Spectral Data<<<<<
223.165	-12.62
223.4	-12.62
223.635	-12.62
223.869	-15.62
224.104	-8.62
224.338	-23.62
224.573	-28.62
224.808	-16.62
225.042	-15.62
225.277	-8.62
225.511	13.38
225.746	7.38
225.98	11.38
226.215	10.38
226.449	20.38
226.683	13.38
226.918	19.38
227.152	34.38
227.387	25.38
227.621	37.38
227.856	53.38
228.09	41.38
228.324	41.38
228.559	58.38
228.793	72.38
229.027	68.38
229.262	70.38
229.496	61.38
229.73	105.38
229.964	81.38
230.199	75.38
230.433	75.38
230.667	64.38
230.901	83.38
231.136	83.38
231.37	78.38
231.604	73.38
231.838	86.38
232.072	82.38
232.306	84.38
232.541	86.38
232.775	81.38
233.009	73.38
233.243	87.38
233.477	89.38
233.711	93.38
233.945	90.38
234.179	88.38
234.413	79.38
234.647	91.38
234.881	91.38
235.115	91.38
235.349	95.38
235.583	75.38
235.817	77.38
236.051	64.38
236.285	68.38
236.519	71.38
236.753	79.38
236.987	82.38
237.221	71.38
237.455	71.38
237.689	75.38
237.922	90.38
238.156	92.38
238.39	72.38
238.624	68.38
238.858	79.38
239.091	73.38
239.325	81.38
239.559	73.38
239.793	89.38
240.027	76.38
240.26	84.38
240.494	73.38
240.728	82.38
240.961	74.38
241.195	68.38
241.429	80.38
241.662	81.38
241.896	91.38
242.13	81.38
242.363	84.38
242.597	71.38
242.83	86.38
243.064	87.38
243.298	88.38
243.531	81.38
243.765	89.38
243.998	82.38
244.232	90.38
244.465	83.38
244.699	75.38
244.932	72.38
245.166	83.38
245.399	71.38
245.633	79.38
245.866	76.38
246.099	74.38
246.333	69.38
246.566	81.38
246.8	85.38
247.033	84.38
247.266	68.38
247.5	90.38
247.733	79.38
247.966	88.38
248.2	93.38
248.433	80.38
248.666	79.38
248.899	76.38
249.133	90.38
249.366	87.38
249.599	102.38
249.832	83.38
250.066	80.38
250.299	88.38
250.532	90.38
250.765	83.38
250.998	87.38
251.231	79.38
251.465	92.38
251.698	87.38
251.931	78.38
252.164	76.38
252.397	71.38
252.63	81.38
252.863	66.38
253.096	79.38
253.329	81.38
253.562	78.38
253.795	91.38
254.028	84.38
254.261	80.38
254.494	85.38
254.727	80.38
254.96	84.38
255.193	92.38
255.426	79.38
255.659	86.38
255.892	85.38
256.124	77.38
256.357	71.38
256.59	82.38
256.823	71.38
257.056	90.38
257.289	78.38
257.521	87.38
257.754	79.38
257.987	82.38
258.22	86.38
258.452	85.38
258.685	59.38
258.918	85.38
259.151	87.38
259.383	92.38
259.616	88.38
259.849	74.38
260.081	70.38
260.314	92.38
260.547	80.38
260.779	87.38
261.012	77.38
261.244	102.38
261.477	75.38
261.71	85.38
261.942	103.38
262.175	113.38
262.407	91.38
262.64	88.38
262.872	83.38
263.105	81.38
263.337	86.38
263.57	79.38
263.802	82.38
264.035	82.38
264.267	96.38
264.499	87.38
264.732	91.38
264.964	96.38
265.197	81.38
265.429	89.38
265.661	87.38
265.894	90.38
266.126	76.38
266.358	82.38
266.591	76.38
266.823	88.38
267.055	81.38
267.287	85.38
267.52	100.38
267.752	81.38
267.984	96.38
268.216	98.38
268.448	78.38
268.681	74.38
268.913	92.38
269.145	82.38
269.377	90.38
269.609	88.38
269.841	85.38
270.073	83.38
270.306	72.38
270.538	75.38
270.77	77.38
271.002	93.38
271.234	75.38
271.466	79.38
271.698	83.38
271.93	101.38
272.162	97.38
272.394	105.38
272.626	89.38
272.858	90.38
273.09	86.38
273.322	100.38
273.553	88.38
273.785	95.38
274.017	93.38
274.249	82.38
274.481	95.38
274.713	96.38
274.945	79.38
275.176	85.38
275.408	107.38
275.64	95.38
275.872	98.38
276.104	92.38
276.335	96.38
276.567	102.38
276.799	103.38
277.031	89.38
277.262	92.38
277.494	81.38
277.726	95.38
277.957	100.38
278.189	90.38
278.421	99.38
278.652	87.38
278.884	85.38
279.115	88.38
279.347	83.38
279.579	94.38
279.81	95.38
280.042	88.38
280.273	103.38
280.505	93.38
280.736	86.38
280.968	100.38
281.199	96.38
281.431	99.38
281.662	93.38
281.894	105.38
282.125	94.38
282.356	118.38
282.588	116.38
282.819	114.38
283.051	88.38
283.282	95.38
283.513	87.38
283.745	98.38
283.976	84.38
284.207	99.38
284.439	85.38
284.67	93.38
284.901	74.38
285.132	74.38
285.364	91.38
285.595	86.38
285.826	78.38
286.057	77.38
286.288	90.38
286.52	77.38
286.751	73.38
286.982	92.38
287.213	81.38
287.444	88.38
287.675	91.38
287.906	87.38
288.138	92.38
288.369	92.38
288.6	75.38
288.831	74.38
289.062	89.38
289.293	82.38
289.524	99.38
289.755	84.38
289.986	89.38
290.217	91.38
290.448	93.38
290.679	84.38
290.91	88.38
291.141	99.38
291.371	83.38
291.602	103.38
291.833	84.38
292.064	97.38
292.295	97.38
292.526	84.38
292.757	69.38
292.987	92.38
293.218	82.38
293.449	80.38
293.68	102.38
293.91	91.38
294.141	87.38
294.372	82.38
294.603	76.38
294.833	85.38
295.064	96.38
295.295	88.38
295.525	96.38
295.756	86.38
295.987	118.38
296.217	125.38
296.448	115.38
296.679	89.38
296.909	84.38
297.14	77.38
297.37	85.38
297.601	91.38
297.831	93.38
298.062	104.38
298.292	80.38
298.523	85.38
298.753	97.38
298.984	90.38
299.214	87.38
299.445	88.38
299.675	83.38
299.905	110.38
300.136	103.38
300.366	94.38
300.597	88.38
300.827	84.38
301.057	96.38
301.288	98.38
301.518	107.38
301.748	100.38
301.979	85.38
302.209	97.38
302.439	95.38
302.669	76.38
302.9	81.38
303.13	89.38
303.36	87.38
303.59	92.38
303.82	99.38
304.051	107.38
304.281	84.38
304.511	99.38
304.741	98.38
304.971	86.38
305.201	88.38
305.431	99.38
305.661	99.38
305.891	98.38
306.121	93.38
306.352	97.38
306.582	102.38
306.812	92.38
307.042	101.38
307.272	82.38
307.502	103.38
307.731	99.38
307.961	92.38
308.191	94.38
308.421	87.38
308.651	83.38
308.881	82.38
309.111	96.38
309.341	92.38
309.571	96.38
309.8	99.38
310.03	93.38
310.26	67.38
310.49	94.38
310.72	104.38
310.949	119.38
311.179	93.38
311.409	100.38
311.639	91.38
311.868	101.38
312.098	105.38
312.328	97.38
312.557	87.38
312.787	109.38
313.017	93.38
313.246	95.38
313.476	80.38
313.706	82.38
313.935	93.38
314.165	99.38
314.394	92.38
314.624	79.38
314.853	104.38
315.083	104.38
315.312	97.38
315.542	104.38
315.771	99.38
316.001	89.38
316.23	92.38
316.46	99.38
316.689	99.38
316.919	100.38
317.148	102.38
317.377	97.38
317.607	97.38
317.836	104.38
318.065	89.38
318.295	93.38
318.524	87.38
318.753	97.38
318.983	106.38
319.212	113.38
319.441	97.38
319.67	103.38
319.9	84.38
320.129	98.38
320.358	97.38
320.587	93.38
320.816	69.38
321.046	84.38
321.275	93.38
321.504	95.38
321.733	95.38
321.962	107.38
322.191	102.38
322.42	81.38
322.649	110.38
322.878	102.38
323.108	105.38
323.337	116.38
323.566	140.38
323.795	131.38
324.024	197.38
324.253	344.38
324.482	707.38
324.71	1423.38
324.939	1835.38
325.168	661.38
325.397	228.38
325.626	139.38
325.855	129.38
326.084	111.38
326.313	128.38
326.542	151.38
326.77	199.38
326.999	403.38
327.228	836.38
327.457	1432.38
327.686	1165.38
327.914	340.38
328.143	200.38
328.372	186.38
328.6	151.38
328.829	121.38
329.058	115.38
329.287	129.38
329.515	112.38
329.744	120.38
329.972	153.38
330.201	194.38
330.43	253.38
330.658	166.38
330.887	139.38
331.115	140.38
331.344	108.38
331.572	107.38
331.801	97.38
332.03	109.38
332.258	107.38
332.486	98.38
332.715	104.38
332.943	92.38
333.172	95.38
333.4	97.38
333.629	118.38
333.857	130.38
334.085	164.38
334.314	203.38
334.542	287.38
334.771	272.38
334.999	143.38
335.227	98.38
335.455	97.38
335.684	95.38
335.912	93.38
336.14	107.38
336.369	96.38
336.597	106.38
336.825	103.38
337.053	98.38
337.281	99.38
337.51	89.38
337.738	107.38
337.966	91.38
338.194	88.38
338.422	100.38
338.65	102.38
338.878	93.38
339.106	82.38
339.334	102.38
339.562	90.38
339.79	89.38
340.018	85.38
340.246	89.38
340.474	106.38
340.702	88.38
340.93	95.38
341.158	93.38
341.386	79.38
341.614	97.38
341.842	90.38
342.07	100.38
342.298	104.38
342.526	89.38
342.754	92.38
342.981	97.38
343.209	85.38
343.437	97.38
343.665	87.38
343.893	92.38
344.12	103.38
344.348	83.38
344.576	93.38
344.804	107.38
345.031	97.38
345.259	101.38
345.487	115.38
345.714	102.38
345.942	89.38
346.17	87.38
346.397	91.38
346.625	88.38
346.853	91.38
347.08	91.38
347.308	88.38
347.535	90.38
347.763	108.38
347.99	105.38
348.218	119.38
348.445	104.38
348.673	93.38
348.9	100.38
349.128	96.38
349.355	93.38
349.583	101.38
349.81	93.38
350.037	84.38
350.265	89.38
350.492	103.38
350.72	107.38
350.947	99.38
351.174	103.38
351.402	117.38
351.629	110.38
351.856	87.38
352.083	101.38
352.311	113.38
352.538	111.38
352.765	101.38
352.992	109.38
353.22	118.38
353.447	100.38
353.674	106.38
353.901	103.38
354.128	93.38
354.355	96.38
354.583	92.38
354.81	98.38
355.037	100.38
355.264	108.38
355.491	98.38
355.718	98.38
355.945	91.38
356.172	90.38
356.399	94.38
356.626	103.38
356.853	87.38
357.08	105.38
357.307	89.38
357.534	84.38
357.761	92.38
357.988	104.38
358.215	102.38
358.441	90.38
358.668	88.38
358.895	101.38
359.122	115.38
359.349	84.38
359.576	88.38
359.802	102.38
360.029	105.38
360.256	105.38
360.483	108.38
360.709	91.38
360.936	95.38
361.163	93.38
361.39	90.38
361.616	104.38
361.843	92.38
362.07	90.38
362.296	103.38
362.523	87.38
362.749	90.38
362.976	97.38
363.203	100.38
363.429	110.38
363.656	95.38
363.882	84.38
364.109	78.38
364.335	97.38
364.562	84.38
364.788	95.38
365.015	91.38
365.241	107.38
365.468	98.38
365.694	95.38
365.92	84.38
366.147	96.38
366.373	99.38
366.599	104.38
366.826	88.38
367.052	86.38
367.278	82.38
367.505	96.38
367.731	98.38
367.957	98.38
368.184	113.38
368.41	89.38
368.636	116.38
368.862	120.38
369.089	105.38
369.315	99.38
369.541	91.38
369.767	87.38
369.993	92.38
370.219	92.38
370.445	105.38
370.672	92.38
370.898	100.38
371.124	87.38
371.35	84.38
371.576	86.38
371.802	81.38
372.028	81.38
372.254	93.38
372.48	87.38
372.706	98.38
372.932	89.38
373.158	101.38
373.384	99.38
373.61	96.38
373.835	91.38
374.061	93.38
374.287	100.38
374.513	96.38
374.739	104.38
374.965	103.38
375.191	90.38
375.416	96.38
375.642	92.38
375.868	92.38
376.094	94.38
376.319	92.38
376.545	95.38
376.771	87.38
376.997	90.38
377.222	94.38
377.448	93.38
377.674	81.38
377.899	93.38
378.125	102.38
378.35	108.38
378.576	99.38
378.802	101.38
379.027	91.38
379.253	101.38
379.478	105.38
379.704	90.38
379.929	99.38
380.155	98.38
380.38	88.38
380.606	91.38
380.831	97.38
381.057	123.38
381.282	102.38
381.507	102.38
381.733	102.38
381.958	102.38
382.184	112.38
382.409	78.38
382.634	118.38
382.86	118.38
383.085	104.38
383.31	90.38
383.535	90.38
383.761	105.38
383.986	107.38
384.211	105.38
384.436	92.38
384.662	117.38
384.887	118.38
385.112	102.38
385.337	95.38
385.562	109.38
385.787	105.38
386.013	96.38
386.238	114.38
386.463	107.38
386.688	108.38
386.913	109.38
387.138	116.38
387.363	121.38
387.588	101.38
387.813	111.38
388.038	107.38
388.263	135.38
388.488	112.38
388.713	102.38
388.938	107.38
389.163	95.38
389.387	94.38
389.612	87.38
389.837	89.38
390.062	100.38
390.287	96.38
390.512	92.38
390.736	97.38
390.961	102.38
391.186	93.38
391.411	88.38
391.636	92.38
391.86	91.38
392.085	87.38
392.31	102.38
392.534	96.38
392.759	111.38
392.984	95.38
393.208	92.38
393.433	104.38
393.658	110.38
393.882	90.38
394.107	88.38
394.331	85.38
394.556	104.38
394.78	89.38
395.005	87.38
395.229	85.38
395.454	98.38
395.678	89.38
395.903	91.38
396.127	103.38
396.352	83.38
396.576	100.38
396.801	99.38
397.025	89.38
397.249	97.38
397.474	90.38
397.698	81.38
397.922	93.38
398.147	84.38
398.371	77.38
398.595	81.38
398.82	93.38
399.044	94.38
399.268	87.38
399.492	79.38
399.717	100.38
399.941	104.38
400.165	90.38
400.389	102.38
400.613	73.38
400.837	87.38
401.062	99.38
401.286	86.38
401.51	97.38
401.734	99.38
401.958	92.38
402.182	135.38
402.406	155.38
402.63	114.38
402.854	96.38
403.078	88.38
403.302	82.38
403.526	98.38
403.75	93.38
403.974	92.38
404.198	99.38
404.422	92.38
404.645	90.38
404.869	100.38
405.093	101.38
405.317	113.38
405.541	106.38
405.765	100.38
405.988	99.38
406.212	161.38
406.436	226.38
406.66	132.38
406.883	93.38
407.107	104.38
407.331	93.38
407.555	106.38
407.778	111.38
408.002	101.38
408.226	105.38
408.449	88.38
408.673	97.38
408.896	101.38
409.12	103.38
409.344	105.38
409.567	82.38
409.791	87.38
410.014	96.38
410.238	98.38
410.461	87.38
410.685	93.38
410.908	90.38
411.132	121.38
411.355	97.38
411.578	102.38
411.802	101.38
412.025	104.38
412.249	81.38
412.472	107.38
412.695	94.38
412.919	103.38
413.142	87.38
413.365	101.38
413.589	91.38
413.812	98.38
414.035	104.38
414.258	84.38
414.482	93.38
414.705	97.38
414.928	93.38
415.151	93.38
415.374	101.38
415.597	102.38
415.821	91.38
416.044	87.38
416.267	92.38
416.49	89.38
416.713	84.38
416.936	82.38
417.159	96.38
417.382	105.38
417.605	84.38
417.828	97.38
418.051	92.38
418.274	86.38
418.497	88.38
418.72	101.38
418.943	85.38
419.166	87.38
419.389	106.38
419.611	99.38
419.834	85.38
420.057	75.38
420.28	87.38
420.503	89.38
420.726	85.38
420.948	85.38
421.171	98.38
421.394	86.38
421.617	107.38
421.839	91.38
422.062	99.38
422.285	90.38
422.507	99.38
422.73	106.38
422.953	101.38
423.175	101.38
423.398	84.38
423.621	93.38
423.843	100.38
424.066	89.38
424.288	86.38
424.511	85.38
424.733	89.38
424.956	115.38
425.178	100.38
425.401	88.38
425.623	110.38
425.846	117.38
426.068	86.38
426.291	91.38
426.513	87.38
426.735	93.38
426.958	84.38
427.18	106.38
427.402	139.38
427.625	177.38
427.847	134.38
428.069	127.38
428.292	93.38
428.514	91.38
428.736	89.38
428.958	93.38
429.181	96.38
429.403	88.38
429.625	83.38
429.847	93.38
430.069	78.38
430.292	108.38
430.514	90.38
430.736	75.38
430.958	96.38
431.18	72.38
431.402	87.38
431.624	95.38
431.846	92.38
432.068	89.38
432.29	101.38
432.512	100.38
432.734	86.38
432.956	87.38
433.178	97.38
433.4	99.38
433.622	102.38
433.844	101.38
434.066	87.38
434.287	90.38
434.509	107.38
434.731	92.38
434.953	82.38
435.175	79.38
435.397	100.38
435.618	94.38
435.84	93.38
436.062	112.38
436.284	101.38
436.505	102.38
436.727	103.38
436.949	92.38
437.17	100.38
437.392	97.38
437.614	91.38
437.835	100.38
438.057	103.38
438.278	91.38
438.5	104.38
438.721	123.38
438.943	105.38
439.165	91.38
439.386	79.38
439.608	99.38
439.829	99.38
440.05	115.38
440.272	134.38
440.493	102.38
440.715	101.38
440.936	96.38
441.158	83.38
441.379	96.38
441.6	100.38
441.822	84.38
442.043	101.38
442.264	116.38
442.486	96.38
442.707	96.38
442.928	103.38
443.149	133.38
443.371	135.38
443.592	112.38
443.813	116.38
444.034	93.38
444.255	100.38
444.476	101.38
444.698	90.38
444.919	75.38
445.14	130.38
445.361	127.38
445.582	107.38
445.803	131.38
446.024	130.38
446.245	129.38
446.466	103.38
446.687	76.38
446.908	92.38
447.129	103.38
447.35	88.38
447.571	94.38
447.792	103.38
448.013	86.38
448.234	114.38
448.455	100.38
448.675	115.38
448.896	112.38
449.117	106.38
449.338	103.38
449.559	121.38
449.779	113.38
450	96.38
450.221	88.38
450.442	88.38
450.662	109.38
450.883	109.38
451.104	118.38
451.324	112.38
451.545	93.38
451.766	81.38
451.986	100.38
452.207	93.38
452.428	102.38
452.648	101.38
452.869	111.38
453.089	106.38
453.31	115.38
453.53	98.38
453.751	99.38
453.971	112.38
454.192	103.38
454.412	92.38
454.633	83.38
454.853	75.38
455.073	93.38
455.294	80.38
455.514	103.38
455.734	91.38
455.955	90.38
456.175	91.38
456.395	92.38
456.616	90.38
456.836	92.38
457.056	88.38
457.276	76.38
457.497	98.38
457.717	88.38
457.937	81.38
458.157	96.38
458.377	108.38
458.598	110.38
458.818	131.38
459.038	149.38
459.258	115.38
459.478	95.38
459.698	100.38
459.918	89.38
460.138	106.38
460.358	86.38
460.578	92.38
460.798	92.38
461.018	99.38
461.238	93.38
461.458	96.38
461.678	91.38
461.898	83.38
462.118	94.38
462.338	80.38
462.558	92.38
462.777	89.38
462.997	98.38
463.217	97.38
463.437	91.38
463.657	93.38
463.876	100.38
464.096	100.38
464.316	95.38
464.536	85.38
464.755	99.38
464.975	114.38
465.195	140.38
465.414	141.38
465.634	93.38
465.854	95.38
466.073	111.38
466.293	94.38
466.512	89.38
466.732	83.38
466.951	93.38
467.171	91.38
467.391	100.38
467.61	108.38
467.829	103.38
468.049	160.38
468.268	173.38
468.488	109.38
468.707	95.38
468.927	98.38
469.146	90.38
469.365	99.38
469.585	100.38
469.804	84.38
470.023	87.38
470.243	111.38
470.462	93.38
470.681	113.38
470.901	104.38
471.12	107.38
471.339	85.38
471.558	106.38
471.777	102.38
471.997	116.38
472.216	204.38
472.435	369.38
472.654	136.38
472.873	97.38
473.092	92.38
473.311	103.38
473.53	89.38
473.749	92.38
473.968	86.38
474.187	113.38
474.406	99.38
474.625	96.38
474.844	104.38
475.063	107.38
475.282	90.38
475.501	80.38
475.72	107.38
475.939	93.38
476.158	81.38
476.377	84.38
476.596	79.38
476.814	93.38
477.033	92.38
477.252	84.38
477.471	79.38
477.69	71.38
477.908	79.38
478.127	105.38
478.346	96.38
478.564	100.38
478.783	93.38
479.002	93.38
479.22	103.38
479.439	91.38
479.658	104.38
479.876	103.38
480.095	99.38
480.313	95.38
480.532	96.38
480.751	123.38
480.969	222.38
481.188	624.38
481.406	404.38
481.624	122.38
481.843	89.38
482.061	97.38
482.28	101.38
482.498	97.38
482.717	71.38
482.935	102.38
483.153	87.38
483.372	102.38
483.59	92.38
483.808	79.38
484.027	79.38
484.245	92.38
484.463	97.38
484.681	91.38
484.9	102.38
485.118	88.38
485.336	100.38
485.554	96.38
485.772	112.38
485.99	100.38
486.209	95.38
486.427	103.38
486.645	113.38
486.863	101.38
487.081	99.38
487.299	96.38
487.517	99.38
487.735	88.38
487.953	84.38
488.171	101.38
488.389	103.38
488.607	104.38
488.825	97.38
489.043	80.38
489.261	78.38
489.479	96.38
489.696	76.38
489.914	93.38
490.132	97.38
490.35	91.38
490.568	90.38
490.786	79.38
491.003	86.38
491.221	93.38
491.439	83.38
491.657	91.38
491.874	93.38
492.092	74.38
492.31	101.38
492.527	81.38
492.745	104.38
492.963	99.38
493.18	83.38
493.398	96.38
493.615	95.38
493.833	94.38
494.05	90.38
494.268	74.38
494.485	111.38
494.703	86.38
494.92	81.38
495.138	92.38
495.355	92.38
495.573	88.38
495.79	98.38
496.008	92.38
496.225	91.38
496.442	98.38
496.66	81.38
496.877	81.38
497.094	100.38
497.312	87.38
497.529	108.38
497.746	98.38
497.963	99.38
498.181	89.38
498.398	93.38
498.615	108.38
498.832	91.38
499.049	91.38
499.267	92.38
499.484	91.38
499.701	89.38
499.918	103.38
500.135	79.38
500.352	83.38
500.569	92.38
500.786	91.38
501.003	84.38
501.22	75.38
501.437	89.38
501.654	93.38
501.871	112.38
502.088	95.38
502.305	77.38
502.522	88.38
502.739	98.38
502.956	112.38
503.172	106.38
503.389	110.38
503.606	114.38
503.823	92.38
504.04	90.38
504.256	102.38
504.473	92.38
504.69	94.38
504.907	86.38
505.123	93.38
505.34	96.38
505.557	105.38
505.773	86.38
505.99	83.38
506.207	94.38
506.423	74.38
506.64	83.38
506.856	86.38
507.073	82.38
507.289	91.38
507.506	114.38
507.722	100.38
507.939	92.38
508.155	95.38
508.372	105.38
508.588	81.38
508.805	105.38
509.021	99.38
509.238	106.38
509.454	87.38
509.67	100.38
509.887	101.38
510.103	131.38
510.319	191.38
510.536	664.38
510.752	1979.38
510.968	592.38
511.184	154.38
511.401	107.38
511.617	86.38
511.833	80.38
512.049	90.38
512.265	90.38
512.481	104.38
512.698	93.38
512.914	82.38
513.13	105.38
513.346	88.38
513.562	103.38
513.778	84.38
513.994	103.38
514.21	99.38
