Data from Circ_2004_H10_HRD10591_00015.txt Node
Date: Wed Jan 03 10:33:17 EST 2024
User: Yrep
Spectrometer: HR+D1059
Trigger mode: 1
Integration Time (sec): 1.000000E-1
Scans to average: 1
Electric dark correction enabled: true
Nonlinearity correction enabled: false
Boxcar width: 0
XAxis mode: Wavelengths
Number of Pixels in Spectrum: 2048
>>>>>Begin Spectral Data<<<<<
223.165	-20.56
223.4	-20.56
223.635	-20.56
223.869	-19.56
224.104	-19.56
224.338	-14.56
224.573	-9.56
224.808	-17.56
225.042	-13.56
225.277	-1.56
225.511	1.44
225.746	-4.56
225.98	7.44
226.215	17.44
226.449	18.44
226.683	15.44
226.918	22.44
227.152	38.44
227.387	38.44
227.621	22.44
227.856	40.44
228.09	39.44
228.324	39.44
228.559	44.44
228.793	50.44
229.027	61.44
229.262	63.44
229.496	70.44
229.73	84.44
229.964	73.44
230.199	52.44
230.433	70.44
230.667	69.44
230.901	71.44
231.136	82.44
231.37	66.44
231.604	83.44
231.838	81.44
232.072	61.44
232.306	80.44
232.541	84.44
232.775	75.44
233.009	66.44
233.243	64.44
233.477	74.44
233.711	74.44
233.945	75.44
234.179	75.44
234.413	62.44
234.647	87.44
234.881	80.44
235.115	66.44
235.349	70.44
235.583	92.44
235.817	79.44
236.051	71.44
236.285	78.44
236.519	61.44
236.753	71.44
236.987	79.44
237.221	64.44
237.455	85.44
237.689	70.44
237.922	66.44
238.156	76.44
238.39	75.44
238.624	55.44
238.858	67.44
239.091	60.44
239.325	71.44
239.559	86.44
239.793	76.44
240.027	65.44
240.26	76.44
240.494	68.44
240.728	65.44
240.961	73.44
241.195	78.44
241.429	78.44
241.662	66.44
241.896	66.44
242.13	87.44
242.363	75.44
242.597	85.44
242.83	66.44
243.064	70.44
243.298	76.44
243.531	76.44
243.765	79.44
243.998	79.44
244.232	80.44
244.465	89.44
244.699	74.44
244.932	65.44
245.166	71.44
245.399	85.44
245.633	72.44
245.866	81.44
246.099	80.44
246.333	55.44
246.566	75.44
246.8	85.44
247.033	79.44
247.266	78.44
247.5	77.44
247.733	77.44
247.966	77.44
248.2	68.44
248.433	85.44
248.666	78.44
248.899	85.44
249.133	79.44
249.366	91.44
249.599	87.44
249.832	77.44
250.066	71.44
250.299	67.44
250.532	89.44
250.765	88.44
250.998	82.44
251.231	86.44
251.465	77.44
251.698	72.44
251.931	82.44
252.164	67.44
252.397	70.44
252.63	82.44
252.863	77.44
253.096	70.44
253.329	70.44
253.562	84.44
253.795	76.44
254.028	78.44
254.261	83.44
254.494	59.44
254.727	71.44
254.96	79.44
255.193	83.44
255.426	67.44
255.659	75.44
255.892	82.44
256.124	79.44
256.357	74.44
256.59	86.44
256.823	75.44
257.056	81.44
257.289	75.44
257.521	85.44
257.754	88.44
257.987	80.44
258.22	71.44
258.452	91.44
258.685	78.44
258.918	90.44
259.151	82.44
259.383	81.44
259.616	75.44
259.849	86.44
260.081	72.44
260.314	81.44
260.547	77.44
260.779	71.44
261.012	84.44
261.244	70.44
261.477	77.44
261.71	94.44
261.942	106.44
262.175	123.44
262.407	87.44
262.64	87.44
262.872	71.44
263.105	68.44
263.337	90.44
263.57	93.44
263.802	94.44
264.035	87.44
264.267	75.44
264.499	87.44
264.732	90.44
264.964	83.44
265.197	71.44
265.429	91.44
265.661	72.44
265.894	70.44
266.126	81.44
266.358	92.44
266.591	81.44
266.823	77.44
267.055	77.44
267.287	86.44
267.52	73.44
267.752	78.44
267.984	82.44
268.216	86.44
268.448	74.44
268.681	67.44
268.913	86.44
269.145	76.44
269.377	89.44
269.609	76.44
269.841	84.44
270.073	70.44
270.306	77.44
270.538	93.44
270.77	79.44
271.002	82.44
271.234	85.44
271.466	70.44
271.698	77.44
271.93	89.44
272.162	84.44
272.394	83.44
272.626	80.44
272.858	84.44
273.09	85.44
273.322	84.44
273.553	77.44
273.785	80.44
274.017	78.44
274.249	82.44
274.481	74.44
274.713	74.44
274.945	75.44
275.176	76.44
275.408	81.44
275.64	83.44
275.872	88.44
276.104	88.44
276.335	93.44
276.567	98.44
276.799	107.44
277.031	99.44
277.262	99.44
277.494	93.44
277.726	95.44
277.957	81.44
278.189	88.44
278.421	82.44
278.652	71.44
278.884	87.44
279.115	79.44
279.347	59.44
279.579	84.44
279.81	86.44
280.042	99.44
280.273	113.44
280.505	102.44
280.736	81.44
280.968	89.44
281.199	81.44
281.431	80.44
281.662	97.44
281.894	94.44
282.125	91.44
282.356	118.44
282.588	143.44
282.819	105.44
283.051	82.44
283.282	85.44
283.513	98.44
283.745	80.44
283.976	67.44
284.207	67.44
284.439	85.44
284.67	88.44
284.901	81.44
285.132	77.44
285.364	75.44
285.595	101.44
285.826	77.44
286.057	74.44
286.288	85.44
286.52	79.44
286.751	78.44
286.982	77.44
287.213	86.44
287.444	94.44
287.675	84.44
287.906	90.44
288.138	85.44
288.369	92.44
288.6	71.44
288.831	77.44
289.062	70.44
289.293	90.44
289.524	74.44
289.755	85.44
289.986	89.44
290.217	77.44
290.448	75.44
290.679	85.44
290.91	85.44
291.141	77.44
291.371	78.44
291.602	91.44
291.833	99.44
292.064	100.44
292.295	77.44
292.526	89.44
292.757	92.44
292.987	84.44
293.218	77.44
293.449	87.44
293.68	81.44
293.91	75.44
294.141	92.44
294.372	73.44
294.603	81.44
294.833	80.44
295.064	97.44
295.295	80.44
295.525	103.44
295.756	109.44
295.987	109.44
296.217	135.44
296.448	127.44
296.679	91.44
296.909	73.44
297.14	77.44
297.37	86.44
297.601	78.44
297.831	95.44
298.062	88.44
298.292	85.44
298.523	96.44
298.753	89.44
298.984	78.44
299.214	90.44
299.445	93.44
299.675	80.44
299.905	81.44
300.136	92.44
300.366	79.44
300.597	78.44
300.827	97.44
301.057	85.44
301.288	98.44
301.518	90.44
301.748	88.44
301.979	100.44
302.209	91.44
302.439	78.44
302.669	78.44
302.9	80.44
303.13	93.44
303.36	91.44
303.59	97.44
303.82	115.44
304.051	82.44
304.281	82.44
304.511	95.44
304.741	92.44
304.971	89.44
305.201	100.44
305.431	71.44
305.661	103.44
305.891	91.44
306.121	90.44
306.352	99.44
306.582	91.44
306.812	83.44
307.042	89.44
307.272	108.44
307.502	89.44
307.731	87.44
307.961	106.44
308.191	87.44
308.421	84.44
308.651	86.44
308.881	81.44
309.111	99.44
309.341	94.44
309.571	99.44
309.8	107.44
310.03	111.44
310.26	83.44
310.49	106.44
310.72	97.44
310.949	82.44
311.179	91.44
311.409	85.44
311.639	84.44
311.868	101.44
312.098	75.44
312.328	97.44
312.557	102.44
312.787	99.44
313.017	106.44
313.246	93.44
313.476	96.44
313.706	96.44
313.935	86.44
314.165	106.44
314.394	96.44
314.624	82.44
314.853	93.44
315.083	97.44
315.312	90.44
315.542	93.44
315.771	108.44
316.001	93.44
316.23	95.44
316.46	99.44
316.689	86.44
316.919	105.44
317.148	84.44
317.377	83.44
317.607	92.44
317.836	86.44
318.065	89.44
318.295	92.44
318.524	75.44
318.753	90.44
318.983	86.44
319.212	93.44
319.441	102.44
319.67	121.44
319.9	98.44
320.129	93.44
320.358	87.44
320.587	91.44
320.816	93.44
321.046	94.44
321.275	90.44
321.504	97.44
321.733	100.44
321.962	94.44
322.191	121.44
322.42	95.44
322.649	113.44
322.878	105.44
323.108	126.44
323.337	122.44
323.566	148.44
323.795	158.44
324.024	214.44
324.253	437.44
324.482	898.44
324.71	1834.44
324.939	2374.44
325.168	847.44
325.397	260.44
325.626	166.44
325.855	140.44
326.084	114.44
326.313	137.44
326.542	135.44
326.77	232.44
326.999	490.44
327.228	1019.44
327.457	1785.44
327.686	1431.44
327.914	403.44
328.143	254.44
328.372	245.44
328.6	164.44
328.829	124.44
329.058	141.44
329.287	131.44
329.515	117.44
329.744	116.44
329.972	175.44
330.201	270.44
330.43	349.44
330.658	209.44
330.887	156.44
331.115	125.44
331.344	116.44
331.572	136.44
331.801	107.44
332.03	110.44
332.258	85.44
332.486	90.44
332.715	83.44
332.943	97.44
333.172	104.44
333.4	93.44
333.629	117.44
333.857	130.44
334.085	178.44
334.314	253.44
334.542	425.44
334.771	398.44
334.999	161.44
335.227	111.44
335.455	95.44
335.684	95.44
335.912	102.44
336.14	86.44
336.369	99.44
336.597	99.44
336.825	102.44
337.053	92.44
337.281	91.44
337.51	85.44
337.738	89.44
337.966	95.44
338.194	87.44
338.422	79.44
338.65	81.44
338.878	84.44
339.106	91.44
339.334	89.44
339.562	89.44
339.79	99.44
340.018	97.44
340.246	108.44
340.474	94.44
340.702	86.44
340.93	78.44
341.158	99.44
341.386	87.44
341.614	105.44
341.842	102.44
342.07	91.44
342.298	87.44
342.526	100.44
342.754	91.44
342.981	70.44
343.209	96.44
343.437	92.44
343.665	87.44
343.893	98.44
344.12	91.44
344.348	84.44
344.576	86.44
344.804	92.44
345.031	82.44
345.259	86.44
345.487	89.44
345.714	82.44
345.942	87.44
346.17	88.44
346.397	88.44
346.625	96.44
346.853	83.44
347.08	93.44
347.308	74.44
347.535	96.44
347.763	105.44
347.99	90.44
348.218	104.44
348.445	111.44
348.673	100.44
348.9	93.44
349.128	94.44
349.355	94.44
349.583	91.44
349.81	82.44
350.037	98.44
350.265	94.44
350.492	86.44
350.72	96.44
350.947	104.44
351.174	107.44
351.402	98.44
351.629	105.44
351.856	103.44
352.083	93.44
352.311	111.44
352.538	115.44
352.765	99.44
352.992	115.44
353.22	112.44
353.447	96.44
353.674	92.44
353.901	93.44
354.128	98.44
354.355	85.44
354.583	89.44
354.81	89.44
355.037	109.44
355.264	85.44
355.491	94.44
355.718	88.44
355.945	98.44
356.172	95.44
356.399	90.44
356.626	76.44
356.853	94.44
357.08	89.44
357.307	96.44
357.534	85.44
357.761	89.44
357.988	85.44
358.215	87.44
358.441	89.44
358.668	98.44
358.895	98.44
359.122	91.44
359.349	97.44
359.576	95.44
359.802	93.44
360.029	106.44
360.256	126.44
360.483	99.44
360.709	80.44
360.936	83.44
361.163	90.44
361.39	98.44
361.616	89.44
361.843	93.44
362.07	84.44
362.296	99.44
362.523	84.44
362.749	75.44
362.976	86.44
363.203	101.44
363.429	91.44
363.656	85.44
363.882	75.44
364.109	86.44
364.335	75.44
364.562	84.44
364.788	85.44
365.015	100.44
365.241	95.44
365.468	103.44
365.694	98.44
365.92	97.44
366.147	79.44
366.373	91.44
366.599	93.44
366.826	91.44
367.052	87.44
367.278	94.44
367.505	98.44
367.731	90.44
367.957	98.44
368.184	91.44
368.41	102.44
368.636	99.44
368.862	119.44
369.089	125.44
369.315	85.44
369.541	88.44
369.767	79.44
369.993	77.44
370.219	92.44
370.445	86.44
370.672	78.44
370.898	95.44
371.124	107.44
371.35	79.44
371.576	89.44
371.802	79.44
372.028	74.44
372.254	81.44
372.48	82.44
372.706	85.44
372.932	89.44
373.158	73.44
373.384	91.44
373.61	88.44
373.835	87.44
374.061	91.44
374.287	76.44
374.513	85.44
374.739	88.44
374.965	66.44
375.191	73.44
375.416	100.44
375.642	87.44
375.868	95.44
376.094	84.44
376.319	82.44
376.545	81.44
376.771	82.44
376.997	91.44
377.222	91.44
377.448	102.44
377.674	82.44
377.899	77.44
378.125	89.44
378.35	86.44
378.576	88.44
378.802	79.44
379.027	94.44
379.253	85.44
379.478	79.44
379.704	88.44
379.929	77.44
380.155	86.44
380.38	93.44
380.606	110.44
380.831	96.44
381.057	96.44
381.282	91.44
381.507	98.44
381.733	102.44
381.958	97.44
382.184	103.44
382.409	99.44
382.634	102.44
382.86	90.44
383.085	99.44
383.31	93.44
383.535	89.44
383.761	83.44
383.986	100.44
384.211	96.44
384.436	101.44
384.662	104.44
384.887	98.44
385.112	97.44
385.337	100.44
385.562	103.44
385.787	96.44
386.013	109.44
386.238	103.44
386.463	99.44
386.688	103.44
386.913	116.44
387.138	111.44
387.363	107.44
387.588	99.44
387.813	103.44
388.038	111.44
388.263	109.44
388.488	114.44
388.713	97.44
388.938	80.44
389.163	93.44
389.387	96.44
389.612	84.44
389.837	92.44
390.062	102.44
390.287	97.44
390.512	81.44
390.736	78.44
390.961	86.44
391.186	87.44
391.411	76.44
391.636	76.44
391.86	85.44
392.085	86.44
392.31	83.44
392.534	95.44
392.759	75.44
392.984	94.44
393.208	99.44
393.433	126.44
393.658	101.44
393.882	89.44
394.107	74.44
394.331	66.44
394.556	78.44
394.78	91.44
395.005	86.44
395.229	77.44
395.454	93.44
395.678	89.44
395.903	94.44
396.127	89.44
396.352	81.44
396.576	76.44
396.801	94.44
397.025	101.44
397.249	91.44
397.474	92.44
397.698	83.44
397.922	80.44
398.147	96.44
398.371	93.44
398.595	85.44
398.82	85.44
399.044	80.44
399.268	77.44
399.492	81.44
399.717	95.44
399.941	84.44
400.165	89.44
400.389	105.44
400.613	72.44
400.837	88.44
401.062	101.44
401.286	79.44
401.51	85.44
401.734	92.44
401.958	97.44
402.182	133.44
402.406	170.44
402.63	121.44
402.854	78.44
403.078	101.44
403.302	77.44
403.526	80.44
403.75	81.44
403.974	83.44
404.198	80.44
404.422	76.44
404.645	87.44
404.869	91.44
405.093	95.44
405.317	94.44
405.541	99.44
405.765	90.44
405.988	119.44
406.212	176.44
406.436	247.44
406.66	158.44
406.883	103.44
407.107	90.44
407.331	92.44
407.555	102.44
407.778	99.44
408.002	85.44
408.226	97.44
408.449	98.44
408.673	81.44
408.896	85.44
409.12	104.44
409.344	76.44
409.567	82.44
409.791	79.44
410.014	88.44
410.238	93.44
410.461	84.44
410.685	85.44
410.908	86.44
411.132	94.44
411.355	95.44
411.578	90.44
411.802	89.44
412.025	90.44
412.249	92.44
412.472	108.44
412.695	100.44
412.919	92.44
413.142	71.44
413.365	87.44
413.589	74.44
413.812	79.44
414.035	90.44
414.258	103.44
414.482	91.44
414.705	95.44
414.928	81.44
415.151	90.44
415.374	77.44
415.597	90.44
415.821	80.44
416.044	90.44
416.267	97.44
416.49	92.44
416.713	75.44
416.936	93.44
417.159	74.44
417.382	84.44
417.605	86.44
417.828	98.44
418.051	97.44
418.274	92.44
418.497	90.44
418.72	69.44
418.943	73.44
419.166	97.44
419.389	89.44
419.611	89.44
419.834	101.44
420.057	87.44
420.28	86.44
420.503	80.44
420.726	71.44
420.948	90.44
421.171	85.44
421.394	94.44
421.617	92.44
421.839	95.44
422.062	81.44
422.285	82.44
422.507	99.44
422.73	93.44
422.953	101.44
423.175	107.44
423.398	82.44
423.621	91.44
423.843	80.44
424.066	86.44
424.288	81.44
424.511	82.44
424.733	84.44
424.956	95.44
425.178	111.44
425.401	99.44
425.623	89.44
425.846	98.44
426.068	91.44
426.291	78.44
426.513	63.44
426.735	79.44
426.958	95.44
427.18	93.44
427.402	142.44
427.625	168.44
427.847	143.44
428.069	134.44
428.292	105.44
428.514	70.44
428.736	88.44
428.958	87.44
429.181	95.44
429.403	86.44
429.625	71.44
429.847	94.44
430.069	89.44
430.292	99.44
430.514	87.44
430.736	89.44
430.958	79.44
431.18	78.44
431.402	82.44
431.624	74.44
431.846	92.44
432.068	90.44
432.29	95.44
432.512	90.44
432.734	93.44
432.956	85.44
433.178	97.44
433.4	87.44
433.622	93.44
433.844	82.44
434.066	82.44
434.287	90.44
434.509	84.44
434.731	81.44
434.953	84.44
435.175	93.44
435.397	77.44
435.618	87.44
435.84	97.44
436.062	108.44
436.284	109.44
436.505	88.44
436.727	94.44
436.949	74.44
437.17	94.44
437.392	84.44
437.614	91.44
437.835	114.44
438.057	117.44
438.278	100.44
438.5	109.44
438.721	109.44
438.943	97.44
439.165	84.44
439.386	84.44
439.608	83.44
439.829	95.44
440.05	129.44
440.272	149.44
440.493	99.44
440.715	98.44
440.936	93.44
441.158	91.44
441.379	87.44
441.6	99.44
441.822	83.44
442.043	85.44
442.264	90.44
442.486	92.44
442.707	93.44
442.928	100.44
443.149	122.44
443.371	129.44
443.592	105.44
443.813	115.44
444.034	104.44
444.255	91.44
444.476	80.44
444.698	77.44
444.919	80.44
445.14	129.44
445.361	121.44
445.582	114.44
445.803	142.44
446.024	135.44
446.245	126.44
446.466	106.44
446.687	77.44
446.908	91.44
447.129	84.44
447.35	76.44
447.571	81.44
447.792	103.44
448.013	105.44
448.234	98.44
448.455	89.44
448.675	119.44
448.896	113.44
449.117	77.44
449.338	94.44
449.559	119.44
449.779	114.44
450	100.44
450.221	91.44
450.442	97.44
450.662	87.44
450.883	97.44
451.104	122.44
451.324	83.44
451.545	63.44
451.766	83.44
451.986	68.44
452.207	81.44
452.428	88.44
452.648	95.44
452.869	107.44
453.089	117.44
453.31	119.44
453.53	89.44
453.751	103.44
453.971	98.44
454.192	108.44
454.412	90.44
454.633	93.44
454.853	88.44
455.073	99.44
455.294	95.44
455.514	92.44
455.734	83.44
455.955	89.44
456.175	86.44
456.395	81.44
456.616	86.44
456.836	85.44
457.056	73.44
457.276	78.44
457.497	84.44
457.717	76.44
457.937	86.44
458.157	66.44
458.377	80.44
458.598	108.44
458.818	150.44
459.038	148.44
459.258	106.44
459.478	87.44
459.698	72.44
459.918	81.44
460.138	80.44
460.358	81.44
460.578	78.44
460.798	76.44
461.018	88.44
461.238	83.44
461.458	87.44
461.678	71.44
461.898	78.44
462.118	91.44
462.338	86.44
462.558	87.44
462.777	80.44
462.997	85.44
463.217	71.44
463.437	82.44
463.657	89.44
463.876	68.44
464.096	95.44
464.316	81.44
464.536	84.44
464.755	82.44
464.975	108.44
465.195	185.44
465.414	164.44
465.634	96.44
465.854	69.44
466.073	81.44
466.293	93.44
466.512	76.44
466.732	78.44
466.951	88.44
467.171	95.44
467.391	100.44
467.61	95.44
467.829	101.44
468.049	190.44
468.268	246.44
468.488	98.44
468.707	76.44
468.927	90.44
469.146	90.44
469.365	82.44
469.585	82.44
469.804	105.44
470.023	93.44
470.243	82.44
470.462	93.44
470.681	105.44
470.901	86.44
471.12	73.44
471.339	95.44
471.558	82.44
471.777	95.44
471.997	115.44
472.216	307.44
472.435	586.44
472.654	193.44
472.873	110.44
473.092	100.44
473.311	87.44
473.53	65.44
473.749	82.44
473.968	94.44
474.187	81.44
474.406	99.44
474.625	81.44
474.844	81.44
475.063	85.44
475.282	86.44
475.501	88.44
475.72	84.44
475.939	79.44
476.158	83.44
476.377	78.44
476.596	81.44
476.814	93.44
477.033	78.44
477.252	73.44
477.471	90.44
477.69	65.44
477.908	82.44
478.127	82.44
478.346	80.44
478.564	100.44
478.783	77.44
479.002	98.44
479.22	90.44
479.439	113.44
479.658	93.44
479.876	86.44
480.095	105.44
480.313	91.44
480.532	99.44
480.751	125.44
480.969	304.44
481.188	978.44
481.406	591.44
481.624	138.44
481.843	108.44
482.061	97.44
482.28	96.44
482.498	78.44
482.717	97.44
482.935	91.44
483.153	89.44
483.372	91.44
483.59	103.44
483.808	76.44
484.027	79.44
484.245	79.44
484.463	95.44
484.681	93.44
484.9	89.44
485.118	96.44
485.336	92.44
485.554	77.44
485.772	101.44
485.99	93.44
486.209	101.44
486.427	112.44
486.645	105.44
486.863	106.44
487.081	87.44
487.299	78.44
487.517	94.44
487.735	87.44
487.953	98.44
488.171	100.44
488.389	101.44
488.607	94.44
488.825	96.44
489.043	84.44
489.261	92.44
489.479	77.44
489.696	96.44
489.914	75.44
490.132	66.44
490.35	94.44
490.568	81.44
490.786	77.44
491.003	76.44
491.221	86.44
491.439	89.44
491.657	94.44
491.874	91.44
492.092	85.44
492.31	92.44
492.527	84.44
492.745	86.44
492.963	76.44
493.18	90.44
493.398	78.44
493.615	97.44
493.833	82.44
494.05	87.44
494.268	83.44
494.485	79.44
494.703	79.44
494.92	83.44
495.138	97.44
495.355	84.44
495.573	77.44
495.79	89.44
496.008	80.44
496.225	86.44
496.442	71.44
496.66	82.44
496.877	85.44
497.094	82.44
497.312	74.44
497.529	79.44
497.746	78.44
497.963	89.44
498.181	95.44
498.398	97.44
498.615	105.44
498.832	87.44
499.049	88.44
499.267	85.44
499.484	84.44
499.701	92.44
499.918	93.44
500.135	89.44
500.352	87.44
500.569	83.44
500.786	85.44
501.003	83.44
501.22	82.44
501.437	95.44
501.654	102.44
501.871	122.44
502.088	85.44
502.305	88.44
502.522	81.44
502.739	82.44
502.956	85.44
503.172	96.44
503.389	78.44
503.606	99.44
503.823	94.44
504.04	91.44
504.256	82.44
504.473	85.44
504.69	88.44
504.907	76.44
505.123	78.44
505.34	83.44
505.557	102.44
505.773	71.44
505.99	81.44
506.207	85.44
506.423	63.44
506.64	85.44
506.856	75.44
507.073	80.44
507.289	109.44
507.506	89.44
507.722	106.44
507.939	126.44
508.155	83.44
508.372	86.44
508.588	93.44
508.805	103.44
509.021	97.44
509.238	101.44
509.454	99.44
509.67	93.44
509.887	113.44
510.103	122.44
510.319	206.44
510.536	773.44
510.752	2412.44
510.968	650.44
511.184	156.44
511.401	118.44
511.617	84.44
511.833	90.44
512.049	99.44
512.265	103.44
512.481	79.44
512.698	87.44
512.914	78.44
513.13	83.44
513.346	91.44
513.562	87.44
513.778	84.44
513.994	94.44
514.21	85.44
514.426	115.44
514.642	147.44
514.858	141.44
515.074	172.44
515.29	513.44
515.506	1675.44
515.721	591.44
515.937	176.44
516.153	116.44
516.369	93.44
