Data from Circ_2004_H10_HRD10591_00051.txt Node
Date: Wed Jan 03 10:33:24 EST 2024
User: Yrep
Spectrometer: HR+D1059
Trigger mode: 1
Integration Time (sec): 1.000000E-1
Scans to average: 1
Electric dark correction enabled: true
Nonlinearity correction enabled: false
Boxcar width: 0
XAxis mode: Wavelengths
Number of Pixels in Spectrum: 2048
>>>>>Begin Spectral Data<<<<<
223.165	-27.69
223.4	-27.69
223.635	-27.69
223.869	-24.69
224.104	-9.69
224.338	-18.69
224.573	-10.69
224.808	-13.69
225.042	-8.69
225.277	7.31
225.511	-2.69
225.746	11.31
225.98	10.31
226.215	9.31
226.449	6.31
226.683	27.31
226.918	26.31
227.152	18.31
227.387	28.31
227.621	44.31
227.856	39.31
228.09	41.31
228.324	59.31
228.559	54.31
228.793	72.31
229.027	69.31
229.262	68.31
229.496	77.31
229.73	77.31
229.964	97.31
230.199	86.31
230.433	72.31
230.667	76.31
230.901	77.31
231.136	81.31
231.37	78.31
231.604	82.31
231.838	81.31
232.072	83.31
232.306	78.31
232.541	80.31
232.775	89.31
233.009	87.31
233.243	83.31
233.477	91.31
233.711	87.31
233.945	77.31
234.179	85.31
234.413	75.31
234.647	83.31
234.881	82.31
235.115	86.31
235.349	70.31
235.583	79.31
235.817	78.31
236.051	100.31
236.285	71.31
236.519	80.31
236.753	75.31
236.987	81.31
237.221	90.31
237.455	89.31
237.689	75.31
237.922	77.31
238.156	71.31
238.39	80.31
238.624	83.31
238.858	83.31
239.091	80.31
239.325	91.31
239.559	86.31
239.793	97.31
240.027	83.31
240.26	95.31
240.494	81.31
240.728	79.31
240.961	95.31
241.195	76.31
241.429	77.31
241.662	63.31
241.896	79.31
242.13	79.31
242.363	84.31
242.597	74.31
242.83	79.31
243.064	74.31
243.298	77.31
243.531	74.31
243.765	82.31
243.998	83.31
244.232	80.31
244.465	87.31
244.699	74.31
244.932	68.31
245.166	77.31
245.399	90.31
245.633	68.31
245.866	89.31
246.099	64.31
246.333	92.31
246.566	73.31
246.8	69.31
247.033	87.31
247.266	84.31
247.5	93.31
247.733	88.31
247.966	87.31
248.2	82.31
248.433	88.31
248.666	91.31
248.899	83.31
249.133	86.31
249.366	97.31
249.599	94.31
249.832	73.31
250.066	99.31
250.299	79.31
250.532	69.31
250.765	82.31
250.998	83.31
251.231	82.31
251.465	85.31
251.698	80.31
251.931	84.31
252.164	84.31
252.397	93.31
252.63	80.31
252.863	89.31
253.096	94.31
253.329	90.31
253.562	83.31
253.795	83.31
254.028	87.31
254.261	91.31
254.494	87.31
254.727	91.31
254.96	90.31
255.193	104.31
255.426	84.31
255.659	76.31
255.892	63.31
256.124	83.31
256.357	86.31
256.59	101.31
256.823	77.31
257.056	103.31
257.289	95.31
257.521	85.31
257.754	91.31
257.987	93.31
258.22	93.31
258.452	89.31
258.685	85.31
258.918	82.31
259.151	94.31
259.383	73.31
259.616	100.31
259.849	71.31
260.081	81.31
260.314	88.31
260.547	98.31
260.779	76.31
261.012	103.31
261.244	92.31
261.477	103.31
261.71	88.31
261.942	104.31
262.175	119.31
262.407	92.31
262.64	79.31
262.872	88.31
263.105	71.31
263.337	96.31
263.57	91.31
263.802	78.31
264.035	92.31
264.267	85.31
264.499	88.31
264.732	92.31
264.964	76.31
265.197	73.31
265.429	78.31
265.661	86.31
265.894	66.31
266.126	92.31
266.358	75.31
266.591	72.31
266.823	99.31
267.055	90.31
267.287	85.31
267.52	97.31
267.752	76.31
267.984	89.31
268.216	96.31
268.448	96.31
268.681	88.31
268.913	87.31
269.145	92.31
269.377	82.31
269.609	83.31
269.841	93.31
270.073	82.31
270.306	88.31
270.538	90.31
270.77	86.31
271.002	86.31
271.234	83.31
271.466	102.31
271.698	95.31
271.93	103.31
272.162	81.31
272.394	77.31
272.626	86.31
272.858	85.31
273.09	86.31
273.322	76.31
273.553	84.31
273.785	92.31
274.017	94.31
274.249	97.31
274.481	90.31
274.713	104.31
274.945	100.31
275.176	87.31
275.408	99.31
275.64	99.31
275.872	108.31
276.104	100.31
276.335	89.31
276.567	98.31
276.799	118.31
277.031	129.31
277.262	114.31
277.494	105.31
277.726	92.31
277.957	82.31
278.189	102.31
278.421	91.31
278.652	90.31
278.884	99.31
279.115	86.31
279.347	85.31
279.579	92.31
279.81	86.31
280.042	117.31
280.273	143.31
280.505	110.31
280.736	92.31
280.968	88.31
281.199	83.31
281.431	80.31
281.662	90.31
281.894	92.31
282.125	98.31
282.356	119.31
282.588	144.31
282.819	113.31
283.051	84.31
283.282	100.31
283.513	70.31
283.745	72.31
283.976	84.31
284.207	95.31
284.439	88.31
284.67	89.31
284.901	91.31
285.132	98.31
285.364	80.31
285.595	88.31
285.826	98.31
286.057	86.31
286.288	97.31
286.52	85.31
286.751	94.31
286.982	95.31
287.213	96.31
287.444	86.31
287.675	103.31
287.906	83.31
288.138	80.31
288.369	96.31
288.6	101.31
288.831	83.31
289.062	90.31
289.293	101.31
289.524	104.31
289.755	94.31
289.986	98.31
290.217	78.31
290.448	91.31
290.679	90.31
290.91	84.31
291.141	82.31
291.371	77.31
291.602	90.31
291.833	87.31
292.064	96.31
292.295	87.31
292.526	97.31
292.757	89.31
292.987	98.31
293.218	91.31
293.449	67.31
293.68	81.31
293.91	95.31
294.141	85.31
294.372	83.31
294.603	87.31
294.833	88.31
295.064	73.31
295.295	97.31
295.525	98.31
295.756	103.31
295.987	115.31
296.217	161.31
296.448	118.31
296.679	97.31
296.909	98.31
297.14	81.31
297.37	99.31
297.601	79.31
297.831	82.31
298.062	96.31
298.292	88.31
298.523	98.31
298.753	93.31
298.984	91.31
299.214	77.31
299.445	83.31
299.675	79.31
299.905	94.31
300.136	90.31
300.366	88.31
300.597	104.31
300.827	104.31
301.057	103.31
301.288	120.31
301.518	87.31
301.748	73.31
301.979	106.31
302.209	103.31
302.439	104.31
302.669	105.31
302.9	102.31
303.13	72.31
303.36	98.31
303.59	108.31
303.82	112.31
304.051	85.31
304.281	106.31
304.511	107.31
304.741	97.31
304.971	99.31
305.201	112.31
305.431	91.31
305.661	102.31
305.891	81.31
306.121	97.31
306.352	102.31
306.582	96.31
306.812	106.31
307.042	94.31
307.272	111.31
307.502	118.31
307.731	110.31
307.961	105.31
308.191	97.31
308.421	92.31
308.651	98.31
308.881	88.31
309.111	96.31
309.341	103.31
309.571	105.31
309.8	84.31
310.03	104.31
310.26	87.31
310.49	89.31
310.72	98.31
310.949	105.31
311.179	115.31
311.409	97.31
311.639	98.31
311.868	104.31
312.098	96.31
312.328	98.31
312.557	115.31
312.787	119.31
313.017	114.31
313.246	111.31
313.476	101.31
313.706	84.31
313.935	103.31
314.165	115.31
314.394	111.31
314.624	116.31
314.853	96.31
315.083	97.31
315.312	89.31
315.542	92.31
315.771	96.31
316.001	95.31
316.23	91.31
316.46	85.31
316.689	113.31
316.919	113.31
317.148	105.31
317.377	97.31
317.607	101.31
317.836	109.31
318.065	120.31
318.295	96.31
318.524	88.31
318.753	85.31
318.983	98.31
319.212	110.31
319.441	112.31
319.67	106.31
319.9	95.31
320.129	94.31
320.358	86.31
320.587	115.31
320.816	114.31
321.046	96.31
321.275	108.31
321.504	94.31
321.733	92.31
321.962	107.31
322.191	107.31
322.42	113.31
322.649	112.31
322.878	124.31
323.108	122.31
323.337	135.31
323.566	145.31
323.795	154.31
324.024	230.31
324.253	420.31
324.482	915.31
324.71	1814.31
324.939	2439.31
325.168	901.31
325.397	261.31
325.626	164.31
325.855	138.31
326.084	143.31
326.313	147.31
326.542	164.31
326.77	234.31
326.999	483.31
327.228	990.31
327.457	1859.31
327.686	1507.31
327.914	437.31
328.143	293.31
328.372	291.31
328.6	184.31
328.829	127.31
329.058	137.31
329.287	123.31
329.515	129.31
329.744	144.31
329.972	214.31
330.201	359.31
330.43	487.31
330.658	265.31
330.887	176.31
331.115	134.31
331.344	103.31
331.572	97.31
331.801	110.31
332.03	117.31
332.258	103.31
332.486	100.31
332.715	101.31
332.943	107.31
333.172	111.31
333.4	119.31
333.629	110.31
333.857	135.31
334.085	200.31
334.314	336.31
334.542	619.31
334.771	583.31
334.999	204.31
335.227	109.31
335.455	106.31
335.684	103.31
335.912	105.31
336.14	104.31
336.369	102.31
336.597	116.31
336.825	111.31
337.053	109.31
337.281	98.31
337.51	88.31
337.738	90.31
337.966	93.31
338.194	97.31
338.422	98.31
338.65	91.31
338.878	88.31
339.106	92.31
339.334	101.31
339.562	91.31
339.79	100.31
340.018	99.31
340.246	101.31
340.474	80.31
340.702	90.31
340.93	106.31
341.158	91.31
341.386	85.31
341.614	99.31
341.842	104.31
342.07	82.31
342.298	92.31
342.526	104.31
342.754	95.31
342.981	94.31
343.209	92.31
343.437	103.31
343.665	82.31
343.893	84.31
344.12	99.31
344.348	104.31
344.576	89.31
344.804	87.31
345.031	93.31
345.259	114.31
345.487	104.31
345.714	113.31
345.942	105.31
346.17	105.31
346.397	106.31
346.625	89.31
346.853	103.31
347.08	84.31
347.308	97.31
347.535	110.31
347.763	106.31
347.99	106.31
348.218	116.31
348.445	97.31
348.673	98.31
348.9	103.31
349.128	98.31
349.355	104.31
349.583	93.31
349.81	103.31
350.037	79.31
350.265	95.31
350.492	100.31
350.72	115.31
350.947	97.31
351.174	111.31
351.402	104.31
351.629	106.31
351.856	103.31
352.083	111.31
352.311	123.31
352.538	119.31
352.765	104.31
352.992	105.31
353.22	120.31
353.447	114.31
353.674	105.31
353.901	96.31
354.128	99.31
354.355	114.31
354.583	95.31
354.81	96.31
355.037	97.31
355.264	98.31
355.491	103.31
355.718	96.31
355.945	93.31
356.172	96.31
356.399	91.31
356.626	90.31
356.853	88.31
357.08	89.31
357.307	88.31
357.534	104.31
357.761	96.31
357.988	90.31
358.215	99.31
358.441	96.31
358.668	82.31
358.895	79.31
359.122	90.31
359.349	89.31
359.576	89.31
359.802	100.31
360.029	112.31
360.256	109.31
360.483	115.31
360.709	90.31
360.936	97.31
361.163	88.31
361.39	101.31
361.616	98.31
361.843	88.31
362.07	85.31
362.296	106.31
362.523	96.31
362.749	99.31
362.976	101.31
363.203	95.31
363.429	81.31
363.656	92.31
363.882	90.31
364.109	97.31
364.335	97.31
364.562	105.31
364.788	104.31
365.015	103.31
365.241	98.31
365.468	114.31
365.694	119.31
365.92	108.31
366.147	111.31
366.373	98.31
366.599	78.31
366.826	90.31
367.052	91.31
367.278	80.31
367.505	79.31
367.731	105.31
367.957	92.31
368.184	91.31
368.41	119.31
368.636	116.31
368.862	121.31
369.089	119.31
369.315	108.31
369.541	87.31
369.767	87.31
369.993	100.31
370.219	104.31
370.445	96.31
370.672	85.31
370.898	79.31
371.124	88.31
371.35	88.31
371.576	93.31
371.802	90.31
372.028	83.31
372.254	99.31
372.48	92.31
372.706	94.31
372.932	96.31
373.158	87.31
373.384	95.31
373.61	93.31
373.835	88.31
374.061	84.31
374.287	99.31
374.513	87.31
374.739	95.31
374.965	87.31
375.191	97.31
375.416	90.31
375.642	105.31
375.868	93.31
376.094	93.31
376.319	91.31
376.545	97.31
376.771	90.31
376.997	91.31
377.222	95.31
377.448	96.31
377.674	92.31
377.899	96.31
378.125	90.31
378.35	103.31
378.576	84.31
378.802	102.31
379.027	85.31
379.253	92.31
379.478	88.31
379.704	92.31
379.929	90.31
380.155	91.31
380.38	90.31
380.606	86.31
380.831	86.31
381.057	103.31
381.282	92.31
381.507	92.31
381.733	101.31
381.958	99.31
382.184	96.31
382.409	108.31
382.634	99.31
382.86	99.31
383.085	103.31
383.31	100.31
383.535	101.31
383.761	101.31
383.986	113.31
384.211	83.31
384.436	99.31
384.662	106.31
384.887	101.31
385.112	99.31
385.337	122.31
385.562	102.31
385.787	114.31
386.013	99.31
386.238	120.31
386.463	116.31
386.688	117.31
386.913	89.31
387.138	97.31
387.363	99.31
387.588	104.31
387.813	99.31
388.038	101.31
388.263	98.31
388.488	111.31
388.713	84.31
388.938	95.31
389.163	97.31
389.387	91.31
389.612	96.31
389.837	91.31
390.062	91.31
390.287	88.31
390.512	95.31
390.736	97.31
390.961	89.31
391.186	108.31
391.411	90.31
391.636	93.31
391.86	94.31
392.085	82.31
392.31	80.31
392.534	89.31
392.759	90.31
392.984	104.31
393.208	83.31
393.433	102.31
393.658	87.31
393.882	87.31
394.107	85.31
394.331	71.31
394.556	95.31
394.78	99.31
395.005	90.31
395.229	90.31
395.454	96.31
395.678	99.31
395.903	80.31
396.127	90.31
396.352	94.31
396.576	93.31
396.801	88.31
397.025	110.31
397.249	109.31
397.474	110.31
397.698	103.31
397.922	96.31
398.147	84.31
398.371	98.31
398.595	94.31
398.82	93.31
399.044	84.31
399.268	97.31
399.492	90.31
399.717	105.31
399.941	103.31
400.165	102.31
400.389	77.31
400.613	93.31
400.837	104.31
401.062	103.31
401.286	103.31
401.51	94.31
401.734	96.31
401.958	91.31
402.182	137.31
402.406	169.31
402.63	119.31
402.854	100.31
403.078	99.31
403.302	92.31
403.526	88.31
403.75	83.31
403.974	82.31
404.198	104.31
404.422	87.31
404.645	82.31
404.869	98.31
405.093	98.31
405.317	115.31
405.541	128.31
405.765	93.31
405.988	132.31
406.212	184.31
406.436	259.31
406.66	165.31
406.883	112.31
407.107	103.31
407.331	95.31
407.555	107.31
407.778	98.31
408.002	95.31
408.226	92.31
408.449	88.31
408.673	97.31
408.896	89.31
409.12	99.31
409.344	76.31
409.567	93.31
409.791	93.31
410.014	96.31
410.238	86.31
410.461	93.31
410.685	93.31
410.908	91.31
411.132	107.31
411.355	108.31
411.578	95.31
411.802	79.31
412.025	89.31
412.249	106.31
412.472	105.31
412.695	95.31
412.919	80.31
413.142	89.31
413.365	107.31
413.589	89.31
413.812	79.31
414.035	86.31
414.258	99.31
414.482	86.31
414.705	95.31
414.928	81.31
415.151	89.31
415.374	91.31
415.597	84.31
415.821	82.31
416.044	97.31
416.267	89.31
416.49	85.31
416.713	90.31
416.936	101.31
417.159	93.31
417.382	94.31
417.605	93.31
417.828	98.31
418.051	88.31
418.274	116.31
418.497	98.31
418.72	103.31
418.943	87.31
419.166	88.31
419.389	96.31
419.611	81.31
419.834	96.31
420.057	97.31
420.28	93.31
420.503	77.31
420.726	94.31
420.948	97.31
421.171	97.31
421.394	103.31
421.617	103.31
421.839	97.31
422.062	96.31
422.285	99.31
422.507	98.31
422.73	114.31
422.953	95.31
423.175	98.31
423.398	90.31
423.621	98.31
423.843	98.31
424.066	97.31
424.288	91.31
424.511	84.31
424.733	118.31
424.956	128.31
425.178	89.31
425.401	93.31
425.623	105.31
425.846	98.31
426.068	105.31
426.291	91.31
426.513	96.31
426.735	87.31
426.958	102.31
427.18	120.31
427.402	152.31
427.625	194.31
427.847	170.31
428.069	157.31
428.292	112.31
428.514	107.31
428.736	90.31
428.958	89.31
429.181	87.31
429.403	86.31
429.625	103.31
429.847	93.31
430.069	104.31
430.292	100.31
430.514	94.31
430.736	82.31
430.958	101.31
431.18	80.31
431.402	85.31
431.624	81.31
431.846	87.31
432.068	90.31
432.29	80.31
432.512	85.31
432.734	90.31
432.956	77.31
433.178	96.31
433.4	96.31
433.622	96.31
433.844	108.31
434.066	87.31
434.287	99.31
434.509	98.31
434.731	106.31
434.953	90.31
435.175	84.31
435.397	97.31
435.618	97.31
435.84	100.31
436.062	119.31
436.284	107.31
436.505	102.31
436.727	111.31
436.949	95.31
437.17	85.31
437.392	96.31
437.614	103.31
437.835	105.31
438.057	130.31
438.278	103.31
438.5	106.31
438.721	133.31
438.943	92.31
439.165	89.31
439.386	84.31
439.608	76.31
439.829	99.31
440.05	127.31
440.272	154.31
440.493	104.31
440.715	87.31
440.936	93.31
441.158	88.31
441.379	89.31
441.6	89.31
441.822	96.31
442.043	84.31
442.264	116.31
442.486	113.31
442.707	98.31
442.928	102.31
443.149	127.31
443.371	157.31
443.592	105.31
443.813	111.31
444.034	116.31
444.255	89.31
444.476	79.31
444.698	86.31
444.919	86.31
445.14	129.31
445.361	122.31
445.582	122.31
445.803	130.31
446.024	145.31
446.245	128.31
446.466	108.31
446.687	116.31
446.908	89.31
447.129	100.31
447.35	83.31
447.571	90.31
447.792	102.31
448.013	116.31
448.234	102.31
448.455	105.31
448.675	113.31
448.896	122.31
449.117	80.31
449.338	102.31
449.559	120.31
449.779	143.31
450	89.31
450.221	81.31
450.442	86.31
450.662	104.31
450.883	107.31
451.104	120.31
451.324	102.31
451.545	84.31
451.766	92.31
451.986	83.31
452.207	104.31
452.428	96.31
452.648	118.31
452.869	131.31
453.089	121.31
453.31	113.31
453.53	98.31
453.751	104.31
453.971	105.31
454.192	102.31
454.412	107.31
454.633	82.31
454.853	87.31
455.073	81.31
455.294	97.31
455.514	105.31
455.734	93.31
455.955	79.31
456.175	83.31
456.395	83.31
456.616	80.31
456.836	83.31
457.056	92.31
457.276	92.31
457.497	90.31
457.717	92.31
457.937	85.31
458.157	90.31
458.377	89.31
458.598	110.31
458.818	163.31
459.038	184.31
459.258	136.31
459.478	100.31
459.698	84.31
459.918	92.31
460.138	106.31
460.358	91.31
460.578	100.31
460.798	92.31
461.018	91.31
461.238	99.31
461.458	76.31
461.678	88.31
461.898	83.31
462.118	94.31
462.338	97.31
462.558	86.31
462.777	78.31
462.997	95.31
463.217	102.31
463.437	97.31
463.657	94.31
463.876	77.31
464.096	102.31
464.316	93.31
464.536	82.31
464.755	104.31
464.975	116.31
465.195	185.31
465.414	184.31
465.634	107.31
465.854	83.31
466.073	95.31
466.293	81.31
466.512	89.31
466.732	92.31
466.951	84.31
467.171	87.31
467.391	95.31
467.61	119.31
467.829	142.31
468.049	242.31
468.268	324.31
468.488	123.31
468.707	85.31
468.927	90.31
469.146	85.31
469.365	103.31
469.585	101.31
469.804	100.31
470.023	98.31
470.243	102.31
470.462	115.31
470.681	129.31
470.901	98.31
471.12	77.31
471.339	100.31
471.558	109.31
471.777	112.31
471.997	166.31
472.216	411.31
472.435	832.31
472.654	250.31
472.873	99.31
473.092	71.31
473.311	92.31
473.53	89.31
473.749	87.31
473.968	88.31
474.187	101.31
474.406	99.31
474.625	85.31
474.844	83.31
475.063	90.31
475.282	90.31
475.501	90.31
475.72	99.31
475.939	81.31
476.158	90.31
476.377	95.31
476.596	77.31
476.814	103.31
477.033	97.31
477.252	95.31
477.471	95.31
477.69	89.31
477.908	81.31
478.127	89.31
478.346	93.31
478.564	104.31
478.783	108.31
479.002	107.31
479.22	111.31
479.439	116.31
479.658	133.31
479.876	109.31
480.095	112.31
480.313	107.31
480.532	111.31
480.751	152.31
480.969	400.31
481.188	1466.31
481.406	896.31
481.624	192.31
481.843	107.31
482.061	86.31
482.28	93.31
482.498	87.31
482.717	91.31
482.935	83.31
483.153	90.31
483.372	85.31
483.59	93.31
483.808	103.31
484.027	99.31
484.245	106.31
484.463	103.31
484.681	101.31
484.9	93.31
485.118	105.31
485.336	87.31
485.554	102.31
485.772	109.31
485.99	97.31
486.209	94.31
486.427	102.31
486.645	103.31
486.863	116.31
487.081	93.31
487.299	98.31
487.517	88.31
487.735	101.31
487.953	95.31
488.171	99.31
488.389	89.31
488.607	107.31
488.825	92.31
489.043	97.31
489.261	89.31
489.479	89.31
489.696	91.31
489.914	81.31
490.132	81.31
490.35	96.31
490.568	90.31
490.786	85.31
491.003	91.31
491.221	97.31
491.439	102.31
491.657	82.31
491.874	97.31
492.092	89.31
492.31	104.31
492.527	87.31
492.745	95.31
492.963	99.31
493.18	99.31
493.398	99.31
493.615	101.31
493.833	82.31
494.05	97.31
494.268	100.31
494.485	83.31
494.703	83.31
494.92	92.31
495.138	95.31
495.355	101.31
495.573	98.31
495.79	83.31
496.008	89.31
496.225	95.31
496.442	91.31
496.66	95.31
496.877	84.31
497.094	81.31
497.312	102.31
497.529	94.31
497.746	84.31
497.963	85.31
498.181	101.31
498.398	94.31
498.615	115.31
498.832	110.31
499.049	101.31
499.267	85.31
499.484	83.31
499.701	101.31
499.918	84.31
500.135	89.31
500.352	95.31
500.569	90.31
500.786	90.31
501.003	97.31
501.22	82.31
501.437	114.31
501.654	94.31
501.871	109.31
502.088	103.31
502.305	106.31
502.522	83.31
502.739	98.31
502.956	102.31
503.172	96.31
503.389	100.31
503.606	114.31
503.823	100.31
504.04	104.31
504.256	85.31
504.473	80.31
504.69	85.31
504.907	96.31
505.123	86.31
505.34	86.31
505.557	98.31
505.773	89.31
505.99	83.31
506.207	98.31
506.423	96.31
506.64	106.31
506.856	103.31
507.073	96.31
507.289	94.31
507.506	107.31
507.722	110.31
507.939	105.31
508.155	105.31
508.372	90.31
508.588	100.31
508.805	94.31
509.021	82.31
509.238	95.31
509.454	107.31
509.67	116.31
509.887	98.31
510.103	138.31
510.319	215.31
510.536	761.31
510.752	2486.31
510.968	696.31
511.184	171.31
511.401	111.31
511.617	98.31
511.833	95.31
512.049	90.31
512.265	104.31
512.481	84.31
512.698	114.31
512.914	93.31
513.13	91.31
513.346	97.31
513.562	110.31
513.778	93.31
