Data from Circ_2004_H10_HRD10591_00057.txt Node
Date: Wed Jan 03 10:33:25 EST 2024
User: Yrep
Spectrometer: HR+D1059
Trigger mode: 1
Integration Time (sec): 1.000000E-1
Scans to average: 1
Electric dark correction enabled: true
Nonlinearity correction enabled: false
Boxcar width: 0
XAxis mode: Wavelengths
Number of Pixels in Spectrum: 2048
>>>>>Begin Spectral Data<<<<<
223.165	-17.06
223.4	-17.06
223.635	-17.06
223.869	-16.06
224.104	-18.06
224.338	-10.06
224.573	-22.06
224.808	-12.06
225.042	-18.06
225.277	-8.06
225.511	-0.06
225.746	-1.06
225.98	17.94
226.215	8.94
226.449	14.94
226.683	18.94
226.918	17.94
227.152	43.94
227.387	43.94
227.621	39.94
227.856	21.94
228.09	56.94
228.324	60.94
228.559	61.94
228.793	62.94
229.027	70.94
229.262	61.94
229.496	76.94
229.73	84.94
229.964	80.94
230.199	87.94
230.433	76.94
230.667	62.94
230.901	65.94
231.136	70.94
231.37	87.94
231.604	80.94
231.838	68.94
232.072	70.94
232.306	72.94
232.541	79.94
232.775	91.94
233.009	83.94
233.243	80.94
233.477	83.94
233.711	89.94
233.945	79.94
234.179	76.94
234.413	87.94
234.647	69.94
234.881	67.94
235.115	75.94
235.349	75.94
235.583	95.94
235.817	81.94
236.051	76.94
236.285	86.94
236.519	86.94
236.753	71.94
236.987	70.94
237.221	82.94
237.455	82.94
237.689	81.94
237.922	70.94
238.156	72.94
238.39	66.94
238.624	67.94
238.858	80.94
239.091	81.94
239.325	74.94
239.559	76.94
239.793	80.94
240.027	96.94
240.26	76.94
240.494	71.94
240.728	69.94
240.961	86.94
241.195	83.94
241.429	84.94
241.662	79.94
241.896	66.94
242.13	77.94
242.363	79.94
242.597	75.94
242.83	78.94
243.064	87.94
243.298	74.94
243.531	79.94
243.765	90.94
243.998	67.94
244.232	84.94
244.465	85.94
244.699	69.94
244.932	75.94
245.166	89.94
245.399	66.94
245.633	81.94
245.866	75.94
246.099	70.94
246.333	76.94
246.566	76.94
246.8	85.94
247.033	64.94
247.266	77.94
247.5	68.94
247.733	76.94
247.966	71.94
248.2	105.94
248.433	81.94
248.666	81.94
248.899	83.94
249.133	61.94
249.366	78.94
249.599	88.94
249.832	89.94
250.066	81.94
250.299	80.94
250.532	80.94
250.765	85.94
250.998	75.94
251.231	79.94
251.465	66.94
251.698	69.94
251.931	84.94
252.164	67.94
252.397	91.94
252.63	89.94
252.863	70.94
253.096	88.94
253.329	87.94
253.562	81.94
253.795	70.94
254.028	88.94
254.261	75.94
254.494	79.94
254.727	84.94
254.96	73.94
255.193	63.94
255.426	73.94
255.659	71.94
255.892	93.94
256.124	69.94
256.357	70.94
256.59	80.94
256.823	79.94
257.056	83.94
257.289	89.94
257.521	93.94
257.754	79.94
257.987	76.94
258.22	88.94
258.452	81.94
258.685	103.94
258.918	89.94
259.151	73.94
259.383	76.94
259.616	83.94
259.849	83.94
260.081	86.94
260.314	82.94
260.547	75.94
260.779	69.94
261.012	89.94
261.244	92.94
261.477	86.94
261.71	92.94
261.942	102.94
262.175	105.94
262.407	97.94
262.64	83.94
262.872	68.94
263.105	82.94
263.337	80.94
263.57	77.94
263.802	68.94
264.035	66.94
264.267	63.94
264.499	83.94
264.732	71.94
264.964	89.94
265.197	76.94
265.429	80.94
265.661	80.94
265.894	76.94
266.126	80.94
266.358	82.94
266.591	89.94
266.823	77.94
267.055	74.94
267.287	73.94
267.52	75.94
267.752	88.94
267.984	79.94
268.216	84.94
268.448	87.94
268.681	81.94
268.913	94.94
269.145	79.94
269.377	92.94
269.609	80.94
269.841	78.94
270.073	71.94
270.306	86.94
270.538	80.94
270.77	79.94
271.002	80.94
271.234	87.94
271.466	96.94
271.698	78.94
271.93	66.94
272.162	62.94
272.394	94.94
272.626	88.94
272.858	90.94
273.09	90.94
273.322	84.94
273.553	82.94
273.785	70.94
274.017	88.94
274.249	72.94
274.481	91.94
274.713	88.94
274.945	94.94
275.176	82.94
275.408	88.94
275.64	85.94
275.872	93.94
276.104	108.94
276.335	87.94
276.567	95.94
276.799	110.94
277.031	118.94
277.262	123.94
277.494	98.94
277.726	79.94
277.957	110.94
278.189	81.94
278.421	84.94
278.652	79.94
278.884	82.94
279.115	84.94
279.347	80.94
279.579	86.94
279.81	85.94
280.042	115.94
280.273	150.94
280.505	118.94
280.736	80.94
280.968	81.94
281.199	101.94
281.431	84.94
281.662	80.94
281.894	88.94
282.125	89.94
282.356	122.94
282.588	131.94
282.819	100.94
283.051	92.94
283.282	73.94
283.513	89.94
283.745	86.94
283.976	89.94
284.207	76.94
284.439	97.94
284.67	74.94
284.901	85.94
285.132	88.94
285.364	87.94
285.595	91.94
285.826	77.94
286.057	88.94
286.288	76.94
286.52	92.94
286.751	68.94
286.982	93.94
287.213	84.94
287.444	93.94
287.675	84.94
287.906	75.94
288.138	96.94
288.369	113.94
288.6	95.94
288.831	76.94
289.062	86.94
289.293	72.94
289.524	91.94
289.755	82.94
289.986	73.94
290.217	87.94
290.448	84.94
290.679	94.94
290.91	92.94
291.141	79.94
291.371	91.94
291.602	80.94
291.833	73.94
292.064	85.94
292.295	98.94
292.526	93.94
292.757	78.94
292.987	82.94
293.218	84.94
293.449	85.94
293.68	79.94
293.91	92.94
294.141	98.94
294.372	86.94
294.603	93.94
294.833	83.94
295.064	85.94
295.295	77.94
295.525	90.94
295.756	98.94
295.987	98.94
296.217	117.94
296.448	124.94
296.679	89.94
296.909	89.94
297.14	88.94
297.37	91.94
297.601	93.94
297.831	94.94
298.062	86.94
298.292	75.94
298.523	88.94
298.753	90.94
298.984	96.94
299.214	97.94
299.445	83.94
299.675	97.94
299.905	83.94
300.136	88.94
300.366	89.94
300.597	87.94
300.827	87.94
301.057	91.94
301.288	98.94
301.518	101.94
301.748	86.94
301.979	105.94
302.209	85.94
302.439	82.94
302.669	87.94
302.9	88.94
303.13	85.94
303.36	94.94
303.59	107.94
303.82	112.94
304.051	109.94
304.281	78.94
304.511	93.94
304.741	86.94
304.971	83.94
305.201	94.94
305.431	81.94
305.661	99.94
305.891	83.94
306.121	88.94
306.352	99.94
306.582	103.94
306.812	99.94
307.042	100.94
307.272	107.94
307.502	134.94
307.731	115.94
307.961	103.94
308.191	102.94
308.421	83.94
308.651	82.94
308.881	73.94
309.111	98.94
309.341	89.94
309.571	96.94
309.8	94.94
310.03	105.94
310.26	93.94
310.49	94.94
310.72	88.94
310.949	117.94
311.179	110.94
311.409	96.94
311.639	94.94
311.868	96.94
312.098	90.94
312.328	85.94
312.557	101.94
312.787	102.94
313.017	104.94
313.246	93.94
313.476	81.94
313.706	81.94
313.935	98.94
314.165	102.94
314.394	107.94
314.624	99.94
314.853	87.94
315.083	97.94
315.312	97.94
315.542	99.94
315.771	86.94
316.001	88.94
316.23	87.94
316.46	88.94
316.689	102.94
316.919	103.94
317.148	87.94
317.377	87.94
317.607	99.94
317.836	88.94
318.065	94.94
318.295	77.94
318.524	95.94
318.753	83.94
318.983	99.94
319.212	95.94
319.441	105.94
319.67	105.94
319.9	79.94
320.129	78.94
320.358	96.94
320.587	88.94
320.816	91.94
321.046	103.94
321.275	105.94
321.504	89.94
321.733	103.94
321.962	91.94
322.191	89.94
322.42	107.94
322.649	103.94
322.878	114.94
323.108	127.94
323.337	120.94
323.566	141.94
323.795	142.94
324.024	223.94
324.253	414.94
324.482	893.94
324.71	1855.94
324.939	2465.94
325.168	889.94
325.397	248.94
325.626	158.94
325.855	131.94
326.084	120.94
326.313	143.94
326.542	157.94
326.77	227.94
326.999	470.94
327.228	989.94
327.457	1864.94
327.686	1492.94
327.914	442.94
328.143	300.94
328.372	330.94
328.6	195.94
328.829	138.94
329.058	146.94
329.287	127.94
329.515	142.94
329.744	168.94
329.972	227.94
330.201	418.94
330.43	624.94
330.658	304.94
330.887	194.94
331.115	126.94
331.344	99.94
331.572	105.94
331.801	109.94
332.03	117.94
332.258	95.94
332.486	102.94
332.715	94.94
332.943	107.94
333.172	87.94
333.4	113.94
333.629	120.94
333.857	160.94
334.085	227.94
334.314	405.94
334.542	709.94
334.771	675.94
334.999	231.94
335.227	124.94
335.455	105.94
335.684	118.94
335.912	86.94
336.14	108.94
336.369	99.94
336.597	103.94
336.825	102.94
337.053	97.94
337.281	81.94
337.51	94.94
337.738	103.94
337.966	87.94
338.194	94.94
338.422	114.94
338.65	90.94
338.878	73.94
339.106	92.94
339.334	92.94
339.562	84.94
339.79	105.94
340.018	87.94
340.246	68.94
340.474	87.94
340.702	84.94
340.93	73.94
341.158	100.94
341.386	98.94
341.614	101.94
341.842	94.94
342.07	92.94
342.298	97.94
342.526	93.94
342.754	92.94
342.981	92.94
343.209	98.94
343.437	94.94
343.665	77.94
343.893	93.94
344.12	85.94
344.348	82.94
344.576	87.94
344.804	101.94
345.031	93.94
345.259	92.94
345.487	91.94
345.714	95.94
345.942	107.94
346.17	102.94
346.397	77.94
346.625	91.94
346.853	85.94
347.08	87.94
347.308	92.94
347.535	102.94
347.763	101.94
347.99	104.94
348.218	95.94
348.445	103.94
348.673	80.94
348.9	78.94
349.128	93.94
349.355	81.94
349.583	99.94
349.81	97.94
350.037	99.94
350.265	95.94
350.492	89.94
350.72	85.94
350.947	95.94
351.174	102.94
351.402	107.94
351.629	98.94
351.856	92.94
352.083	93.94
352.311	94.94
352.538	104.94
352.765	108.94
352.992	110.94
353.22	105.94
353.447	103.94
353.674	94.94
353.901	87.94
354.128	82.94
354.355	93.94
354.583	96.94
354.81	88.94
355.037	96.94
355.264	88.94
355.491	92.94
355.718	88.94
355.945	92.94
356.172	82.94
356.399	96.94
356.626	106.94
356.853	92.94
357.08	96.94
357.307	86.94
357.534	84.94
357.761	80.94
357.988	101.94
358.215	110.94
358.441	90.94
358.668	101.94
358.895	100.94
359.122	82.94
359.349	68.94
359.576	85.94
359.802	106.94
360.029	108.94
360.256	103.94
360.483	109.94
360.709	93.94
360.936	96.94
361.163	89.94
361.39	102.94
361.616	96.94
361.843	99.94
362.07	107.94
362.296	89.94
362.523	92.94
362.749	89.94
362.976	78.94
363.203	95.94
363.429	83.94
363.656	93.94
363.882	94.94
364.109	91.94
364.335	89.94
364.562	96.94
364.788	90.94
365.015	95.94
365.241	84.94
365.468	95.94
365.694	105.94
365.92	95.94
366.147	101.94
366.373	91.94
366.599	88.94
366.826	84.94
367.052	92.94
367.278	102.94
367.505	91.94
367.731	80.94
367.957	94.94
368.184	95.94
368.41	93.94
368.636	110.94
368.862	108.94
369.089	114.94
369.315	88.94
369.541	99.94
369.767	87.94
369.993	84.94
370.219	87.94
370.445	73.94
370.672	82.94
370.898	94.94
371.124	85.94
371.35	93.94
371.576	77.94
371.802	103.94
372.028	87.94
372.254	98.94
372.48	87.94
372.706	79.94
372.932	86.94
373.158	83.94
373.384	94.94
373.61	97.94
373.835	90.94
374.061	83.94
374.287	87.94
374.513	90.94
374.739	88.94
374.965	86.94
375.191	101.94
375.416	100.94
375.642	81.94
375.868	84.94
376.094	85.94
376.319	89.94
376.545	94.94
376.771	76.94
376.997	81.94
377.222	70.94
377.448	93.94
377.674	100.94
377.899	105.94
378.125	88.94
378.35	79.94
378.576	86.94
378.802	81.94
379.027	89.94
379.253	103.94
379.478	90.94
379.704	103.94
379.929	88.94
380.155	79.94
380.38	99.94
380.606	92.94
380.831	89.94
381.057	100.94
381.282	93.94
381.507	98.94
381.733	88.94
381.958	85.94
382.184	95.94
382.409	92.94
382.634	89.94
382.86	101.94
383.085	102.94
383.31	96.94
383.535	101.94
383.761	97.94
383.986	94.94
384.211	87.94
384.436	89.94
384.662	95.94
384.887	98.94
385.112	124.94
385.337	112.94
385.562	93.94
385.787	98.94
386.013	89.94
386.238	116.94
386.463	102.94
386.688	123.94
386.913	104.94
387.138	110.94
387.363	92.94
387.588	98.94
387.813	97.94
388.038	87.94
388.263	104.94
388.488	101.94
388.713	100.94
388.938	96.94
389.163	103.94
389.387	99.94
389.612	83.94
389.837	92.94
390.062	100.94
390.287	97.94
390.512	92.94
390.736	92.94
390.961	102.94
391.186	88.94
391.411	95.94
391.636	85.94
391.86	83.94
392.085	86.94
392.31	80.94
392.534	104.94
392.759	97.94
392.984	89.94
393.208	88.94
393.433	101.94
393.658	87.94
393.882	89.94
394.107	68.94
394.331	85.94
394.556	90.94
394.78	88.94
395.005	105.94
395.229	84.94
395.454	84.94
395.678	82.94
395.903	90.94
396.127	88.94
396.352	93.94
396.576	92.94
396.801	97.94
397.025	96.94
397.249	88.94
397.474	95.94
397.698	82.94
397.922	84.94
398.147	97.94
398.371	74.94
398.595	79.94
398.82	90.94
399.044	95.94
399.268	89.94
399.492	89.94
399.717	56.94
399.941	81.94
400.165	103.94
400.389	97.94
400.613	96.94
400.837	93.94
401.062	91.94
401.286	89.94
401.51	92.94
401.734	94.94
401.958	105.94
402.182	115.94
402.406	162.94
402.63	104.94
402.854	102.94
403.078	77.94
403.302	72.94
403.526	85.94
403.75	83.94
403.974	92.94
404.198	91.94
404.422	84.94
404.645	86.94
404.869	95.94
405.093	107.94
405.317	124.94
405.541	120.94
405.765	108.94
405.988	136.94
406.212	181.94
406.436	239.94
406.66	155.94
406.883	116.94
407.107	95.94
407.331	99.94
407.555	84.94
407.778	102.94
408.002	91.94
408.226	87.94
408.449	93.94
408.673	95.94
408.896	104.94
409.12	85.94
409.344	106.94
409.567	89.94
409.791	91.94
410.014	80.94
410.238	84.94
410.461	97.94
410.685	96.94
410.908	88.94
411.132	108.94
411.355	97.94
411.578	95.94
411.802	88.94
412.025	92.94
412.249	94.94
412.472	91.94
412.695	110.94
412.919	100.94
413.142	89.94
413.365	92.94
413.589	87.94
413.812	95.94
414.035	95.94
414.258	99.94
414.482	86.94
414.705	86.94
414.928	96.94
415.151	89.94
415.374	83.94
415.597	88.94
415.821	80.94
416.044	91.94
416.267	81.94
416.49	88.94
416.713	88.94
416.936	86.94
417.159	86.94
417.382	92.94
417.605	93.94
417.828	97.94
418.051	81.94
418.274	96.94
418.497	83.94
418.72	85.94
418.943	85.94
419.166	82.94
419.389	93.94
419.611	92.94
419.834	94.94
420.057	97.94
420.28	86.94
420.503	84.94
420.726	84.94
420.948	88.94
421.171	96.94
421.394	89.94
421.617	92.94
421.839	74.94
422.062	86.94
422.285	75.94
422.507	91.94
422.73	102.94
422.953	88.94
423.175	105.94
423.398	103.94
423.621	85.94
423.843	74.94
424.066	74.94
424.288	101.94
424.511	81.94
424.733	87.94
424.956	111.94
425.178	104.94
425.401	103.94
425.623	93.94
425.846	103.94
426.068	92.94
426.291	93.94
426.513	89.94
426.735	87.94
426.958	85.94
427.18	111.94
427.402	151.94
427.625	189.94
427.847	167.94
428.069	163.94
428.292	123.94
428.514	101.94
428.736	99.94
428.958	95.94
429.181	88.94
429.403	88.94
429.625	91.94
429.847	88.94
430.069	115.94
430.292	91.94
430.514	87.94
430.736	87.94
430.958	84.94
431.18	75.94
431.402	100.94
431.624	87.94
431.846	77.94
432.068	83.94
432.29	87.94
432.512	82.94
432.734	88.94
432.956	109.94
433.178	111.94
433.4	100.94
433.622	91.94
433.844	95.94
434.066	86.94
434.287	88.94
434.509	98.94
434.731	85.94
434.953	88.94
435.175	90.94
435.397	92.94
435.618	85.94
435.84	95.94
436.062	104.94
436.284	118.94
436.505	103.94
436.727	95.94
436.949	99.94
437.17	90.94
437.392	91.94
437.614	89.94
437.835	116.94
438.057	125.94
438.278	127.94
438.5	116.94
438.721	111.94
438.943	114.94
439.165	93.94
439.386	89.94
439.608	102.94
439.829	99.94
440.05	123.94
440.272	149.94
440.493	93.94
440.715	88.94
440.936	96.94
441.158	88.94
441.379	84.94
441.6	104.94
441.822	96.94
442.043	97.94
442.264	112.94
442.486	106.94
442.707	102.94
442.928	104.94
443.149	149.94
443.371	138.94
443.592	115.94
443.813	124.94
444.034	116.94
444.255	91.94
444.476	86.94
444.698	76.94
444.919	78.94
445.14	135.94
445.361	100.94
445.582	118.94
445.803	151.94
446.024	144.94
446.245	143.94
446.466	114.94
446.687	93.94
446.908	94.94
447.129	82.94
447.35	84.94
447.571	84.94
447.792	91.94
448.013	87.94
448.234	103.94
448.455	105.94
448.675	112.94
448.896	136.94
449.117	95.94
449.338	99.94
449.559	120.94
449.779	144.94
450	103.94
450.221	94.94
450.442	83.94
450.662	92.94
450.883	101.94
451.104	95.94
451.324	91.94
451.545	81.94
451.766	85.94
451.986	88.94
452.207	92.94
452.428	84.94
452.648	100.94
452.869	109.94
453.089	113.94
453.31	112.94
453.53	76.94
453.751	91.94
453.971	102.94
454.192	105.94
454.412	97.94
454.633	88.94
454.853	60.94
455.073	91.94
455.294	80.94
455.514	101.94
455.734	93.94
455.955	99.94
456.175	98.94
456.395	90.94
456.616	87.94
456.836	88.94
457.056	84.94
457.276	87.94
457.497	98.94
457.717	83.94
457.937	88.94
458.157	83.94
458.377	101.94
458.598	111.94
458.818	160.94
459.038	166.94
459.258	115.94
459.478	99.94
459.698	86.94
459.918	84.94
460.138	85.94
460.358	85.94
460.578	88.94
460.798	78.94
461.018	90.94
461.238	80.94
461.458	80.94
461.678	89.94
461.898	101.94
462.118	103.94
462.338	87.94
462.558	93.94
462.777	100.94
462.997	73.94
463.217	96.94
463.437	89.94
463.657	85.94
463.876	95.94
464.096	95.94
464.316	84.94
464.536	103.94
464.755	99.94
464.975	117.94
465.195	153.94
465.414	178.94
465.634	97.94
465.854	82.94
466.073	103.94
466.293	94.94
466.512	95.94
466.732	83.94
466.951	88.94
467.171	105.94
467.391	88.94
467.61	112.94
467.829	132.94
468.049	272.94
468.268	373.94
468.488	125.94
468.707	86.94
468.927	80.94
469.146	86.94
469.365	93.94
469.585	86.94
469.804	120.94
470.023	104.94
470.243	96.94
470.462	95.94
470.681	119.94
470.901	102.94
471.12	88.94
471.339	81.94
471.558	98.94
471.777	101.94
471.997	166.94
472.216	513.94
472.435	998.94
472.654	285.94
472.873	109.94
473.092	86.94
473.311	86.94
473.53	87.94
473.749	81.94
473.968	94.94
474.187	113.94
474.406	105.94
474.625	96.94
474.844	90.94
475.063	80.94
475.282	100.94
475.501	92.94
475.72	80.94
475.939	91.94
476.158	85.94
476.377	72.94
476.596	92.94
476.814	102.94
477.033	99.94
477.252	87.94
477.471	85.94
477.69	89.94
477.908	103.94
478.127	95.94
478.346	88.94
478.564	84.94
478.783	107.94
479.002	99.94
479.22	111.94
479.439	108.94
479.658	108.94
479.876	95.94
480.095	95.94
480.313	105.94
480.532	118.94
480.751	168.94
480.969	459.94
481.188	1733.94
481.406	1037.94
481.624	201.94
481.843	107.94
482.061	98.94
482.28	92.94
482.498	84.94
482.717	85.94
482.935	105.94
483.153	82.94
483.372	81.94
483.59	103.94
483.808	95.94
484.027	84.94
484.245	85.94
484.463	95.94
484.681	109.94
484.9	102.94
485.118	102.94
485.336	87.94
485.554	88.94
485.772	93.94
485.99	100.94
486.209	87.94
486.427	80.94
486.645	117.94
486.863	119.94
487.081	90.94
487.299	95.94
487.517	91.94
487.735	86.94
487.953	97.94
488.171	102.94
488.389	97.94
488.607	102.94
488.825	91.94
489.043	83.94
489.261	100.94
489.479	88.94
489.696	92.94
489.914	84.94
490.132	103.94
490.35	96.94
490.568	88.94
490.786	78.94
491.003	88.94
491.221	93.94
491.439	77.94
491.657	98.94
491.874	77.94
492.092	82.94
492.31	87.94
492.527	81.94
492.745	101.94
492.963	91.94
493.18	91.94
493.398	87.94
493.615	88.94
493.833	86.94
494.05	87.94
494.268	84.94
494.485	89.94
494.703	91.94
494.92	89.94
495.138	87.94
495.355	100.94
495.573	101.94
495.79	92.94
496.008	90.94
496.225	80.94
496.442	85.94
496.66	83.94
496.877	91.94
497.094	86.94
497.312	85.94
497.529	88.94
497.746	85.94
497.963	88.94
498.181	102.94
498.398	99.94
498.615	106.94
498.832	109.94
499.049	80.94
499.267	76.94
499.484	84.94
499.701	77.94
499.918	82.94
500.135	91.94
500.352	88.94
500.569	80.94
500.786	76.94
501.003	79.94
501.22	100.94
501.437	103.94
501.654	105.94
501.871	104.94
502.088	90.94
502.305	96.94
502.522	106.94
502.739	92.94
502.956	88.94
503.172	89.94
503.389	84.94
503.606	101.94
503.823	96.94
504.04	93.94
504.256	84.94
504.473	98.94
504.69	90.94
504.907	82.94
505.123	92.94
505.34	84.94
505.557	93.94
505.773	98.94
505.99	97.94
506.207	95.94
506.423	90.94
506.64	83.94
506.856	84.94
507.073	78.94
507.289	111.94
507.506	94.94
507.722	117.94
507.939	123.94
508.155	97.94
508.372	82.94
508.588	84.94
508.805	89.94
509.021	99.94
509.238	92.94
509.454	98.94
509.67	100.94
509.887	113.94
510.103	113.94
510.319	208.94
510.536	735.94
510.752	2227.94
510.968	651.94
511.184	159.94
511.401	113.94
511.617	103.94
511.833	91.94
512.049	83.94
512.265	73.94
512.481	80.94
512.698	78.94
512.914	89.94
513.13	88.94
513.346	98.94
513.562	97.94
513.778	89.94
513.994	104.94
514.21	97.94
514.426	126.94
514.642	144.94
514.858	129.94
515.074	160.94
