Data from Circ_2004_H10_HRD10591_00094.txt Node
Date: Wed Jan 03 10:33:33 EST 2024
User: Yrep
Spectrometer: HR+D1059
Trigger mode: 1
Integration Time (sec): 1.000000E-1
Scans to average: 1
Electric dark correction enabled: true
Nonlinearity correction enabled: false
Boxcar width: 0
XAxis mode: Wavelengths
Number of Pixels in Spectrum: 2048
>>>>>Begin Spectral Data<<<<<
223.165	-14.69
223.4	-14.69
223.635	-14.69
223.869	-19.69
224.104	-17.69
224.338	-25.69
224.573	-5.69
224.808	-15.69
225.042	-4.69
225.277	-2.69
225.511	-20.69
225.746	14.31
225.98	13.31
226.215	6.31
226.449	10.31
226.683	21.31
226.918	24.31
227.152	37.31
227.387	32.31
227.621	35.31
227.856	51.31
228.09	51.31
228.324	43.31
228.559	44.31
228.793	55.31
229.027	54.31
229.262	65.31
229.496	69.31
229.73	87.31
229.964	97.31
230.199	83.31
230.433	88.31
230.667	73.31
230.901	85.31
231.136	73.31
231.37	75.31
231.604	72.31
231.838	76.31
232.072	85.31
232.306	73.31
232.541	84.31
232.775	76.31
233.009	71.31
233.243	70.31
233.477	85.31
233.711	78.31
233.945	77.31
234.179	82.31
234.413	95.31
234.647	83.31
234.881	88.31
235.115	79.31
235.349	74.31
235.583	69.31
235.817	86.31
236.051	78.31
236.285	63.31
236.519	78.31
236.753	83.31
236.987	90.31
237.221	99.31
237.455	79.31
237.689	83.31
237.922	84.31
238.156	70.31
238.39	82.31
238.624	92.31
238.858	89.31
239.091	85.31
239.325	79.31
239.559	81.31
239.793	83.31
240.027	71.31
240.26	75.31
240.494	84.31
240.728	87.31
240.961	68.31
241.195	73.31
241.429	64.31
241.662	74.31
241.896	60.31
242.13	70.31
242.363	79.31
242.597	62.31
242.83	74.31
243.064	73.31
243.298	79.31
243.531	76.31
243.765	87.31
243.998	90.31
244.232	66.31
244.465	86.31
244.699	79.31
244.932	94.31
245.166	81.31
245.399	87.31
245.633	82.31
245.866	87.31
246.099	77.31
246.333	75.31
246.566	68.31
246.8	77.31
247.033	85.31
247.266	69.31
247.5	86.31
247.733	86.31
247.966	82.31
248.2	74.31
248.433	81.31
248.666	87.31
248.899	82.31
249.133	78.31
249.366	79.31
249.599	96.31
249.832	73.31
250.066	77.31
250.299	67.31
250.532	80.31
250.765	98.31
250.998	85.31
251.231	104.31
251.465	82.31
251.698	74.31
251.931	83.31
252.164	71.31
252.397	76.31
252.63	86.31
252.863	84.31
253.096	68.31
253.329	74.31
253.562	92.31
253.795	65.31
254.028	86.31
254.261	78.31
254.494	81.31
254.727	88.31
254.96	75.31
255.193	65.31
255.426	81.31
255.659	76.31
255.892	83.31
256.124	74.31
256.357	68.31
256.59	102.31
256.823	85.31
257.056	93.31
257.289	77.31
257.521	93.31
257.754	71.31
257.987	78.31
258.22	89.31
258.452	109.31
258.685	94.31
258.918	82.31
259.151	87.31
259.383	91.31
259.616	87.31
259.849	91.31
260.081	94.31
260.314	75.31
260.547	85.31
260.779	95.31
261.012	98.31
261.244	107.31
261.477	98.31
261.71	107.31
261.942	126.31
262.175	128.31
262.407	88.31
262.64	77.31
262.872	88.31
263.105	92.31
263.337	97.31
263.57	82.31
263.802	78.31
264.035	75.31
264.267	86.31
264.499	86.31
264.732	79.31
264.964	81.31
265.197	70.31
265.429	83.31
265.661	81.31
265.894	76.31
266.126	80.31
266.358	66.31
266.591	78.31
266.823	82.31
267.055	80.31
267.287	87.31
267.52	80.31
267.752	77.31
267.984	88.31
268.216	72.31
268.448	74.31
268.681	97.31
268.913	85.31
269.145	68.31
269.377	89.31
269.609	93.31
269.841	84.31
270.073	81.31
270.306	86.31
270.538	77.31
270.77	76.31
271.002	80.31
271.234	92.31
271.466	95.31
271.698	86.31
271.93	87.31
272.162	91.31
272.394	76.31
272.626	82.31
272.858	80.31
273.09	88.31
273.322	91.31
273.553	75.31
273.785	106.31
274.017	94.31
274.249	84.31
274.481	70.31
274.713	78.31
274.945	75.31
275.176	74.31
275.408	89.31
275.64	97.31
275.872	92.31
276.104	96.31
276.335	89.31
276.567	112.31
276.799	133.31
277.031	152.31
277.262	171.31
277.494	130.31
277.726	93.31
277.957	89.31
278.189	92.31
278.421	95.31
278.652	74.31
278.884	93.31
279.115	86.31
279.347	82.31
279.579	97.31
279.81	96.31
280.042	158.31
280.273	204.31
280.505	148.31
280.736	97.31
280.968	82.31
281.199	78.31
281.431	87.31
281.662	98.31
281.894	79.31
282.125	89.31
282.356	125.31
282.588	156.31
282.819	126.31
283.051	95.31
283.282	84.31
283.513	88.31
283.745	84.31
283.976	78.31
284.207	74.31
284.439	85.31
284.67	85.31
284.901	96.31
285.132	72.31
285.364	93.31
285.595	88.31
285.826	93.31
286.057	81.31
286.288	90.31
286.52	87.31
286.751	76.31
286.982	97.31
287.213	99.31
287.444	88.31
287.675	82.31
287.906	96.31
288.138	77.31
288.369	80.31
288.6	99.31
288.831	86.31
289.062	88.31
289.293	91.31
289.524	76.31
289.755	86.31
289.986	90.31
290.217	84.31
290.448	86.31
290.679	92.31
290.91	80.31
291.141	75.31
291.371	86.31
291.602	89.31
291.833	70.31
292.064	97.31
292.295	92.31
292.526	91.31
292.757	111.31
292.987	76.31
293.218	74.31
293.449	79.31
293.68	88.31
293.91	80.31
294.141	92.31
294.372	83.31
294.603	70.31
294.833	78.31
295.064	97.31
295.295	91.31
295.525	98.31
295.756	106.31
295.987	115.31
296.217	141.31
296.448	140.31
296.679	94.31
296.909	96.31
297.14	99.31
297.37	88.31
297.601	74.31
297.831	83.31
298.062	92.31
298.292	88.31
298.523	75.31
298.753	80.31
298.984	90.31
299.214	91.31
299.445	82.31
299.675	100.31
299.905	103.31
300.136	90.31
300.366	88.31
300.597	83.31
300.827	86.31
301.057	103.31
301.288	112.31
301.518	90.31
301.748	101.31
301.979	98.31
302.209	93.31
302.439	91.31
302.669	95.31
302.9	79.31
303.13	97.31
303.36	101.31
303.59	125.31
303.82	126.31
304.051	91.31
304.281	95.31
304.511	91.31
304.741	85.31
304.971	92.31
305.201	106.31
305.431	101.31
305.661	90.31
305.891	91.31
306.121	102.31
306.352	106.31
306.582	100.31
306.812	98.31
307.042	107.31
307.272	120.31
307.502	140.31
307.731	143.31
307.961	108.31
308.191	99.31
308.421	97.31
308.651	99.31
308.881	95.31
309.111	109.31
309.341	98.31
309.571	91.31
309.8	126.31
310.03	98.31
310.26	108.31
310.49	101.31
310.72	113.31
310.949	124.31
311.179	103.31
311.409	88.31
311.639	80.31
311.868	98.31
312.098	91.31
312.328	103.31
312.557	116.31
312.787	115.31
313.017	111.31
313.246	98.31
313.476	83.31
313.706	83.31
313.935	103.31
314.165	101.31
314.394	115.31
314.624	102.31
314.853	102.31
315.083	102.31
315.312	93.31
315.542	103.31
315.771	72.31
316.001	95.31
316.23	78.31
316.46	86.31
316.689	96.31
316.919	91.31
317.148	97.31
317.377	104.31
317.607	108.31
317.836	103.31
318.065	100.31
318.295	102.31
318.524	86.31
318.753	103.31
318.983	110.31
319.212	99.31
319.441	117.31
319.67	113.31
319.9	90.31
320.129	80.31
320.358	105.31
320.587	92.31
320.816	114.31
321.046	108.31
321.275	87.31
321.504	104.31
321.733	99.31
321.962	117.31
322.191	96.31
322.42	106.31
322.649	127.31
322.878	116.31
323.108	123.31
323.337	140.31
323.566	141.31
323.795	186.31
324.024	254.31
324.253	497.31
324.482	1115.31
324.71	2344.31
324.939	3118.31
325.168	1086.31
325.397	318.31
325.626	159.31
325.855	134.31
326.084	145.31
326.313	151.31
326.542	179.31
326.77	287.31
326.999	574.31
327.228	1232.31
327.457	2241.31
327.686	1826.31
327.914	574.31
328.143	439.31
328.372	507.31
328.6	314.31
328.829	160.31
329.058	176.31
329.287	180.31
329.515	157.31
329.744	212.31
329.972	348.31
330.201	689.31
330.43	1039.31
330.658	488.31
330.887	260.31
331.115	167.31
331.344	126.31
331.572	119.31
331.801	110.31
332.03	119.31
332.258	104.31
332.486	105.31
332.715	123.31
332.943	107.31
333.172	110.31
333.4	112.31
333.629	143.31
333.857	209.31
334.085	346.31
334.314	653.31
334.542	1250.31
334.771	1206.31
334.999	347.31
335.227	157.31
335.455	122.31
335.684	107.31
335.912	99.31
336.14	106.31
336.369	99.31
336.597	101.31
336.825	119.31
337.053	95.31
337.281	91.31
337.51	98.31
337.738	117.31
337.966	102.31
338.194	101.31
338.422	105.31
338.65	103.31
338.878	81.31
339.106	87.31
339.334	79.31
339.562	76.31
339.79	94.31
340.018	72.31
340.246	103.31
340.474	102.31
340.702	86.31
340.93	90.31
341.158	100.31
341.386	104.31
341.614	102.31
341.842	90.31
342.07	89.31
342.298	90.31
342.526	94.31
342.754	84.31
342.981	88.31
343.209	95.31
343.437	96.31
343.665	94.31
343.893	93.31
344.12	88.31
344.348	92.31
344.576	94.31
344.804	97.31
345.031	120.31
345.259	106.31
345.487	84.31
345.714	97.31
345.942	91.31
346.17	96.31
346.397	109.31
346.625	93.31
346.853	106.31
347.08	86.31
347.308	110.31
347.535	108.31
347.763	108.31
347.99	100.31
348.218	98.31
348.445	130.31
348.673	97.31
348.9	102.31
349.128	107.31
349.355	81.31
349.583	103.31
349.81	82.31
350.037	104.31
350.265	97.31
350.492	99.31
350.72	91.31
350.947	104.31
351.174	128.31
351.402	120.31
351.629	111.31
351.856	106.31
352.083	106.31
352.311	112.31
352.538	109.31
352.765	115.31
352.992	118.31
353.22	130.31
353.447	112.31
353.674	109.31
353.901	98.31
354.128	96.31
354.355	89.31
354.583	105.31
354.81	99.31
355.037	98.31
355.264	98.31
355.491	84.31
355.718	91.31
355.945	92.31
356.172	83.31
356.399	99.31
356.626	93.31
356.853	85.31
357.08	84.31
357.307	106.31
357.534	82.31
357.761	78.31
357.988	96.31
358.215	84.31
358.441	86.31
358.668	98.31
358.895	93.31
359.122	100.31
359.349	90.31
359.576	72.31
359.802	118.31
360.029	122.31
360.256	119.31
360.483	110.31
360.709	100.31
360.936	99.31
361.163	88.31
361.39	98.31
361.616	104.31
361.843	93.31
362.07	95.31
362.296	118.31
362.523	109.31
362.749	91.31
362.976	100.31
363.203	90.31
363.429	90.31
363.656	87.31
363.882	83.31
364.109	104.31
364.335	96.31
364.562	95.31
364.788	84.31
365.015	97.31
365.241	106.31
365.468	111.31
365.694	120.31
365.92	95.31
366.147	92.31
366.373	108.31
366.599	98.31
366.826	81.31
367.052	92.31
367.278	91.31
367.505	95.31
367.731	93.31
367.957	79.31
368.184	91.31
368.41	104.31
368.636	108.31
368.862	134.31
369.089	110.31
369.315	90.31
369.541	94.31
369.767	86.31
369.993	95.31
370.219	88.31
370.445	83.31
370.672	79.31
370.898	103.31
371.124	92.31
371.35	84.31
371.576	82.31
371.802	86.31
372.028	83.31
372.254	83.31
372.48	94.31
372.706	94.31
372.932	79.31
373.158	95.31
373.384	90.31
373.61	91.31
373.835	87.31
374.061	90.31
374.287	77.31
374.513	81.31
374.739	80.31
374.965	78.31
375.191	86.31
375.416	77.31
375.642	87.31
375.868	84.31
376.094	91.31
376.319	83.31
376.545	85.31
376.771	92.31
376.997	96.31
377.222	82.31
377.448	87.31
377.674	91.31
377.899	95.31
378.125	76.31
378.35	84.31
378.576	77.31
378.802	84.31
379.027	84.31
379.253	82.31
379.478	70.31
379.704	92.31
379.929	101.31
380.155	90.31
380.38	103.31
380.606	92.31
380.831	105.31
381.057	104.31
381.282	90.31
381.507	113.31
381.733	109.31
381.958	103.31
382.184	94.31
382.409	96.31
382.634	89.31
382.86	116.31
383.085	91.31
383.31	99.31
383.535	92.31
383.761	104.31
383.986	84.31
384.211	91.31
384.436	86.31
384.662	98.31
384.887	97.31
385.112	103.31
385.337	105.31
385.562	90.31
385.787	111.31
386.013	112.31
386.238	122.31
386.463	108.31
386.688	100.31
386.913	109.31
387.138	102.31
387.363	100.31
387.588	98.31
387.813	93.31
388.038	86.31
388.263	113.31
388.488	108.31
388.713	85.31
388.938	100.31
389.163	74.31
389.387	77.31
389.612	96.31
389.837	101.31
390.062	102.31
390.287	93.31
390.512	89.31
390.736	79.31
390.961	87.31
391.186	115.31
391.411	113.31
391.636	99.31
391.86	90.31
392.085	70.31
392.31	83.31
392.534	74.31
392.759	80.31
392.984	74.31
393.208	75.31
393.433	86.31
393.658	105.31
393.882	102.31
394.107	80.31
394.331	79.31
394.556	85.31
394.78	76.31
395.005	78.31
395.229	81.31
395.454	92.31
395.678	83.31
395.903	91.31
396.127	101.31
396.352	77.31
396.576	92.31
396.801	86.31
397.025	97.31
397.249	87.31
397.474	85.31
397.698	76.31
397.922	92.31
398.147	91.31
398.371	87.31
398.595	88.31
398.82	94.31
399.044	76.31
399.268	101.31
399.492	87.31
399.717	80.31
399.941	83.31
400.165	84.31
400.389	100.31
400.613	93.31
400.837	87.31
401.062	81.31
401.286	97.31
401.51	88.31
401.734	89.31
401.958	104.31
402.182	143.31
402.406	183.31
402.63	144.31
402.854	106.31
403.078	113.31
403.302	90.31
403.526	84.31
403.75	81.31
403.974	81.31
404.198	82.31
404.422	104.31
404.645	94.31
404.869	97.31
405.093	119.31
405.317	129.31
405.541	123.31
405.765	139.31
405.988	120.31
406.212	220.31
406.436	286.31
406.66	206.31
406.883	126.31
407.107	113.31
407.331	92.31
407.555	106.31
407.778	104.31
408.002	83.31
408.226	92.31
408.449	80.31
408.673	81.31
408.896	104.31
409.12	100.31
409.344	89.31
409.567	80.31
409.791	101.31
410.014	94.31
410.238	105.31
410.461	87.31
410.685	90.31
410.908	91.31
411.132	107.31
411.355	105.31
411.578	94.31
411.802	82.31
412.025	83.31
412.249	96.31
412.472	107.31
412.695	122.31
412.919	99.31
413.142	93.31
413.365	98.31
413.589	88.31
413.812	73.31
414.035	80.31
414.258	90.31
414.482	91.31
414.705	94.31
414.928	80.31
415.151	77.31
415.374	105.31
415.597	92.31
415.821	76.31
416.044	87.31
416.267	96.31
416.49	90.31
416.713	87.31
416.936	85.31
417.159	92.31
417.382	86.31
417.605	95.31
417.828	101.31
418.051	95.31
418.274	85.31
418.497	94.31
418.72	90.31
418.943	79.31
419.166	79.31
419.389	90.31
419.611	59.31
419.834	89.31
420.057	86.31
420.28	91.31
420.503	68.31
420.726	91.31
420.948	82.31
421.171	82.31
421.394	99.31
421.617	83.31
421.839	84.31
422.062	92.31
422.285	83.31
422.507	94.31
422.73	86.31
422.953	103.31
423.175	79.31
423.398	83.31
423.621	88.31
423.843	97.31
424.066	75.31
424.288	72.31
424.511	83.31
424.733	96.31
424.956	118.31
425.178	82.31
425.401	104.31
425.623	102.31
425.846	91.31
426.068	94.31
426.291	97.31
426.513	106.31
426.735	93.31
426.958	104.31
427.18	118.31
427.402	181.31
427.625	242.31
427.847	249.31
428.069	205.31
428.292	131.31
428.514	112.31
428.736	95.31
428.958	88.31
429.181	85.31
429.403	74.31
429.625	84.31
429.847	98.31
430.069	116.31
430.292	107.31
430.514	90.31
430.736	90.31
430.958	80.31
431.18	84.31
431.402	76.31
431.624	87.31
431.846	84.31
432.068	88.31
432.29	80.31
432.512	104.31
432.734	87.31
432.956	86.31
433.178	108.31
433.4	105.31
433.622	95.31
433.844	91.31
434.066	85.31
434.287	83.31
434.509	96.31
434.731	98.31
434.953	90.31
435.175	85.31
435.397	98.31
435.618	94.31
435.84	109.31
436.062	143.31
436.284	145.31
436.505	101.31
436.727	95.31
436.949	90.31
437.17	89.31
437.392	89.31
437.614	81.31
437.835	120.31
438.057	148.31
438.278	129.31
438.5	102.31
438.721	152.31
438.943	112.31
439.165	87.31
439.386	99.31
439.608	94.31
439.829	102.31
440.05	147.31
440.272	182.31
440.493	113.31
440.715	98.31
440.936	92.31
441.158	99.31
441.379	99.31
441.6	105.31
441.822	101.31
442.043	113.31
442.264	110.31
442.486	115.31
442.707	98.31
442.928	119.31
443.149	152.31
443.371	158.31
443.592	136.31
443.813	122.31
444.034	120.31
444.255	95.31
444.476	91.31
444.698	78.31
444.919	90.31
445.14	139.31
445.361	134.31
445.582	147.31
445.803	173.31
446.024	167.31
446.245	162.31
446.466	126.31
446.687	81.31
446.908	82.31
447.129	103.31
447.35	92.31
447.571	81.31
447.792	107.31
448.013	103.31
448.234	127.31
448.455	101.31
448.675	118.31
448.896	123.31
449.117	93.31
449.338	111.31
449.559	138.31
449.779	152.31
450	84.31
450.221	76.31
450.442	93.31
450.662	110.31
450.883	134.31
451.104	149.31
451.324	105.31
451.545	94.31
451.766	96.31
451.986	76.31
452.207	88.31
452.428	97.31
452.648	100.31
452.869	129.31
453.089	132.31
453.31	137.31
453.53	107.31
453.751	109.31
453.971	111.31
454.192	115.31
454.412	88.31
454.633	81.31
454.853	98.31
455.073	78.31
455.294	99.31
455.514	103.31
455.734	96.31
455.955	93.31
456.175	78.31
456.395	82.31
456.616	80.31
456.836	79.31
457.056	86.31
457.276	96.31
457.497	83.31
457.717	92.31
457.937	77.31
458.157	78.31
458.377	96.31
458.598	127.31
458.818	198.31
459.038	211.31
459.258	124.31
459.478	90.31
459.698	96.31
459.918	76.31
460.138	74.31
460.358	77.31
460.578	80.31
460.798	93.31
461.018	98.31
461.238	93.31
461.458	82.31
461.678	87.31
461.898	94.31
462.118	79.31
462.338	98.31
462.558	95.31
462.777	93.31
462.997	94.31
463.217	104.31
463.437	97.31
463.657	79.31
463.876	97.31
464.096	94.31
464.316	98.31
464.536	112.31
464.755	106.31
464.975	127.31
465.195	236.31
465.414	229.31
465.634	102.31
465.854	83.31
466.073	90.31
466.293	87.31
466.512	90.31
466.732	101.31
466.951	96.31
467.171	109.31
467.391	99.31
467.61	135.31
467.829	182.31
468.049	407.31
468.268	631.31
468.488	173.31
468.707	102.31
468.927	85.31
469.146	102.31
469.365	95.31
469.585	99.31
469.804	93.31
470.023	105.31
470.243	105.31
470.462	127.31
470.681	130.31
470.901	110.31
471.12	85.31
471.339	98.31
471.558	106.31
471.777	131.31
471.997	223.31
472.216	780.31
472.435	1767.31
472.654	455.31
472.873	146.31
473.092	102.31
473.311	86.31
473.53	87.31
473.749	108.31
473.968	104.31
474.187	106.31
474.406	106.31
474.625	103.31
474.844	96.31
475.063	83.31
475.282	92.31
475.501	72.31
475.72	102.31
475.939	86.31
476.158	85.31
476.377	102.31
476.596	94.31
476.814	83.31
477.033	111.31
477.252	99.31
477.471	92.31
477.69	83.31
477.908	100.31
478.127	92.31
478.346	75.31
478.564	90.31
478.783	96.31
479.002	88.31
479.22	99.31
479.439	122.31
479.658	120.31
479.876	113.31
480.095	115.31
480.313	135.31
480.532	149.31
480.751	226.31
480.969	744.31
481.188	2927.31
481.406	1788.31
481.624	269.31
481.843	117.31
482.061	107.31
482.28	77.31
482.498	103.31
482.717	83.31
482.935	90.31
483.153	89.31
483.372	100.31
483.59	90.31
483.808	92.31
484.027	104.31
484.245	95.31
484.463	87.31
484.681	89.31
484.9	92.31
485.118	90.31
485.336	88.31
485.554	99.31
485.772	99.31
485.99	111.31
486.209	95.31
486.427	98.31
486.645	115.31
486.863	112.31
487.081	112.31
487.299	110.31
487.517	107.31
487.735	98.31
487.953	98.31
488.171	85.31
488.389	83.31
488.607	97.31
488.825	85.31
489.043	92.31
489.261	97.31
489.479	94.31
489.696	89.31
489.914	93.31
490.132	95.31
490.35	90.31
490.568	95.31
490.786	87.31
491.003	91.31
491.221	101.31
491.439	85.31
491.657	93.31
491.874	83.31
492.092	89.31
492.31	86.31
492.527	94.31
492.745	96.31
492.963	84.31
493.18	106.31
493.398	108.31
493.615	97.31
493.833	94.31
494.05	88.31
494.268	83.31
494.485	91.31
494.703	86.31
494.92	96.31
495.138	78.31
495.355	90.31
495.573	93.31
495.79	86.31
496.008	95.31
496.225	87.31
496.442	92.31
496.66	92.31
496.877	101.31
497.094	98.31
497.312	84.31
497.529	93.31
497.746	80.31
497.963	85.31
498.181	106.31
498.398	91.31
498.615	113.31
498.832	114.31
499.049	103.31
499.267	101.31
499.484	89.31
499.701	98.31
499.918	96.31
500.135	93.31
500.352	85.31
500.569	95.31
500.786	109.31
501.003	93.31
501.22	90.31
501.437	86.31
501.654	89.31
501.871	107.31
502.088	98.31
502.305	81.31
502.522	92.31
502.739	102.31
502.956	95.31
503.172	88.31
503.389	94.31
503.606	125.31
503.823	107.31
504.04	81.31
504.256	88.31
504.473	75.31
504.69	91.31
504.907	113.31
505.123	86.31
505.34	85.31
505.557	86.31
505.773	92.31
505.99	82.31
506.207	99.31
506.423	102.31
506.64	85.31
506.856	89.31
507.073	90.31
507.289	91.31
507.506	107.31
507.722	128.31
507.939	123.31
508.155	87.31
508.372	98.31
508.588	95.31
508.805	101.31
509.021	105.31
509.238	107.31
509.454	107.31
509.67	100.31
509.887	107.31
510.103	132.31
510.319	249.31
510.536	916.31
510.752	2887.31
510.968	774.31
511.184	170.31
511.401	124.31
511.617	111.31
511.833	94.31
512.049	103.31
512.265	81.31
512.481	91.31
512.698	88.31
512.914	84.31
513.13	106.31
513.346	90.31
513.562	103.31
513.778	119.31
