Data from Circ_2004_H10_HRD10591_00069.txt Node
Date: Wed Jan 03 10:33:28 EST 2024
User: Yrep
Spectrometer: HR+D1059
Trigger mode: 1
Integration Time (sec): 1.000000E-1
Scans to average: 1
Electric dark correction enabled: true
Nonlinearity correction enabled: false
Boxcar width: 0
XAxis mode: Wavelengths
Number of Pixels in Spectrum: 2048
>>>>>Begin Spectral Data<<<<<
223.165	-20.25
223.4	-20.25
223.635	-20.25
223.869	-20.25
224.104	-22.25
224.338	-17.25
224.573	-21.25
224.808	-7.25
225.042	1.75
225.277	-15.25
225.511	-2.25
225.746	-1.25
225.98	5.75
226.215	3.75
226.449	30.75
226.683	24.75
226.918	41.75
227.152	18.75
227.387	34.75
227.621	29.75
227.856	38.75
228.09	40.75
228.324	48.75
228.559	67.75
228.793	65.75
229.027	75.75
229.262	58.75
229.496	74.75
229.73	80.75
229.964	73.75
230.199	72.75
230.433	77.75
230.667	58.75
230.901	78.75
231.136	84.75
231.37	83.75
231.604	83.75
231.838	74.75
232.072	75.75
232.306	88.75
232.541	75.75
232.775	81.75
233.009	78.75
233.243	86.75
233.477	87.75
233.711	76.75
233.945	72.75
234.179	83.75
234.413	83.75
234.647	77.75
234.881	84.75
235.115	89.75
235.349	88.75
235.583	68.75
235.817	77.75
236.051	87.75
236.285	77.75
236.519	96.75
236.753	82.75
236.987	83.75
237.221	81.75
237.455	78.75
237.689	86.75
237.922	74.75
238.156	78.75
238.39	78.75
238.624	82.75
238.858	73.75
239.091	73.75
239.325	71.75
239.559	87.75
239.793	81.75
240.027	74.75
240.26	81.75
240.494	73.75
240.728	76.75
240.961	73.75
241.195	77.75
241.429	66.75
241.662	79.75
241.896	81.75
242.13	86.75
242.363	77.75
242.597	79.75
242.83	66.75
243.064	76.75
243.298	75.75
243.531	82.75
243.765	62.75
243.998	74.75
244.232	65.75
244.465	91.75
244.699	69.75
244.932	94.75
245.166	87.75
245.399	79.75
245.633	77.75
245.866	79.75
246.099	64.75
246.333	90.75
246.566	89.75
246.8	87.75
247.033	71.75
247.266	79.75
247.5	93.75
247.733	64.75
247.966	80.75
248.2	89.75
248.433	81.75
248.666	73.75
248.899	80.75
249.133	84.75
249.366	100.75
249.599	110.75
249.832	74.75
250.066	81.75
250.299	81.75
250.532	93.75
250.765	96.75
250.998	88.75
251.231	66.75
251.465	93.75
251.698	104.75
251.931	75.75
252.164	84.75
252.397	81.75
252.63	68.75
252.863	63.75
253.096	86.75
253.329	79.75
253.562	94.75
253.795	80.75
254.028	93.75
254.261	79.75
254.494	85.75
254.727	84.75
254.96	70.75
255.193	89.75
255.426	85.75
255.659	62.75
255.892	81.75
256.124	86.75
256.357	90.75
256.59	84.75
256.823	88.75
257.056	82.75
257.289	79.75
257.521	87.75
257.754	77.75
257.987	77.75
258.22	85.75
258.452	76.75
258.685	71.75
258.918	72.75
259.151	70.75
259.383	80.75
259.616	84.75
259.849	87.75
260.081	74.75
260.314	88.75
260.547	76.75
260.779	81.75
261.012	82.75
261.244	79.75
261.477	85.75
261.71	88.75
261.942	111.75
262.175	106.75
262.407	88.75
262.64	80.75
262.872	79.75
263.105	73.75
263.337	90.75
263.57	80.75
263.802	87.75
264.035	86.75
264.267	83.75
264.499	77.75
264.732	80.75
264.964	85.75
265.197	72.75
265.429	81.75
265.661	66.75
265.894	87.75
266.126	87.75
266.358	90.75
266.591	79.75
266.823	92.75
267.055	72.75
267.287	74.75
267.52	89.75
267.752	84.75
267.984	89.75
268.216	75.75
268.448	84.75
268.681	79.75
268.913	79.75
269.145	77.75
269.377	83.75
269.609	91.75
269.841	86.75
270.073	86.75
270.306	88.75
270.538	68.75
270.77	82.75
271.002	90.75
271.234	85.75
271.466	89.75
271.698	94.75
271.93	95.75
272.162	76.75
272.394	88.75
272.626	79.75
272.858	80.75
273.09	78.75
273.322	70.75
273.553	86.75
273.785	81.75
274.017	77.75
274.249	82.75
274.481	63.75
274.713	97.75
274.945	96.75
275.176	86.75
275.408	74.75
275.64	101.75
275.872	90.75
276.104	94.75
276.335	86.75
276.567	102.75
276.799	118.75
277.031	113.75
277.262	93.75
277.494	98.75
277.726	85.75
277.957	78.75
278.189	88.75
278.421	76.75
278.652	75.75
278.884	88.75
279.115	84.75
279.347	79.75
279.579	89.75
279.81	97.75
280.042	116.75
280.273	137.75
280.505	105.75
280.736	92.75
280.968	84.75
281.199	87.75
281.431	73.75
281.662	88.75
281.894	81.75
282.125	90.75
282.356	107.75
282.588	112.75
282.819	100.75
283.051	90.75
283.282	82.75
283.513	101.75
283.745	84.75
283.976	77.75
284.207	90.75
284.439	88.75
284.67	89.75
284.901	79.75
285.132	92.75
285.364	89.75
285.595	68.75
285.826	85.75
286.057	87.75
286.288	92.75
286.52	93.75
286.751	93.75
286.982	96.75
287.213	98.75
287.444	80.75
287.675	89.75
287.906	89.75
288.138	93.75
288.369	81.75
288.6	88.75
288.831	86.75
289.062	90.75
289.293	90.75
289.524	75.75
289.755	95.75
289.986	89.75
290.217	92.75
290.448	82.75
290.679	90.75
290.91	82.75
291.141	76.75
291.371	90.75
291.602	95.75
291.833	88.75
292.064	112.75
292.295	79.75
292.526	80.75
292.757	80.75
292.987	86.75
293.218	92.75
293.449	85.75
293.68	96.75
293.91	96.75
294.141	85.75
294.372	85.75
294.603	88.75
294.833	75.75
295.064	90.75
295.295	94.75
295.525	88.75
295.756	98.75
295.987	109.75
296.217	125.75
296.448	108.75
296.679	89.75
296.909	98.75
297.14	89.75
297.37	99.75
297.601	86.75
297.831	73.75
298.062	88.75
298.292	92.75
298.523	84.75
298.753	94.75
298.984	81.75
299.214	76.75
299.445	88.75
299.675	89.75
299.905	94.75
300.136	91.75
300.366	95.75
300.597	105.75
300.827	83.75
301.057	87.75
301.288	97.75
301.518	99.75
301.748	98.75
301.979	105.75
302.209	84.75
302.439	96.75
302.669	87.75
302.9	87.75
303.13	86.75
303.36	86.75
303.59	91.75
303.82	97.75
304.051	73.75
304.281	90.75
304.511	84.75
304.741	92.75
304.971	102.75
305.201	79.75
305.431	101.75
305.661	108.75
305.891	94.75
306.121	99.75
306.352	102.75
306.582	104.75
306.812	99.75
307.042	98.75
307.272	115.75
307.502	115.75
307.731	129.75
307.961	95.75
308.191	93.75
308.421	74.75
308.651	88.75
308.881	89.75
309.111	93.75
309.341	86.75
309.571	104.75
309.8	102.75
310.03	91.75
310.26	97.75
310.49	89.75
310.72	97.75
310.949	104.75
311.179	93.75
311.409	109.75
311.639	97.75
311.868	92.75
312.098	95.75
312.328	96.75
312.557	106.75
312.787	89.75
313.017	100.75
313.246	87.75
313.476	83.75
313.706	89.75
313.935	84.75
314.165	100.75
314.394	100.75
314.624	83.75
314.853	87.75
315.083	98.75
315.312	86.75
315.542	92.75
315.771	95.75
316.001	84.75
316.23	101.75
316.46	81.75
316.689	89.75
316.919	84.75
317.148	94.75
317.377	88.75
317.607	92.75
317.836	94.75
318.065	84.75
318.295	76.75
318.524	86.75
318.753	83.75
318.983	100.75
319.212	93.75
319.441	94.75
319.67	102.75
319.9	88.75
320.129	92.75
320.358	90.75
320.587	86.75
320.816	99.75
321.046	90.75
321.275	83.75
321.504	101.75
321.733	98.75
321.962	90.75
322.191	79.75
322.42	108.75
322.649	109.75
322.878	115.75
323.108	122.75
323.337	98.75
323.566	109.75
323.795	130.75
324.024	194.75
324.253	345.75
324.482	718.75
324.71	1472.75
324.939	1940.75
325.168	745.75
325.397	230.75
325.626	133.75
325.855	117.75
326.084	111.75
326.313	122.75
326.542	148.75
326.77	198.75
326.999	392.75
327.228	836.75
327.457	1506.75
327.686	1236.75
327.914	377.75
328.143	257.75
328.372	261.75
328.6	176.75
328.829	122.75
329.058	119.75
329.287	132.75
329.515	119.75
329.744	128.75
329.972	207.75
330.201	321.75
330.43	452.75
330.658	241.75
330.887	160.75
331.115	131.75
331.344	115.75
331.572	103.75
331.801	100.75
332.03	93.75
332.258	90.75
332.486	103.75
332.715	103.75
332.943	96.75
333.172	86.75
333.4	89.75
333.629	118.75
333.857	132.75
334.085	202.75
334.314	314.75
334.542	553.75
334.771	542.75
334.999	180.75
335.227	113.75
335.455	96.75
335.684	92.75
335.912	89.75
336.14	75.75
336.369	100.75
336.597	104.75
336.825	99.75
337.053	94.75
337.281	90.75
337.51	88.75
337.738	104.75
337.966	84.75
338.194	101.75
338.422	90.75
338.65	103.75
338.878	80.75
339.106	88.75
339.334	101.75
339.562	98.75
339.79	101.75
340.018	85.75
340.246	84.75
340.474	92.75
340.702	91.75
340.93	85.75
341.158	95.75
341.386	105.75
341.614	102.75
341.842	96.75
342.07	84.75
342.298	88.75
342.526	88.75
342.754	84.75
342.981	92.75
343.209	78.75
343.437	95.75
343.665	86.75
343.893	84.75
344.12	101.75
344.348	86.75
344.576	103.75
344.804	92.75
345.031	92.75
345.259	82.75
345.487	92.75
345.714	90.75
345.942	110.75
346.17	107.75
346.397	115.75
346.625	85.75
346.853	82.75
347.08	92.75
347.308	97.75
347.535	99.75
347.763	102.75
347.99	94.75
348.218	82.75
348.445	93.75
348.673	103.75
348.9	94.75
349.128	92.75
349.355	92.75
349.583	95.75
349.81	80.75
350.037	86.75
350.265	89.75
350.492	92.75
350.72	95.75
350.947	95.75
351.174	98.75
351.402	104.75
351.629	116.75
351.856	90.75
352.083	98.75
352.311	116.75
352.538	122.75
352.765	104.75
352.992	99.75
353.22	96.75
353.447	95.75
353.674	106.75
353.901	90.75
354.128	88.75
354.355	90.75
354.583	103.75
354.81	92.75
355.037	89.75
355.264	96.75
355.491	85.75
355.718	78.75
355.945	96.75
356.172	99.75
356.399	95.75
356.626	104.75
356.853	96.75
357.08	77.75
357.307	100.75
357.534	85.75
357.761	76.75
357.988	95.75
358.215	88.75
358.441	97.75
358.668	82.75
358.895	88.75
359.122	91.75
359.349	87.75
359.576	90.75
359.802	89.75
360.029	99.75
360.256	99.75
360.483	103.75
360.709	92.75
360.936	103.75
361.163	82.75
361.39	101.75
361.616	84.75
361.843	94.75
362.07	91.75
362.296	92.75
362.523	78.75
362.749	89.75
362.976	87.75
363.203	94.75
363.429	77.75
363.656	90.75
363.882	76.75
364.109	82.75
364.335	91.75
364.562	80.75
364.788	95.75
365.015	90.75
365.241	107.75
365.468	113.75
365.694	94.75
365.92	100.75
366.147	104.75
366.373	102.75
366.599	88.75
366.826	93.75
367.052	87.75
367.278	95.75
367.505	79.75
367.731	92.75
367.957	96.75
368.184	85.75
368.41	86.75
368.636	96.75
368.862	102.75
369.089	109.75
369.315	100.75
369.541	95.75
369.767	82.75
369.993	80.75
370.219	92.75
370.445	92.75
370.672	82.75
370.898	80.75
371.124	97.75
371.35	88.75
371.576	93.75
371.802	85.75
372.028	89.75
372.254	80.75
372.48	86.75
372.706	97.75
372.932	98.75
373.158	87.75
373.384	101.75
373.61	91.75
373.835	101.75
374.061	84.75
374.287	76.75
374.513	90.75
374.739	73.75
374.965	78.75
375.191	85.75
375.416	81.75
375.642	93.75
375.868	89.75
376.094	87.75
376.319	82.75
376.545	74.75
376.771	96.75
376.997	92.75
377.222	107.75
377.448	93.75
377.674	96.75
377.899	82.75
378.125	79.75
378.35	91.75
378.576	106.75
378.802	85.75
379.027	87.75
379.253	102.75
379.478	87.75
379.704	82.75
379.929	94.75
380.155	89.75
380.38	86.75
380.606	87.75
380.831	100.75
381.057	96.75
381.282	89.75
381.507	85.75
381.733	105.75
381.958	90.75
382.184	80.75
382.409	108.75
382.634	90.75
382.86	84.75
383.085	101.75
383.31	83.75
383.535	91.75
383.761	79.75
383.986	93.75
384.211	99.75
384.436	107.75
384.662	89.75
384.887	89.75
385.112	100.75
385.337	96.75
385.562	89.75
385.787	100.75
386.013	100.75
386.238	95.75
386.463	90.75
386.688	114.75
386.913	86.75
387.138	96.75
387.363	88.75
387.588	102.75
387.813	89.75
388.038	81.75
388.263	99.75
388.488	90.75
388.713	84.75
388.938	94.75
389.163	81.75
389.387	96.75
389.612	95.75
389.837	88.75
390.062	90.75
390.287	96.75
390.512	95.75
390.736	95.75
390.961	78.75
391.186	89.75
391.411	94.75
391.636	86.75
391.86	88.75
392.085	82.75
392.31	88.75
392.534	90.75
392.759	83.75
392.984	75.75
393.208	93.75
393.433	81.75
393.658	78.75
393.882	82.75
394.107	84.75
394.331	83.75
394.556	86.75
394.78	77.75
395.005	92.75
395.229	91.75
395.454	88.75
395.678	87.75
395.903	101.75
396.127	93.75
396.352	76.75
396.576	77.75
396.801	88.75
397.025	97.75
397.249	89.75
397.474	86.75
397.698	85.75
397.922	92.75
398.147	96.75
398.371	90.75
398.595	94.75
398.82	82.75
399.044	80.75
399.268	74.75
399.492	89.75
399.717	83.75
399.941	90.75
400.165	91.75
400.389	100.75
400.613	77.75
400.837	94.75
401.062	91.75
401.286	82.75
401.51	94.75
401.734	80.75
401.958	103.75
402.182	119.75
402.406	133.75
402.63	104.75
402.854	98.75
403.078	84.75
403.302	92.75
403.526	77.75
403.75	71.75
403.974	89.75
404.198	84.75
404.422	73.75
404.645	96.75
404.869	88.75
405.093	92.75
405.317	104.75
405.541	110.75
405.765	95.75
405.988	98.75
406.212	164.75
406.436	192.75
406.66	128.75
406.883	97.75
407.107	86.75
407.331	94.75
407.555	94.75
407.778	105.75
408.002	98.75
408.226	87.75
408.449	92.75
408.673	84.75
408.896	105.75
409.12	100.75
409.344	78.75
409.567	87.75
409.791	88.75
410.014	101.75
410.238	80.75
410.461	100.75
410.685	100.75
410.908	91.75
411.132	108.75
411.355	93.75
411.578	85.75
411.802	95.75
412.025	87.75
412.249	98.75
412.472	92.75
412.695	120.75
412.919	98.75
413.142	101.75
413.365	82.75
413.589	92.75
413.812	80.75
414.035	90.75
414.258	90.75
414.482	97.75
414.705	71.75
414.928	84.75
415.151	102.75
415.374	94.75
415.597	100.75
415.821	69.75
416.044	85.75
416.267	88.75
416.49	74.75
416.713	84.75
416.936	94.75
417.159	83.75
417.382	96.75
417.605	92.75
417.828	81.75
418.051	84.75
418.274	101.75
418.497	97.75
418.72	84.75
418.943	85.75
419.166	90.75
419.389	88.75
419.611	82.75
419.834	82.75
420.057	96.75
420.28	87.75
420.503	76.75
420.726	88.75
420.948	90.75
421.171	86.75
421.394	95.75
421.617	87.75
421.839	90.75
422.062	89.75
422.285	77.75
422.507	84.75
422.73	86.75
422.953	87.75
423.175	74.75
423.398	76.75
423.621	86.75
423.843	87.75
424.066	84.75
424.288	88.75
424.511	79.75
424.733	97.75
424.956	101.75
425.178	89.75
425.401	90.75
425.623	96.75
425.846	79.75
426.068	104.75
426.291	92.75
426.513	94.75
426.735	91.75
426.958	81.75
427.18	102.75
427.402	136.75
427.625	151.75
427.847	128.75
428.069	148.75
428.292	97.75
428.514	80.75
428.736	85.75
428.958	82.75
429.181	87.75
429.403	87.75
429.625	83.75
429.847	85.75
430.069	97.75
430.292	93.75
430.514	94.75
430.736	82.75
430.958	85.75
431.18	82.75
431.402	70.75
431.624	76.75
431.846	85.75
432.068	91.75
432.29	85.75
432.512	92.75
432.734	78.75
432.956	86.75
433.178	104.75
433.4	82.75
433.622	96.75
433.844	94.75
434.066	91.75
434.287	89.75
434.509	91.75
434.731	82.75
434.953	83.75
435.175	69.75
435.397	84.75
435.618	87.75
435.84	99.75
436.062	114.75
436.284	116.75
436.505	101.75
436.727	102.75
436.949	95.75
437.17	89.75
437.392	84.75
437.614	93.75
437.835	102.75
438.057	89.75
438.278	112.75
438.5	90.75
438.721	110.75
438.943	108.75
439.165	93.75
439.386	85.75
439.608	90.75
439.829	72.75
440.05	117.75
440.272	128.75
440.493	96.75
440.715	75.75
440.936	74.75
441.158	104.75
441.379	90.75
441.6	97.75
441.822	90.75
442.043	87.75
442.264	80.75
442.486	84.75
442.707	112.75
442.928	99.75
443.149	102.75
443.371	112.75
443.592	110.75
443.813	99.75
444.034	90.75
444.255	95.75
444.476	87.75
444.698	87.75
444.919	89.75
445.14	122.75
445.361	119.75
445.582	110.75
445.803	129.75
446.024	135.75
446.245	133.75
446.466	105.75
446.687	91.75
446.908	90.75
447.129	108.75
447.35	84.75
447.571	84.75
447.792	85.75
448.013	109.75
448.234	107.75
448.455	85.75
448.675	117.75
448.896	96.75
449.117	103.75
449.338	100.75
449.559	123.75
449.779	116.75
450	98.75
450.221	84.75
450.442	89.75
450.662	96.75
450.883	112.75
451.104	113.75
451.324	83.75
451.545	94.75
451.766	77.75
451.986	92.75
452.207	84.75
452.428	81.75
452.648	101.75
452.869	77.75
453.089	108.75
453.31	103.75
453.53	87.75
453.751	93.75
453.971	94.75
454.192	103.75
454.412	104.75
454.633	83.75
454.853	79.75
455.073	93.75
455.294	90.75
455.514	84.75
455.734	88.75
455.955	86.75
456.175	84.75
456.395	87.75
456.616	85.75
456.836	91.75
457.056	84.75
457.276	85.75
457.497	82.75
457.717	76.75
457.937	89.75
458.157	101.75
458.377	83.75
458.598	96.75
458.818	125.75
459.038	144.75
459.258	104.75
459.478	80.75
459.698	95.75
459.918	86.75
460.138	83.75
460.358	89.75
460.578	92.75
460.798	88.75
461.018	87.75
461.238	93.75
461.458	74.75
461.678	94.75
461.898	86.75
462.118	73.75
462.338	80.75
462.558	87.75
462.777	81.75
462.997	87.75
463.217	94.75
463.437	98.75
463.657	79.75
463.876	84.75
464.096	82.75
464.316	85.75
464.536	94.75
464.755	78.75
464.975	105.75
465.195	149.75
465.414	144.75
465.634	98.75
465.854	88.75
466.073	90.75
466.293	81.75
466.512	87.75
466.732	83.75
466.951	96.75
467.171	93.75
467.391	95.75
467.61	114.75
467.829	124.75
468.049	228.75
468.268	289.75
468.488	106.75
468.707	88.75
468.927	93.75
469.146	80.75
469.365	85.75
469.585	91.75
469.804	100.75
470.023	92.75
470.243	98.75
470.462	88.75
470.681	107.75
470.901	89.75
471.12	81.75
471.339	76.75
471.558	91.75
471.777	102.75
471.997	139.75
472.216	416.75
472.435	788.75
472.654	244.75
472.873	109.75
473.092	105.75
473.311	88.75
473.53	95.75
473.749	82.75
473.968	86.75
474.187	90.75
474.406	98.75
474.625	90.75
474.844	94.75
475.063	87.75
475.282	85.75
475.501	92.75
475.72	83.75
475.939	100.75
476.158	90.75
476.377	96.75
476.596	86.75
476.814	97.75
477.033	87.75
477.252	93.75
477.471	88.75
477.69	76.75
477.908	66.75
478.127	73.75
478.346	89.75
478.564	74.75
478.783	98.75
479.002	97.75
479.22	85.75
479.439	91.75
479.658	104.75
479.876	97.75
480.095	98.75
480.313	102.75
480.532	104.75
480.751	148.75
480.969	400.75
481.188	1389.75
481.406	826.75
481.624	171.75
481.843	97.75
482.061	88.75
482.28	86.75
482.498	95.75
482.717	95.75
482.935	79.75
483.153	95.75
483.372	89.75
483.59	97.75
483.808	88.75
484.027	91.75
484.245	90.75
484.463	96.75
484.681	90.75
484.9	87.75
485.118	76.75
485.336	95.75
485.554	95.75
485.772	105.75
485.99	104.75
486.209	108.75
486.427	89.75
486.645	99.75
486.863	109.75
487.081	87.75
487.299	85.75
487.517	89.75
487.735	81.75
487.953	94.75
488.171	97.75
488.389	96.75
488.607	93.75
488.825	97.75
489.043	78.75
489.261	83.75
489.479	84.75
489.696	89.75
489.914	83.75
490.132	81.75
490.35	81.75
490.568	75.75
490.786	96.75
491.003	82.75
491.221	78.75
491.439	93.75
491.657	79.75
491.874	84.75
492.092	88.75
492.31	101.75
492.527	101.75
492.745	87.75
492.963	91.75
493.18	85.75
493.398	92.75
493.615	106.75
493.833	108.75
494.05	89.75
494.268	79.75
494.485	68.75
494.703	89.75
494.92	77.75
495.138	84.75
495.355	83.75
495.573	92.75
495.79	94.75
496.008	95.75
496.225	91.75
496.442	79.75
496.66	84.75
496.877	93.75
497.094	93.75
497.312	89.75
497.529	70.75
497.746	72.75
497.963	79.75
498.181	77.75
498.398	90.75
498.615	109.75
498.832	94.75
499.049	90.75
499.267	88.75
499.484	91.75
499.701	85.75
499.918	83.75
500.135	83.75
500.352	88.75
500.569	92.75
500.786	92.75
501.003	94.75
501.22	93.75
501.437	96.75
501.654	92.75
501.871	97.75
502.088	92.75
502.305	92.75
502.522	91.75
502.739	91.75
502.956	88.75
503.172	77.75
503.389	100.75
503.606	100.75
503.823	86.75
504.04	80.75
504.256	82.75
504.473	77.75
504.69	80.75
504.907	94.75
505.123	74.75
505.34	89.75
505.557	86.75
505.773	79.75
505.99	94.75
506.207	89.75
506.423	87.75
506.64	76.75
506.856	95.75
507.073	86.75
507.289	105.75
507.506	94.75
507.722	101.75
507.939	109.75
508.155	104.75
508.372	94.75
508.588	98.75
508.805	97.75
509.021	99.75
509.238	95.75
509.454	87.75
509.67	96.75
509.887	99.75
510.103	127.75
510.319	184.75
510.536	623.75
510.752	1901.75
510.968	551.75
511.184	150.75
511.401	116.75
511.617	101.75
511.833	78.75
512.049	96.75
512.265	93.75
512.481	86.75
512.698	101.75
512.914	100.75
513.13	81.75
513.346	92.75
513.562	96.75
513.778	82.75
513.994	98.75
514.21	106.75
514.426	108.75
514.642	124.75
514.858	106.75
515.074	140.75
515.29	376.75
515.506	1267.75
515.721	453.75
515.937	155.75
516.153	111.75
