Data from Circ_2004_H10_HRD10591_00056.txt Node
Date: Wed Jan 03 10:33:25 EST 2024
User: Yrep
Spectrometer: HR+D1059
Trigger mode: 1
Integration Time (sec): 1.000000E-1
Scans to average: 1
Electric dark correction enabled: true
Nonlinearity correction enabled: false
Boxcar width: 0
XAxis mode: Wavelengths
Number of Pixels in Spectrum: 2048
>>>>>Begin Spectral Data<<<<<
223.165	-17.31
223.4	-17.31
223.635	-17.31
223.869	-17.31
224.104	-13.31
224.338	-32.31
224.573	-5.31
224.808	-9.31
225.042	-1.31
225.277	-16.31
225.511	15.69
225.746	6.69
225.98	0.69
226.215	8.69
226.449	18.69
226.683	5.69
226.918	23.69
227.152	32.69
227.387	21.69
227.621	27.69
227.856	36.69
228.09	41.69
228.324	60.69
228.559	47.69
228.793	54.69
229.027	61.69
229.262	82.69
229.496	77.69
229.73	85.69
229.964	85.69
230.199	73.69
230.433	73.69
230.667	70.69
230.901	73.69
231.136	67.69
231.37	78.69
231.604	80.69
231.838	86.69
232.072	90.69
232.306	70.69
232.541	83.69
232.775	78.69
233.009	71.69
233.243	91.69
233.477	91.69
233.711	79.69
233.945	71.69
234.179	87.69
234.413	81.69
234.647	80.69
234.881	89.69
235.115	93.69
235.349	73.69
235.583	79.69
235.817	81.69
236.051	68.69
236.285	75.69
236.519	78.69
236.753	80.69
236.987	88.69
237.221	84.69
237.455	93.69
237.689	77.69
237.922	81.69
238.156	71.69
238.39	75.69
238.624	61.69
238.858	67.69
239.091	73.69
239.325	81.69
239.559	89.69
239.793	84.69
240.027	82.69
240.26	86.69
240.494	79.69
240.728	77.69
240.961	68.69
241.195	95.69
241.429	75.69
241.662	81.69
241.896	78.69
242.13	68.69
242.363	71.69
242.597	73.69
242.83	74.69
243.064	70.69
243.298	75.69
243.531	80.69
243.765	78.69
243.998	83.69
244.232	78.69
244.465	77.69
244.699	70.69
244.932	82.69
245.166	77.69
245.399	85.69
245.633	82.69
245.866	82.69
246.099	83.69
246.333	78.69
246.566	71.69
246.8	82.69
247.033	79.69
247.266	71.69
247.5	83.69
247.733	76.69
247.966	70.69
248.2	71.69
248.433	78.69
248.666	79.69
248.899	84.69
249.133	91.69
249.366	93.69
249.599	91.69
249.832	93.69
250.066	79.69
250.299	83.69
250.532	76.69
250.765	91.69
250.998	78.69
251.231	70.69
251.465	69.69
251.698	84.69
251.931	79.69
252.164	70.69
252.397	84.69
252.63	86.69
252.863	85.69
253.096	85.69
253.329	79.69
253.562	87.69
253.795	81.69
254.028	87.69
254.261	88.69
254.494	69.69
254.727	72.69
254.96	81.69
255.193	64.69
255.426	75.69
255.659	70.69
255.892	80.69
256.124	95.69
256.357	92.69
256.59	88.69
256.823	88.69
257.056	82.69
257.289	74.69
257.521	98.69
257.754	84.69
257.987	84.69
258.22	94.69
258.452	82.69
258.685	80.69
258.918	67.69
259.151	80.69
259.383	63.69
259.616	77.69
259.849	78.69
260.081	76.69
260.314	74.69
260.547	71.69
260.779	84.69
261.012	106.69
261.244	94.69
261.477	77.69
261.71	80.69
261.942	132.69
262.175	114.69
262.407	81.69
262.64	78.69
262.872	97.69
263.105	86.69
263.337	84.69
263.57	83.69
263.802	86.69
264.035	83.69
264.267	75.69
264.499	79.69
264.732	74.69
264.964	82.69
265.197	84.69
265.429	76.69
265.661	70.69
265.894	81.69
266.126	98.69
266.358	75.69
266.591	82.69
266.823	78.69
267.055	88.69
267.287	79.69
267.52	87.69
267.752	76.69
267.984	85.69
268.216	78.69
268.448	78.69
268.681	78.69
268.913	82.69
269.145	90.69
269.377	66.69
269.609	82.69
269.841	71.69
270.073	76.69
270.306	89.69
270.538	72.69
270.77	74.69
271.002	71.69
271.234	86.69
271.466	79.69
271.698	69.69
271.93	90.69
272.162	91.69
272.394	86.69
272.626	77.69
272.858	90.69
273.09	83.69
273.322	76.69
273.553	70.69
273.785	55.69
274.017	97.69
274.249	84.69
274.481	91.69
274.713	81.69
274.945	87.69
275.176	102.69
275.408	86.69
275.64	81.69
275.872	85.69
276.104	107.69
276.335	83.69
276.567	96.69
276.799	118.69
277.031	130.69
277.262	123.69
277.494	109.69
277.726	80.69
277.957	72.69
278.189	82.69
278.421	86.69
278.652	85.69
278.884	77.69
279.115	89.69
279.347	91.69
279.579	94.69
279.81	111.69
280.042	113.69
280.273	145.69
280.505	125.69
280.736	91.69
280.968	87.69
281.199	84.69
281.431	78.69
281.662	90.69
281.894	84.69
282.125	83.69
282.356	106.69
282.588	143.69
282.819	107.69
283.051	87.69
283.282	75.69
283.513	102.69
283.745	89.69
283.976	86.69
284.207	97.69
284.439	95.69
284.67	85.69
284.901	76.69
285.132	77.69
285.364	81.69
285.595	84.69
285.826	86.69
286.057	84.69
286.288	73.69
286.52	83.69
286.751	88.69
286.982	86.69
287.213	85.69
287.444	87.69
287.675	98.69
287.906	84.69
288.138	79.69
288.369	95.69
288.6	99.69
288.831	78.69
289.062	80.69
289.293	80.69
289.524	91.69
289.755	68.69
289.986	94.69
290.217	77.69
290.448	89.69
290.679	92.69
290.91	93.69
291.141	75.69
291.371	86.69
291.602	92.69
291.833	97.69
292.064	72.69
292.295	90.69
292.526	82.69
292.757	79.69
292.987	91.69
293.218	82.69
293.449	85.69
293.68	86.69
293.91	81.69
294.141	84.69
294.372	83.69
294.603	86.69
294.833	91.69
295.064	85.69
295.295	93.69
295.525	86.69
295.756	102.69
295.987	110.69
296.217	129.69
296.448	140.69
296.679	105.69
296.909	84.69
297.14	83.69
297.37	85.69
297.601	80.69
297.831	98.69
298.062	96.69
298.292	90.69
298.523	85.69
298.753	79.69
298.984	83.69
299.214	93.69
299.445	94.69
299.675	93.69
299.905	95.69
300.136	96.69
300.366	79.69
300.597	103.69
300.827	88.69
301.057	95.69
301.288	100.69
301.518	92.69
301.748	97.69
301.979	94.69
302.209	87.69
302.439	106.69
302.669	95.69
302.9	91.69
303.13	95.69
303.36	95.69
303.59	117.69
303.82	112.69
304.051	78.69
304.281	85.69
304.511	77.69
304.741	82.69
304.971	94.69
305.201	98.69
305.431	86.69
305.661	93.69
305.891	91.69
306.121	100.69
306.352	91.69
306.582	98.69
306.812	80.69
307.042	84.69
307.272	109.69
307.502	122.69
307.731	127.69
307.961	118.69
308.191	85.69
308.421	85.69
308.651	96.69
308.881	82.69
309.111	102.69
309.341	99.69
309.571	95.69
309.8	92.69
310.03	81.69
310.26	115.69
310.49	84.69
310.72	89.69
310.949	105.69
311.179	109.69
311.409	90.69
311.639	90.69
311.868	106.69
312.098	105.69
312.328	100.69
312.557	91.69
312.787	104.69
313.017	108.69
313.246	103.69
313.476	94.69
313.706	84.69
313.935	99.69
314.165	101.69
314.394	106.69
314.624	80.69
314.853	97.69
315.083	80.69
315.312	86.69
315.542	90.69
315.771	84.69
316.001	97.69
316.23	75.69
316.46	79.69
316.689	78.69
316.919	76.69
317.148	96.69
317.377	95.69
317.607	101.69
317.836	95.69
318.065	78.69
318.295	93.69
318.524	93.69
318.753	84.69
318.983	73.69
319.212	109.69
319.441	126.69
319.67	108.69
319.9	83.69
320.129	100.69
320.358	99.69
320.587	101.69
320.816	89.69
321.046	103.69
321.275	98.69
321.504	102.69
321.733	93.69
321.962	96.69
322.191	96.69
322.42	98.69
322.649	113.69
322.878	113.69
323.108	124.69
323.337	119.69
323.566	139.69
323.795	162.69
324.024	217.69
324.253	445.69
324.482	954.69
324.71	1951.69
324.939	2583.69
325.168	927.69
325.397	254.69
325.626	169.69
325.855	137.69
326.084	114.69
326.313	134.69
326.542	174.69
326.77	270.69
326.999	500.69
327.228	1056.69
327.457	1895.69
327.686	1569.69
327.914	469.69
328.143	338.69
328.372	360.69
328.6	237.69
328.829	133.69
329.058	154.69
329.287	164.69
329.515	136.69
329.744	159.69
329.972	257.69
330.201	496.69
330.43	730.69
330.658	350.69
330.887	199.69
331.115	155.69
331.344	106.69
331.572	101.69
331.801	114.69
332.03	118.69
332.258	111.69
332.486	87.69
332.715	108.69
332.943	92.69
333.172	102.69
333.4	109.69
333.629	126.69
333.857	171.69
334.085	268.69
334.314	462.69
334.542	854.69
334.771	851.69
334.999	241.69
335.227	131.69
335.455	103.69
335.684	111.69
335.912	101.69
336.14	93.69
336.369	100.69
336.597	111.69
336.825	97.69
337.053	92.69
337.281	94.69
337.51	97.69
337.738	99.69
337.966	94.69
338.194	91.69
338.422	94.69
338.65	109.69
338.878	93.69
339.106	84.69
339.334	106.69
339.562	90.69
339.79	87.69
340.018	81.69
340.246	93.69
340.474	85.69
340.702	93.69
340.93	88.69
341.158	101.69
341.386	101.69
341.614	93.69
341.842	82.69
342.07	82.69
342.298	90.69
342.526	86.69
342.754	76.69
342.981	83.69
343.209	86.69
343.437	108.69
343.665	89.69
343.893	89.69
344.12	90.69
344.348	98.69
344.576	90.69
344.804	99.69
345.031	106.69
345.259	102.69
345.487	91.69
345.714	113.69
345.942	84.69
346.17	100.69
346.397	100.69
346.625	86.69
346.853	94.69
347.08	94.69
347.308	94.69
347.535	104.69
347.763	113.69
347.99	96.69
348.218	90.69
348.445	121.69
348.673	110.69
348.9	95.69
349.128	89.69
349.355	79.69
349.583	85.69
349.81	90.69
350.037	84.69
350.265	95.69
350.492	102.69
350.72	80.69
350.947	92.69
351.174	113.69
351.402	122.69
351.629	107.69
351.856	110.69
352.083	86.69
352.311	112.69
352.538	110.69
352.765	122.69
352.992	119.69
353.22	108.69
353.447	93.69
353.674	84.69
353.901	83.69
354.128	108.69
354.355	81.69
354.583	86.69
354.81	94.69
355.037	93.69
355.264	87.69
355.491	81.69
355.718	97.69
355.945	83.69
356.172	95.69
356.399	84.69
356.626	90.69
356.853	97.69
357.08	81.69
357.307	104.69
357.534	89.69
357.761	82.69
357.988	97.69
358.215	100.69
358.441	101.69
358.668	96.69
358.895	86.69
359.122	87.69
359.349	92.69
359.576	98.69
359.802	102.69
360.029	114.69
360.256	123.69
360.483	108.69
360.709	86.69
360.936	96.69
361.163	81.69
361.39	97.69
361.616	95.69
361.843	87.69
362.07	99.69
362.296	97.69
362.523	93.69
362.749	95.69
362.976	106.69
363.203	92.69
363.429	96.69
363.656	96.69
363.882	108.69
364.109	79.69
364.335	80.69
364.562	90.69
364.788	93.69
365.015	101.69
365.241	103.69
365.468	105.69
365.694	103.69
365.92	106.69
366.147	84.69
366.373	90.69
366.599	96.69
366.826	97.69
367.052	75.69
367.278	93.69
367.505	94.69
367.731	90.69
367.957	89.69
368.184	95.69
368.41	101.69
368.636	122.69
368.862	125.69
369.089	122.69
369.315	79.69
369.541	97.69
369.767	97.69
369.993	90.69
370.219	96.69
370.445	85.69
370.672	83.69
370.898	82.69
371.124	79.69
371.35	86.69
371.576	89.69
371.802	88.69
372.028	81.69
372.254	80.69
372.48	89.69
372.706	89.69
372.932	90.69
373.158	66.69
373.384	94.69
373.61	92.69
373.835	78.69
374.061	76.69
374.287	85.69
374.513	93.69
374.739	84.69
374.965	93.69
375.191	87.69
375.416	72.69
375.642	86.69
375.868	87.69
376.094	87.69
376.319	96.69
376.545	83.69
376.771	82.69
376.997	107.69
377.222	86.69
377.448	95.69
377.674	84.69
377.899	70.69
378.125	82.69
378.35	95.69
378.576	90.69
378.802	87.69
379.027	94.69
379.253	85.69
379.478	82.69
379.704	81.69
379.929	93.69
380.155	88.69
380.38	78.69
380.606	97.69
380.831	95.69
381.057	103.69
381.282	98.69
381.507	82.69
381.733	81.69
381.958	85.69
382.184	87.69
382.409	84.69
382.634	109.69
382.86	96.69
383.085	99.69
383.31	90.69
383.535	95.69
383.761	99.69
383.986	104.69
384.211	93.69
384.436	89.69
384.662	75.69
384.887	95.69
385.112	107.69
385.337	102.69
385.562	90.69
385.787	102.69
386.013	95.69
386.238	112.69
386.463	97.69
386.688	101.69
386.913	96.69
387.138	101.69
387.363	99.69
387.588	90.69
387.813	88.69
388.038	99.69
388.263	113.69
388.488	91.69
388.713	93.69
388.938	79.69
389.163	99.69
389.387	110.69
389.612	92.69
389.837	84.69
390.062	84.69
390.287	92.69
390.512	77.69
390.736	83.69
390.961	85.69
391.186	85.69
391.411	84.69
391.636	76.69
391.86	70.69
392.085	80.69
392.31	92.69
392.534	77.69
392.759	80.69
392.984	75.69
393.208	77.69
393.433	79.69
393.658	85.69
393.882	88.69
394.107	76.69
394.331	89.69
394.556	71.69
394.78	93.69
395.005	97.69
395.229	92.69
395.454	86.69
395.678	82.69
395.903	80.69
396.127	95.69
396.352	94.69
396.576	83.69
396.801	93.69
397.025	88.69
397.249	97.69
397.474	91.69
397.698	79.69
397.922	87.69
398.147	93.69
398.371	89.69
398.595	67.69
398.82	83.69
399.044	93.69
399.268	95.69
399.492	76.69
399.717	89.69
399.941	90.69
400.165	94.69
400.389	96.69
400.613	89.69
400.837	79.69
401.062	77.69
401.286	82.69
401.51	93.69
401.734	88.69
401.958	105.69
402.182	130.69
402.406	195.69
402.63	144.69
402.854	96.69
403.078	79.69
403.302	71.69
403.526	94.69
403.75	95.69
403.974	79.69
404.198	95.69
404.422	81.69
404.645	97.69
404.869	99.69
405.093	104.69
405.317	112.69
405.541	118.69
405.765	110.69
405.988	116.69
406.212	199.69
406.436	272.69
406.66	169.69
406.883	113.69
407.107	107.69
407.331	93.69
407.555	106.69
407.778	93.69
408.002	90.69
408.226	91.69
408.449	102.69
408.673	97.69
408.896	75.69
409.12	94.69
409.344	81.69
409.567	81.69
409.791	92.69
410.014	87.69
410.238	79.69
410.461	87.69
410.685	92.69
410.908	99.69
411.132	107.69
411.355	108.69
411.578	83.69
411.802	93.69
412.025	94.69
412.249	92.69
412.472	106.69
412.695	116.69
412.919	86.69
413.142	77.69
413.365	94.69
413.589	106.69
413.812	84.69
414.035	100.69
414.258	100.69
414.482	91.69
414.705	83.69
414.928	84.69
415.151	85.69
415.374	86.69
415.597	94.69
415.821	97.69
416.044	96.69
416.267	93.69
416.49	97.69
416.713	70.69
416.936	90.69
417.159	85.69
417.382	92.69
417.605	94.69
417.828	93.69
418.051	83.69
418.274	86.69
418.497	78.69
418.72	85.69
418.943	76.69
419.166	87.69
419.389	88.69
419.611	86.69
419.834	90.69
420.057	93.69
420.28	96.69
420.503	78.69
420.726	86.69
420.948	92.69
421.171	93.69
421.394	78.69
421.617	98.69
421.839	81.69
422.062	87.69
422.285	85.69
422.507	101.69
422.73	119.69
422.953	83.69
423.175	95.69
423.398	90.69
423.621	93.69
423.843	77.69
424.066	87.69
424.288	91.69
424.511	93.69
424.733	105.69
424.956	111.69
425.178	90.69
425.401	108.69
425.623	108.69
425.846	86.69
426.068	91.69
426.291	99.69
426.513	83.69
426.735	94.69
426.958	104.69
427.18	106.69
427.402	157.69
427.625	210.69
427.847	198.69
428.069	171.69
428.292	121.69
428.514	93.69
428.736	84.69
428.958	84.69
429.181	81.69
429.403	91.69
429.625	93.69
429.847	92.69
430.069	116.69
430.292	108.69
430.514	92.69
430.736	89.69
430.958	92.69
431.18	91.69
431.402	79.69
431.624	85.69
431.846	96.69
432.068	85.69
432.29	92.69
432.512	86.69
432.734	85.69
432.956	102.69
433.178	91.69
433.4	112.69
433.622	91.69
433.844	95.69
434.066	87.69
434.287	83.69
434.509	83.69
434.731	79.69
434.953	77.69
435.175	84.69
435.397	86.69
435.618	93.69
435.84	105.69
436.062	129.69
436.284	137.69
436.505	109.69
436.727	102.69
436.949	98.69
437.17	94.69
437.392	82.69
437.614	93.69
437.835	113.69
438.057	118.69
438.278	101.69
438.5	110.69
438.721	125.69
438.943	123.69
439.165	92.69
439.386	85.69
439.608	90.69
439.829	105.69
440.05	131.69
440.272	166.69
440.493	108.69
440.715	98.69
440.936	91.69
441.158	82.69
441.379	94.69
441.6	86.69
441.822	100.69
442.043	100.69
442.264	122.69
442.486	106.69
442.707	88.69
442.928	124.69
443.149	156.69
443.371	156.69
443.592	126.69
443.813	109.69
444.034	129.69
444.255	82.69
444.476	82.69
444.698	85.69
444.919	81.69
445.14	131.69
445.361	123.69
445.582	108.69
445.803	159.69
446.024	137.69
446.245	145.69
446.466	132.69
446.687	87.69
446.908	87.69
447.129	84.69
447.35	86.69
447.571	93.69
447.792	95.69
448.013	107.69
448.234	106.69
448.455	112.69
448.675	114.69
448.896	110.69
449.117	111.69
449.338	109.69
449.559	131.69
449.779	155.69
450	91.69
450.221	93.69
450.442	79.69
450.662	97.69
450.883	113.69
451.104	131.69
451.324	110.69
451.545	86.69
451.766	83.69
451.986	82.69
452.207	86.69
452.428	99.69
452.648	118.69
452.869	131.69
453.089	129.69
453.31	126.69
453.53	97.69
453.751	100.69
453.971	100.69
454.192	119.69
454.412	93.69
454.633	80.69
454.853	85.69
455.073	73.69
455.294	95.69
455.514	80.69
455.734	99.69
455.955	72.69
456.175	86.69
456.395	78.69
456.616	84.69
456.836	74.69
457.056	84.69
457.276	83.69
457.497	87.69
457.717	85.69
457.937	84.69
458.157	93.69
458.377	86.69
458.598	112.69
458.818	173.69
459.038	194.69
459.258	132.69
459.478	93.69
459.698	86.69
459.918	82.69
460.138	83.69
460.358	101.69
460.578	99.69
460.798	88.69
461.018	92.69
461.238	83.69
461.458	70.69
461.678	93.69
461.898	93.69
462.118	86.69
462.338	77.69
462.558	80.69
462.777	77.69
462.997	85.69
463.217	82.69
463.437	85.69
463.657	82.69
463.876	67.69
464.096	94.69
464.316	98.69
464.536	95.69
464.755	96.69
464.975	110.69
465.195	187.69
465.414	208.69
465.634	121.69
465.854	87.69
466.073	85.69
466.293	83.69
466.512	78.69
466.732	87.69
466.951	91.69
467.171	88.69
467.391	77.69
467.61	108.69
467.829	143.69
468.049	299.69
468.268	419.69
468.488	142.69
468.707	98.69
468.927	102.69
469.146	82.69
469.365	83.69
469.585	97.69
469.804	97.69
470.023	109.69
470.243	107.69
470.462	108.69
470.681	123.69
470.901	97.69
471.12	103.69
471.339	91.69
471.558	113.69
471.777	111.69
471.997	181.69
472.216	523.69
472.435	1189.69
472.654	319.69
472.873	109.69
473.092	108.69
473.311	102.69
473.53	88.69
473.749	91.69
473.968	97.69
474.187	111.69
474.406	96.69
474.625	87.69
474.844	100.69
475.063	77.69
475.282	77.69
475.501	77.69
475.72	95.69
475.939	90.69
476.158	80.69
476.377	91.69
476.596	94.69
476.814	93.69
477.033	93.69
477.252	82.69
477.471	89.69
477.69	98.69
477.908	89.69
478.127	95.69
478.346	96.69
478.564	94.69
478.783	93.69
479.002	90.69
479.22	94.69
479.439	109.69
479.658	121.69
479.876	106.69
480.095	93.69
480.313	111.69
480.532	116.69
480.751	179.69
480.969	508.69
481.188	1993.69
481.406	1233.69
481.624	208.69
481.843	103.69
482.061	79.69
482.28	92.69
482.498	106.69
482.717	85.69
482.935	101.69
483.153	97.69
483.372	85.69
483.59	92.69
483.808	83.69
484.027	78.69
484.245	100.69
484.463	97.69
484.681	85.69
484.9	86.69
485.118	89.69
485.336	88.69
485.554	101.69
485.772	108.69
485.99	102.69
486.209	93.69
486.427	97.69
486.645	118.69
486.863	126.69
487.081	92.69
487.299	102.69
487.517	87.69
487.735	96.69
487.953	81.69
488.171	91.69
488.389	103.69
488.607	109.69
488.825	84.69
489.043	91.69
489.261	74.69
489.479	93.69
489.696	81.69
489.914	84.69
490.132	80.69
490.35	96.69
490.568	93.69
490.786	87.69
491.003	97.69
491.221	92.69
491.439	77.69
491.657	83.69
491.874	89.69
492.092	84.69
492.31	84.69
492.527	86.69
492.745	86.69
492.963	84.69
493.18	90.69
493.398	98.69
493.615	89.69
493.833	87.69
494.05	74.69
494.268	87.69
494.485	90.69
494.703	70.69
494.92	102.69
495.138	77.69
495.355	90.69
495.573	80.69
495.79	95.69
496.008	75.69
496.225	90.69
496.442	74.69
496.66	94.69
496.877	96.69
497.094	91.69
497.312	105.69
497.529	106.69
497.746	96.69
497.963	103.69
498.181	96.69
498.398	91.69
498.615	101.69
498.832	95.69
499.049	84.69
499.267	84.69
499.484	84.69
499.701	91.69
499.918	88.69
500.135	83.69
500.352	99.69
500.569	71.69
500.786	74.69
501.003	94.69
501.22	95.69
501.437	89.69
501.654	86.69
501.871	103.69
502.088	87.69
502.305	95.69
502.522	89.69
502.739	86.69
502.956	93.69
503.172	83.69
503.389	97.69
503.606	106.69
503.823	91.69
504.04	92.69
504.256	82.69
504.473	90.69
504.69	87.69
504.907	103.69
505.123	104.69
505.34	82.69
505.557	93.69
505.773	86.69
505.99	98.69
506.207	87.69
506.423	86.69
506.64	80.69
506.856	90.69
507.073	85.69
507.289	89.69
507.506	102.69
507.722	103.69
507.939	127.69
508.155	104.69
508.372	90.69
508.588	92.69
508.805	101.69
509.021	95.69
509.238	92.69
509.454	101.69
509.67	109.69
509.887	105.69
510.103	125.69
510.319	229.69
510.536	843.69
510.752	2814.69
510.968	781.69
511.184	155.69
511.401	137.69
511.617	109.69
511.833	93.69
512.049	80.69
512.265	84.69
512.481	93.69
512.698	87.69
512.914	80.69
513.13	95.69
513.346	99.69
513.562	91.69
513.778	101.69
513.994	93.69
514.21	102.69
514.426	124.69
514.642	162.69
514.858	150.69
515.074	194.69
515.29	594.69
