Data from Circ_2004_H10_HRD10591_00021.txt Node
Date: Wed Jan 03 10:33:18 EST 2024
User: Yrep
Spectrometer: HR+D1059
Trigger mode: 1
Integration Time (sec): 1.000000E-1
Scans to average: 1
Electric dark correction enabled: true
Nonlinearity correction enabled: false
Boxcar width: 0
XAxis mode: Wavelengths
Number of Pixels in Spectrum: 2048
>>>>>Begin Spectral Data<<<<<
223.165	5.25
223.4	5.25
223.635	5.25
223.869	-32.75
224.104	-23.75
224.338	-25.75
224.573	-29.75
224.808	-12.75
225.042	-8.75
225.277	-4.75
225.511	-3.75
225.746	7.25
225.98	15.25
226.215	9.25
226.449	22.25
226.683	14.25
226.918	18.25
227.152	50.25
227.387	35.25
227.621	45.25
227.856	65.25
228.09	49.25
228.324	45.25
228.559	58.25
228.793	66.25
229.027	52.25
229.262	70.25
229.496	84.25
229.73	80.25
229.964	82.25
230.199	57.25
230.433	78.25
230.667	87.25
230.901	80.25
231.136	72.25
231.37	76.25
231.604	86.25
231.838	62.25
232.072	84.25
232.306	85.25
232.541	94.25
232.775	76.25
233.009	73.25
233.243	84.25
233.477	79.25
233.711	85.25
233.945	76.25
234.179	84.25
234.413	81.25
234.647	60.25
234.881	72.25
235.115	78.25
235.349	82.25
235.583	84.25
235.817	85.25
236.051	79.25
236.285	77.25
236.519	79.25
236.753	81.25
236.987	81.25
237.221	64.25
237.455	92.25
237.689	76.25
237.922	77.25
238.156	71.25
238.39	91.25
238.624	64.25
238.858	60.25
239.091	73.25
239.325	80.25
239.559	90.25
239.793	77.25
240.027	84.25
240.26	97.25
240.494	83.25
240.728	65.25
240.961	84.25
241.195	66.25
241.429	85.25
241.662	75.25
241.896	77.25
242.13	79.25
242.363	60.25
242.597	81.25
242.83	83.25
243.064	76.25
243.298	72.25
243.531	72.25
243.765	86.25
243.998	79.25
244.232	85.25
244.465	74.25
244.699	64.25
244.932	77.25
245.166	88.25
245.399	71.25
245.633	88.25
245.866	89.25
246.099	85.25
246.333	69.25
246.566	71.25
246.8	75.25
247.033	88.25
247.266	69.25
247.5	86.25
247.733	71.25
247.966	89.25
248.2	84.25
248.433	71.25
248.666	70.25
248.899	65.25
249.133	76.25
249.366	82.25
249.599	85.25
249.832	72.25
250.066	81.25
250.299	85.25
250.532	72.25
250.765	75.25
250.998	71.25
251.231	83.25
251.465	79.25
251.698	81.25
251.931	67.25
252.164	88.25
252.397	90.25
252.63	69.25
252.863	73.25
253.096	88.25
253.329	93.25
253.562	82.25
253.795	91.25
254.028	90.25
254.261	85.25
254.494	84.25
254.727	85.25
254.96	74.25
255.193	76.25
255.426	73.25
255.659	85.25
255.892	89.25
256.124	75.25
256.357	80.25
256.59	85.25
256.823	89.25
257.056	90.25
257.289	79.25
257.521	83.25
257.754	88.25
257.987	89.25
258.22	86.25
258.452	73.25
258.685	77.25
258.918	81.25
259.151	89.25
259.383	78.25
259.616	82.25
259.849	84.25
260.081	88.25
260.314	68.25
260.547	85.25
260.779	88.25
261.012	88.25
261.244	79.25
261.477	87.25
261.71	87.25
261.942	99.25
262.175	92.25
262.407	84.25
262.64	83.25
262.872	95.25
263.105	89.25
263.337	85.25
263.57	79.25
263.802	84.25
264.035	94.25
264.267	88.25
264.499	80.25
264.732	88.25
264.964	85.25
265.197	88.25
265.429	79.25
265.661	71.25
265.894	79.25
266.126	62.25
266.358	72.25
266.591	90.25
266.823	90.25
267.055	71.25
267.287	88.25
267.52	76.25
267.752	88.25
267.984	79.25
268.216	86.25
268.448	79.25
268.681	72.25
268.913	73.25
269.145	98.25
269.377	84.25
269.609	82.25
269.841	89.25
270.073	82.25
270.306	84.25
270.538	77.25
270.77	77.25
271.002	95.25
271.234	79.25
271.466	90.25
271.698	96.25
271.93	81.25
272.162	77.25
272.394	89.25
272.626	76.25
272.858	73.25
273.09	82.25
273.322	71.25
273.553	84.25
273.785	87.25
274.017	96.25
274.249	84.25
274.481	92.25
274.713	88.25
274.945	86.25
275.176	76.25
275.408	70.25
275.64	88.25
275.872	83.25
276.104	91.25
276.335	89.25
276.567	97.25
276.799	103.25
277.031	106.25
277.262	99.25
277.494	89.25
277.726	80.25
277.957	81.25
278.189	98.25
278.421	80.25
278.652	83.25
278.884	71.25
279.115	84.25
279.347	78.25
279.579	78.25
279.81	91.25
280.042	96.25
280.273	99.25
280.505	104.25
280.736	95.25
280.968	74.25
281.199	99.25
281.431	88.25
281.662	92.25
281.894	93.25
282.125	105.25
282.356	108.25
282.588	144.25
282.819	114.25
283.051	73.25
283.282	100.25
283.513	82.25
283.745	85.25
283.976	76.25
284.207	82.25
284.439	71.25
284.67	72.25
284.901	85.25
285.132	85.25
285.364	79.25
285.595	87.25
285.826	95.25
286.057	94.25
286.288	93.25
286.52	80.25
286.751	72.25
286.982	82.25
287.213	90.25
287.444	96.25
287.675	81.25
287.906	84.25
288.138	84.25
288.369	99.25
288.6	94.25
288.831	80.25
289.062	83.25
289.293	78.25
289.524	92.25
289.755	76.25
289.986	84.25
290.217	76.25
290.448	84.25
290.679	81.25
290.91	78.25
291.141	98.25
291.371	94.25
291.602	93.25
291.833	89.25
292.064	89.25
292.295	93.25
292.526	87.25
292.757	95.25
292.987	74.25
293.218	92.25
293.449	89.25
293.68	93.25
293.91	84.25
294.141	84.25
294.372	78.25
294.603	94.25
294.833	98.25
295.064	94.25
295.295	87.25
295.525	90.25
295.756	107.25
295.987	115.25
296.217	150.25
296.448	118.25
296.679	99.25
296.909	86.25
297.14	102.25
297.37	82.25
297.601	89.25
297.831	78.25
298.062	92.25
298.292	90.25
298.523	96.25
298.753	87.25
298.984	81.25
299.214	88.25
299.445	91.25
299.675	81.25
299.905	90.25
300.136	95.25
300.366	95.25
300.597	89.25
300.827	95.25
301.057	90.25
301.288	99.25
301.518	87.25
301.748	75.25
301.979	94.25
302.209	99.25
302.439	98.25
302.669	79.25
302.9	84.25
303.13	85.25
303.36	100.25
303.59	103.25
303.82	112.25
304.051	98.25
304.281	87.25
304.511	93.25
304.741	88.25
304.971	93.25
305.201	101.25
305.431	92.25
305.661	94.25
305.891	85.25
306.121	94.25
306.352	108.25
306.582	106.25
306.812	104.25
307.042	94.25
307.272	101.25
307.502	108.25
307.731	109.25
307.961	109.25
308.191	104.25
308.421	103.25
308.651	74.25
308.881	101.25
309.111	87.25
309.341	88.25
309.571	97.25
309.8	103.25
310.03	91.25
310.26	104.25
310.49	88.25
310.72	88.25
310.949	93.25
311.179	88.25
311.409	94.25
311.639	88.25
311.868	108.25
312.098	94.25
312.328	94.25
312.557	87.25
312.787	95.25
313.017	113.25
313.246	106.25
313.476	102.25
313.706	102.25
313.935	87.25
314.165	94.25
314.394	100.25
314.624	99.25
314.853	98.25
315.083	94.25
315.312	87.25
315.542	92.25
315.771	96.25
316.001	90.25
316.23	80.25
316.46	76.25
316.689	79.25
316.919	84.25
317.148	94.25
317.377	101.25
317.607	100.25
317.836	98.25
318.065	104.25
318.295	83.25
318.524	85.25
318.753	97.25
318.983	88.25
319.212	96.25
319.441	117.25
319.67	110.25
319.9	98.25
320.129	95.25
320.358	91.25
320.587	85.25
320.816	100.25
321.046	100.25
321.275	84.25
321.504	96.25
321.733	93.25
321.962	99.25
322.191	115.25
322.42	116.25
322.649	98.25
322.878	109.25
323.108	130.25
323.337	132.25
323.566	127.25
323.795	142.25
324.024	193.25
324.253	353.25
324.482	791.25
324.71	1544.25
324.939	2057.25
325.168	764.25
325.397	241.25
325.626	143.25
325.855	132.25
326.084	121.25
326.313	126.25
326.542	149.25
326.77	204.25
326.999	442.25
327.228	870.25
327.457	1606.25
327.686	1233.25
327.914	374.25
328.143	228.25
328.372	214.25
328.6	155.25
328.829	126.25
329.058	151.25
329.287	116.25
329.515	109.25
329.744	116.25
329.972	151.25
330.201	241.25
330.43	308.25
330.658	200.25
330.887	142.25
331.115	120.25
331.344	95.25
331.572	96.25
331.801	114.25
332.03	102.25
332.258	91.25
332.486	105.25
332.715	98.25
332.943	86.25
333.172	103.25
333.4	107.25
333.629	108.25
333.857	126.25
334.085	170.25
334.314	229.25
334.542	390.25
334.771	346.25
334.999	139.25
335.227	103.25
335.455	107.25
335.684	96.25
335.912	98.25
336.14	96.25
336.369	96.25
336.597	89.25
336.825	106.25
337.053	96.25
337.281	89.25
337.51	96.25
337.738	99.25
337.966	89.25
338.194	91.25
338.422	94.25
338.65	97.25
338.878	91.25
339.106	96.25
339.334	89.25
339.562	68.25
339.79	76.25
340.018	89.25
340.246	87.25
340.474	92.25
340.702	81.25
340.93	92.25
341.158	84.25
341.386	77.25
341.614	99.25
341.842	92.25
342.07	88.25
342.298	89.25
342.526	85.25
342.754	86.25
342.981	89.25
343.209	102.25
343.437	100.25
343.665	92.25
343.893	102.25
344.12	99.25
344.348	92.25
344.576	89.25
344.804	95.25
345.031	92.25
345.259	99.25
345.487	95.25
345.714	89.25
345.942	104.25
346.17	95.25
346.397	98.25
346.625	95.25
346.853	85.25
347.08	93.25
347.308	90.25
347.535	95.25
347.763	101.25
347.99	99.25
348.218	109.25
348.445	101.25
348.673	108.25
348.9	89.25
349.128	91.25
349.355	92.25
349.583	93.25
349.81	98.25
350.037	85.25
350.265	100.25
350.492	105.25
350.72	97.25
350.947	103.25
351.174	103.25
351.402	97.25
351.629	109.25
351.856	98.25
352.083	107.25
352.311	97.25
352.538	98.25
352.765	110.25
352.992	117.25
353.22	110.25
353.447	102.25
353.674	102.25
353.901	84.25
354.128	104.25
354.355	98.25
354.583	96.25
354.81	104.25
355.037	83.25
355.264	95.25
355.491	98.25
355.718	101.25
355.945	84.25
356.172	89.25
356.399	84.25
356.626	92.25
356.853	91.25
357.08	99.25
357.307	88.25
357.534	80.25
357.761	89.25
357.988	101.25
358.215	104.25
358.441	96.25
358.668	96.25
358.895	96.25
359.122	86.25
359.349	75.25
359.576	98.25
359.802	99.25
360.029	106.25
360.256	90.25
360.483	101.25
360.709	79.25
360.936	93.25
361.163	102.25
361.39	91.25
361.616	79.25
361.843	88.25
362.07	98.25
362.296	91.25
362.523	94.25
362.749	97.25
362.976	95.25
363.203	87.25
363.429	88.25
363.656	87.25
363.882	75.25
364.109	82.25
364.335	94.25
364.562	88.25
364.788	94.25
365.015	83.25
365.241	96.25
365.468	93.25
365.694	120.25
365.92	92.25
366.147	99.25
366.373	97.25
366.599	84.25
366.826	84.25
367.052	100.25
367.278	78.25
367.505	102.25
367.731	95.25
367.957	84.25
368.184	88.25
368.41	89.25
368.636	96.25
368.862	112.25
369.089	109.25
369.315	92.25
369.541	96.25
369.767	90.25
369.993	94.25
370.219	100.25
370.445	81.25
370.672	101.25
370.898	81.25
371.124	92.25
371.35	76.25
371.576	78.25
371.802	83.25
372.028	75.25
372.254	90.25
372.48	90.25
372.706	92.25
372.932	94.25
373.158	89.25
373.384	96.25
373.61	84.25
373.835	97.25
374.061	75.25
374.287	82.25
374.513	96.25
374.739	76.25
374.965	86.25
375.191	89.25
375.416	80.25
375.642	92.25
375.868	99.25
376.094	96.25
376.319	90.25
376.545	106.25
376.771	96.25
376.997	79.25
377.222	94.25
377.448	94.25
377.674	90.25
377.899	83.25
378.125	94.25
378.35	93.25
378.576	96.25
378.802	93.25
379.027	91.25
379.253	92.25
379.478	85.25
379.704	88.25
379.929	95.25
380.155	90.25
380.38	90.25
380.606	108.25
380.831	89.25
381.057	112.25
381.282	92.25
381.507	91.25
381.733	100.25
381.958	103.25
382.184	98.25
382.409	106.25
382.634	103.25
382.86	110.25
383.085	103.25
383.31	86.25
383.535	96.25
383.761	90.25
383.986	94.25
384.211	109.25
384.436	105.25
384.662	107.25
384.887	105.25
385.112	109.25
385.337	98.25
385.562	102.25
385.787	100.25
386.013	98.25
386.238	119.25
386.463	109.25
386.688	117.25
386.913	114.25
387.138	107.25
387.363	102.25
387.588	94.25
387.813	100.25
388.038	102.25
388.263	115.25
388.488	126.25
388.713	92.25
388.938	85.25
389.163	89.25
389.387	93.25
389.612	92.25
389.837	81.25
390.062	84.25
390.287	86.25
390.512	93.25
390.736	87.25
390.961	87.25
391.186	85.25
391.411	96.25
391.636	76.25
391.86	86.25
392.085	89.25
392.31	88.25
392.534	89.25
392.759	94.25
392.984	104.25
393.208	97.25
393.433	100.25
393.658	90.25
393.882	90.25
394.107	84.25
394.331	91.25
394.556	80.25
394.78	101.25
395.005	100.25
395.229	93.25
395.454	94.25
395.678	93.25
395.903	88.25
396.127	90.25
396.352	94.25
396.576	97.25
396.801	90.25
397.025	97.25
397.249	94.25
397.474	88.25
397.698	67.25
397.922	84.25
398.147	90.25
398.371	85.25
398.595	78.25
398.82	74.25
399.044	96.25
399.268	81.25
399.492	88.25
399.717	89.25
399.941	89.25
400.165	92.25
400.389	83.25
400.613	95.25
400.837	96.25
401.062	85.25
401.286	94.25
401.51	81.25
401.734	86.25
401.958	93.25
402.182	134.25
402.406	141.25
402.63	119.25
402.854	96.25
403.078	81.25
403.302	92.25
403.526	77.25
403.75	103.25
403.974	96.25
404.198	101.25
404.422	66.25
404.645	80.25
404.869	88.25
405.093	96.25
405.317	96.25
405.541	103.25
405.765	87.25
405.988	125.25
406.212	163.25
406.436	212.25
406.66	134.25
406.883	93.25
407.107	87.25
407.331	103.25
407.555	92.25
407.778	87.25
408.002	95.25
408.226	79.25
408.449	82.25
408.673	87.25
408.896	103.25
409.12	95.25
409.344	89.25
409.567	88.25
409.791	79.25
410.014	103.25
410.238	103.25
410.461	89.25
410.685	82.25
410.908	78.25
411.132	106.25
411.355	117.25
411.578	98.25
411.802	82.25
412.025	88.25
412.249	94.25
412.472	117.25
412.695	82.25
412.919	88.25
413.142	85.25
413.365	81.25
413.589	85.25
413.812	85.25
414.035	87.25
414.258	99.25
414.482	93.25
414.705	88.25
414.928	89.25
415.151	86.25
415.374	99.25
415.597	81.25
415.821	74.25
416.044	85.25
416.267	85.25
416.49	80.25
416.713	92.25
416.936	93.25
417.159	96.25
417.382	92.25
417.605	94.25
417.828	107.25
418.051	81.25
418.274	87.25
418.497	93.25
418.72	90.25
418.943	100.25
419.166	92.25
419.389	101.25
419.611	89.25
419.834	80.25
420.057	96.25
420.28	85.25
420.503	86.25
420.726	78.25
420.948	96.25
421.171	89.25
421.394	89.25
421.617	88.25
421.839	96.25
422.062	93.25
422.285	84.25
422.507	93.25
422.73	105.25
422.953	86.25
423.175	86.25
423.398	95.25
423.621	90.25
423.843	93.25
424.066	94.25
424.288	103.25
424.511	94.25
424.733	99.25
424.956	98.25
425.178	106.25
425.401	86.25
425.623	96.25
425.846	88.25
426.068	85.25
426.291	86.25
426.513	95.25
426.735	84.25
426.958	84.25
427.18	109.25
427.402	135.25
427.625	158.25
427.847	142.25
428.069	154.25
428.292	93.25
428.514	94.25
428.736	98.25
428.958	90.25
429.181	92.25
429.403	92.25
429.625	88.25
429.847	97.25
430.069	101.25
430.292	77.25
430.514	81.25
430.736	78.25
430.958	91.25
431.18	71.25
431.402	76.25
431.624	68.25
431.846	87.25
432.068	86.25
432.29	78.25
432.512	100.25
432.734	94.25
432.956	91.25
433.178	100.25
433.4	103.25
433.622	97.25
433.844	98.25
434.066	82.25
434.287	85.25
434.509	77.25
434.731	88.25
434.953	91.25
435.175	88.25
435.397	101.25
435.618	91.25
435.84	102.25
436.062	117.25
436.284	105.25
436.505	75.25
436.727	112.25
436.949	93.25
437.17	91.25
437.392	89.25
437.614	86.25
437.835	101.25
438.057	105.25
438.278	112.25
438.5	80.25
438.721	116.25
438.943	99.25
439.165	90.25
439.386	84.25
439.608	108.25
439.829	85.25
440.05	105.25
440.272	125.25
440.493	97.25
440.715	93.25
440.936	100.25
441.158	90.25
441.379	79.25
441.6	93.25
441.822	89.25
442.043	101.25
442.264	90.25
442.486	102.25
442.707	93.25
442.928	92.25
443.149	113.25
443.371	124.25
443.592	102.25
443.813	103.25
444.034	93.25
444.255	78.25
444.476	87.25
444.698	86.25
444.919	77.25
445.14	114.25
445.361	119.25
445.582	112.25
445.803	135.25
446.024	121.25
446.245	114.25
446.466	108.25
446.687	103.25
446.908	93.25
447.129	88.25
447.35	84.25
447.571	98.25
447.792	89.25
448.013	90.25
448.234	101.25
448.455	92.25
448.675	95.25
448.896	107.25
449.117	101.25
449.338	97.25
449.559	119.25
449.779	105.25
450	82.25
450.221	89.25
450.442	100.25
450.662	86.25
450.883	112.25
451.104	102.25
451.324	98.25
451.545	100.25
451.766	96.25
451.986	93.25
452.207	104.25
452.428	94.25
452.648	96.25
452.869	99.25
453.089	93.25
453.31	104.25
453.53	98.25
453.751	77.25
453.971	109.25
454.192	104.25
454.412	85.25
454.633	81.25
454.853	85.25
455.073	89.25
455.294	88.25
455.514	98.25
455.734	100.25
455.955	99.25
456.175	90.25
456.395	79.25
456.616	77.25
456.836	72.25
457.056	87.25
457.276	73.25
457.497	86.25
457.717	73.25
457.937	87.25
458.157	76.25
458.377	104.25
458.598	96.25
458.818	129.25
459.038	142.25
459.258	103.25
459.478	80.25
459.698	85.25
459.918	90.25
460.138	89.25
460.358	97.25
460.578	78.25
460.798	82.25
461.018	88.25
461.238	88.25
461.458	80.25
461.678	95.25
461.898	91.25
462.118	79.25
462.338	92.25
462.558	91.25
462.777	67.25
462.997	99.25
463.217	89.25
463.437	80.25
463.657	83.25
463.876	85.25
464.096	74.25
464.316	106.25
464.536	97.25
464.755	92.25
464.975	103.25
465.195	144.25
465.414	158.25
465.634	81.25
465.854	82.25
466.073	84.25
466.293	96.25
466.512	76.25
466.732	68.25
466.951	85.25
467.171	101.25
467.391	90.25
467.61	103.25
467.829	113.25
468.049	172.25
468.268	204.25
468.488	104.25
468.707	94.25
468.927	90.25
469.146	106.25
469.365	87.25
469.585	90.25
469.804	98.25
470.023	102.25
470.243	83.25
470.462	102.25
470.681	102.25
470.901	94.25
471.12	78.25
471.339	85.25
471.558	82.25
471.777	96.25
471.997	122.25
472.216	276.25
472.435	494.25
472.654	177.25
472.873	96.25
473.092	92.25
473.311	105.25
473.53	93.25
473.749	95.25
473.968	101.25
474.187	104.25
474.406	91.25
474.625	87.25
474.844	82.25
475.063	89.25
475.282	79.25
475.501	88.25
475.72	93.25
475.939	84.25
476.158	76.25
476.377	92.25
476.596	83.25
476.814	80.25
477.033	99.25
477.252	71.25
477.471	99.25
477.69	101.25
477.908	103.25
478.127	95.25
478.346	92.25
478.564	101.25
478.783	93.25
479.002	92.25
479.22	93.25
479.439	106.25
479.658	101.25
479.876	95.25
480.095	100.25
480.313	100.25
480.532	100.25
480.751	119.25
480.969	255.25
481.188	847.25
481.406	504.25
481.624	129.25
481.843	111.25
482.061	99.25
482.28	83.25
482.498	114.25
482.717	93.25
482.935	94.25
483.153	82.25
483.372	90.25
483.59	81.25
483.808	89.25
484.027	86.25
484.245	89.25
484.463	98.25
484.681	103.25
484.9	94.25
485.118	90.25
485.336	92.25
485.554	80.25
485.772	93.25
485.99	89.25
486.209	101.25
486.427	94.25
486.645	122.25
486.863	102.25
487.081	97.25
487.299	88.25
487.517	88.25
487.735	84.25
487.953	94.25
488.171	83.25
488.389	89.25
488.607	96.25
488.825	99.25
489.043	72.25
489.261	100.25
489.479	90.25
489.696	90.25
489.914	79.25
490.132	87.25
490.35	88.25
490.568	82.25
490.786	80.25
491.003	73.25
491.221	94.25
491.439	87.25
491.657	98.25
491.874	92.25
492.092	87.25
492.31	98.25
492.527	97.25
492.745	90.25
492.963	99.25
493.18	96.25
493.398	88.25
493.615	97.25
493.833	100.25
494.05	87.25
494.268	96.25
494.485	99.25
494.703	87.25
494.92	90.25
495.138	82.25
495.355	85.25
495.573	89.25
495.79	93.25
496.008	95.25
496.225	94.25
496.442	88.25
496.66	91.25
496.877	91.25
497.094	94.25
497.312	87.25
497.529	92.25
497.746	101.25
497.963	96.25
498.181	86.25
498.398	88.25
498.615	119.25
498.832	99.25
499.049	101.25
499.267	93.25
499.484	105.25
499.701	99.25
499.918	93.25
500.135	92.25
500.352	93.25
500.569	70.25
500.786	94.25
501.003	85.25
501.22	82.25
501.437	91.25
501.654	98.25
501.871	102.25
502.088	83.25
502.305	96.25
502.522	100.25
502.739	99.25
502.956	93.25
503.172	96.25
503.389	97.25
503.606	97.25
503.823	95.25
504.04	87.25
504.256	89.25
504.473	92.25
504.69	101.25
504.907	91.25
505.123	88.25
505.34	88.25
505.557	86.25
505.773	92.25
505.99	92.25
506.207	87.25
506.423	84.25
506.64	90.25
506.856	88.25
507.073	97.25
507.289	102.25
507.506	81.25
507.722	107.25
507.939	94.25
508.155	86.25
508.372	106.25
508.588	92.25
508.805	82.25
509.021	102.25
509.238	106.25
509.454	99.25
509.67	96.25
509.887	118.25
510.103	139.25
510.319	213.25
510.536	668.25
510.752	2090.25
510.968	580.25
511.184	152.25
511.401	96.25
511.617	94.25
511.833	86.25
512.049	87.25
512.265	96.25
512.481	93.25
512.698	99.25
512.914	93.25
513.13	83.25
513.346	97.25
513.562	83.25
513.778	105.25
513.994	96.25
514.21	105.25
514.426	106.25
514.642	121.25
514.858	131.25
515.074	154.25
515.29	432.25
515.506	1336.25
515.721	508.25
