Data from Circ_2004_H10_HRD10591_00011.txt Node
Date: Wed Jan 03 10:33:16 EST 2024
User: Yrep
Spectrometer: HR+D1059
Trigger mode: 1
Integration Time (sec): 1.000000E-1
Scans to average: 1
Electric dark correction enabled: true
Nonlinearity correction enabled: false
Boxcar width: 0
XAxis mode: Wavelengths
Number of Pixels in Spectrum: 2048
>>>>>Begin Spectral Data<<<<<
223.165	-11.88
223.4	-11.88
223.635	-11.88
223.869	-19.88
224.104	-16.88
224.338	-13.88
224.573	-23.88
224.808	-20.88
225.042	-12.88
225.277	2.12
225.511	7.12
225.746	-0.88
225.98	8.12
226.215	30.12
226.449	12.12
226.683	20.12
226.918	19.12
227.152	22.12
227.387	36.12
227.621	34.12
227.856	47.12
228.09	51.12
228.324	61.12
228.559	43.12
228.793	142.12
229.027	414.12
229.262	478.12
229.496	556.12
229.73	710.12
229.964	712.12
230.199	499.12
230.433	435.12
230.667	436.12
230.901	434.12
231.136	429.12
231.37	425.12
231.604	437.12
231.838	434.12
232.072	440.12
232.306	446.12
232.541	411.12
232.775	441.12
233.009	454.12
233.243	450.12
233.477	473.12
233.711	454.12
233.945	463.12
234.179	495.12
234.413	491.12
234.647	471.12
234.881	477.12
235.115	488.12
235.349	514.12
235.583	529.12
235.817	550.12
236.051	602.12
236.285	572.12
236.519	587.12
236.753	664.12
236.987	825.12
237.221	1246.12
237.455	1350.12
237.689	810.12
237.922	685.12
238.156	662.12
238.39	628.12
238.624	614.12
238.858	613.12
239.091	628.12
239.325	649.12
239.559	662.12
239.793	677.12
240.027	719.12
240.26	845.12
240.494	886.12
240.728	856.12
240.961	836.12
241.195	752.12
241.429	764.12
241.662	734.12
241.896	736.12
242.13	749.12
242.363	756.12
242.597	782.12
242.83	803.12
243.064	782.12
243.298	805.12
243.531	803.12
243.765	802.12
243.998	833.12
244.232	840.12
244.465	856.12
244.699	867.12
244.932	886.12
245.166	876.12
245.399	878.12
245.633	880.12
245.866	895.12
246.099	871.12
246.333	907.12
246.566	934.12
246.8	977.12
247.033	980.12
247.266	1000.12
247.5	1025.12
247.733	1076.12
247.966	1123.12
248.2	1099.12
248.433	1123.12
248.666	1126.12
248.899	1248.12
249.133	1401.12
249.366	1386.12
249.599	1312.12
249.832	1293.12
250.066	1357.12
250.299	1642.12
250.532	2064.12
250.765	2065.12
250.998	1934.12
251.231	1720.12
251.465	1502.12
251.698	1415.12
251.931	1398.12
252.164	1374.12
252.397	1368.12
252.63	1394.12
252.863	1482.12
253.096	1562.12
253.329	1631.12
253.562	1518.12
253.795	1474.12
254.028	1517.12
254.261	1563.12
254.494	1698.12
254.727	2021.12
254.96	2130.12
255.193	1933.12
255.426	1878.12
255.659	2080.12
255.892	2694.12
256.124	3425.12
256.357	3034.12
256.59	2270.12
256.823	1949.12
257.056	1790.12
257.289	1652.12
257.521	1645.12
257.754	1590.12
257.987	1556.12
258.22	1531.12
258.452	1551.12
258.685	1531.12
258.918	1542.12
259.151	1600.12
259.383	1623.12
259.616	1620.12
259.849	1702.12
260.081	1818.12
260.314	1976.12
260.547	1875.12
260.779	1775.12
261.012	1685.12
261.244	1660.12
261.477	1591.12
261.71	1642.12
261.942	1682.12
262.175	1737.12
262.407	1655.12
262.64	1591.12
262.872	1594.12
263.105	1579.12
263.337	1567.12
263.57	1566.12
263.802	1602.12
264.035	1620.12
264.267	1610.12
264.499	1582.12
264.732	1607.12
264.964	1629.12
265.197	1645.12
265.429	1673.12
265.661	1649.12
265.894	1669.12
266.126	1721.12
266.358	1749.12
266.591	1705.12
266.823	1795.12
267.055	1812.12
267.287	1806.12
267.52	1768.12
267.752	1806.12
267.984	1769.12
268.216	1839.12
268.448	1815.12
268.681	1902.12
268.913	2004.12
269.145	2187.12
269.377	2192.12
269.609	2121.12
269.841	2107.12
270.073	2183.12
270.306	2404.12
270.538	2570.12
270.77	2456.12
271.002	2326.12
271.234	2314.12
271.466	2414.12
271.698	2547.12
271.93	2525.12
272.162	2524.12
272.394	2488.12
272.626	2344.12
272.858	2255.12
273.09	2187.12
273.322	2170.12
273.553	2131.12
273.785	2156.12
274.017	2198.12
274.249	2172.12
274.481	2225.12
274.713	2233.12
274.945	2237.12
275.176	2251.12
275.408	2267.12
275.64	2253.12
275.872	2250.12
276.104	2307.12
276.335	2300.12
276.567	2368.12
276.799	2544.12
277.031	2769.12
277.262	2867.12
277.494	2736.12
277.726	2545.12
277.957	2478.12
278.189	2455.12
278.421	2398.12
278.652	2378.12
278.884	2382.12
279.115	2342.12
279.347	2363.12
279.579	2399.12
279.81	2439.12
280.042	2504.12
280.273	2561.12
280.505	2534.12
280.736	2476.12
280.968	2460.12
281.199	2466.12
281.431	2513.12
281.662	2469.12
281.894	2406.12
282.125	2480.12
282.356	2607.12
282.588	2723.12
282.819	2626.12
283.051	2513.12
283.282	2486.12
283.513	2542.12
283.745	2550.12
283.976	2564.12
284.207	2567.12
284.439	2539.12
284.67	2553.12
284.901	2559.12
285.132	2565.12
285.364	2542.12
285.595	2577.12
285.826	2608.12
286.057	2608.12
286.288	2642.12
286.52	2638.12
286.751	2562.12
286.982	2638.12
287.213	2643.12
287.444	2610.12
287.675	2703.12
287.906	2813.12
288.138	2858.12
288.369	2830.12
288.6	2816.12
288.831	2800.12
289.062	2737.12
289.293	2732.12
289.524	2735.12
289.755	2742.12
289.986	2763.12
290.217	2785.12
290.448	2766.12
290.679	2744.12
290.91	2715.12
291.141	2746.12
291.371	2755.12
291.602	2741.12
291.833	2698.12
292.064	2800.12
292.295	2766.12
292.526	2757.12
292.757	2728.12
292.987	2719.12
293.218	2752.12
293.449	2788.12
293.68	2780.12
293.91	2763.12
294.141	2810.12
294.372	2738.12
294.603	2748.12
294.833	2778.12
295.064	2825.12
295.295	2799.12
295.525	2799.12
295.756	2886.12
295.987	2884.12
296.217	3033.12
296.448	3013.12
296.679	2890.12
296.909	2853.12
297.14	2836.12
297.37	2938.12
297.601	2967.12
297.831	2928.12
298.062	2935.12
298.292	2959.12
298.523	3052.12
298.753	3037.12
298.984	3033.12
299.214	2980.12
299.445	3028.12
299.675	3034.12
299.905	3114.12
300.136	2995.12
300.366	3056.12
300.597	3077.12
300.827	3111.12
301.057	3223.12
301.288	3320.12
301.518	3247.12
301.748	3287.12
301.979	3374.12
302.209	3266.12
302.439	3342.12
302.669	3205.12
302.9	3165.12
303.13	3169.12
303.36	3247.12
303.59	3295.12
303.82	3356.12
304.051	3300.12
304.281	3274.12
304.511	3197.12
304.741	3249.12
304.971	3198.12
305.201	3174.12
305.431	3166.12
305.661	3169.12
305.891	3164.12
306.121	3128.12
306.352	3230.12
306.582	3226.12
306.812	3156.12
307.042	3248.12
307.272	3334.12
307.502	3344.12
307.731	3352.12
307.961	3231.12
308.191	3251.12
308.421	3217.12
308.651	3286.12
308.881	3260.12
309.111	3267.12
309.341	3294.12
309.571	3336.12
309.8	3418.12
310.03	3438.12
310.26	3466.12
310.49	3469.12
310.72	3625.12
310.949	3671.12
311.179	3610.12
311.409	3475.12
311.639	3497.12
311.868	3506.12
312.098	3544.12
312.328	3673.12
312.557	3736.12
312.787	3836.12
313.017	3662.12
313.246	3642.12
313.476	3584.12
313.706	3695.12
313.935	3735.12
314.165	3807.12
314.394	3792.12
314.624	3804.12
314.853	3712.12
315.083	3675.12
315.312	3631.12
315.542	3605.12
315.771	3578.12
316.001	3530.12
316.23	3595.12
316.46	3514.12
316.689	3631.12
316.919	3680.12
317.148	3645.12
317.377	3674.12
317.607	3649.12
317.836	3645.12
318.065	3531.12
318.295	3608.12
318.524	3585.12
318.753	3591.12
318.983	3608.12
319.212	3559.12
319.441	3629.12
319.67	3696.12
319.9	3579.12
320.129	3620.12
320.358	3626.12
320.587	3649.12
320.816	3718.12
321.046	3768.12
321.275	3746.12
321.504	3811.12
321.733	3831.12
321.962	3895.12
322.191	3959.12
322.42	4018.12
322.649	4062.12
322.878	4142.12
323.108	4247.12
323.337	4424.12
323.566	4624.12
323.795	4904.12
324.024	5325.12
324.253	6826.12
324.482	10072.12
324.71	14598.12
324.939	15604.12
325.168	11584.12
325.397	6339.12
325.626	5156.12
325.855	4909.12
326.084	4670.12
326.313	4791.12
326.542	4892.12
326.77	5449.12
326.999	6779.12
327.228	9578.12
327.457	13706.12
327.686	13093.12
327.914	7706.12
328.143	6778.12
328.372	6851.12
328.6	6055.12
328.829	5632.12
329.058	5738.12
329.287	5750.12
329.515	5636.12
329.744	6047.12
329.972	6845.12
330.201	8115.12
330.43	8888.12
330.658	7370.12
330.887	6512.12
331.115	5878.12
331.344	5346.12
331.572	5195.12
331.801	5295.12
332.03	5282.12
332.258	5187.12
332.486	5266.12
332.715	5401.12
332.943	5502.12
333.172	5813.12
333.4	6079.12
333.629	6469.12
333.857	7045.12
334.085	7972.12
334.314	9443.12
334.542	11220.12
334.771	10415.12
334.999	7395.12
335.227	6350.12
335.455	5878.12
335.684	5512.12
335.912	5397.12
336.14	5180.12
336.369	5136.12
336.597	5136.12
336.825	5013.12
337.053	4949.12
337.281	4784.12
337.51	4758.12
337.738	4706.12
337.966	4729.12
338.194	4700.12
338.422	4606.12
338.65	4399.12
338.878	4443.12
339.106	4502.12
339.334	4397.12
339.562	4376.12
339.79	4288.12
340.018	4345.12
340.246	4290.12
340.474	4300.12
340.702	4304.12
340.93	4315.12
341.158	4329.12
341.386	4332.12
341.614	4253.12
341.842	4279.12
342.07	4223.12
342.298	4128.12
342.526	4207.12
342.754	4142.12
342.981	4252.12
343.209	4330.12
343.437	4562.12
343.665	4773.12
343.893	5052.12
344.12	5081.12
344.348	4817.12
344.576	4642.12
344.804	4591.12
345.031	4440.12
345.259	4440.12
345.487	4300.12
345.714	4223.12
345.942	4185.12
346.17	4086.12
346.397	4083.12
346.625	4121.12
346.853	4066.12
347.08	4097.12
347.308	4103.12
347.535	4143.12
347.763	4219.12
347.99	4190.12
348.218	4186.12
348.445	4252.12
348.673	4108.12
348.9	4068.12
349.128	4036.12
349.355	3983.12
349.583	3926.12
349.81	3959.12
350.037	3948.12
350.265	3933.12
350.492	3945.12
350.72	3938.12
350.947	3988.12
351.174	4012.12
351.402	4110.12
351.629	4019.12
351.856	4062.12
352.083	4118.12
352.311	4114.12
352.538	4071.12
352.765	4066.12
352.992	4027.12
353.22	3974.12
353.447	3977.12
353.674	3938.12
353.901	3903.12
354.128	3891.12
354.355	3865.12
354.583	3869.12
354.81	3836.12
355.037	3914.12
355.264	3884.12
355.491	3825.12
355.718	3759.12
355.945	3733.12
356.172	3866.12
356.399	3881.12
356.626	3833.12
356.853	3960.12
357.08	3852.12
357.307	3815.12
357.534	3796.12
357.761	3890.12
357.988	3868.12
358.215	3873.12
358.441	3840.12
358.668	3916.12
358.895	3917.12
359.122	3963.12
359.349	4012.12
359.576	4191.12
359.802	4349.12
360.029	4421.12
360.256	4402.12
360.483	4268.12
360.709	4042.12
360.936	4089.12
361.163	4071.12
361.39	4114.12
361.616	4121.12
361.843	4108.12
362.07	4018.12
362.296	4091.12
362.523	4044.12
362.749	4040.12
362.976	3947.12
363.203	3962.12
363.429	3947.12
363.656	3964.12
363.882	3985.12
364.109	3888.12
364.335	3926.12
364.562	3930.12
364.788	3957.12
365.015	3968.12
365.241	3975.12
365.468	3969.12
365.694	3950.12
365.92	4062.12
366.147	3946.12
366.373	3983.12
366.599	3959.12
366.826	3902.12
367.052	3848.12
367.278	3917.12
367.505	3923.12
367.731	3932.12
367.957	3883.12
368.184	3994.12
368.41	4032.12
368.636	4058.12
368.862	4095.12
369.089	4077.12
369.315	4009.12
369.541	4009.12
369.767	4088.12
369.993	4102.12
370.219	4123.12
370.445	4101.12
370.672	4228.12
370.898	4133.12
371.124	4176.12
371.35	4249.12
371.576	4210.12
371.802	4165.12
372.028	4177.12
372.254	4149.12
372.48	4257.12
372.706	4363.12
372.932	4306.12
373.158	4280.12
373.384	4193.12
373.61	4154.12
373.835	4228.12
374.061	4264.12
374.287	4350.12
374.513	4324.12
374.739	4504.12
374.965	4590.12
375.191	4582.12
375.416	4477.12
375.642	4369.12
375.868	4331.12
376.094	4299.12
376.319	4275.12
376.545	4254.12
376.771	4209.12
376.997	4243.12
377.222	4201.12
377.448	4183.12
377.674	4153.12
377.899	4137.12
378.125	4147.12
378.35	4076.12
378.576	4100.12
378.802	4138.12
379.027	4126.12
379.253	4127.12
379.478	4121.12
379.704	4160.12
379.929	4150.12
380.155	4138.12
380.38	4206.12
380.606	4180.12
380.831	4139.12
381.057	4237.12
381.282	4161.12
381.507	4240.12
381.733	4275.12
381.958	4294.12
382.184	4360.12
382.409	4422.12
382.634	4400.12
382.86	4403.12
383.085	4521.12
383.31	4577.12
383.535	4613.12
383.761	4710.12
383.986	4762.12
384.211	4834.12
384.436	4852.12
384.662	4929.12
384.887	5040.12
385.112	5001.12
385.337	5062.12
385.562	5020.12
385.787	5098.12
386.013	5158.12
386.238	5162.12
386.463	5158.12
386.688	5120.12
386.913	5078.12
387.138	4982.12
387.363	5032.12
387.588	4996.12
387.813	4930.12
388.038	4954.12
388.263	5039.12
388.488	5052.12
388.713	5056.12
388.938	5019.12
389.163	5007.12
389.387	4936.12
389.612	4885.12
389.837	4929.12
390.062	4945.12
390.287	4936.12
390.512	4967.12
390.736	5016.12
390.961	5059.12
391.186	5078.12
391.411	5315.12
391.636	5389.12
391.86	5506.12
392.085	5634.12
392.31	5522.12
392.534	5404.12
392.759	5313.12
392.984	5211.12
393.208	5209.12
393.433	5252.12
393.658	5258.12
393.882	5243.12
394.107	5278.12
394.331	5302.12
394.556	5261.12
394.78	5308.12
395.005	5359.12
395.229	5362.12
395.454	5585.12
395.678	5608.12
395.903	5687.12
396.127	5713.12
396.352	5550.12
396.576	5353.12
396.801	5349.12
397.025	5446.12
397.249	5586.12
397.474	5613.12
397.698	5638.12
397.922	5793.12
398.147	5900.12
398.371	5964.12
398.595	6074.12
398.82	6396.12
399.044	6895.12
399.268	7777.12
399.492	8610.12
399.717	9337.12
399.941	9066.12
400.165	8447.12
400.389	7737.12
400.613	7113.12
400.837	6688.12
401.062	6419.12
401.286	6373.12
401.51	6329.12
401.734	6289.12
401.958	6472.12
402.182	6534.12
402.406	6612.12
402.63	6699.12
402.854	6807.12
403.078	6889.12
403.302	6980.12
403.526	7108.12
403.75	7120.12
403.974	7229.12
404.198	7218.12
404.422	7406.12
404.645	7436.12
404.869	7526.12
405.093	7957.12
405.317	8479.12
405.541	8381.12
405.765	7592.12
405.988	7377.12
406.212	7376.12
406.436	7482.12
406.66	7556.12
406.883	7603.12
407.107	8075.12
407.331	8574.12
407.555	9062.12
407.778	8718.12
408.002	8047.12
408.226	7570.12
408.449	7542.12
408.673	7424.12
408.896	7598.12
409.12	7792.12
409.344	7268.12
409.567	7010.12
409.791	6933.12
410.014	6863.12
410.238	6847.12
410.461	6882.12
410.685	6870.12
410.908	7061.12
411.132	7098.12
411.355	7177.12
411.578	6887.12
411.802	6655.12
412.025	6913.12
412.249	7198.12
412.472	7661.12
412.695	8091.12
412.919	7487.12
413.142	7104.12
413.365	6840.12
413.589	6735.12
413.812	6433.12
414.035	6352.12
414.258	6336.12
414.482	6378.12
414.705	6377.12
414.928	6322.12
415.151	6341.12
415.374	6319.12
415.597	6182.12
415.821	6156.12
416.044	6233.12
416.267	6160.12
416.49	6077.12
416.713	6071.12
416.936	6201.12
417.159	6163.12
417.382	6315.12
417.605	6461.12
417.828	6552.12
418.051	6532.12
418.274	6375.12
418.497	6257.12
418.72	6421.12
418.943	6337.12
419.166	6749.12
419.389	7151.12
419.611	7143.12
419.834	7047.12
420.057	7159.12
420.28	7257.12
420.503	7090.12
420.726	6898.12
420.948	6838.12
421.171	7088.12
421.394	6929.12
421.617	6523.12
421.839	6411.12
422.062	6593.12
422.285	6616.12
422.507	7198.12
422.73	7726.12
422.953	7154.12
423.175	6823.12
423.398	6856.12
423.621	6787.12
423.843	7102.12
424.066	6982.12
424.288	6968.12
424.511	7074.12
424.733	7419.12
424.956	7762.12
425.178	7438.12
425.401	7569.12
425.623	7430.12
425.846	6552.12
426.068	6409.12
426.291	6334.12
426.513	6339.12
426.735	6484.12
426.958	6883.12
427.18	7647.12
427.402	8734.12
427.625	8917.12
427.847	8072.12
428.069	7717.12
428.292	6785.12
428.514	6084.12
428.736	5881.12
428.958	5832.12
429.181	5662.12
429.403	5663.12
429.625	5851.12
429.847	6070.12
430.069	6593.12
430.292	6114.12
430.514	5626.12
430.736	5687.12
430.958	5573.12
431.18	5523.12
431.402	5497.12
431.624	5485.12
431.846	5619.12
432.068	5537.12
432.29	5722.12
432.512	5562.12
432.734	5633.12
432.956	5520.12
433.178	5597.12
433.4	5694.12
433.622	5574.12
433.844	5680.12
434.066	5523.12
434.287	5710.12
434.509	5948.12
434.731	6118.12
434.953	6218.12
435.175	6429.12
435.397	6471.12
435.618	6296.12
435.84	6650.12
436.062	7391.12
436.284	7411.12
436.505	6252.12
436.727	6042.12
436.949	5773.12
437.17	5688.12
437.392	5606.12
437.614	5699.12
437.835	6057.12
438.057	6970.12
438.278	7603.12
438.5	7408.12
438.721	8256.12
438.943	7224.12
439.165	6216.12
439.386	5969.12
439.608	6016.12
439.829	6107.12
440.05	6405.12
440.272	6798.12
440.493	6187.12
440.715	5882.12
440.936	5918.12
441.158	5926.12
441.379	6092.12
441.6	6373.12
441.822	6576.12
442.043	6947.12
442.264	7622.12
442.486	7426.12
442.707	6658.12
442.928	6440.12
443.149	6669.12
443.371	6827.12
443.592	7425.12
443.813	8232.12
444.034	8150.12
444.255	7101.12
444.476	7051.12
444.698	7237.12
444.919	7277.12
445.14	7120.12
445.361	6951.12
445.582	7050.12
445.803	7606.12
446.024	8177.12
446.245	7807.12
446.466	7051.12
446.687	6180.12
446.908	5880.12
447.129	5559.12
447.35	5472.12
447.571	5419.12
447.792	5378.12
448.013	5499.12
448.234	5608.12
448.455	6216.12
448.675	7343.12
448.896	7772.12
449.117	6378.12
449.338	6618.12
449.559	7855.12
449.779	7967.12
450	6144.12
450.221	5571.12
450.442	5309.12
450.662	5242.12
450.883	5345.12
451.104	5403.12
451.324	5260.12
451.545	5131.12
451.766	5054.12
451.986	4955.12
452.207	4927.12
452.428	4866.12
452.648	4924.12
452.869	4914.12
453.089	4949.12
453.31	5035.12
453.53	4920.12
453.751	4846.12
453.971	4851.12
454.192	4989.12
454.412	4765.12
454.633	4712.12
454.853	4770.12
455.073	4694.12
455.294	5134.12
455.514	5585.12
455.734	5146.12
455.955	4680.12
456.175	4540.12
456.395	4481.12
456.616	4564.12
456.836	4570.12
457.056	4524.12
457.276	4464.12
457.497	4637.12
457.717	4572.12
457.937	4717.12
458.157	4741.12
458.377	4915.12
458.598	5138.12
458.818	5791.12
459.038	6457.12
459.258	6348.12
459.478	5750.12
459.698	5724.12
459.918	5784.12
460.138	5935.12
460.358	6215.12
460.578	6124.12
460.798	6221.12
461.018	6243.12
461.238	6040.12
461.458	6078.12
461.678	5992.12
461.898	6154.12
462.118	6200.12
462.338	6580.12
462.558	6709.12
462.777	6966.12
462.997	7554.12
463.217	7948.12
463.437	7754.12
463.657	7195.12
463.876	6946.12
464.096	6980.12
464.316	7040.12
464.536	7054.12
464.755	6791.12
464.975	6705.12
465.195	6761.12
465.414	6816.12
465.634	6032.12
465.854	5794.12
466.073	5608.12
466.293	5396.12
466.512	5186.12
466.732	5103.12
466.951	5149.12
467.171	5124.12
467.391	5255.12
467.61	5275.12
467.829	5316.12
468.049	5594.12
468.268	5967.12
468.488	5488.12
468.707	5207.12
468.927	5077.12
469.146	5019.12
469.365	5101.12
469.585	5000.12
469.804	5291.12
470.023	5328.12
470.243	5361.12
470.462	5423.12
470.681	5562.12
470.901	5426.12
471.12	5323.12
471.339	5239.12
471.558	5402.12
471.777	5260.12
471.997	5460.12
472.216	6345.12
472.435	8086.12
472.654	7009.12
472.873	5991.12
473.092	5532.12
473.311	5359.12
473.53	5291.12
473.749	5219.12
473.968	5702.12
474.187	6632.12
474.406	6166.12
474.625	5302.12
474.844	5094.12
475.063	4954.12
475.282	5045.12
475.501	5039.12
475.72	5091.12
475.939	5119.12
476.158	5139.12
476.377	5207.12
476.596	5158.12
476.814	5298.12
477.033	5331.12
477.252	5356.12
477.471	5445.12
477.69	5544.12
477.908	5724.12
478.127	5934.12
478.346	5898.12
478.564	6009.12
478.783	6151.12
479.002	6278.12
479.22	6327.12
479.439	6343.12
479.658	6544.12
479.876	6591.12
480.095	6783.12
480.313	7239.12
480.532	7265.12
480.751	7336.12
480.969	8140.12
481.188	11347.12
481.406	11859.12
481.624	8866.12
481.843	7700.12
482.061	6959.12
482.28	6746.12
482.498	6432.12
482.717	6236.12
482.935	6173.12
483.153	6102.12
483.372	6059.12
483.59	6026.12
483.808	6043.12
484.027	5997.12
484.245	6017.12
484.463	6057.12
484.681	6066.12
484.9	6153.12
485.118	6172.12
485.336	6322.12
485.554	6316.12
485.772	6275.12
485.99	6333.12
486.209	6411.12
486.427	6349.12
486.645	6502.12
486.863	6500.12
487.081	6416.12
487.299	6488.12
487.517	6377.12
487.735	6347.12
