Data from Circ_2004_H10_HRD10591_00023.txt Node
Date: Wed Jan 03 10:33:18 EST 2024
User: Yrep
Spectrometer: HR+D1059
Trigger mode: 1
Integration Time (sec): 1.000000E-1
Scans to average: 1
Electric dark correction enabled: true
Nonlinearity correction enabled: false
Boxcar width: 0
XAxis mode: Wavelengths
Number of Pixels in Spectrum: 2048
>>>>>Begin Spectral Data<<<<<
223.165	-9.94
223.4	-9.94
223.635	-9.94
223.869	-22.94
224.104	-19.94
224.338	-13.94
224.573	-14.94
224.808	-15.94
225.042	-9.94
225.277	-16.94
225.511	0.06
225.746	0.06
225.98	15.06
226.215	7.06
226.449	11.06
226.683	22.06
226.918	30.06
227.152	39.06
227.387	31.06
227.621	36.06
227.856	49.06
228.09	48.06
228.324	61.06
228.559	41.06
228.793	65.06
229.027	56.06
229.262	59.06
229.496	74.06
229.73	73.06
229.964	89.06
230.199	65.06
230.433	62.06
230.667	78.06
230.901	98.06
231.136	76.06
231.37	72.06
231.604	89.06
231.838	68.06
232.072	85.06
232.306	81.06
232.541	74.06
232.775	65.06
233.009	83.06
233.243	77.06
233.477	68.06
233.711	69.06
233.945	70.06
234.179	74.06
234.413	63.06
234.647	76.06
234.881	87.06
235.115	79.06
235.349	83.06
235.583	73.06
235.817	65.06
236.051	64.06
236.285	85.06
236.519	82.06
236.753	80.06
236.987	86.06
237.221	72.06
237.455	75.06
237.689	88.06
237.922	67.06
238.156	57.06
238.39	71.06
238.624	72.06
238.858	76.06
239.091	95.06
239.325	73.06
239.559	76.06
239.793	73.06
240.027	73.06
240.26	59.06
240.494	63.06
240.728	67.06
240.961	87.06
241.195	67.06
241.429	81.06
241.662	77.06
241.896	79.06
242.13	89.06
242.363	81.06
242.597	79.06
242.83	75.06
243.064	71.06
243.298	83.06
243.531	81.06
243.765	79.06
243.998	70.06
244.232	83.06
244.465	74.06
244.699	83.06
244.932	67.06
245.166	82.06
245.399	75.06
245.633	76.06
245.866	75.06
246.099	61.06
246.333	77.06
246.566	83.06
246.8	81.06
247.033	80.06
247.266	85.06
247.5	92.06
247.733	70.06
247.966	64.06
248.2	71.06
248.433	79.06
248.666	93.06
248.899	82.06
249.133	75.06
249.366	99.06
249.599	89.06
249.832	83.06
250.066	85.06
250.299	81.06
250.532	84.06
250.765	84.06
250.998	73.06
251.231	101.06
251.465	93.06
251.698	75.06
251.931	86.06
252.164	81.06
252.397	85.06
252.63	68.06
252.863	66.06
253.096	66.06
253.329	79.06
253.562	86.06
253.795	78.06
254.028	78.06
254.261	79.06
254.494	62.06
254.727	76.06
254.96	84.06
255.193	93.06
255.426	75.06
255.659	85.06
255.892	74.06
256.124	86.06
256.357	80.06
256.59	77.06
256.823	78.06
257.056	66.06
257.289	81.06
257.521	77.06
257.754	75.06
257.987	81.06
258.22	86.06
258.452	78.06
258.685	77.06
258.918	67.06
259.151	84.06
259.383	78.06
259.616	83.06
259.849	74.06
260.081	86.06
260.314	78.06
260.547	77.06
260.779	89.06
261.012	90.06
261.244	96.06
261.477	82.06
261.71	80.06
261.942	99.06
262.175	117.06
262.407	87.06
262.64	84.06
262.872	81.06
263.105	89.06
263.337	73.06
263.57	86.06
263.802	81.06
264.035	69.06
264.267	81.06
264.499	81.06
264.732	82.06
264.964	71.06
265.197	92.06
265.429	80.06
265.661	89.06
265.894	68.06
266.126	75.06
266.358	80.06
266.591	69.06
266.823	83.06
267.055	80.06
267.287	75.06
267.52	66.06
267.752	81.06
267.984	91.06
268.216	84.06
268.448	88.06
268.681	82.06
268.913	87.06
269.145	83.06
269.377	78.06
269.609	76.06
269.841	93.06
270.073	80.06
270.306	61.06
270.538	78.06
270.77	77.06
271.002	70.06
271.234	89.06
271.466	92.06
271.698	65.06
271.93	82.06
272.162	78.06
272.394	89.06
272.626	90.06
272.858	87.06
273.09	75.06
273.322	86.06
273.553	76.06
273.785	68.06
274.017	81.06
274.249	70.06
274.481	83.06
274.713	76.06
274.945	83.06
275.176	89.06
275.408	92.06
275.64	88.06
275.872	86.06
276.104	94.06
276.335	85.06
276.567	77.06
276.799	100.06
277.031	110.06
277.262	96.06
277.494	103.06
277.726	92.06
277.957	89.06
278.189	86.06
278.421	92.06
278.652	87.06
278.884	81.06
279.115	88.06
279.347	83.06
279.579	76.06
279.81	90.06
280.042	110.06
280.273	120.06
280.505	108.06
280.736	76.06
280.968	83.06
281.199	92.06
281.431	79.06
281.662	81.06
281.894	86.06
282.125	104.06
282.356	102.06
282.588	123.06
282.819	112.06
283.051	86.06
283.282	83.06
283.513	77.06
283.745	75.06
283.976	83.06
284.207	75.06
284.439	71.06
284.67	90.06
284.901	93.06
285.132	79.06
285.364	82.06
285.595	85.06
285.826	82.06
286.057	83.06
286.288	74.06
286.52	72.06
286.751	88.06
286.982	79.06
287.213	79.06
287.444	84.06
287.675	82.06
287.906	93.06
288.138	85.06
288.369	94.06
288.6	96.06
288.831	70.06
289.062	86.06
289.293	84.06
289.524	95.06
289.755	88.06
289.986	86.06
290.217	96.06
290.448	79.06
290.679	73.06
290.91	79.06
291.141	94.06
291.371	101.06
291.602	74.06
291.833	83.06
292.064	89.06
292.295	72.06
292.526	80.06
292.757	86.06
292.987	87.06
293.218	73.06
293.449	104.06
293.68	78.06
293.91	68.06
294.141	89.06
294.372	79.06
294.603	77.06
294.833	89.06
295.064	76.06
295.295	96.06
295.525	95.06
295.756	112.06
295.987	111.06
296.217	113.06
296.448	112.06
296.679	87.06
296.909	84.06
297.14	88.06
297.37	89.06
297.601	73.06
297.831	95.06
298.062	79.06
298.292	94.06
298.523	92.06
298.753	90.06
298.984	77.06
299.214	96.06
299.445	93.06
299.675	94.06
299.905	74.06
300.136	94.06
300.366	80.06
300.597	85.06
300.827	93.06
301.057	100.06
301.288	104.06
301.518	86.06
301.748	91.06
301.979	106.06
302.209	99.06
302.439	97.06
302.669	82.06
302.9	94.06
303.13	91.06
303.36	104.06
303.59	103.06
303.82	93.06
304.051	96.06
304.281	83.06
304.511	93.06
304.741	82.06
304.971	78.06
305.201	90.06
305.431	74.06
305.661	87.06
305.891	100.06
306.121	97.06
306.352	97.06
306.582	110.06
306.812	87.06
307.042	98.06
307.272	99.06
307.502	99.06
307.731	100.06
307.961	101.06
308.191	84.06
308.421	85.06
308.651	97.06
308.881	78.06
309.111	93.06
309.341	83.06
309.571	94.06
309.8	89.06
310.03	97.06
310.26	88.06
310.49	88.06
310.72	101.06
310.949	104.06
311.179	95.06
311.409	91.06
311.639	91.06
311.868	99.06
312.098	97.06
312.328	99.06
312.557	107.06
312.787	100.06
313.017	108.06
313.246	89.06
313.476	77.06
313.706	89.06
313.935	92.06
314.165	106.06
314.394	92.06
314.624	93.06
314.853	89.06
315.083	85.06
315.312	82.06
315.542	90.06
315.771	90.06
316.001	92.06
316.23	89.06
316.46	88.06
316.689	94.06
316.919	93.06
317.148	95.06
317.377	91.06
317.607	99.06
317.836	87.06
318.065	96.06
318.295	76.06
318.524	79.06
318.753	84.06
318.983	87.06
319.212	96.06
319.441	115.06
319.67	107.06
319.9	79.06
320.129	91.06
320.358	92.06
320.587	76.06
320.816	110.06
321.046	104.06
321.275	82.06
321.504	96.06
321.733	96.06
321.962	111.06
322.191	102.06
322.42	101.06
322.649	97.06
322.878	111.06
323.108	108.06
323.337	123.06
323.566	150.06
323.795	129.06
324.024	203.06
324.253	400.06
324.482	833.06
324.71	1684.06
324.939	2157.06
325.168	815.06
325.397	231.06
325.626	166.06
325.855	147.06
326.084	124.06
326.313	125.06
326.542	137.06
326.77	230.06
326.999	459.06
327.228	923.06
327.457	1659.06
327.686	1363.06
327.914	405.06
328.143	238.06
328.372	234.06
328.6	167.06
328.829	112.06
329.058	136.06
329.287	130.06
329.515	115.06
329.744	137.06
329.972	176.06
330.201	282.06
330.43	372.06
330.658	227.06
330.887	160.06
331.115	123.06
331.344	105.06
331.572	96.06
331.801	103.06
332.03	111.06
332.258	83.06
332.486	99.06
332.715	93.06
332.943	107.06
333.172	99.06
333.4	104.06
333.629	102.06
333.857	131.06
334.085	175.06
334.314	281.06
334.542	466.06
334.771	426.06
334.999	171.06
335.227	108.06
335.455	112.06
335.684	115.06
335.912	92.06
336.14	103.06
336.369	87.06
336.597	89.06
336.825	82.06
337.053	87.06
337.281	86.06
337.51	84.06
337.738	104.06
337.966	80.06
338.194	88.06
338.422	85.06
338.65	97.06
338.878	73.06
339.106	91.06
339.334	97.06
339.562	89.06
339.79	81.06
340.018	93.06
340.246	87.06
340.474	101.06
340.702	101.06
340.93	97.06
341.158	95.06
341.386	89.06
341.614	89.06
341.842	95.06
342.07	91.06
342.298	100.06
342.526	82.06
342.754	89.06
342.981	89.06
343.209	81.06
343.437	97.06
343.665	87.06
343.893	105.06
344.12	91.06
344.348	76.06
344.576	94.06
344.804	87.06
345.031	99.06
345.259	104.06
345.487	93.06
345.714	96.06
345.942	95.06
346.17	89.06
346.397	96.06
346.625	96.06
346.853	94.06
347.08	77.06
347.308	96.06
347.535	85.06
347.763	89.06
347.99	102.06
348.218	95.06
348.445	97.06
348.673	104.06
348.9	92.06
349.128	96.06
349.355	93.06
349.583	93.06
349.81	85.06
350.037	92.06
350.265	84.06
350.492	104.06
350.72	103.06
350.947	95.06
351.174	109.06
351.402	92.06
351.629	84.06
351.856	88.06
352.083	97.06
352.311	112.06
352.538	102.06
352.765	114.06
352.992	110.06
353.22	110.06
353.447	104.06
353.674	96.06
353.901	105.06
354.128	87.06
354.355	96.06
354.583	93.06
354.81	88.06
355.037	93.06
355.264	82.06
355.491	94.06
355.718	85.06
355.945	89.06
356.172	92.06
356.399	98.06
356.626	88.06
356.853	93.06
357.08	86.06
357.307	95.06
357.534	86.06
357.761	89.06
357.988	86.06
358.215	88.06
358.441	88.06
358.668	96.06
358.895	90.06
359.122	93.06
359.349	94.06
359.576	78.06
359.802	94.06
360.029	108.06
360.256	108.06
360.483	95.06
360.709	84.06
360.936	85.06
361.163	97.06
361.39	104.06
361.616	86.06
361.843	91.06
362.07	88.06
362.296	82.06
362.523	81.06
362.749	87.06
362.976	91.06
363.203	86.06
363.429	73.06
363.656	81.06
363.882	89.06
364.109	92.06
364.335	86.06
364.562	104.06
364.788	93.06
365.015	101.06
365.241	95.06
365.468	102.06
365.694	78.06
365.92	91.06
366.147	90.06
366.373	100.06
366.599	103.06
366.826	81.06
367.052	96.06
367.278	73.06
367.505	88.06
367.731	83.06
367.957	79.06
368.184	94.06
368.41	99.06
368.636	109.06
368.862	123.06
369.089	119.06
369.315	83.06
369.541	86.06
369.767	83.06
369.993	77.06
370.219	95.06
370.445	77.06
370.672	84.06
370.898	73.06
371.124	79.06
371.35	89.06
371.576	85.06
371.802	88.06
372.028	90.06
372.254	85.06
372.48	93.06
372.706	97.06
372.932	89.06
373.158	86.06
373.384	83.06
373.61	102.06
373.835	85.06
374.061	90.06
374.287	82.06
374.513	84.06
374.739	97.06
374.965	84.06
375.191	91.06
375.416	84.06
375.642	86.06
375.868	84.06
376.094	83.06
376.319	83.06
376.545	87.06
376.771	84.06
376.997	89.06
377.222	90.06
377.448	86.06
377.674	94.06
377.899	101.06
378.125	84.06
378.35	87.06
378.576	89.06
378.802	80.06
379.027	93.06
379.253	91.06
379.478	83.06
379.704	79.06
379.929	102.06
380.155	96.06
380.38	102.06
380.606	104.06
380.831	109.06
381.057	83.06
381.282	104.06
381.507	94.06
381.733	97.06
381.958	93.06
382.184	101.06
382.409	91.06
382.634	95.06
382.86	102.06
383.085	97.06
383.31	93.06
383.535	100.06
383.761	96.06
383.986	105.06
384.211	109.06
384.436	84.06
384.662	104.06
384.887	104.06
385.112	107.06
385.337	91.06
385.562	109.06
385.787	114.06
386.013	112.06
386.238	111.06
386.463	99.06
386.688	101.06
386.913	114.06
387.138	114.06
387.363	99.06
387.588	111.06
387.813	99.06
388.038	124.06
388.263	114.06
388.488	116.06
388.713	88.06
388.938	90.06
389.163	82.06
389.387	95.06
389.612	94.06
389.837	84.06
390.062	99.06
390.287	95.06
390.512	91.06
390.736	83.06
390.961	86.06
391.186	96.06
391.411	105.06
391.636	109.06
391.86	92.06
392.085	81.06
392.31	71.06
392.534	92.06
392.759	89.06
392.984	91.06
393.208	89.06
393.433	94.06
393.658	82.06
393.882	95.06
394.107	83.06
394.331	87.06
394.556	82.06
394.78	83.06
395.005	94.06
395.229	90.06
395.454	82.06
395.678	85.06
395.903	95.06
396.127	90.06
396.352	87.06
396.576	94.06
396.801	91.06
397.025	86.06
397.249	93.06
397.474	86.06
397.698	87.06
397.922	102.06
398.147	85.06
398.371	98.06
398.595	90.06
398.82	76.06
399.044	84.06
399.268	86.06
399.492	90.06
399.717	96.06
399.941	83.06
400.165	86.06
400.389	84.06
400.613	93.06
400.837	98.06
401.062	101.06
401.286	89.06
401.51	92.06
401.734	90.06
401.958	94.06
402.182	126.06
402.406	146.06
402.63	115.06
402.854	87.06
403.078	93.06
403.302	84.06
403.526	80.06
403.75	88.06
403.974	95.06
404.198	83.06
404.422	80.06
404.645	97.06
404.869	74.06
405.093	101.06
405.317	110.06
405.541	113.06
405.765	100.06
405.988	101.06
406.212	167.06
406.436	226.06
406.66	149.06
406.883	114.06
407.107	85.06
407.331	96.06
407.555	93.06
407.778	93.06
408.002	95.06
408.226	83.06
408.449	95.06
408.673	95.06
408.896	90.06
409.12	108.06
409.344	89.06
409.567	101.06
409.791	80.06
410.014	105.06
410.238	83.06
410.461	89.06
410.685	87.06
410.908	103.06
411.132	107.06
411.355	90.06
411.578	82.06
411.802	111.06
412.025	91.06
412.249	91.06
412.472	87.06
412.695	99.06
412.919	79.06
413.142	90.06
413.365	93.06
413.589	90.06
413.812	76.06
414.035	105.06
414.258	89.06
414.482	90.06
414.705	90.06
414.928	93.06
415.151	81.06
415.374	92.06
415.597	96.06
415.821	81.06
416.044	79.06
416.267	85.06
416.49	81.06
416.713	83.06
416.936	82.06
417.159	79.06
417.382	91.06
417.605	97.06
417.828	96.06
418.051	85.06
418.274	78.06
418.497	79.06
418.72	90.06
418.943	99.06
419.166	91.06
419.389	105.06
419.611	99.06
419.834	87.06
420.057	87.06
420.28	96.06
420.503	88.06
420.726	92.06
420.948	104.06
421.171	94.06
421.394	92.06
421.617	87.06
421.839	85.06
422.062	97.06
422.285	88.06
422.507	98.06
422.73	98.06
422.953	105.06
423.175	90.06
423.398	79.06
423.621	80.06
423.843	86.06
424.066	101.06
424.288	93.06
424.511	94.06
424.733	89.06
424.956	103.06
425.178	93.06
425.401	96.06
425.623	97.06
425.846	89.06
426.068	73.06
426.291	80.06
426.513	96.06
426.735	91.06
426.958	81.06
427.18	112.06
427.402	129.06
427.625	192.06
427.847	156.06
428.069	151.06
428.292	105.06
428.514	81.06
428.736	96.06
428.958	75.06
429.181	83.06
429.403	83.06
429.625	94.06
429.847	87.06
430.069	92.06
430.292	93.06
430.514	84.06
430.736	80.06
430.958	83.06
431.18	90.06
431.402	80.06
431.624	86.06
431.846	93.06
432.068	79.06
432.29	84.06
432.512	98.06
432.734	71.06
432.956	88.06
433.178	94.06
433.4	105.06
433.622	78.06
433.844	94.06
434.066	93.06
434.287	96.06
434.509	82.06
434.731	94.06
434.953	86.06
435.175	78.06
435.397	86.06
435.618	81.06
435.84	99.06
436.062	122.06
436.284	119.06
436.505	100.06
436.727	89.06
436.949	93.06
437.17	98.06
437.392	88.06
437.614	87.06
437.835	102.06
438.057	112.06
438.278	109.06
438.5	100.06
438.721	100.06
438.943	95.06
439.165	108.06
439.386	83.06
439.608	93.06
439.829	96.06
440.05	116.06
440.272	146.06
440.493	104.06
440.715	92.06
440.936	87.06
441.158	91.06
441.379	82.06
441.6	99.06
441.822	88.06
442.043	95.06
442.264	96.06
442.486	97.06
442.707	92.06
442.928	105.06
443.149	113.06
443.371	124.06
443.592	100.06
443.813	115.06
444.034	115.06
444.255	90.06
444.476	107.06
444.698	87.06
444.919	85.06
445.14	109.06
445.361	109.06
445.582	96.06
445.803	142.06
446.024	125.06
446.245	112.06
446.466	96.06
446.687	84.06
446.908	87.06
447.129	82.06
447.35	91.06
447.571	93.06
447.792	100.06
448.013	83.06
448.234	99.06
448.455	88.06
448.675	100.06
448.896	119.06
449.117	78.06
449.338	112.06
449.559	125.06
449.779	110.06
450	97.06
450.221	89.06
450.442	84.06
450.662	101.06
450.883	113.06
451.104	109.06
451.324	100.06
451.545	96.06
451.766	82.06
451.986	75.06
452.207	111.06
452.428	100.06
452.648	97.06
452.869	109.06
453.089	126.06
453.31	115.06
453.53	97.06
453.751	93.06
453.971	108.06
454.192	115.06
454.412	97.06
454.633	93.06
454.853	95.06
455.073	94.06
455.294	100.06
455.514	104.06
455.734	87.06
455.955	86.06
456.175	92.06
456.395	97.06
456.616	81.06
456.836	85.06
457.056	84.06
457.276	86.06
457.497	82.06
457.717	84.06
457.937	96.06
458.157	80.06
458.377	95.06
458.598	93.06
458.818	139.06
459.038	148.06
459.258	115.06
459.478	90.06
459.698	84.06
459.918	90.06
460.138	75.06
460.358	89.06
460.578	87.06
460.798	88.06
461.018	88.06
461.238	80.06
461.458	80.06
461.678	82.06
461.898	87.06
462.118	90.06
462.338	86.06
462.558	88.06
462.777	88.06
462.997	84.06
463.217	100.06
463.437	92.06
463.657	80.06
463.876	84.06
464.096	89.06
464.316	107.06
464.536	84.06
464.755	91.06
464.975	109.06
465.195	151.06
465.414	138.06
465.634	95.06
465.854	85.06
466.073	85.06
466.293	100.06
466.512	85.06
466.732	82.06
466.951	88.06
467.171	89.06
467.391	103.06
467.61	108.06
467.829	119.06
468.049	195.06
468.268	238.06
468.488	102.06
468.707	96.06
468.927	92.06
469.146	85.06
469.365	78.06
469.585	75.06
469.804	92.06
470.023	86.06
470.243	101.06
470.462	108.06
470.681	100.06
470.901	95.06
471.12	84.06
471.339	78.06
471.558	80.06
471.777	104.06
471.997	130.06
472.216	325.06
472.435	630.06
472.654	188.06
472.873	110.06
473.092	102.06
473.311	91.06
473.53	102.06
473.749	95.06
473.968	85.06
474.187	101.06
474.406	107.06
474.625	95.06
474.844	94.06
475.063	91.06
475.282	94.06
475.501	81.06
475.72	100.06
475.939	95.06
476.158	85.06
476.377	81.06
476.596	83.06
476.814	94.06
477.033	88.06
477.252	92.06
477.471	87.06
477.69	80.06
477.908	72.06
478.127	88.06
478.346	92.06
478.564	87.06
478.783	85.06
479.002	103.06
479.22	101.06
479.439	96.06
479.658	97.06
479.876	99.06
480.095	80.06
480.313	102.06
480.532	109.06
480.751	137.06
480.969	331.06
481.188	1048.06
481.406	639.06
481.624	154.06
481.843	103.06
482.061	98.06
482.28	107.06
482.498	86.06
482.717	63.06
482.935	87.06
483.153	96.06
483.372	81.06
483.59	82.06
483.808	72.06
484.027	91.06
484.245	86.06
484.463	77.06
484.681	86.06
484.9	100.06
485.118	89.06
485.336	95.06
485.554	103.06
485.772	93.06
485.99	85.06
486.209	99.06
486.427	97.06
486.645	96.06
486.863	101.06
487.081	98.06
487.299	99.06
487.517	81.06
487.735	103.06
487.953	84.06
488.171	89.06
488.389	84.06
488.607	108.06
488.825	84.06
489.043	84.06
489.261	100.06
489.479	86.06
489.696	99.06
489.914	83.06
490.132	71.06
490.35	101.06
490.568	93.06
490.786	92.06
491.003	89.06
491.221	91.06
491.439	99.06
491.657	78.06
491.874	89.06
492.092	95.06
492.31	91.06
492.527	98.06
492.745	95.06
492.963	91.06
493.18	93.06
493.398	102.06
493.615	83.06
493.833	104.06
494.05	84.06
494.268	93.06
494.485	93.06
494.703	89.06
494.92	81.06
495.138	83.06
495.355	84.06
495.573	96.06
495.79	93.06
496.008	93.06
496.225	93.06
496.442	96.06
496.66	74.06
496.877	86.06
497.094	83.06
497.312	81.06
497.529	81.06
497.746	100.06
497.963	88.06
498.181	82.06
498.398	88.06
498.615	103.06
498.832	86.06
499.049	96.06
499.267	99.06
499.484	95.06
499.701	90.06
499.918	80.06
500.135	88.06
500.352	97.06
500.569	89.06
500.786	97.06
501.003	83.06
501.22	97.06
501.437	89.06
501.654	92.06
501.871	97.06
502.088	85.06
502.305	90.06
502.522	85.06
502.739	85.06
502.956	89.06
503.172	100.06
503.389	96.06
503.606	102.06
503.823	98.06
504.04	99.06
504.256	89.06
504.473	77.06
504.69	85.06
504.907	81.06
505.123	85.06
505.34	93.06
505.557	96.06
505.773	101.06
505.99	88.06
506.207	93.06
506.423	87.06
506.64	88.06
506.856	77.06
507.073	82.06
507.289	85.06
507.506	83.06
507.722	115.06
507.939	98.06
508.155	81.06
508.372	80.06
508.588	97.06
508.805	96.06
509.021	95.06
509.238	83.06
509.454	78.06
509.67	109.06
509.887	108.06
510.103	124.06
510.319	207.06
510.536	753.06
510.752	2204.06
510.968	618.06
511.184	163.06
511.401	105.06
511.617	94.06
511.833	94.06
512.049	96.06
512.265	94.06
512.481	95.06
512.698	96.06
512.914	89.06
513.13	99.06
513.346	84.06
513.562	86.06
513.778	92.06
513.994	104.06
514.21	117.06
514.426	117.06
514.642	132.06
514.858	132.06
515.074	176.06
515.29	457.06
515.506	1500.06
515.721	532.06
515.937	145.06
