Data from Circ_2004_H10_HRD10591_00048.txt Node
Date: Wed Jan 03 10:33:23 EST 2024
User: Yrep
Spectrometer: HR+D1059
Trigger mode: 1
Integration Time (sec): 1.000000E-1
Scans to average: 1
Electric dark correction enabled: true
Nonlinearity correction enabled: false
Boxcar width: 0
XAxis mode: Wavelengths
Number of Pixels in Spectrum: 2048
>>>>>Begin Spectral Data<<<<<
223.165	-25.06
223.4	-25.06
223.635	-25.06
223.869	-11.06
224.104	-15.06
224.338	-8.06
224.573	-12.06
224.808	-9.06
225.042	-6.06
225.277	-18.06
225.511	0.94
225.746	-3.06
225.98	12.94
226.215	-1.06
226.449	15.94
226.683	8.94
226.918	34.94
227.152	34.94
227.387	29.94
227.621	34.94
227.856	52.94
228.09	44.94
228.324	52.94
228.559	70.94
228.793	63.94
229.027	61.94
229.262	62.94
229.496	74.94
229.73	74.94
229.964	69.94
230.199	68.94
230.433	81.94
230.667	65.94
230.901	66.94
231.136	81.94
231.37	74.94
231.604	78.94
231.838	71.94
232.072	80.94
232.306	73.94
232.541	82.94
232.775	77.94
233.009	81.94
233.243	72.94
233.477	82.94
233.711	92.94
233.945	82.94
234.179	73.94
234.413	83.94
234.647	86.94
234.881	84.94
235.115	84.94
235.349	79.94
235.583	80.94
235.817	78.94
236.051	68.94
236.285	72.94
236.519	90.94
236.753	68.94
236.987	71.94
237.221	73.94
237.455	84.94
237.689	78.94
237.922	64.94
238.156	73.94
238.39	90.94
238.624	70.94
238.858	87.94
239.091	82.94
239.325	81.94
239.559	80.94
239.793	92.94
240.027	74.94
240.26	64.94
240.494	67.94
240.728	80.94
240.961	75.94
241.195	80.94
241.429	67.94
241.662	64.94
241.896	66.94
242.13	81.94
242.363	70.94
242.597	57.94
242.83	71.94
243.064	82.94
243.298	77.94
243.531	88.94
243.765	79.94
243.998	77.94
244.232	70.94
244.465	93.94
244.699	83.94
244.932	93.94
245.166	74.94
245.399	87.94
245.633	73.94
245.866	76.94
246.099	76.94
246.333	69.94
246.566	74.94
246.8	81.94
247.033	67.94
247.266	72.94
247.5	74.94
247.733	66.94
247.966	88.94
248.2	86.94
248.433	60.94
248.666	82.94
248.899	77.94
249.133	90.94
249.366	92.94
249.599	98.94
249.832	89.94
250.066	87.94
250.299	84.94
250.532	80.94
250.765	89.94
250.998	80.94
251.231	69.94
251.465	81.94
251.698	89.94
251.931	77.94
252.164	70.94
252.397	89.94
252.63	83.94
252.863	73.94
253.096	86.94
253.329	89.94
253.562	84.94
253.795	90.94
254.028	82.94
254.261	70.94
254.494	89.94
254.727	87.94
254.96	81.94
255.193	86.94
255.426	81.94
255.659	73.94
255.892	96.94
256.124	78.94
256.357	80.94
256.59	85.94
256.823	87.94
257.056	74.94
257.289	79.94
257.521	73.94
257.754	84.94
257.987	69.94
258.22	65.94
258.452	78.94
258.685	88.94
258.918	84.94
259.151	87.94
259.383	97.94
259.616	92.94
259.849	90.94
260.081	67.94
260.314	80.94
260.547	84.94
260.779	91.94
261.012	81.94
261.244	87.94
261.477	91.94
261.71	77.94
261.942	100.94
262.175	115.94
262.407	92.94
262.64	84.94
262.872	76.94
263.105	70.94
263.337	67.94
263.57	99.94
263.802	86.94
264.035	80.94
264.267	90.94
264.499	94.94
264.732	90.94
264.964	76.94
265.197	89.94
265.429	88.94
265.661	85.94
265.894	64.94
266.126	84.94
266.358	83.94
266.591	75.94
266.823	86.94
267.055	78.94
267.287	89.94
267.52	86.94
267.752	58.94
267.984	84.94
268.216	78.94
268.448	76.94
268.681	74.94
268.913	87.94
269.145	78.94
269.377	81.94
269.609	90.94
269.841	80.94
270.073	91.94
270.306	83.94
270.538	82.94
270.77	77.94
271.002	75.94
271.234	86.94
271.466	109.94
271.698	89.94
271.93	88.94
272.162	89.94
272.394	72.94
272.626	72.94
272.858	88.94
273.09	90.94
273.322	83.94
273.553	79.94
273.785	93.94
274.017	83.94
274.249	96.94
274.481	84.94
274.713	87.94
274.945	71.94
275.176	88.94
275.408	93.94
275.64	79.94
275.872	87.94
276.104	91.94
276.335	101.94
276.567	97.94
276.799	100.94
277.031	113.94
277.262	105.94
277.494	93.94
277.726	97.94
277.957	90.94
278.189	78.94
278.421	89.94
278.652	76.94
278.884	94.94
279.115	84.94
279.347	88.94
279.579	84.94
279.81	86.94
280.042	105.94
280.273	119.94
280.505	96.94
280.736	105.94
280.968	97.94
281.199	97.94
281.431	85.94
281.662	87.94
281.894	97.94
282.125	93.94
282.356	108.94
282.588	126.94
282.819	104.94
283.051	99.94
283.282	101.94
283.513	91.94
283.745	81.94
283.976	92.94
284.207	90.94
284.439	75.94
284.67	87.94
284.901	102.94
285.132	82.94
285.364	73.94
285.595	88.94
285.826	79.94
286.057	92.94
286.288	71.94
286.52	89.94
286.751	85.94
286.982	79.94
287.213	76.94
287.444	101.94
287.675	90.94
287.906	80.94
288.138	74.94
288.369	100.94
288.6	83.94
288.831	98.94
289.062	84.94
289.293	96.94
289.524	81.94
289.755	91.94
289.986	78.94
290.217	87.94
290.448	94.94
290.679	86.94
290.91	88.94
291.141	90.94
291.371	90.94
291.602	79.94
291.833	88.94
292.064	90.94
292.295	84.94
292.526	79.94
292.757	84.94
292.987	76.94
293.218	78.94
293.449	89.94
293.68	94.94
293.91	64.94
294.141	100.94
294.372	90.94
294.603	83.94
294.833	90.94
295.064	90.94
295.295	85.94
295.525	89.94
295.756	94.94
295.987	104.94
296.217	127.94
296.448	108.94
296.679	93.94
296.909	88.94
297.14	89.94
297.37	82.94
297.601	87.94
297.831	88.94
298.062	93.94
298.292	90.94
298.523	73.94
298.753	84.94
298.984	94.94
299.214	79.94
299.445	74.94
299.675	97.94
299.905	107.94
300.136	96.94
300.366	94.94
300.597	89.94
300.827	100.94
301.057	100.94
301.288	106.94
301.518	85.94
301.748	92.94
301.979	89.94
302.209	93.94
302.439	100.94
302.669	93.94
302.9	90.94
303.13	86.94
303.36	97.94
303.59	98.94
303.82	101.94
304.051	91.94
304.281	80.94
304.511	98.94
304.741	90.94
304.971	86.94
305.201	99.94
305.431	98.94
305.661	80.94
305.891	79.94
306.121	94.94
306.352	112.94
306.582	96.94
306.812	104.94
307.042	84.94
307.272	103.94
307.502	107.94
307.731	114.94
307.961	94.94
308.191	93.94
308.421	84.94
308.651	103.94
308.881	112.94
309.111	87.94
309.341	102.94
309.571	92.94
309.8	100.94
310.03	93.94
310.26	100.94
310.49	79.94
310.72	99.94
310.949	97.94
311.179	92.94
311.409	83.94
311.639	90.94
311.868	95.94
312.098	93.94
312.328	110.94
312.557	109.94
312.787	106.94
313.017	90.94
313.246	88.94
313.476	94.94
313.706	93.94
313.935	93.94
314.165	97.94
314.394	107.94
314.624	107.94
314.853	97.94
315.083	101.94
315.312	80.94
315.542	83.94
315.771	83.94
316.001	90.94
316.23	88.94
316.46	102.94
316.689	83.94
316.919	90.94
317.148	102.94
317.377	92.94
317.607	109.94
317.836	100.94
318.065	92.94
318.295	105.94
318.524	102.94
318.753	87.94
318.983	108.94
319.212	115.94
319.441	111.94
319.67	102.94
319.9	98.94
320.129	95.94
320.358	100.94
320.587	90.94
320.816	101.94
321.046	104.94
321.275	98.94
321.504	94.94
321.733	101.94
321.962	90.94
322.191	106.94
322.42	108.94
322.649	96.94
322.878	119.94
323.108	115.94
323.337	136.94
323.566	130.94
323.795	151.94
324.024	190.94
324.253	388.94
324.482	841.94
324.71	1708.94
324.939	2236.94
325.168	848.94
325.397	241.94
325.626	159.94
325.855	113.94
326.084	125.94
326.313	128.94
326.542	157.94
326.77	239.94
326.999	459.94
327.228	946.94
327.457	1740.94
327.686	1435.94
327.914	416.94
328.143	260.94
328.372	254.94
328.6	173.94
328.829	131.94
329.058	144.94
329.287	133.94
329.515	126.94
329.744	147.94
329.972	206.94
330.201	322.94
330.43	448.94
330.658	246.94
330.887	156.94
331.115	130.94
331.344	109.94
331.572	111.94
331.801	111.94
332.03	108.94
332.258	98.94
332.486	85.94
332.715	98.94
332.943	111.94
333.172	104.94
333.4	112.94
333.629	117.94
333.857	133.94
334.085	192.94
334.314	328.94
334.542	529.94
334.771	516.94
334.999	182.94
335.227	114.94
335.455	104.94
335.684	98.94
335.912	95.94
336.14	100.94
336.369	94.94
336.597	86.94
336.825	101.94
337.053	96.94
337.281	98.94
337.51	93.94
337.738	90.94
337.966	78.94
338.194	102.94
338.422	105.94
338.65	100.94
338.878	88.94
339.106	89.94
339.334	86.94
339.562	102.94
339.79	87.94
340.018	78.94
340.246	95.94
340.474	93.94
340.702	107.94
340.93	95.94
341.158	91.94
341.386	98.94
341.614	103.94
341.842	104.94
342.07	93.94
342.298	84.94
342.526	83.94
342.754	98.94
342.981	96.94
343.209	98.94
343.437	100.94
343.665	101.94
343.893	85.94
344.12	81.94
344.348	90.94
344.576	92.94
344.804	93.94
345.031	94.94
345.259	96.94
345.487	105.94
345.714	91.94
345.942	95.94
346.17	85.94
346.397	97.94
346.625	96.94
346.853	96.94
347.08	94.94
347.308	86.94
347.535	116.94
347.763	78.94
347.99	80.94
348.218	105.94
348.445	99.94
348.673	101.94
348.9	101.94
349.128	78.94
349.355	88.94
349.583	73.94
349.81	90.94
350.037	84.94
350.265	101.94
350.492	101.94
350.72	106.94
350.947	109.94
351.174	108.94
351.402	107.94
351.629	111.94
351.856	90.94
352.083	101.94
352.311	105.94
352.538	100.94
352.765	104.94
352.992	114.94
353.22	98.94
353.447	91.94
353.674	105.94
353.901	99.94
354.128	94.94
354.355	97.94
354.583	94.94
354.81	102.94
355.037	90.94
355.264	96.94
355.491	98.94
355.718	84.94
355.945	92.94
356.172	81.94
356.399	100.94
356.626	90.94
356.853	95.94
357.08	109.94
357.307	92.94
357.534	99.94
357.761	90.94
357.988	102.94
358.215	97.94
358.441	98.94
358.668	83.94
358.895	90.94
359.122	90.94
359.349	101.94
359.576	90.94
359.802	102.94
360.029	109.94
360.256	101.94
360.483	93.94
360.709	96.94
360.936	96.94
361.163	92.94
361.39	96.94
361.616	86.94
361.843	87.94
362.07	81.94
362.296	96.94
362.523	93.94
362.749	97.94
362.976	90.94
363.203	77.94
363.429	86.94
363.656	79.94
363.882	93.94
364.109	107.94
364.335	103.94
364.562	98.94
364.788	94.94
365.015	96.94
365.241	93.94
365.468	110.94
365.694	101.94
365.92	88.94
366.147	99.94
366.373	90.94
366.599	96.94
366.826	96.94
367.052	79.94
367.278	79.94
367.505	77.94
367.731	85.94
367.957	84.94
368.184	98.94
368.41	111.94
368.636	105.94
368.862	122.94
369.089	119.94
369.315	108.94
369.541	86.94
369.767	87.94
369.993	89.94
370.219	90.94
370.445	93.94
370.672	96.94
370.898	84.94
371.124	76.94
371.35	61.94
371.576	99.94
371.802	87.94
372.028	91.94
372.254	91.94
372.48	96.94
372.706	79.94
372.932	86.94
373.158	87.94
373.384	97.94
373.61	105.94
373.835	96.94
374.061	73.94
374.287	93.94
374.513	95.94
374.739	75.94
374.965	94.94
375.191	99.94
375.416	90.94
375.642	111.94
375.868	88.94
376.094	97.94
376.319	86.94
376.545	103.94
376.771	97.94
376.997	88.94
377.222	96.94
377.448	83.94
377.674	83.94
377.899	77.94
378.125	95.94
378.35	79.94
378.576	87.94
378.802	107.94
379.027	82.94
379.253	90.94
379.478	94.94
379.704	95.94
379.929	105.94
380.155	84.94
380.38	94.94
380.606	98.94
380.831	94.94
381.057	83.94
381.282	95.94
381.507	92.94
381.733	87.94
381.958	93.94
382.184	72.94
382.409	105.94
382.634	109.94
382.86	96.94
383.085	77.94
383.31	98.94
383.535	105.94
383.761	85.94
383.986	87.94
384.211	92.94
384.436	90.94
384.662	94.94
384.887	94.94
385.112	87.94
385.337	101.94
385.562	116.94
385.787	112.94
386.013	113.94
386.238	128.94
386.463	98.94
386.688	108.94
386.913	110.94
387.138	95.94
387.363	95.94
387.588	111.94
387.813	109.94
388.038	103.94
388.263	109.94
388.488	119.94
388.713	93.94
388.938	94.94
389.163	115.94
389.387	95.94
389.612	90.94
389.837	92.94
390.062	87.94
390.287	93.94
390.512	98.94
390.736	94.94
390.961	102.94
391.186	96.94
391.411	92.94
391.636	87.94
391.86	96.94
392.085	81.94
392.31	84.94
392.534	90.94
392.759	80.94
392.984	87.94
393.208	78.94
393.433	69.94
393.658	85.94
393.882	88.94
394.107	92.94
394.331	74.94
394.556	86.94
394.78	81.94
395.005	92.94
395.229	85.94
395.454	87.94
395.678	81.94
395.903	91.94
396.127	97.94
396.352	77.94
396.576	101.94
396.801	83.94
397.025	85.94
397.249	89.94
397.474	75.94
397.698	96.94
397.922	82.94
398.147	91.94
398.371	76.94
398.595	90.94
398.82	80.94
399.044	93.94
399.268	81.94
399.492	83.94
399.717	93.94
399.941	92.94
400.165	92.94
400.389	87.94
400.613	86.94
400.837	88.94
401.062	73.94
401.286	85.94
401.51	66.94
401.734	92.94
401.958	77.94
402.182	112.94
402.406	163.94
402.63	115.94
402.854	96.94
403.078	99.94
403.302	67.94
403.526	94.94
403.75	87.94
403.974	86.94
404.198	109.94
404.422	92.94
404.645	82.94
404.869	91.94
405.093	104.94
405.317	122.94
405.541	117.94
405.765	105.94
405.988	114.94
406.212	165.94
406.436	217.94
406.66	147.94
406.883	103.94
407.107	90.94
407.331	106.94
407.555	101.94
407.778	114.94
408.002	98.94
408.226	84.94
408.449	88.94
408.673	86.94
408.896	110.94
409.12	98.94
409.344	76.94
409.567	84.94
409.791	90.94
410.014	85.94
410.238	95.94
410.461	86.94
410.685	79.94
410.908	90.94
411.132	106.94
411.355	100.94
411.578	108.94
411.802	87.94
412.025	97.94
412.249	92.94
412.472	117.94
412.695	96.94
412.919	99.94
413.142	97.94
413.365	86.94
413.589	85.94
413.812	80.94
414.035	76.94
414.258	81.94
414.482	80.94
414.705	106.94
414.928	102.94
415.151	87.94
415.374	102.94
415.597	83.94
415.821	105.94
416.044	98.94
416.267	100.94
416.49	84.94
416.713	86.94
416.936	92.94
417.159	98.94
417.382	90.94
417.605	80.94
417.828	93.94
418.051	84.94
418.274	87.94
418.497	90.94
418.72	102.94
418.943	93.94
419.166	90.94
419.389	89.94
419.611	85.94
419.834	79.94
420.057	109.94
420.28	77.94
420.503	86.94
420.726	87.94
420.948	81.94
421.171	110.94
421.394	96.94
421.617	86.94
421.839	82.94
422.062	101.94
422.285	87.94
422.507	107.94
422.73	101.94
422.953	93.94
423.175	98.94
423.398	89.94
423.621	90.94
423.843	85.94
424.066	86.94
424.288	94.94
424.511	96.94
424.733	92.94
424.956	98.94
425.178	103.94
425.401	97.94
425.623	99.94
425.846	102.94
426.068	103.94
426.291	87.94
426.513	87.94
426.735	102.94
426.958	89.94
427.18	104.94
427.402	140.94
427.625	163.94
427.847	157.94
428.069	161.94
428.292	105.94
428.514	91.94
428.736	79.94
428.958	93.94
429.181	96.94
429.403	87.94
429.625	76.94
429.847	94.94
430.069	97.94
430.292	88.94
430.514	81.94
430.736	93.94
430.958	83.94
431.18	78.94
431.402	90.94
431.624	72.94
431.846	74.94
432.068	89.94
432.29	88.94
432.512	94.94
432.734	81.94
432.956	93.94
433.178	96.94
433.4	90.94
433.622	91.94
433.844	90.94
434.066	105.94
434.287	109.94
434.509	73.94
434.731	88.94
434.953	84.94
435.175	82.94
435.397	95.94
435.618	94.94
435.84	107.94
436.062	111.94
436.284	101.94
436.505	101.94
436.727	107.94
436.949	94.94
437.17	70.94
437.392	83.94
437.614	97.94
437.835	119.94
438.057	111.94
438.278	106.94
438.5	95.94
438.721	123.94
438.943	101.94
439.165	89.94
439.386	89.94
439.608	101.94
439.829	105.94
440.05	136.94
440.272	161.94
440.493	97.94
440.715	92.94
440.936	96.94
441.158	94.94
441.379	85.94
441.6	85.94
441.822	103.94
442.043	104.94
442.264	104.94
442.486	110.94
442.707	88.94
442.928	93.94
443.149	124.94
443.371	130.94
443.592	105.94
443.813	109.94
444.034	108.94
444.255	89.94
444.476	84.94
444.698	70.94
444.919	76.94
445.14	143.94
445.361	120.94
445.582	111.94
445.803	127.94
446.024	127.94
446.245	129.94
446.466	106.94
446.687	80.94
446.908	66.94
447.129	98.94
447.35	94.94
447.571	94.94
447.792	102.94
448.013	74.94
448.234	93.94
448.455	110.94
448.675	117.94
448.896	98.94
449.117	102.94
449.338	111.94
449.559	128.94
449.779	125.94
450	109.94
450.221	73.94
450.442	76.94
450.662	80.94
450.883	95.94
451.104	101.94
451.324	89.94
451.545	85.94
451.766	87.94
451.986	97.94
452.207	90.94
452.428	99.94
452.648	96.94
452.869	119.94
453.089	97.94
453.31	120.94
453.53	119.94
453.751	105.94
453.971	94.94
454.192	111.94
454.412	100.94
454.633	90.94
454.853	85.94
455.073	96.94
455.294	93.94
455.514	109.94
455.734	86.94
455.955	85.94
456.175	80.94
456.395	95.94
456.616	86.94
456.836	88.94
457.056	73.94
457.276	82.94
457.497	90.94
457.717	94.94
457.937	92.94
458.157	98.94
458.377	96.94
458.598	109.94
458.818	140.94
459.038	161.94
459.258	121.94
459.478	94.94
459.698	89.94
459.918	85.94
460.138	77.94
460.358	85.94
460.578	76.94
460.798	97.94
461.018	110.94
461.238	74.94
461.458	81.94
461.678	97.94
461.898	88.94
462.118	93.94
462.338	90.94
462.558	87.94
462.777	82.94
462.997	98.94
463.217	99.94
463.437	82.94
463.657	99.94
463.876	87.94
464.096	78.94
464.316	75.94
464.536	90.94
464.755	89.94
464.975	110.94
465.195	172.94
465.414	164.94
465.634	88.94
465.854	87.94
466.073	74.94
466.293	87.94
466.512	83.94
466.732	90.94
466.951	96.94
467.171	92.94
467.391	97.94
467.61	113.94
467.829	122.94
468.049	207.94
468.268	305.94
468.488	128.94
468.707	82.94
468.927	87.94
469.146	90.94
469.365	88.94
469.585	88.94
469.804	87.94
470.023	86.94
470.243	102.94
470.462	94.94
470.681	103.94
470.901	96.94
471.12	108.94
471.339	92.94
471.558	79.94
471.777	111.94
471.997	144.94
472.216	380.94
472.435	737.94
472.654	215.94
472.873	118.94
473.092	94.94
473.311	100.94
473.53	84.94
473.749	88.94
473.968	87.94
474.187	103.94
474.406	102.94
474.625	69.94
474.844	79.94
475.063	78.94
475.282	76.94
475.501	85.94
475.72	85.94
475.939	93.94
476.158	91.94
476.377	82.94
476.596	94.94
476.814	95.94
477.033	101.94
477.252	100.94
477.471	80.94
477.69	94.94
477.908	98.94
478.127	92.94
478.346	92.94
478.564	88.94
478.783	101.94
479.002	98.94
479.22	88.94
479.439	100.94
479.658	105.94
479.876	91.94
480.095	90.94
480.313	96.94
480.532	98.94
480.751	148.94
480.969	360.94
481.188	1262.94
481.406	737.94
481.624	159.94
481.843	102.94
482.061	88.94
482.28	106.94
482.498	93.94
482.717	88.94
482.935	79.94
483.153	98.94
483.372	89.94
483.59	89.94
483.808	98.94
484.027	98.94
484.245	79.94
484.463	100.94
484.681	94.94
484.9	84.94
485.118	96.94
485.336	89.94
485.554	94.94
485.772	94.94
485.99	96.94
486.209	90.94
486.427	104.94
486.645	111.94
486.863	124.94
487.081	90.94
487.299	89.94
487.517	102.94
487.735	83.94
487.953	79.94
488.171	103.94
488.389	98.94
488.607	106.94
488.825	76.94
489.043	86.94
489.261	91.94
489.479	86.94
489.696	79.94
489.914	84.94
490.132	89.94
490.35	87.94
490.568	87.94
490.786	95.94
491.003	93.94
491.221	95.94
491.439	102.94
491.657	102.94
491.874	81.94
492.092	92.94
492.31	74.94
492.527	74.94
492.745	93.94
492.963	85.94
493.18	79.94
493.398	94.94
493.615	109.94
493.833	95.94
494.05	83.94
494.268	86.94
494.485	87.94
494.703	101.94
494.92	82.94
495.138	86.94
495.355	90.94
495.573	88.94
495.79	78.94
496.008	100.94
496.225	92.94
496.442	75.94
496.66	96.94
496.877	105.94
497.094	99.94
497.312	93.94
497.529	82.94
497.746	81.94
497.963	89.94
498.181	77.94
498.398	85.94
498.615	120.94
498.832	105.94
499.049	79.94
499.267	83.94
499.484	94.94
499.701	100.94
499.918	100.94
500.135	80.94
500.352	90.94
500.569	90.94
500.786	89.94
501.003	90.94
501.22	79.94
501.437	77.94
501.654	87.94
501.871	118.94
502.088	100.94
502.305	92.94
502.522	90.94
502.739	96.94
502.956	93.94
503.172	85.94
503.389	93.94
503.606	101.94
503.823	97.94
504.04	105.94
504.256	99.94
504.473	88.94
504.69	89.94
504.907	82.94
505.123	95.94
505.34	79.94
505.557	86.94
505.773	88.94
505.99	84.94
506.207	92.94
506.423	83.94
506.64	88.94
506.856	93.94
507.073	89.94
507.289	96.94
507.506	102.94
507.722	106.94
507.939	120.94
508.155	108.94
508.372	96.94
508.588	80.94
508.805	98.94
509.021	95.94
509.238	105.94
509.454	113.94
509.67	94.94
509.887	96.94
510.103	127.94
510.319	202.94
510.536	667.94
510.752	2049.94
510.968	580.94
511.184	155.94
511.401	108.94
511.617	92.94
511.833	99.94
512.049	96.94
512.265	105.94
512.481	83.94
512.698	84.94
512.914	72.94
513.13	96.94
513.346	98.94
513.562	73.94
513.778	95.94
513.994	97.94
514.21	107.94
514.426	121.94
514.642	143.94
514.858	107.94
515.074	152.94
