Data from Circ_2004_H10_HRD10591_00035.txt Node
Date: Wed Jan 03 10:33:21 EST 2024
User: Yrep
Spectrometer: HR+D1059
Trigger mode: 1
Integration Time (sec): 1.000000E-1
Scans to average: 1
Electric dark correction enabled: true
Nonlinearity correction enabled: false
Boxcar width: 0
XAxis mode: Wavelengths
Number of Pixels in Spectrum: 2048
>>>>>Begin Spectral Data<<<<<
223.165	-19.5
223.4	-19.5
223.635	-19.5
223.869	-33.5
224.104	-12.5
224.338	-14.5
224.573	-4.5
224.808	-8.5
225.042	-10.5
225.277	17.5
225.511	-2.5
225.746	1.5
225.98	12.5
226.215	9.5
226.449	8.5
226.683	18.5
226.918	16.5
227.152	21.5
227.387	36.5
227.621	30.5
227.856	53.5
228.09	45.5
228.324	46.5
228.559	44.5
228.793	61.5
229.027	65.5
229.262	72.5
229.496	78.5
229.73	86.5
229.964	68.5
230.199	71.5
230.433	65.5
230.667	84.5
230.901	80.5
231.136	74.5
231.37	87.5
231.604	73.5
231.838	90.5
232.072	77.5
232.306	69.5
232.541	79.5
232.775	80.5
233.009	81.5
233.243	72.5
233.477	72.5
233.711	79.5
233.945	88.5
234.179	75.5
234.413	73.5
234.647	93.5
234.881	81.5
235.115	80.5
235.349	87.5
235.583	80.5
235.817	70.5
236.051	89.5
236.285	82.5
236.519	71.5
236.753	78.5
236.987	75.5
237.221	74.5
237.455	81.5
237.689	82.5
237.922	72.5
238.156	57.5
238.39	88.5
238.624	71.5
238.858	76.5
239.091	71.5
239.325	73.5
239.559	78.5
239.793	87.5
240.027	74.5
240.26	71.5
240.494	79.5
240.728	81.5
240.961	72.5
241.195	77.5
241.429	84.5
241.662	76.5
241.896	78.5
242.13	75.5
242.363	80.5
242.597	83.5
242.83	89.5
243.064	71.5
243.298	89.5
243.531	83.5
243.765	84.5
243.998	75.5
244.232	76.5
244.465	82.5
244.699	81.5
244.932	77.5
245.166	71.5
245.399	79.5
245.633	84.5
245.866	81.5
246.099	79.5
246.333	93.5
246.566	69.5
246.8	83.5
247.033	73.5
247.266	70.5
247.5	70.5
247.733	68.5
247.966	81.5
248.2	73.5
248.433	78.5
248.666	71.5
248.899	90.5
249.133	101.5
249.366	96.5
249.599	92.5
249.832	73.5
250.066	75.5
250.299	74.5
250.532	89.5
250.765	74.5
250.998	71.5
251.231	86.5
251.465	57.5
251.698	76.5
251.931	69.5
252.164	84.5
252.397	93.5
252.63	76.5
252.863	81.5
253.096	84.5
253.329	90.5
253.562	83.5
253.795	84.5
254.028	82.5
254.261	74.5
254.494	91.5
254.727	81.5
254.96	79.5
255.193	73.5
255.426	86.5
255.659	88.5
255.892	90.5
256.124	82.5
256.357	83.5
256.59	88.5
256.823	86.5
257.056	86.5
257.289	85.5
257.521	97.5
257.754	84.5
257.987	76.5
258.22	77.5
258.452	82.5
258.685	84.5
258.918	80.5
259.151	78.5
259.383	85.5
259.616	80.5
259.849	77.5
260.081	83.5
260.314	82.5
260.547	102.5
260.779	86.5
261.012	86.5
261.244	91.5
261.477	88.5
261.71	92.5
261.942	113.5
262.175	114.5
262.407	84.5
262.64	89.5
262.872	77.5
263.105	79.5
263.337	98.5
263.57	72.5
263.802	90.5
264.035	82.5
264.267	94.5
264.499	86.5
264.732	96.5
264.964	86.5
265.197	86.5
265.429	87.5
265.661	81.5
265.894	81.5
266.126	82.5
266.358	83.5
266.591	82.5
266.823	87.5
267.055	76.5
267.287	81.5
267.52	80.5
267.752	71.5
267.984	81.5
268.216	70.5
268.448	92.5
268.681	83.5
268.913	74.5
269.145	82.5
269.377	79.5
269.609	90.5
269.841	82.5
270.073	77.5
270.306	85.5
270.538	77.5
270.77	87.5
271.002	71.5
271.234	76.5
271.466	88.5
271.698	86.5
271.93	89.5
272.162	87.5
272.394	94.5
272.626	86.5
272.858	83.5
273.09	82.5
273.322	84.5
273.553	80.5
273.785	83.5
274.017	81.5
274.249	87.5
274.481	85.5
274.713	79.5
274.945	77.5
275.176	83.5
275.408	97.5
275.64	83.5
275.872	88.5
276.104	99.5
276.335	87.5
276.567	91.5
276.799	110.5
277.031	110.5
277.262	117.5
277.494	119.5
277.726	77.5
277.957	94.5
278.189	88.5
278.421	94.5
278.652	101.5
278.884	82.5
279.115	89.5
279.347	70.5
279.579	102.5
279.81	94.5
280.042	104.5
280.273	119.5
280.505	97.5
280.736	74.5
280.968	82.5
281.199	90.5
281.431	91.5
281.662	87.5
281.894	93.5
282.125	98.5
282.356	110.5
282.588	129.5
282.819	104.5
283.051	89.5
283.282	99.5
283.513	77.5
283.745	84.5
283.976	84.5
284.207	82.5
284.439	82.5
284.67	96.5
284.901	77.5
285.132	85.5
285.364	80.5
285.595	87.5
285.826	90.5
286.057	88.5
286.288	94.5
286.52	99.5
286.751	100.5
286.982	85.5
287.213	83.5
287.444	100.5
287.675	86.5
287.906	97.5
288.138	85.5
288.369	94.5
288.6	77.5
288.831	84.5
289.062	88.5
289.293	88.5
289.524	82.5
289.755	77.5
289.986	89.5
290.217	98.5
290.448	92.5
290.679	82.5
290.91	90.5
291.141	87.5
291.371	82.5
291.602	84.5
291.833	84.5
292.064	85.5
292.295	91.5
292.526	87.5
292.757	86.5
292.987	84.5
293.218	91.5
293.449	87.5
293.68	101.5
293.91	81.5
294.141	94.5
294.372	82.5
294.603	93.5
294.833	93.5
295.064	89.5
295.295	90.5
295.525	96.5
295.756	105.5
295.987	109.5
296.217	138.5
296.448	125.5
296.679	104.5
296.909	83.5
297.14	84.5
297.37	90.5
297.601	81.5
297.831	94.5
298.062	100.5
298.292	83.5
298.523	93.5
298.753	85.5
298.984	81.5
299.214	84.5
299.445	114.5
299.675	79.5
299.905	90.5
300.136	87.5
300.366	86.5
300.597	85.5
300.827	89.5
301.057	102.5
301.288	103.5
301.518	90.5
301.748	84.5
301.979	108.5
302.209	98.5
302.439	85.5
302.669	90.5
302.9	102.5
303.13	78.5
303.36	88.5
303.59	103.5
303.82	99.5
304.051	94.5
304.281	92.5
304.511	90.5
304.741	66.5
304.971	72.5
305.201	88.5
305.431	83.5
305.661	97.5
305.891	87.5
306.121	82.5
306.352	104.5
306.582	100.5
306.812	108.5
307.042	107.5
307.272	98.5
307.502	113.5
307.731	111.5
307.961	97.5
308.191	97.5
308.421	87.5
308.651	97.5
308.881	86.5
309.111	100.5
309.341	84.5
309.571	87.5
309.8	90.5
310.03	99.5
310.26	88.5
310.49	95.5
310.72	118.5
310.949	95.5
311.179	90.5
311.409	97.5
311.639	90.5
311.868	97.5
312.098	104.5
312.328	95.5
312.557	90.5
312.787	95.5
313.017	101.5
313.246	95.5
313.476	91.5
313.706	88.5
313.935	76.5
314.165	103.5
314.394	93.5
314.624	87.5
314.853	94.5
315.083	89.5
315.312	97.5
315.542	81.5
315.771	87.5
316.001	85.5
316.23	108.5
316.46	77.5
316.689	85.5
316.919	101.5
317.148	89.5
317.377	75.5
317.607	94.5
317.836	90.5
318.065	86.5
318.295	84.5
318.524	99.5
318.753	90.5
318.983	81.5
319.212	91.5
319.441	112.5
319.67	95.5
319.9	82.5
320.129	97.5
320.358	79.5
320.587	92.5
320.816	101.5
321.046	113.5
321.275	105.5
321.504	100.5
321.733	95.5
321.962	99.5
322.191	93.5
322.42	112.5
322.649	114.5
322.878	114.5
323.108	121.5
323.337	135.5
323.566	145.5
323.795	151.5
324.024	210.5
324.253	404.5
324.482	869.5
324.71	1792.5
324.939	2372.5
325.168	858.5
325.397	252.5
325.626	136.5
325.855	137.5
326.084	146.5
326.313	144.5
326.542	156.5
326.77	239.5
326.999	500.5
327.228	997.5
327.457	1763.5
327.686	1414.5
327.914	408.5
328.143	261.5
328.372	237.5
328.6	176.5
328.829	135.5
329.058	147.5
329.287	142.5
329.515	128.5
329.744	144.5
329.972	184.5
330.201	301.5
330.43	410.5
330.658	228.5
330.887	164.5
331.115	133.5
331.344	95.5
331.572	94.5
331.801	121.5
332.03	111.5
332.258	92.5
332.486	92.5
332.715	74.5
332.943	92.5
333.172	95.5
333.4	91.5
333.629	118.5
333.857	125.5
334.085	184.5
334.314	298.5
334.542	517.5
334.771	471.5
334.999	189.5
335.227	111.5
335.455	94.5
335.684	100.5
335.912	99.5
336.14	92.5
336.369	92.5
336.597	117.5
336.825	80.5
337.053	86.5
337.281	86.5
337.51	97.5
337.738	85.5
337.966	93.5
338.194	102.5
338.422	97.5
338.65	89.5
338.878	96.5
339.106	92.5
339.334	82.5
339.562	94.5
339.79	93.5
340.018	84.5
340.246	94.5
340.474	89.5
340.702	103.5
340.93	91.5
341.158	86.5
341.386	98.5
341.614	89.5
341.842	96.5
342.07	101.5
342.298	92.5
342.526	93.5
342.754	86.5
342.981	85.5
343.209	91.5
343.437	107.5
343.665	89.5
343.893	98.5
344.12	88.5
344.348	96.5
344.576	89.5
344.804	96.5
345.031	95.5
345.259	93.5
345.487	89.5
345.714	84.5
345.942	98.5
346.17	104.5
346.397	93.5
346.625	84.5
346.853	89.5
347.08	94.5
347.308	88.5
347.535	93.5
347.763	88.5
347.99	92.5
348.218	93.5
348.445	106.5
348.673	108.5
348.9	90.5
349.128	107.5
349.355	100.5
349.583	105.5
349.81	92.5
350.037	86.5
350.265	104.5
350.492	93.5
350.72	88.5
350.947	84.5
351.174	102.5
351.402	97.5
351.629	90.5
351.856	94.5
352.083	102.5
352.311	116.5
352.538	125.5
352.765	111.5
352.992	106.5
353.22	119.5
353.447	100.5
353.674	109.5
353.901	100.5
354.128	78.5
354.355	93.5
354.583	101.5
354.81	97.5
355.037	93.5
355.264	93.5
355.491	88.5
355.718	85.5
355.945	94.5
356.172	91.5
356.399	102.5
356.626	82.5
356.853	102.5
357.08	89.5
357.307	90.5
357.534	90.5
357.761	90.5
357.988	88.5
358.215	103.5
358.441	97.5
358.668	90.5
358.895	95.5
359.122	85.5
359.349	84.5
359.576	116.5
359.802	93.5
360.029	103.5
360.256	103.5
360.483	76.5
360.709	92.5
360.936	98.5
361.163	99.5
361.39	88.5
361.616	90.5
361.843	98.5
362.07	99.5
362.296	95.5
362.523	100.5
362.749	100.5
362.976	102.5
363.203	93.5
363.429	87.5
363.656	92.5
363.882	84.5
364.109	87.5
364.335	87.5
364.562	87.5
364.788	81.5
365.015	96.5
365.241	100.5
365.468	101.5
365.694	99.5
365.92	105.5
366.147	83.5
366.373	93.5
366.599	85.5
366.826	79.5
367.052	84.5
367.278	85.5
367.505	71.5
367.731	83.5
367.957	79.5
368.184	92.5
368.41	99.5
368.636	127.5
368.862	110.5
369.089	105.5
369.315	101.5
369.541	83.5
369.767	93.5
369.993	94.5
370.219	98.5
370.445	94.5
370.672	82.5
370.898	84.5
371.124	90.5
371.35	87.5
371.576	84.5
371.802	91.5
372.028	86.5
372.254	91.5
372.48	82.5
372.706	93.5
372.932	94.5
373.158	107.5
373.384	88.5
373.61	87.5
373.835	93.5
374.061	93.5
374.287	81.5
374.513	80.5
374.739	98.5
374.965	89.5
375.191	92.5
375.416	99.5
375.642	86.5
375.868	99.5
376.094	80.5
376.319	93.5
376.545	97.5
376.771	95.5
376.997	87.5
377.222	95.5
377.448	81.5
377.674	87.5
377.899	108.5
378.125	85.5
378.35	91.5
378.576	84.5
378.802	88.5
379.027	92.5
379.253	91.5
379.478	99.5
379.704	93.5
379.929	85.5
380.155	80.5
380.38	87.5
380.606	86.5
380.831	90.5
381.057	97.5
381.282	82.5
381.507	98.5
381.733	101.5
381.958	91.5
382.184	88.5
382.409	86.5
382.634	87.5
382.86	92.5
383.085	111.5
383.31	105.5
383.535	103.5
383.761	95.5
383.986	96.5
384.211	97.5
384.436	94.5
384.662	90.5
384.887	112.5
385.112	95.5
385.337	91.5
385.562	112.5
385.787	107.5
386.013	108.5
386.238	105.5
386.463	111.5
386.688	109.5
386.913	97.5
387.138	97.5
387.363	96.5
387.588	79.5
387.813	96.5
388.038	118.5
388.263	117.5
388.488	107.5
388.713	100.5
388.938	95.5
389.163	86.5
389.387	105.5
389.612	95.5
389.837	85.5
390.062	98.5
390.287	97.5
390.512	81.5
390.736	87.5
390.961	94.5
391.186	92.5
391.411	98.5
391.636	96.5
391.86	85.5
392.085	85.5
392.31	89.5
392.534	76.5
392.759	96.5
392.984	84.5
393.208	87.5
393.433	98.5
393.658	89.5
393.882	90.5
394.107	98.5
394.331	95.5
394.556	94.5
394.78	83.5
395.005	89.5
395.229	81.5
395.454	86.5
395.678	97.5
395.903	76.5
396.127	76.5
396.352	71.5
396.576	88.5
396.801	89.5
397.025	96.5
397.249	94.5
397.474	94.5
397.698	87.5
397.922	89.5
398.147	80.5
398.371	79.5
398.595	93.5
398.82	87.5
399.044	85.5
399.268	71.5
399.492	89.5
399.717	95.5
399.941	81.5
400.165	83.5
400.389	93.5
400.613	86.5
400.837	81.5
401.062	88.5
401.286	84.5
401.51	90.5
401.734	85.5
401.958	88.5
402.182	127.5
402.406	155.5
402.63	125.5
402.854	104.5
403.078	91.5
403.302	77.5
403.526	68.5
403.75	74.5
403.974	83.5
404.198	89.5
404.422	88.5
404.645	90.5
404.869	88.5
405.093	93.5
405.317	107.5
405.541	127.5
405.765	103.5
405.988	116.5
406.212	166.5
406.436	236.5
406.66	149.5
406.883	108.5
407.107	96.5
407.331	97.5
407.555	103.5
407.778	104.5
408.002	88.5
408.226	74.5
408.449	93.5
408.673	81.5
408.896	100.5
409.12	96.5
409.344	101.5
409.567	86.5
409.791	97.5
410.014	92.5
410.238	82.5
410.461	96.5
410.685	101.5
410.908	111.5
411.132	105.5
411.355	97.5
411.578	88.5
411.802	74.5
412.025	87.5
412.249	87.5
412.472	98.5
412.695	121.5
412.919	95.5
413.142	94.5
413.365	84.5
413.589	78.5
413.812	96.5
414.035	94.5
414.258	96.5
414.482	78.5
414.705	98.5
414.928	86.5
415.151	94.5
415.374	90.5
415.597	83.5
415.821	75.5
416.044	84.5
416.267	94.5
416.49	89.5
416.713	85.5
416.936	93.5
417.159	86.5
417.382	91.5
417.605	89.5
417.828	94.5
418.051	100.5
418.274	104.5
418.497	90.5
418.72	91.5
418.943	78.5
419.166	86.5
419.389	84.5
419.611	95.5
419.834	86.5
420.057	76.5
420.28	85.5
420.503	97.5
420.726	75.5
420.948	89.5
421.171	88.5
421.394	92.5
421.617	103.5
421.839	95.5
422.062	83.5
422.285	89.5
422.507	94.5
422.73	96.5
422.953	86.5
423.175	84.5
423.398	93.5
423.621	96.5
423.843	75.5
424.066	86.5
424.288	100.5
424.511	89.5
424.733	99.5
424.956	80.5
425.178	89.5
425.401	97.5
425.623	85.5
425.846	85.5
426.068	103.5
426.291	93.5
426.513	81.5
426.735	95.5
426.958	90.5
427.18	94.5
427.402	143.5
427.625	172.5
427.847	150.5
428.069	140.5
428.292	88.5
428.514	93.5
428.736	97.5
428.958	90.5
429.181	89.5
429.403	76.5
429.625	85.5
429.847	89.5
430.069	99.5
430.292	96.5
430.514	84.5
430.736	83.5
430.958	91.5
431.18	90.5
431.402	96.5
431.624	96.5
431.846	89.5
432.068	92.5
432.29	84.5
432.512	85.5
432.734	82.5
432.956	89.5
433.178	98.5
433.4	88.5
433.622	93.5
433.844	80.5
434.066	93.5
434.287	89.5
434.509	101.5
434.731	86.5
434.953	98.5
435.175	90.5
435.397	98.5
435.618	103.5
435.84	119.5
436.062	126.5
436.284	129.5
436.505	89.5
436.727	88.5
436.949	101.5
437.17	109.5
437.392	88.5
437.614	89.5
437.835	98.5
438.057	113.5
438.278	119.5
438.5	129.5
438.721	118.5
438.943	105.5
439.165	86.5
439.386	90.5
439.608	102.5
439.829	108.5
440.05	135.5
440.272	130.5
440.493	108.5
440.715	88.5
440.936	93.5
441.158	89.5
441.379	82.5
441.6	94.5
441.822	92.5
442.043	109.5
442.264	95.5
442.486	94.5
442.707	94.5
442.928	111.5
443.149	128.5
443.371	119.5
443.592	109.5
443.813	109.5
444.034	106.5
444.255	100.5
444.476	84.5
444.698	105.5
444.919	98.5
445.14	145.5
445.361	121.5
445.582	101.5
445.803	159.5
446.024	114.5
446.245	137.5
446.466	116.5
446.687	99.5
446.908	74.5
447.129	89.5
447.35	87.5
447.571	97.5
447.792	88.5
448.013	93.5
448.234	106.5
448.455	100.5
448.675	100.5
448.896	122.5
449.117	88.5
449.338	103.5
449.559	122.5
449.779	128.5
450	86.5
450.221	90.5
450.442	90.5
450.662	101.5
450.883	116.5
451.104	114.5
451.324	89.5
451.545	80.5
451.766	93.5
451.986	97.5
452.207	89.5
452.428	81.5
452.648	100.5
452.869	117.5
453.089	120.5
453.31	126.5
453.53	105.5
453.751	70.5
453.971	98.5
454.192	108.5
454.412	108.5
454.633	82.5
454.853	89.5
455.073	82.5
455.294	95.5
455.514	88.5
455.734	86.5
455.955	92.5
456.175	101.5
456.395	82.5
456.616	77.5
456.836	85.5
457.056	97.5
457.276	86.5
457.497	94.5
457.717	85.5
457.937	76.5
458.157	90.5
458.377	90.5
458.598	105.5
458.818	150.5
459.038	172.5
459.258	123.5
459.478	94.5
459.698	88.5
459.918	94.5
460.138	81.5
460.358	85.5
460.578	89.5
460.798	79.5
461.018	87.5
461.238	89.5
461.458	83.5
461.678	71.5
461.898	74.5
462.118	92.5
462.338	79.5
462.558	85.5
462.777	90.5
462.997	82.5
463.217	90.5
463.437	88.5
463.657	83.5
463.876	77.5
464.096	93.5
464.316	105.5
464.536	81.5
464.755	92.5
464.975	103.5
465.195	157.5
465.414	159.5
465.634	102.5
465.854	89.5
466.073	80.5
466.293	89.5
466.512	95.5
466.732	86.5
466.951	88.5
467.171	84.5
467.391	100.5
467.61	120.5
467.829	122.5
468.049	218.5
468.268	268.5
468.488	108.5
468.707	112.5
468.927	100.5
469.146	81.5
469.365	70.5
469.585	90.5
469.804	95.5
470.023	92.5
470.243	97.5
470.462	112.5
470.681	112.5
470.901	91.5
471.12	93.5
471.339	82.5
471.558	90.5
471.777	98.5
471.997	144.5
472.216	379.5
472.435	731.5
472.654	217.5
472.873	113.5
473.092	101.5
473.311	93.5
473.53	100.5
473.749	89.5
473.968	107.5
474.187	92.5
474.406	101.5
474.625	85.5
474.844	84.5
475.063	87.5
475.282	86.5
475.501	84.5
475.72	82.5
475.939	99.5
476.158	91.5
476.377	85.5
476.596	88.5
476.814	92.5
477.033	85.5
477.252	90.5
477.471	88.5
477.69	89.5
477.908	102.5
478.127	97.5
478.346	88.5
478.564	89.5
478.783	87.5
479.002	101.5
479.22	99.5
479.439	108.5
479.658	117.5
479.876	100.5
480.095	105.5
480.313	100.5
480.532	111.5
480.751	152.5
480.969	338.5
481.188	1182.5
481.406	718.5
481.624	166.5
481.843	97.5
482.061	86.5
482.28	94.5
482.498	81.5
482.717	88.5
482.935	85.5
483.153	91.5
483.372	100.5
483.59	105.5
483.808	92.5
484.027	81.5
484.245	107.5
484.463	93.5
484.681	89.5
484.9	94.5
485.118	104.5
485.336	92.5
485.554	86.5
485.772	97.5
485.99	101.5
486.209	110.5
486.427	96.5
486.645	115.5
486.863	101.5
487.081	110.5
487.299	96.5
487.517	103.5
487.735	70.5
487.953	95.5
488.171	113.5
488.389	104.5
488.607	93.5
488.825	90.5
489.043	81.5
489.261	83.5
489.479	94.5
489.696	87.5
489.914	78.5
490.132	68.5
490.35	90.5
490.568	83.5
490.786	84.5
491.003	93.5
491.221	89.5
491.439	91.5
491.657	88.5
491.874	92.5
492.092	84.5
492.31	98.5
492.527	84.5
492.745	87.5
492.963	88.5
493.18	88.5
493.398	99.5
493.615	91.5
493.833	91.5
494.05	78.5
494.268	81.5
494.485	92.5
494.703	82.5
494.92	99.5
495.138	87.5
495.355	81.5
495.573	101.5
495.79	84.5
496.008	92.5
496.225	85.5
496.442	97.5
496.66	90.5
496.877	92.5
497.094	89.5
497.312	83.5
497.529	92.5
497.746	93.5
497.963	79.5
498.181	93.5
498.398	90.5
498.615	106.5
498.832	92.5
499.049	100.5
499.267	101.5
499.484	95.5
499.701	98.5
499.918	93.5
500.135	79.5
500.352	85.5
500.569	95.5
500.786	94.5
501.003	103.5
501.22	99.5
501.437	87.5
501.654	88.5
501.871	106.5
502.088	97.5
502.305	98.5
502.522	93.5
502.739	78.5
502.956	101.5
503.172	77.5
503.389	93.5
503.606	99.5
503.823	97.5
504.04	99.5
504.256	79.5
504.473	83.5
504.69	79.5
504.907	109.5
505.123	86.5
505.34	77.5
505.557	87.5
505.773	92.5
505.99	82.5
506.207	87.5
506.423	100.5
506.64	100.5
506.856	92.5
507.073	87.5
507.289	90.5
507.506	92.5
507.722	112.5
507.939	126.5
508.155	95.5
508.372	85.5
508.588	101.5
508.805	81.5
509.021	103.5
509.238	94.5
509.454	94.5
509.67	92.5
509.887	106.5
510.103	139.5
510.319	213.5
510.536	765.5
510.752	2362.5
510.968	665.5
511.184	151.5
511.401	110.5
511.617	98.5
511.833	76.5
512.049	95.5
512.265	95.5
512.481	89.5
512.698	85.5
512.914	90.5
513.13	108.5
513.346	88.5
513.562	99.5
513.778	86.5
513.994	92.5
514.21	99.5
514.426	105.5
514.642	135.5
514.858	130.5
515.074	178.5
515.29	508.5
515.506	1606.5
515.721	586.5
515.937	173.5
516.153	119.5
516.369	92.5
516.585	93.5
516.801	95.5
517.016	86.5
517.232	95.5
517.448	99.5
517.664	95.5
517.879	98.5
518.095	99.5
518.311	80.5
518.527	99.5
518.742	83.5
518.958	93.5
519.173	86.5
519.389	106.5
519.605	100.5
519.82	91.5
520.036	109.5
520.251	121.5
520.467	112.5
520.682	98.5
520.898	126.5
521.113	114.5
521.329	150.5
521.544	219.5
521.76	631.5
521.975	2672.5
522.19	1617.5
522.406	344.5
522.621	142.5
522.836	104.5
523.052	92.5
523.267	95.5
523.482	84.5
523.698	93.5
523.913	144.5
524.128	113.5
524.343	98.5
524.559	89.5
524.774	88.5
524.989	102.5
525.204	91.5
525.419	112.5
525.634	86.5
525.849	79.5
526.064	92.5
526.28	98.5
526.495	95.5
526.71	102.5
526.925	93.5
527.14	86.5
527.355	83.5
527.57	94.5
527.785	98.5
527.999	84.5
528.214	88.5
528.429	96.5
528.644	96.5
528.859	85.5
529.074	92.5
529.289	109.5
529.503	177.5
529.718	102.5
529.933	93.5
530.148	92.5
530.363	89.5
530.577	88.5
530.792	99.5
531.007	91.5
531.221	95.5
531.436	86.5
531.651	89.5
531.865	103.5
532.08	96.5
532.295	96.5
532.509	92.5
532.724	95.5
532.938	91.5
533.153	93.5
533.367	82.5
533.582	102.5
533.796	104.5
534.011	96.5
534.225	89.5
534.44	85.5
534.654	114.5
534.868	96.5
535.083	92.5
