Data from Circ_2004_H10_HRD10591_00078.txt Node
Date: Wed Jan 03 10:33:29 EST 2024
User: Yrep
Spectrometer: HR+D1059
Trigger mode: 1
Integration Time (sec): 1.000000E-1
Scans to average: 1
Electric dark correction enabled: true
Nonlinearity correction enabled: false
Boxcar width: 0
XAxis mode: Wavelengths
Number of Pixels in Spectrum: 2048
>>>>>Begin Spectral Data<<<<<
223.165	-9.56
223.4	-9.56
223.635	-9.56
223.869	-24.56
224.104	-17.56
224.338	-23.56
224.573	-13.56
224.808	-16.56
225.042	-13.56
225.277	-3.56
225.511	-4.56
225.746	9.44
225.98	8.44
226.215	10.44
226.449	18.44
226.683	23.44
226.918	19.44
227.152	37.44
227.387	31.44
227.621	43.44
227.856	31.44
228.09	35.44
228.324	46.44
228.559	61.44
228.793	56.44
229.027	56.44
229.262	65.44
229.496	79.44
229.73	88.44
229.964	88.44
230.199	72.44
230.433	87.44
230.667	89.44
230.901	81.44
231.136	83.44
231.37	73.44
231.604	82.44
231.838	74.44
232.072	76.44
232.306	81.44
232.541	69.44
232.775	86.44
233.009	86.44
233.243	90.44
233.477	87.44
233.711	81.44
233.945	81.44
234.179	85.44
234.413	83.44
234.647	91.44
234.881	72.44
235.115	85.44
235.349	86.44
235.583	82.44
235.817	85.44
236.051	86.44
236.285	77.44
236.519	90.44
236.753	86.44
236.987	85.44
237.221	83.44
237.455	95.44
237.689	70.44
237.922	75.44
238.156	80.44
238.39	85.44
238.624	78.44
238.858	88.44
239.091	84.44
239.325	79.44
239.559	90.44
239.793	59.44
240.027	83.44
240.26	85.44
240.494	79.44
240.728	99.44
240.961	76.44
241.195	97.44
241.429	80.44
241.662	85.44
241.896	66.44
242.13	87.44
242.363	67.44
242.597	83.44
242.83	90.44
243.064	88.44
243.298	84.44
243.531	79.44
243.765	76.44
243.998	73.44
244.232	82.44
244.465	79.44
244.699	77.44
244.932	72.44
245.166	85.44
245.399	93.44
245.633	67.44
245.866	74.44
246.099	73.44
246.333	91.44
246.566	89.44
246.8	84.44
247.033	91.44
247.266	83.44
247.5	87.44
247.733	75.44
247.966	76.44
248.2	88.44
248.433	74.44
248.666	85.44
248.899	87.44
249.133	91.44
249.366	103.44
249.599	88.44
249.832	85.44
250.066	90.44
250.299	90.44
250.532	89.44
250.765	80.44
250.998	71.44
251.231	87.44
251.465	67.44
251.698	73.44
251.931	74.44
252.164	86.44
252.397	86.44
252.63	75.44
252.863	89.44
253.096	89.44
253.329	84.44
253.562	86.44
253.795	71.44
254.028	87.44
254.261	96.44
254.494	90.44
254.727	89.44
254.96	86.44
255.193	76.44
255.426	93.44
255.659	82.44
255.892	94.44
256.124	89.44
256.357	77.44
256.59	89.44
256.823	80.44
257.056	96.44
257.289	87.44
257.521	79.44
257.754	73.44
257.987	82.44
258.22	97.44
258.452	94.44
258.685	94.44
258.918	81.44
259.151	72.44
259.383	75.44
259.616	94.44
259.849	65.44
260.081	73.44
260.314	80.44
260.547	81.44
260.779	83.44
261.012	88.44
261.244	95.44
261.477	89.44
261.71	90.44
261.942	102.44
262.175	122.44
262.407	101.44
262.64	90.44
262.872	83.44
263.105	101.44
263.337	74.44
263.57	84.44
263.802	91.44
264.035	72.44
264.267	86.44
264.499	81.44
264.732	78.44
264.964	74.44
265.197	81.44
265.429	68.44
265.661	79.44
265.894	94.44
266.126	89.44
266.358	97.44
266.591	85.44
266.823	73.44
267.055	83.44
267.287	91.44
267.52	83.44
267.752	101.44
267.984	75.44
268.216	85.44
268.448	88.44
268.681	69.44
268.913	89.44
269.145	80.44
269.377	87.44
269.609	86.44
269.841	95.44
270.073	97.44
270.306	86.44
270.538	85.44
270.77	88.44
271.002	86.44
271.234	89.44
271.466	88.44
271.698	97.44
271.93	89.44
272.162	101.44
272.394	96.44
272.626	73.44
272.858	86.44
273.09	74.44
273.322	85.44
273.553	97.44
273.785	73.44
274.017	85.44
274.249	75.44
274.481	79.44
274.713	87.44
274.945	78.44
275.176	86.44
275.408	96.44
275.64	83.44
275.872	102.44
276.104	86.44
276.335	85.44
276.567	98.44
276.799	121.44
277.031	127.44
277.262	127.44
277.494	95.44
277.726	77.44
277.957	107.44
278.189	87.44
278.421	86.44
278.652	81.44
278.884	97.44
279.115	72.44
279.347	87.44
279.579	91.44
279.81	109.44
280.042	125.44
280.273	143.44
280.505	117.44
280.736	78.44
280.968	92.44
281.199	75.44
281.431	94.44
281.662	86.44
281.894	94.44
282.125	102.44
282.356	117.44
282.588	141.44
282.819	113.44
283.051	91.44
283.282	93.44
283.513	94.44
283.745	89.44
283.976	89.44
284.207	89.44
284.439	96.44
284.67	95.44
284.901	84.44
285.132	95.44
285.364	77.44
285.595	75.44
285.826	94.44
286.057	74.44
286.288	88.44
286.52	83.44
286.751	85.44
286.982	90.44
287.213	92.44
287.444	82.44
287.675	87.44
287.906	89.44
288.138	80.44
288.369	103.44
288.6	86.44
288.831	101.44
289.062	89.44
289.293	91.44
289.524	92.44
289.755	90.44
289.986	89.44
290.217	90.44
290.448	90.44
290.679	100.44
290.91	91.44
291.141	89.44
291.371	87.44
291.602	84.44
291.833	85.44
292.064	99.44
292.295	82.44
292.526	96.44
292.757	84.44
292.987	94.44
293.218	98.44
293.449	100.44
293.68	75.44
293.91	86.44
294.141	82.44
294.372	79.44
294.603	106.44
294.833	90.44
295.064	93.44
295.295	90.44
295.525	91.44
295.756	98.44
295.987	104.44
296.217	143.44
296.448	146.44
296.679	110.44
296.909	96.44
297.14	92.44
297.37	97.44
297.601	91.44
297.831	90.44
298.062	107.44
298.292	102.44
298.523	81.44
298.753	85.44
298.984	86.44
299.214	99.44
299.445	97.44
299.675	91.44
299.905	96.44
300.136	93.44
300.366	98.44
300.597	97.44
300.827	94.44
301.057	115.44
301.288	114.44
301.518	98.44
301.748	96.44
301.979	112.44
302.209	106.44
302.439	90.44
302.669	91.44
302.9	103.44
303.13	81.44
303.36	96.44
303.59	105.44
303.82	106.44
304.051	102.44
304.281	90.44
304.511	84.44
304.741	100.44
304.971	80.44
305.201	93.44
305.431	98.44
305.661	85.44
305.891	99.44
306.121	89.44
306.352	102.44
306.582	108.44
306.812	108.44
307.042	111.44
307.272	126.44
307.502	129.44
307.731	111.44
307.961	131.44
308.191	110.44
308.421	98.44
308.651	99.44
308.881	97.44
309.111	88.44
309.341	98.44
309.571	87.44
309.8	90.44
310.03	98.44
310.26	97.44
310.49	88.44
310.72	97.44
310.949	110.44
311.179	97.44
311.409	86.44
311.639	90.44
311.868	89.44
312.098	92.44
312.328	97.44
312.557	110.44
312.787	110.44
313.017	103.44
313.246	97.44
313.476	98.44
313.706	103.44
313.935	101.44
314.165	114.44
314.394	91.44
314.624	109.44
314.853	99.44
315.083	97.44
315.312	104.44
315.542	86.44
315.771	78.44
316.001	102.44
316.23	84.44
316.46	80.44
316.689	89.44
316.919	91.44
317.148	112.44
317.377	84.44
317.607	96.44
317.836	106.44
318.065	84.44
318.295	87.44
318.524	90.44
318.753	86.44
318.983	99.44
319.212	111.44
319.441	102.44
319.67	110.44
319.9	93.44
320.129	87.44
320.358	93.44
320.587	101.44
320.816	105.44
321.046	103.44
321.275	97.44
321.504	106.44
321.733	105.44
321.962	93.44
322.191	111.44
322.42	121.44
322.649	118.44
322.878	121.44
323.108	123.44
323.337	149.44
323.566	148.44
323.795	166.44
324.024	231.44
324.253	454.44
324.482	959.44
324.71	2090.44
324.939	2712.44
325.168	983.44
325.397	267.44
325.626	154.44
325.855	143.44
326.084	140.44
326.313	135.44
326.542	173.44
326.77	264.44
326.999	531.44
327.228	1117.44
327.457	2030.44
327.686	1639.44
327.914	468.44
328.143	339.44
328.372	371.44
328.6	228.44
328.829	157.44
329.058	143.44
329.287	177.44
329.515	152.44
329.744	159.44
329.972	253.44
330.201	479.44
330.43	709.44
330.658	337.44
330.887	200.44
331.115	153.44
331.344	113.44
331.572	111.44
331.801	116.44
332.03	117.44
332.258	98.44
332.486	98.44
332.715	94.44
332.943	97.44
333.172	106.44
333.4	110.44
333.629	117.44
333.857	160.44
334.085	247.44
334.314	475.44
334.542	888.44
334.771	816.44
334.999	258.44
335.227	141.44
335.455	115.44
335.684	112.44
335.912	99.44
336.14	114.44
336.369	106.44
336.597	102.44
336.825	98.44
337.053	101.44
337.281	89.44
337.51	81.44
337.738	88.44
337.966	88.44
338.194	105.44
338.422	117.44
338.65	88.44
338.878	103.44
339.106	104.44
339.334	88.44
339.562	96.44
339.79	83.44
340.018	93.44
340.246	97.44
340.474	101.44
340.702	86.44
340.93	94.44
341.158	94.44
341.386	95.44
341.614	90.44
341.842	94.44
342.07	90.44
342.298	91.44
342.526	96.44
342.754	90.44
342.981	90.44
343.209	97.44
343.437	100.44
343.665	88.44
343.893	83.44
344.12	106.44
344.348	78.44
344.576	93.44
344.804	102.44
345.031	119.44
345.259	115.44
345.487	104.44
345.714	79.44
345.942	113.44
346.17	97.44
346.397	109.44
346.625	93.44
346.853	90.44
347.08	95.44
347.308	97.44
347.535	97.44
347.763	112.44
347.99	104.44
348.218	106.44
348.445	119.44
348.673	105.44
348.9	108.44
349.128	103.44
349.355	97.44
349.583	100.44
349.81	96.44
350.037	85.44
350.265	107.44
350.492	95.44
350.72	107.44
350.947	113.44
351.174	116.44
351.402	113.44
351.629	102.44
351.856	110.44
352.083	103.44
352.311	116.44
352.538	125.44
352.765	117.44
352.992	112.44
353.22	110.44
353.447	83.44
353.674	117.44
353.901	92.44
354.128	117.44
354.355	102.44
354.583	101.44
354.81	86.44
355.037	105.44
355.264	95.44
355.491	97.44
355.718	88.44
355.945	94.44
356.172	89.44
356.399	95.44
356.626	93.44
356.853	95.44
357.08	96.44
357.307	91.44
357.534	90.44
357.761	86.44
357.988	102.44
358.215	103.44
358.441	107.44
358.668	93.44
358.895	91.44
359.122	91.44
359.349	86.44
359.576	88.44
359.802	105.44
360.029	114.44
360.256	137.44
360.483	112.44
360.709	97.44
360.936	97.44
361.163	100.44
361.39	94.44
361.616	99.44
361.843	102.44
362.07	103.44
362.296	94.44
362.523	105.44
362.749	87.44
362.976	83.44
363.203	87.44
363.429	82.44
363.656	99.44
363.882	95.44
364.109	96.44
364.335	91.44
364.562	107.44
364.788	83.44
365.015	80.44
365.241	111.44
365.468	112.44
365.694	116.44
365.92	99.44
366.147	93.44
366.373	77.44
366.599	93.44
366.826	104.44
367.052	94.44
367.278	89.44
367.505	90.44
367.731	90.44
367.957	88.44
368.184	99.44
368.41	116.44
368.636	118.44
368.862	121.44
369.089	113.44
369.315	101.44
369.541	73.44
369.767	95.44
369.993	88.44
370.219	93.44
370.445	96.44
370.672	90.44
370.898	85.44
371.124	88.44
371.35	99.44
371.576	89.44
371.802	99.44
372.028	83.44
372.254	90.44
372.48	88.44
372.706	85.44
372.932	86.44
373.158	100.44
373.384	86.44
373.61	85.44
373.835	96.44
374.061	92.44
374.287	87.44
374.513	99.44
374.739	89.44
374.965	77.44
375.191	85.44
375.416	100.44
375.642	82.44
375.868	86.44
376.094	103.44
376.319	95.44
376.545	87.44
376.771	95.44
376.997	70.44
377.222	96.44
377.448	101.44
377.674	89.44
377.899	93.44
378.125	97.44
378.35	82.44
378.576	90.44
378.802	80.44
379.027	79.44
379.253	86.44
379.478	88.44
379.704	90.44
379.929	82.44
380.155	97.44
380.38	99.44
380.606	88.44
380.831	90.44
381.057	95.44
381.282	85.44
381.507	95.44
381.733	113.44
381.958	99.44
382.184	104.44
382.409	106.44
382.634	83.44
382.86	98.44
383.085	95.44
383.31	98.44
383.535	97.44
383.761	97.44
383.986	94.44
384.211	98.44
384.436	97.44
384.662	102.44
384.887	106.44
385.112	89.44
385.337	91.44
385.562	100.44
385.787	91.44
386.013	114.44
386.238	115.44
386.463	99.44
386.688	89.44
386.913	86.44
387.138	103.44
387.363	101.44
387.588	89.44
387.813	88.44
388.038	113.44
388.263	107.44
388.488	106.44
388.713	97.44
388.938	83.44
389.163	99.44
389.387	90.44
389.612	83.44
389.837	97.44
390.062	88.44
390.287	92.44
390.512	94.44
390.736	88.44
390.961	89.44
391.186	97.44
391.411	87.44
391.636	93.44
391.86	95.44
392.085	90.44
392.31	84.44
392.534	92.44
392.759	82.44
392.984	100.44
393.208	91.44
393.433	90.44
393.658	88.44
393.882	94.44
394.107	80.44
394.331	101.44
394.556	81.44
394.78	92.44
395.005	96.44
395.229	81.44
395.454	96.44
395.678	77.44
395.903	97.44
396.127	77.44
396.352	104.44
396.576	85.44
396.801	77.44
397.025	80.44
397.249	76.44
397.474	92.44
397.698	82.44
397.922	86.44
398.147	82.44
398.371	88.44
398.595	84.44
398.82	86.44
399.044	82.44
399.268	79.44
399.492	81.44
399.717	90.44
399.941	100.44
400.165	87.44
400.389	82.44
400.613	92.44
400.837	95.44
401.062	101.44
401.286	88.44
401.51	97.44
401.734	93.44
401.958	96.44
402.182	130.44
402.406	149.44
402.63	126.44
402.854	96.44
403.078	93.44
403.302	84.44
403.526	81.44
403.75	88.44
403.974	95.44
404.198	102.44
404.422	95.44
404.645	89.44
404.869	85.44
405.093	117.44
405.317	130.44
405.541	121.44
405.765	107.44
405.988	115.44
406.212	179.44
406.436	267.44
406.66	178.44
406.883	127.44
407.107	97.44
407.331	109.44
407.555	102.44
407.778	100.44
408.002	94.44
408.226	91.44
408.449	85.44
408.673	97.44
408.896	107.44
409.12	97.44
409.344	93.44
409.567	96.44
409.791	87.44
410.014	94.44
410.238	82.44
410.461	101.44
410.685	90.44
410.908	106.44
411.132	114.44
411.355	96.44
411.578	89.44
411.802	90.44
412.025	83.44
412.249	80.44
412.472	98.44
412.695	115.44
412.919	105.44
413.142	101.44
413.365	92.44
413.589	88.44
413.812	87.44
414.035	95.44
414.258	91.44
414.482	101.44
414.705	105.44
414.928	101.44
415.151	103.44
415.374	91.44
415.597	85.44
415.821	102.44
416.044	93.44
416.267	85.44
416.49	90.44
416.713	93.44
416.936	79.44
417.159	85.44
417.382	95.44
417.605	101.44
417.828	104.44
418.051	87.44
418.274	97.44
418.497	95.44
418.72	87.44
418.943	87.44
419.166	91.44
419.389	87.44
419.611	74.44
419.834	93.44
420.057	96.44
420.28	93.44
420.503	84.44
420.726	78.44
420.948	89.44
421.171	111.44
421.394	95.44
421.617	88.44
421.839	92.44
422.062	89.44
422.285	84.44
422.507	95.44
422.73	95.44
422.953	90.44
423.175	93.44
423.398	74.44
423.621	88.44
423.843	81.44
424.066	87.44
424.288	88.44
424.511	99.44
424.733	111.44
424.956	115.44
425.178	122.44
425.401	102.44
425.623	95.44
425.846	101.44
426.068	100.44
426.291	85.44
426.513	104.44
426.735	98.44
426.958	98.44
427.18	109.44
427.402	151.44
427.625	203.44
427.847	194.44
428.069	187.44
428.292	117.44
428.514	80.44
428.736	81.44
428.958	86.44
429.181	84.44
429.403	100.44
429.625	86.44
429.847	103.44
430.069	117.44
430.292	99.44
430.514	93.44
430.736	94.44
430.958	93.44
431.18	90.44
431.402	82.44
431.624	96.44
431.846	77.44
432.068	94.44
432.29	85.44
432.512	101.44
432.734	88.44
432.956	93.44
433.178	99.44
433.4	101.44
433.622	80.44
433.844	89.44
434.066	90.44
434.287	91.44
434.509	81.44
434.731	93.44
434.953	94.44
435.175	89.44
435.397	96.44
435.618	98.44
435.84	108.44
436.062	147.44
436.284	128.44
436.505	102.44
436.727	110.44
436.949	93.44
437.17	91.44
437.392	97.44
437.614	94.44
437.835	114.44
438.057	124.44
438.278	114.44
438.5	119.44
438.721	133.44
438.943	105.44
439.165	83.44
439.386	98.44
439.608	83.44
439.829	116.44
440.05	129.44
440.272	162.44
440.493	97.44
440.715	95.44
440.936	90.44
441.158	93.44
441.379	105.44
441.6	111.44
441.822	99.44
442.043	73.44
442.264	109.44
442.486	116.44
442.707	90.44
442.928	109.44
443.149	151.44
443.371	144.44
443.592	105.44
443.813	115.44
444.034	110.44
444.255	99.44
444.476	86.44
444.698	84.44
444.919	99.44
445.14	143.44
445.361	137.44
445.582	127.44
445.803	179.44
446.024	161.44
446.245	150.44
446.466	109.44
446.687	100.44
446.908	85.44
447.129	91.44
447.35	86.44
447.571	87.44
447.792	91.44
448.013	100.44
448.234	110.44
448.455	94.44
448.675	122.44
448.896	127.44
449.117	103.44
449.338	109.44
449.559	128.44
449.779	157.44
450	108.44
450.221	75.44
450.442	87.44
450.662	98.44
450.883	100.44
451.104	118.44
451.324	90.44
451.545	96.44
451.766	98.44
451.986	91.44
452.207	83.44
452.428	100.44
452.648	100.44
452.869	116.44
453.089	126.44
453.31	119.44
453.53	99.44
453.751	93.44
453.971	102.44
454.192	114.44
454.412	112.44
454.633	97.44
454.853	79.44
455.073	80.44
455.294	80.44
455.514	110.44
455.734	98.44
455.955	79.44
456.175	93.44
456.395	91.44
456.616	81.44
456.836	91.44
457.056	81.44
457.276	84.44
457.497	91.44
457.717	89.44
457.937	101.44
458.157	77.44
458.377	96.44
458.598	123.44
458.818	182.44
459.038	175.44
459.258	135.44
459.478	85.44
459.698	93.44
459.918	102.44
460.138	94.44
460.358	95.44
460.578	70.44
460.798	101.44
461.018	91.44
461.238	90.44
461.458	95.44
461.678	91.44
461.898	84.44
462.118	87.44
462.338	93.44
462.558	83.44
462.777	84.44
462.997	91.44
463.217	100.44
463.437	102.44
463.657	82.44
463.876	90.44
464.096	102.44
464.316	94.44
464.536	104.44
464.755	105.44
464.975	108.44
465.195	189.44
465.414	198.44
465.634	96.44
465.854	93.44
466.073	87.44
466.293	90.44
466.512	94.44
466.732	92.44
466.951	95.44
467.171	104.44
467.391	109.44
467.61	120.44
467.829	156.44
468.049	310.44
468.268	422.44
468.488	132.44
468.707	86.44
468.927	94.44
469.146	98.44
469.365	97.44
469.585	112.44
469.804	99.44
470.023	109.44
470.243	94.44
470.462	110.44
470.681	115.44
470.901	99.44
471.12	96.44
471.339	97.44
471.558	103.44
471.777	105.44
471.997	192.44
472.216	564.44
472.435	1184.44
472.654	312.44
472.873	112.44
473.092	82.44
473.311	91.44
473.53	91.44
473.749	87.44
473.968	101.44
474.187	112.44
474.406	102.44
474.625	86.44
474.844	70.44
475.063	85.44
475.282	91.44
475.501	78.44
475.72	85.44
475.939	82.44
476.158	88.44
476.377	95.44
476.596	82.44
476.814	107.44
477.033	97.44
477.252	88.44
477.471	86.44
477.69	100.44
477.908	93.44
478.127	90.44
478.346	93.44
478.564	102.44
478.783	97.44
479.002	96.44
479.22	103.44
479.439	109.44
479.658	132.44
479.876	103.44
480.095	123.44
480.313	110.44
480.532	120.44
480.751	193.44
480.969	541.44
481.188	2037.44
481.406	1253.44
481.624	210.44
481.843	95.44
482.061	83.44
482.28	94.44
482.498	85.44
482.717	105.44
482.935	103.44
483.153	93.44
483.372	78.44
483.59	94.44
483.808	92.44
484.027	96.44
484.245	87.44
484.463	81.44
484.681	96.44
484.9	100.44
485.118	91.44
485.336	87.44
485.554	89.44
485.772	112.44
485.99	104.44
486.209	81.44
486.427	100.44
486.645	108.44
486.863	109.44
487.081	99.44
487.299	102.44
487.517	107.44
487.735	99.44
487.953	105.44
488.171	78.44
488.389	96.44
488.607	102.44
488.825	101.44
489.043	96.44
489.261	82.44
489.479	83.44
489.696	77.44
489.914	91.44
490.132	75.44
490.35	88.44
490.568	90.44
490.786	85.44
491.003	81.44
491.221	99.44
491.439	80.44
491.657	87.44
491.874	94.44
492.092	102.44
492.31	101.44
492.527	97.44
492.745	89.44
492.963	99.44
493.18	91.44
493.398	91.44
493.615	91.44
493.833	92.44
494.05	69.44
494.268	89.44
494.485	98.44
494.703	100.44
494.92	65.44
495.138	96.44
495.355	93.44
495.573	82.44
495.79	97.44
496.008	96.44
496.225	82.44
496.442	77.44
496.66	103.44
496.877	95.44
497.094	110.44
497.312	94.44
497.529	97.44
497.746	86.44
497.963	80.44
498.181	85.44
498.398	84.44
498.615	106.44
498.832	107.44
499.049	82.44
499.267	82.44
499.484	98.44
499.701	89.44
499.918	88.44
500.135	82.44
500.352	95.44
500.569	87.44
500.786	101.44
501.003	101.44
501.22	96.44
501.437	104.44
501.654	88.44
501.871	112.44
502.088	92.44
502.305	94.44
502.522	86.44
502.739	89.44
502.956	95.44
503.172	87.44
503.389	100.44
503.606	91.44
503.823	101.44
504.04	79.44
504.256	98.44
504.473	95.44
504.69	95.44
504.907	99.44
505.123	95.44
505.34	97.44
505.557	81.44
505.773	86.44
505.99	91.44
506.207	94.44
506.423	82.44
506.64	91.44
506.856	95.44
507.073	91.44
507.289	97.44
507.506	98.44
507.722	118.44
507.939	118.44
508.155	102.44
508.372	90.44
508.588	95.44
508.805	104.44
509.021	85.44
509.238	109.44
509.454	102.44
509.67	103.44
509.887	113.44
510.103	129.44
510.319	237.44
510.536	787.44
510.752	2485.44
510.968	677.44
511.184	155.44
511.401	107.44
511.617	105.44
511.833	89.44
512.049	93.44
512.265	108.44
512.481	91.44
512.698	93.44
512.914	94.44
513.13	86.44
513.346	97.44
513.562	92.44
513.778	104.44
513.994	107.44
514.21	115.44
