Data from Circ_2004_H10_HRD10591_00076.txt Node
Date: Wed Jan 03 10:33:29 EST 2024
User: Yrep
Spectrometer: HR+D1059
Trigger mode: 1
Integration Time (sec): 1.000000E-1
Scans to average: 1
Electric dark correction enabled: true
Nonlinearity correction enabled: false
Boxcar width: 0
XAxis mode: Wavelengths
Number of Pixels in Spectrum: 2048
>>>>>Begin Spectral Data<<<<<
223.165	-13.75
223.4	-13.75
223.635	-13.75
223.869	-21.75
224.104	-18.75
224.338	-19.75
224.573	-8.75
224.808	-14.75
225.042	-6.75
225.277	6.25
225.511	-0.75
225.746	-0.75
225.98	4.25
226.215	5.25
226.449	13.25
226.683	24.25
226.918	30.25
227.152	22.25
227.387	37.25
227.621	42.25
227.856	37.25
228.09	50.25
228.324	53.25
228.559	50.25
228.793	46.25
229.027	52.25
229.262	59.25
229.496	60.25
229.73	77.25
229.964	78.25
230.199	77.25
230.433	70.25
230.667	73.25
230.901	78.25
231.136	84.25
231.37	72.25
231.604	84.25
231.838	72.25
232.072	74.25
232.306	90.25
232.541	88.25
232.775	67.25
233.009	80.25
233.243	89.25
233.477	84.25
233.711	85.25
233.945	69.25
234.179	68.25
234.413	66.25
234.647	77.25
234.881	85.25
235.115	86.25
235.349	81.25
235.583	78.25
235.817	81.25
236.051	86.25
236.285	64.25
236.519	78.25
236.753	79.25
236.987	66.25
237.221	74.25
237.455	84.25
237.689	71.25
237.922	71.25
238.156	68.25
238.39	74.25
238.624	76.25
238.858	91.25
239.091	78.25
239.325	82.25
239.559	77.25
239.793	77.25
240.027	56.25
240.26	72.25
240.494	78.25
240.728	74.25
240.961	78.25
241.195	76.25
241.429	86.25
241.662	76.25
241.896	85.25
242.13	87.25
242.363	87.25
242.597	75.25
242.83	67.25
243.064	74.25
243.298	84.25
243.531	76.25
243.765	76.25
243.998	85.25
244.232	67.25
244.465	82.25
244.699	78.25
244.932	86.25
245.166	79.25
245.399	68.25
245.633	67.25
245.866	69.25
246.099	67.25
246.333	65.25
246.566	79.25
246.8	75.25
247.033	62.25
247.266	70.25
247.5	91.25
247.733	75.25
247.966	80.25
248.2	72.25
248.433	70.25
248.666	76.25
248.899	81.25
249.133	99.25
249.366	108.25
249.599	96.25
249.832	81.25
250.066	74.25
250.299	82.25
250.532	75.25
250.765	83.25
250.998	65.25
251.231	78.25
251.465	79.25
251.698	74.25
251.931	67.25
252.164	88.25
252.397	85.25
252.63	85.25
252.863	77.25
253.096	81.25
253.329	67.25
253.562	82.25
253.795	69.25
254.028	67.25
254.261	73.25
254.494	72.25
254.727	97.25
254.96	72.25
255.193	81.25
255.426	80.25
255.659	60.25
255.892	83.25
256.124	88.25
256.357	66.25
256.59	92.25
256.823	81.25
257.056	76.25
257.289	72.25
257.521	99.25
257.754	78.25
257.987	66.25
258.22	87.25
258.452	87.25
258.685	84.25
258.918	74.25
259.151	83.25
259.383	89.25
259.616	82.25
259.849	78.25
260.081	68.25
260.314	78.25
260.547	68.25
260.779	92.25
261.012	81.25
261.244	80.25
261.477	85.25
261.71	86.25
261.942	111.25
262.175	123.25
262.407	93.25
262.64	84.25
262.872	82.25
263.105	68.25
263.337	88.25
263.57	77.25
263.802	83.25
264.035	69.25
264.267	78.25
264.499	72.25
264.732	85.25
264.964	81.25
265.197	86.25
265.429	72.25
265.661	77.25
265.894	81.25
266.126	78.25
266.358	74.25
266.591	86.25
266.823	73.25
267.055	84.25
267.287	81.25
267.52	83.25
267.752	82.25
267.984	74.25
268.216	71.25
268.448	84.25
268.681	72.25
268.913	84.25
269.145	71.25
269.377	78.25
269.609	86.25
269.841	65.25
270.073	81.25
270.306	86.25
270.538	83.25
270.77	83.25
271.002	92.25
271.234	77.25
271.466	86.25
271.698	86.25
271.93	65.25
272.162	82.25
272.394	92.25
272.626	82.25
272.858	85.25
273.09	96.25
273.322	84.25
273.553	79.25
273.785	91.25
274.017	81.25
274.249	78.25
274.481	73.25
274.713	84.25
274.945	96.25
275.176	82.25
275.408	83.25
275.64	90.25
275.872	100.25
276.104	92.25
276.335	81.25
276.567	99.25
276.799	109.25
277.031	120.25
277.262	106.25
277.494	111.25
277.726	80.25
277.957	92.25
278.189	87.25
278.421	89.25
278.652	90.25
278.884	84.25
279.115	81.25
279.347	78.25
279.579	98.25
279.81	98.25
280.042	125.25
280.273	147.25
280.505	114.25
280.736	100.25
280.968	86.25
281.199	81.25
281.431	82.25
281.662	73.25
281.894	89.25
282.125	85.25
282.356	100.25
282.588	145.25
282.819	110.25
283.051	89.25
283.282	76.25
283.513	86.25
283.745	93.25
283.976	77.25
284.207	75.25
284.439	98.25
284.67	80.25
284.901	73.25
285.132	68.25
285.364	78.25
285.595	65.25
285.826	76.25
286.057	92.25
286.288	77.25
286.52	77.25
286.751	92.25
286.982	90.25
287.213	93.25
287.444	94.25
287.675	96.25
287.906	84.25
288.138	83.25
288.369	86.25
288.6	92.25
288.831	98.25
289.062	79.25
289.293	97.25
289.524	90.25
289.755	74.25
289.986	75.25
290.217	76.25
290.448	72.25
290.679	91.25
290.91	89.25
291.141	84.25
291.371	84.25
291.602	84.25
291.833	81.25
292.064	88.25
292.295	90.25
292.526	95.25
292.757	87.25
292.987	87.25
293.218	73.25
293.449	88.25
293.68	91.25
293.91	84.25
294.141	85.25
294.372	89.25
294.603	84.25
294.833	91.25
295.064	76.25
295.295	87.25
295.525	90.25
295.756	107.25
295.987	114.25
296.217	139.25
296.448	134.25
296.679	95.25
296.909	91.25
297.14	78.25
297.37	90.25
297.601	86.25
297.831	94.25
298.062	84.25
298.292	92.25
298.523	95.25
298.753	81.25
298.984	80.25
299.214	70.25
299.445	93.25
299.675	83.25
299.905	96.25
300.136	95.25
300.366	79.25
300.597	86.25
300.827	90.25
301.057	92.25
301.288	86.25
301.518	84.25
301.748	100.25
301.979	98.25
302.209	80.25
302.439	86.25
302.669	84.25
302.9	92.25
303.13	99.25
303.36	84.25
303.59	120.25
303.82	123.25
304.051	109.25
304.281	95.25
304.511	94.25
304.741	87.25
304.971	97.25
305.201	93.25
305.431	95.25
305.661	89.25
305.891	90.25
306.121	93.25
306.352	113.25
306.582	115.25
306.812	83.25
307.042	108.25
307.272	103.25
307.502	128.25
307.731	112.25
307.961	107.25
308.191	80.25
308.421	86.25
308.651	83.25
308.881	83.25
309.111	95.25
309.341	88.25
309.571	83.25
309.8	92.25
310.03	95.25
310.26	106.25
310.49	105.25
310.72	96.25
310.949	104.25
311.179	92.25
311.409	91.25
311.639	88.25
311.868	80.25
312.098	99.25
312.328	80.25
312.557	88.25
312.787	101.25
313.017	113.25
313.246	90.25
313.476	92.25
313.706	93.25
313.935	88.25
314.165	92.25
314.394	95.25
314.624	94.25
314.853	90.25
315.083	77.25
315.312	90.25
315.542	92.25
315.771	84.25
316.001	72.25
316.23	86.25
316.46	83.25
316.689	101.25
316.919	95.25
317.148	96.25
317.377	81.25
317.607	99.25
317.836	86.25
318.065	92.25
318.295	85.25
318.524	91.25
318.753	95.25
318.983	102.25
319.212	84.25
319.441	102.25
319.67	105.25
319.9	77.25
320.129	82.25
320.358	98.25
320.587	93.25
320.816	89.25
321.046	99.25
321.275	108.25
321.504	84.25
321.733	99.25
321.962	90.25
322.191	85.25
322.42	101.25
322.649	112.25
322.878	115.25
323.108	116.25
323.337	111.25
323.566	136.25
323.795	152.25
324.024	213.25
324.253	422.25
324.482	899.25
324.71	1869.25
324.939	2475.25
325.168	908.25
325.397	254.25
325.626	173.25
325.855	108.25
326.084	123.25
326.313	126.25
326.542	163.25
326.77	229.25
326.999	491.25
327.228	984.25
327.457	1844.25
327.686	1515.25
327.914	431.25
328.143	304.25
328.372	349.25
328.6	214.25
328.829	128.25
329.058	140.25
329.287	135.25
329.515	134.25
329.744	156.25
329.972	256.25
330.201	460.25
330.43	682.25
330.658	321.25
330.887	197.25
331.115	144.25
331.344	93.25
331.572	99.25
331.801	95.25
332.03	96.25
332.258	99.25
332.486	88.25
332.715	93.25
332.943	98.25
333.172	95.25
333.4	95.25
333.629	110.25
333.857	162.25
334.085	228.25
334.314	425.25
334.542	806.25
334.771	794.25
334.999	245.25
335.227	126.25
335.455	100.25
335.684	98.25
335.912	93.25
336.14	100.25
336.369	90.25
336.597	91.25
336.825	97.25
337.053	96.25
337.281	98.25
337.51	100.25
337.738	85.25
337.966	87.25
338.194	94.25
338.422	85.25
338.65	90.25
338.878	85.25
339.106	90.25
339.334	80.25
339.562	89.25
339.79	79.25
340.018	93.25
340.246	86.25
340.474	79.25
340.702	97.25
340.93	86.25
341.158	102.25
341.386	90.25
341.614	88.25
341.842	82.25
342.07	101.25
342.298	100.25
342.526	86.25
342.754	77.25
342.981	84.25
343.209	94.25
343.437	70.25
343.665	85.25
343.893	94.25
344.12	89.25
344.348	87.25
344.576	90.25
344.804	97.25
345.031	98.25
345.259	93.25
345.487	90.25
345.714	93.25
345.942	73.25
346.17	93.25
346.397	93.25
346.625	93.25
346.853	84.25
347.08	104.25
347.308	83.25
347.535	77.25
347.763	100.25
347.99	91.25
348.218	114.25
348.445	102.25
348.673	94.25
348.9	90.25
349.128	96.25
349.355	82.25
349.583	87.25
349.81	87.25
350.037	82.25
350.265	83.25
350.492	92.25
350.72	99.25
350.947	100.25
351.174	122.25
351.402	101.25
351.629	92.25
351.856	101.25
352.083	98.25
352.311	102.25
352.538	109.25
352.765	102.25
352.992	105.25
353.22	114.25
353.447	107.25
353.674	83.25
353.901	93.25
354.128	88.25
354.355	85.25
354.583	99.25
354.81	92.25
355.037	108.25
355.264	91.25
355.491	86.25
355.718	83.25
355.945	86.25
356.172	83.25
356.399	87.25
356.626	85.25
356.853	89.25
357.08	93.25
357.307	92.25
357.534	97.25
357.761	93.25
357.988	94.25
358.215	82.25
358.441	90.25
358.668	84.25
358.895	81.25
359.122	69.25
359.349	73.25
359.576	88.25
359.802	93.25
360.029	136.25
360.256	116.25
360.483	85.25
360.709	75.25
360.936	100.25
361.163	85.25
361.39	90.25
361.616	103.25
361.843	90.25
362.07	94.25
362.296	106.25
362.523	96.25
362.749	82.25
362.976	80.25
363.203	97.25
363.429	89.25
363.656	105.25
363.882	84.25
364.109	83.25
364.335	81.25
364.562	89.25
364.788	92.25
365.015	93.25
365.241	103.25
365.468	97.25
365.694	92.25
365.92	90.25
366.147	83.25
366.373	88.25
366.599	90.25
366.826	77.25
367.052	97.25
367.278	85.25
367.505	91.25
367.731	93.25
367.957	83.25
368.184	84.25
368.41	86.25
368.636	115.25
368.862	117.25
369.089	114.25
369.315	83.25
369.541	81.25
369.767	88.25
369.993	100.25
370.219	84.25
370.445	94.25
370.672	88.25
370.898	74.25
371.124	72.25
371.35	99.25
371.576	86.25
371.802	85.25
372.028	86.25
372.254	82.25
372.48	82.25
372.706	98.25
372.932	86.25
373.158	73.25
373.384	86.25
373.61	83.25
373.835	71.25
374.061	92.25
374.287	95.25
374.513	77.25
374.739	80.25
374.965	93.25
375.191	92.25
375.416	79.25
375.642	90.25
375.868	93.25
376.094	89.25
376.319	81.25
376.545	88.25
376.771	91.25
376.997	90.25
377.222	105.25
377.448	93.25
377.674	81.25
377.899	84.25
378.125	82.25
378.35	85.25
378.576	79.25
378.802	77.25
379.027	81.25
379.253	88.25
379.478	75.25
379.704	67.25
379.929	89.25
380.155	98.25
380.38	82.25
380.606	82.25
380.831	102.25
381.057	96.25
381.282	79.25
381.507	90.25
381.733	104.25
381.958	88.25
382.184	78.25
382.409	85.25
382.634	93.25
382.86	85.25
383.085	82.25
383.31	103.25
383.535	88.25
383.761	95.25
383.986	97.25
384.211	98.25
384.436	81.25
384.662	99.25
384.887	90.25
385.112	83.25
385.337	87.25
385.562	82.25
385.787	106.25
386.013	109.25
386.238	84.25
386.463	94.25
386.688	93.25
386.913	97.25
387.138	100.25
387.363	92.25
387.588	101.25
387.813	101.25
388.038	98.25
388.263	109.25
388.488	107.25
388.713	94.25
388.938	87.25
389.163	90.25
389.387	80.25
389.612	84.25
389.837	94.25
390.062	89.25
390.287	89.25
390.512	91.25
390.736	83.25
390.961	80.25
391.186	83.25
391.411	99.25
391.636	91.25
391.86	76.25
392.085	85.25
392.31	92.25
392.534	83.25
392.759	83.25
392.984	89.25
393.208	76.25
393.433	75.25
393.658	89.25
393.882	86.25
394.107	74.25
394.331	67.25
394.556	86.25
394.78	73.25
395.005	82.25
395.229	83.25
395.454	93.25
395.678	89.25
395.903	96.25
396.127	94.25
396.352	94.25
396.576	81.25
396.801	89.25
397.025	104.25
397.249	102.25
397.474	88.25
397.698	86.25
397.922	66.25
398.147	97.25
398.371	90.25
398.595	85.25
398.82	82.25
399.044	88.25
399.268	88.25
399.492	90.25
399.717	80.25
399.941	85.25
400.165	90.25
400.389	81.25
400.613	90.25
400.837	80.25
401.062	87.25
401.286	74.25
401.51	70.25
401.734	88.25
401.958	103.25
402.182	145.25
402.406	150.25
402.63	129.25
402.854	84.25
403.078	78.25
403.302	87.25
403.526	88.25
403.75	79.25
403.974	82.25
404.198	76.25
404.422	89.25
404.645	74.25
404.869	86.25
405.093	105.25
405.317	113.25
405.541	122.25
405.765	103.25
405.988	105.25
406.212	174.25
406.436	257.25
406.66	168.25
406.883	104.25
407.107	99.25
407.331	96.25
407.555	91.25
407.778	98.25
408.002	87.25
408.226	85.25
408.449	92.25
408.673	97.25
408.896	91.25
409.12	91.25
409.344	84.25
409.567	94.25
409.791	75.25
410.014	91.25
410.238	82.25
410.461	91.25
410.685	84.25
410.908	102.25
411.132	100.25
411.355	106.25
411.578	107.25
411.802	77.25
412.025	74.25
412.249	90.25
412.472	97.25
412.695	99.25
412.919	94.25
413.142	86.25
413.365	83.25
413.589	71.25
413.812	79.25
414.035	89.25
414.258	82.25
414.482	68.25
414.705	91.25
414.928	91.25
415.151	73.25
415.374	86.25
415.597	73.25
415.821	78.25
416.044	85.25
416.267	92.25
416.49	96.25
416.713	93.25
416.936	97.25
417.159	78.25
417.382	85.25
417.605	90.25
417.828	95.25
418.051	97.25
418.274	82.25
418.497	75.25
418.72	75.25
418.943	77.25
419.166	74.25
419.389	84.25
419.611	62.25
419.834	66.25
420.057	99.25
420.28	95.25
420.503	81.25
420.726	88.25
420.948	81.25
421.171	91.25
421.394	92.25
421.617	92.25
421.839	86.25
422.062	90.25
422.285	82.25
422.507	91.25
422.73	95.25
422.953	92.25
423.175	81.25
423.398	75.25
423.621	78.25
423.843	83.25
424.066	89.25
424.288	85.25
424.511	85.25
424.733	89.25
424.956	106.25
425.178	104.25
425.401	94.25
425.623	91.25
425.846	89.25
426.068	105.25
426.291	82.25
426.513	84.25
426.735	87.25
426.958	84.25
427.18	120.25
427.402	140.25
427.625	202.25
427.847	168.25
428.069	173.25
428.292	98.25
428.514	96.25
428.736	71.25
428.958	93.25
429.181	84.25
429.403	84.25
429.625	72.25
429.847	84.25
430.069	98.25
430.292	91.25
430.514	96.25
430.736	92.25
430.958	85.25
431.18	85.25
431.402	97.25
431.624	84.25
431.846	78.25
432.068	73.25
432.29	78.25
432.512	84.25
432.734	100.25
432.956	92.25
433.178	99.25
433.4	98.25
433.622	104.25
433.844	90.25
434.066	79.25
434.287	92.25
434.509	100.25
434.731	90.25
434.953	84.25
435.175	89.25
435.397	85.25
435.618	103.25
435.84	95.25
436.062	115.25
436.284	116.25
436.505	85.25
436.727	96.25
436.949	86.25
437.17	83.25
437.392	83.25
437.614	98.25
437.835	98.25
438.057	110.25
438.278	100.25
438.5	107.25
438.721	128.25
438.943	97.25
439.165	85.25
439.386	80.25
439.608	99.25
439.829	87.25
440.05	139.25
440.272	142.25
440.493	111.25
440.715	86.25
440.936	91.25
441.158	94.25
441.379	82.25
441.6	84.25
441.822	92.25
442.043	96.25
442.264	94.25
442.486	105.25
442.707	89.25
442.928	105.25
443.149	150.25
443.371	123.25
443.592	108.25
443.813	137.25
444.034	106.25
444.255	90.25
444.476	87.25
444.698	87.25
444.919	75.25
445.14	108.25
445.361	133.25
445.582	114.25
445.803	151.25
446.024	155.25
446.245	149.25
446.466	115.25
446.687	96.25
446.908	72.25
447.129	86.25
447.35	96.25
447.571	93.25
447.792	85.25
448.013	93.25
448.234	97.25
448.455	93.25
448.675	121.25
448.896	116.25
449.117	106.25
449.338	101.25
449.559	146.25
449.779	142.25
450	94.25
450.221	79.25
450.442	88.25
450.662	89.25
450.883	114.25
451.104	121.25
451.324	90.25
451.545	90.25
451.766	87.25
451.986	82.25
452.207	84.25
452.428	84.25
452.648	94.25
452.869	110.25
453.089	118.25
453.31	102.25
453.53	93.25
453.751	86.25
453.971	103.25
454.192	101.25
454.412	100.25
454.633	82.25
454.853	86.25
455.073	78.25
455.294	90.25
455.514	93.25
455.734	78.25
455.955	71.25
456.175	88.25
456.395	86.25
456.616	90.25
456.836	84.25
457.056	84.25
457.276	82.25
457.497	84.25
457.717	86.25
457.937	85.25
458.157	77.25
458.377	81.25
458.598	115.25
458.818	158.25
459.038	181.25
459.258	125.25
459.478	93.25
459.698	84.25
459.918	92.25
460.138	73.25
460.358	76.25
460.578	80.25
460.798	81.25
461.018	85.25
461.238	88.25
461.458	95.25
461.678	100.25
461.898	69.25
462.118	81.25
462.338	78.25
462.558	78.25
462.777	80.25
462.997	96.25
463.217	90.25
463.437	90.25
463.657	73.25
463.876	81.25
464.096	91.25
464.316	101.25
464.536	94.25
464.755	76.25
464.975	106.25
465.195	187.25
465.414	184.25
465.634	95.25
465.854	92.25
466.073	93.25
466.293	84.25
466.512	85.25
466.732	92.25
466.951	81.25
467.171	97.25
467.391	107.25
467.61	106.25
467.829	136.25
468.049	299.25
468.268	392.25
468.488	141.25
468.707	95.25
468.927	104.25
469.146	78.25
469.365	78.25
469.585	88.25
469.804	91.25
470.023	93.25
470.243	88.25
470.462	107.25
470.681	88.25
470.901	90.25
471.12	94.25
471.339	96.25
471.558	96.25
471.777	101.25
471.997	184.25
472.216	519.25
472.435	1129.25
472.654	316.25
472.873	109.25
473.092	90.25
473.311	91.25
473.53	85.25
473.749	87.25
473.968	99.25
474.187	114.25
474.406	97.25
474.625	87.25
474.844	86.25
475.063	86.25
475.282	65.25
475.501	90.25
475.72	86.25
475.939	72.25
476.158	81.25
476.377	89.25
476.596	87.25
476.814	86.25
477.033	91.25
477.252	78.25
477.471	92.25
477.69	94.25
477.908	94.25
478.127	89.25
478.346	86.25
478.564	92.25
478.783	97.25
479.002	102.25
479.22	104.25
479.439	116.25
479.658	113.25
479.876	106.25
480.095	107.25
480.313	100.25
480.532	110.25
480.751	170.25
480.969	484.25
481.188	1904.25
481.406	1182.25
481.624	202.25
481.843	104.25
482.061	99.25
482.28	84.25
482.498	88.25
482.717	83.25
482.935	77.25
483.153	82.25
483.372	97.25
483.59	87.25
483.808	83.25
484.027	85.25
484.245	88.25
484.463	93.25
484.681	96.25
484.9	77.25
485.118	99.25
485.336	83.25
485.554	99.25
485.772	101.25
485.99	97.25
486.209	93.25
486.427	100.25
486.645	95.25
486.863	108.25
487.081	112.25
487.299	106.25
487.517	82.25
487.735	86.25
487.953	92.25
488.171	90.25
488.389	96.25
488.607	92.25
488.825	95.25
489.043	73.25
489.261	90.25
489.479	86.25
489.696	76.25
489.914	81.25
490.132	80.25
490.35	83.25
490.568	92.25
490.786	84.25
491.003	81.25
491.221	81.25
491.439	103.25
491.657	100.25
491.874	88.25
492.092	83.25
492.31	74.25
492.527	92.25
492.745	83.25
492.963	95.25
493.18	80.25
493.398	85.25
493.615	94.25
493.833	101.25
494.05	85.25
494.268	85.25
494.485	73.25
494.703	78.25
494.92	77.25
495.138	73.25
495.355	72.25
495.573	103.25
495.79	89.25
496.008	83.25
496.225	86.25
496.442	88.25
496.66	98.25
496.877	80.25
497.094	87.25
497.312	84.25
497.529	101.25
497.746	95.25
497.963	98.25
498.181	86.25
498.398	92.25
498.615	104.25
498.832	106.25
499.049	93.25
499.267	88.25
499.484	92.25
499.701	87.25
499.918	78.25
500.135	86.25
500.352	92.25
500.569	91.25
500.786	95.25
501.003	80.25
501.22	84.25
501.437	82.25
501.654	94.25
501.871	105.25
502.088	93.25
502.305	70.25
502.522	85.25
502.739	80.25
502.956	77.25
503.172	94.25
503.389	85.25
503.606	112.25
503.823	72.25
504.04	80.25
504.256	107.25
504.473	85.25
504.69	73.25
504.907	85.25
505.123	85.25
505.34	79.25
505.557	92.25
505.773	93.25
505.99	86.25
506.207	101.25
506.423	86.25
506.64	92.25
506.856	83.25
507.073	98.25
507.289	99.25
507.506	102.25
507.722	117.25
507.939	102.25
508.155	94.25
508.372	95.25
508.588	92.25
508.805	85.25
509.021	83.25
509.238	88.25
509.454	104.25
509.67	101.25
509.887	112.25
510.103	105.25
510.319	211.25
510.536	758.25
510.752	2375.25
510.968	685.25
511.184	160.25
511.401	115.25
511.617	90.25
511.833	80.25
512.049	102.25
512.265	90.25
512.481	91.25
512.698	84.25
512.914	83.25
513.13	85.25
513.346	89.25
513.562	83.25
513.778	89.25
513.994	102.25
514.21	111.25
514.426	120.25
514.642	151.25
514.858	139.25
515.074	184.25
515.29	493.25
515.506	1759.25
515.721	648.25
515.937	194.25
516.153	120.25
