Data from Circ_2004_H10_HRD10591_00042.txt Node
Date: Wed Jan 03 10:33:22 EST 2024
User: Yrep
Spectrometer: HR+D1059
Trigger mode: 1
Integration Time (sec): 1.000000E-1
Scans to average: 1
Electric dark correction enabled: true
Nonlinearity correction enabled: false
Boxcar width: 0
XAxis mode: Wavelengths
Number of Pixels in Spectrum: 2048
>>>>>Begin Spectral Data<<<<<
223.165	-22.38
223.4	-22.38
223.635	-22.38
223.869	-27.38
224.104	-18.38
224.338	-18.38
224.573	-15.38
224.808	-19.38
225.042	-15.38
225.277	-3.38
225.511	-13.38
225.746	5.62
225.98	9.62
226.215	21.62
226.449	20.62
226.683	27.62
226.918	30.62
227.152	37.62
227.387	25.62
227.621	42.62
227.856	60.62
228.09	50.62
228.324	58.62
228.559	65.62
228.793	41.62
229.027	67.62
229.262	79.62
229.496	65.62
229.73	81.62
229.964	95.62
230.199	83.62
230.433	67.62
230.667	85.62
230.901	72.62
231.136	73.62
231.37	82.62
231.604	80.62
231.838	69.62
232.072	84.62
232.306	93.62
232.541	90.62
232.775	77.62
233.009	92.62
233.243	81.62
233.477	80.62
233.711	84.62
233.945	78.62
234.179	80.62
234.413	79.62
234.647	80.62
234.881	66.62
235.115	92.62
235.349	73.62
235.583	73.62
235.817	73.62
236.051	72.62
236.285	77.62
236.519	78.62
236.753	83.62
236.987	79.62
237.221	81.62
237.455	87.62
237.689	85.62
237.922	83.62
238.156	69.62
238.39	79.62
238.624	68.62
238.858	87.62
239.091	85.62
239.325	70.62
239.559	76.62
239.793	74.62
240.027	78.62
240.26	78.62
240.494	79.62
240.728	87.62
240.961	72.62
241.195	86.62
241.429	83.62
241.662	94.62
241.896	72.62
242.13	88.62
242.363	75.62
242.597	96.62
242.83	84.62
243.064	76.62
243.298	59.62
243.531	69.62
243.765	79.62
243.998	90.62
244.232	85.62
244.465	97.62
244.699	68.62
244.932	66.62
245.166	68.62
245.399	77.62
245.633	91.62
245.866	80.62
246.099	82.62
246.333	65.62
246.566	83.62
246.8	71.62
247.033	75.62
247.266	68.62
247.5	79.62
247.733	80.62
247.966	79.62
248.2	77.62
248.433	74.62
248.666	80.62
248.899	90.62
249.133	64.62
249.366	86.62
249.599	94.62
249.832	81.62
250.066	89.62
250.299	77.62
250.532	80.62
250.765	86.62
250.998	86.62
251.231	73.62
251.465	65.62
251.698	85.62
251.931	90.62
252.164	92.62
252.397	73.62
252.63	66.62
252.863	90.62
253.096	79.62
253.329	89.62
253.562	78.62
253.795	85.62
254.028	87.62
254.261	77.62
254.494	79.62
254.727	75.62
254.96	78.62
255.193	88.62
255.426	74.62
255.659	87.62
255.892	78.62
256.124	86.62
256.357	82.62
256.59	97.62
256.823	80.62
257.056	67.62
257.289	88.62
257.521	90.62
257.754	82.62
257.987	86.62
258.22	90.62
258.452	87.62
258.685	85.62
258.918	79.62
259.151	74.62
259.383	89.62
259.616	78.62
259.849	79.62
260.081	76.62
260.314	79.62
260.547	88.62
260.779	94.62
261.012	84.62
261.244	90.62
261.477	81.62
261.71	89.62
261.942	94.62
262.175	108.62
262.407	85.62
262.64	85.62
262.872	82.62
263.105	73.62
263.337	85.62
263.57	72.62
263.802	87.62
264.035	93.62
264.267	85.62
264.499	80.62
264.732	72.62
264.964	86.62
265.197	84.62
265.429	87.62
265.661	90.62
265.894	80.62
266.126	74.62
266.358	75.62
266.591	78.62
266.823	89.62
267.055	82.62
267.287	82.62
267.52	86.62
267.752	88.62
267.984	83.62
268.216	79.62
268.448	90.62
268.681	80.62
268.913	83.62
269.145	91.62
269.377	82.62
269.609	84.62
269.841	82.62
270.073	68.62
270.306	88.62
270.538	89.62
270.77	85.62
271.002	79.62
271.234	97.62
271.466	87.62
271.698	87.62
271.93	82.62
272.162	82.62
272.394	92.62
272.626	86.62
272.858	94.62
273.09	68.62
273.322	76.62
273.553	80.62
273.785	80.62
274.017	80.62
274.249	75.62
274.481	97.62
274.713	84.62
274.945	81.62
275.176	81.62
275.408	70.62
275.64	80.62
275.872	88.62
276.104	94.62
276.335	91.62
276.567	101.62
276.799	117.62
277.031	120.62
277.262	104.62
277.494	104.62
277.726	90.62
277.957	86.62
278.189	87.62
278.421	94.62
278.652	98.62
278.884	80.62
279.115	72.62
279.347	97.62
279.579	83.62
279.81	98.62
280.042	102.62
280.273	121.62
280.505	103.62
280.736	92.62
280.968	81.62
281.199	76.62
281.431	93.62
281.662	90.62
281.894	95.62
282.125	113.62
282.356	108.62
282.588	130.62
282.819	113.62
283.051	93.62
283.282	98.62
283.513	78.62
283.745	82.62
283.976	86.62
284.207	74.62
284.439	89.62
284.67	86.62
284.901	83.62
285.132	82.62
285.364	78.62
285.595	96.62
285.826	99.62
286.057	90.62
286.288	87.62
286.52	91.62
286.751	87.62
286.982	78.62
287.213	80.62
287.444	100.62
287.675	84.62
287.906	90.62
288.138	85.62
288.369	79.62
288.6	81.62
288.831	80.62
289.062	85.62
289.293	88.62
289.524	87.62
289.755	65.62
289.986	95.62
290.217	82.62
290.448	88.62
290.679	86.62
290.91	88.62
291.141	97.62
291.371	87.62
291.602	91.62
291.833	96.62
292.064	79.62
292.295	82.62
292.526	79.62
292.757	103.62
292.987	92.62
293.218	70.62
293.449	89.62
293.68	85.62
293.91	84.62
294.141	82.62
294.372	90.62
294.603	91.62
294.833	85.62
295.064	86.62
295.295	87.62
295.525	90.62
295.756	98.62
295.987	100.62
296.217	144.62
296.448	114.62
296.679	88.62
296.909	78.62
297.14	76.62
297.37	85.62
297.601	88.62
297.831	95.62
298.062	79.62
298.292	79.62
298.523	83.62
298.753	78.62
298.984	85.62
299.214	81.62
299.445	90.62
299.675	90.62
299.905	94.62
300.136	96.62
300.366	73.62
300.597	84.62
300.827	96.62
301.057	105.62
301.288	98.62
301.518	97.62
301.748	86.62
301.979	98.62
302.209	101.62
302.439	78.62
302.669	95.62
302.9	89.62
303.13	99.62
303.36	101.62
303.59	99.62
303.82	110.62
304.051	88.62
304.281	85.62
304.511	91.62
304.741	81.62
304.971	81.62
305.201	86.62
305.431	81.62
305.661	89.62
305.891	95.62
306.121	90.62
306.352	89.62
306.582	98.62
306.812	99.62
307.042	87.62
307.272	101.62
307.502	106.62
307.731	104.62
307.961	101.62
308.191	87.62
308.421	83.62
308.651	86.62
308.881	98.62
309.111	106.62
309.341	96.62
309.571	100.62
309.8	88.62
310.03	94.62
310.26	84.62
310.49	101.62
310.72	84.62
310.949	105.62
311.179	95.62
311.409	89.62
311.639	89.62
311.868	95.62
312.098	87.62
312.328	91.62
312.557	109.62
312.787	95.62
313.017	104.62
313.246	96.62
313.476	89.62
313.706	88.62
313.935	88.62
314.165	88.62
314.394	104.62
314.624	91.62
314.853	96.62
315.083	97.62
315.312	98.62
315.542	92.62
315.771	103.62
316.001	102.62
316.23	101.62
316.46	93.62
316.689	95.62
316.919	92.62
317.148	79.62
317.377	92.62
317.607	97.62
317.836	81.62
318.065	98.62
318.295	95.62
318.524	85.62
318.753	105.62
318.983	71.62
319.212	116.62
319.441	95.62
319.67	106.62
319.9	101.62
320.129	94.62
320.358	90.62
320.587	107.62
320.816	102.62
321.046	101.62
321.275	103.62
321.504	101.62
321.733	94.62
321.962	102.62
322.191	98.62
322.42	99.62
322.649	113.62
322.878	114.62
323.108	112.62
323.337	120.62
323.566	128.62
323.795	167.62
324.024	206.62
324.253	373.62
324.482	798.62
324.71	1699.62
324.939	2256.62
325.168	800.62
325.397	230.62
325.626	135.62
325.855	139.62
326.084	125.62
326.313	142.62
326.542	161.62
326.77	226.62
326.999	446.62
327.228	978.62
327.457	1717.62
327.686	1364.62
327.914	396.62
328.143	268.62
328.372	235.62
328.6	160.62
328.829	124.62
329.058	121.62
329.287	140.62
329.515	129.62
329.744	126.62
329.972	173.62
330.201	310.62
330.43	420.62
330.658	232.62
330.887	163.62
331.115	122.62
331.344	103.62
331.572	108.62
331.801	95.62
332.03	110.62
332.258	98.62
332.486	93.62
332.715	102.62
332.943	89.62
333.172	107.62
333.4	98.62
333.629	94.62
333.857	142.62
334.085	191.62
334.314	322.62
334.542	516.62
334.771	469.62
334.999	183.62
335.227	116.62
335.455	88.62
335.684	101.62
335.912	97.62
336.14	113.62
336.369	101.62
336.597	90.62
336.825	88.62
337.053	93.62
337.281	95.62
337.51	89.62
337.738	86.62
337.966	90.62
338.194	92.62
338.422	96.62
338.65	97.62
338.878	96.62
339.106	94.62
339.334	104.62
339.562	85.62
339.79	78.62
340.018	100.62
340.246	93.62
340.474	90.62
340.702	96.62
340.93	96.62
341.158	84.62
341.386	119.62
341.614	101.62
341.842	90.62
342.07	90.62
342.298	90.62
342.526	101.62
342.754	90.62
342.981	88.62
343.209	77.62
343.437	87.62
343.665	73.62
343.893	90.62
344.12	99.62
344.348	92.62
344.576	77.62
344.804	104.62
345.031	103.62
345.259	88.62
345.487	90.62
345.714	96.62
345.942	98.62
346.17	98.62
346.397	88.62
346.625	90.62
346.853	102.62
347.08	87.62
347.308	113.62
347.535	81.62
347.763	97.62
347.99	100.62
348.218	93.62
348.445	103.62
348.673	95.62
348.9	92.62
349.128	95.62
349.355	101.62
349.583	96.62
349.81	90.62
350.037	88.62
350.265	97.62
350.492	98.62
350.72	84.62
350.947	71.62
351.174	105.62
351.402	100.62
351.629	106.62
351.856	87.62
352.083	104.62
352.311	108.62
352.538	109.62
352.765	117.62
352.992	105.62
353.22	108.62
353.447	98.62
353.674	103.62
353.901	94.62
354.128	103.62
354.355	91.62
354.583	100.62
354.81	102.62
355.037	81.62
355.264	103.62
355.491	90.62
355.718	87.62
355.945	97.62
356.172	95.62
356.399	82.62
356.626	90.62
356.853	90.62
357.08	98.62
357.307	106.62
357.534	83.62
357.761	87.62
357.988	88.62
358.215	98.62
358.441	86.62
358.668	89.62
358.895	83.62
359.122	77.62
359.349	97.62
359.576	83.62
359.802	110.62
360.029	111.62
360.256	124.62
360.483	88.62
360.709	98.62
360.936	96.62
361.163	83.62
361.39	102.62
361.616	106.62
361.843	86.62
362.07	96.62
362.296	91.62
362.523	82.62
362.749	83.62
362.976	89.62
363.203	95.62
363.429	84.62
363.656	96.62
363.882	87.62
364.109	85.62
364.335	80.62
364.562	98.62
364.788	106.62
365.015	75.62
365.241	103.62
365.468	116.62
365.694	114.62
365.92	100.62
366.147	91.62
366.373	93.62
366.599	98.62
366.826	95.62
367.052	90.62
367.278	88.62
367.505	95.62
367.731	94.62
367.957	89.62
368.184	88.62
368.41	96.62
368.636	105.62
368.862	111.62
369.089	105.62
369.315	81.62
369.541	93.62
369.767	94.62
369.993	75.62
370.219	95.62
370.445	95.62
370.672	96.62
370.898	95.62
371.124	80.62
371.35	78.62
371.576	76.62
371.802	89.62
372.028	82.62
372.254	91.62
372.48	90.62
372.706	109.62
372.932	84.62
373.158	82.62
373.384	100.62
373.61	85.62
373.835	84.62
374.061	75.62
374.287	85.62
374.513	94.62
374.739	90.62
374.965	80.62
375.191	79.62
375.416	84.62
375.642	92.62
375.868	79.62
376.094	81.62
376.319	97.62
376.545	90.62
376.771	87.62
376.997	89.62
377.222	98.62
377.448	88.62
377.674	101.62
377.899	89.62
378.125	92.62
378.35	96.62
378.576	93.62
378.802	81.62
379.027	92.62
379.253	100.62
379.478	90.62
379.704	81.62
379.929	93.62
380.155	98.62
380.38	83.62
380.606	97.62
380.831	89.62
381.057	89.62
381.282	99.62
381.507	89.62
381.733	76.62
381.958	82.62
382.184	94.62
382.409	96.62
382.634	100.62
382.86	103.62
383.085	104.62
383.31	85.62
383.535	110.62
383.761	99.62
383.986	96.62
384.211	82.62
384.436	97.62
384.662	91.62
384.887	105.62
385.112	100.62
385.337	97.62
385.562	99.62
385.787	109.62
386.013	92.62
386.238	93.62
386.463	101.62
386.688	111.62
386.913	106.62
387.138	104.62
387.363	97.62
387.588	99.62
387.813	97.62
388.038	96.62
388.263	109.62
388.488	98.62
388.713	107.62
388.938	95.62
389.163	93.62
389.387	103.62
389.612	93.62
389.837	98.62
390.062	82.62
390.287	97.62
390.512	86.62
390.736	87.62
390.961	92.62
391.186	101.62
391.411	96.62
391.636	84.62
391.86	98.62
392.085	79.62
392.31	90.62
392.534	74.62
392.759	83.62
392.984	95.62
393.208	106.62
393.433	102.62
393.658	95.62
393.882	79.62
394.107	87.62
394.331	104.62
394.556	90.62
394.78	86.62
395.005	84.62
395.229	86.62
395.454	99.62
395.678	84.62
395.903	87.62
396.127	83.62
396.352	78.62
396.576	87.62
396.801	91.62
397.025	83.62
397.249	94.62
397.474	85.62
397.698	85.62
397.922	84.62
398.147	90.62
398.371	80.62
398.595	85.62
398.82	83.62
399.044	95.62
399.268	95.62
399.492	79.62
399.717	87.62
399.941	85.62
400.165	103.62
400.389	92.62
400.613	80.62
400.837	96.62
401.062	104.62
401.286	93.62
401.51	76.62
401.734	85.62
401.958	96.62
402.182	113.62
402.406	147.62
402.63	140.62
402.854	97.62
403.078	94.62
403.302	100.62
403.526	89.62
403.75	83.62
403.974	87.62
404.198	90.62
404.422	88.62
404.645	98.62
404.869	104.62
405.093	105.62
405.317	115.62
405.541	119.62
405.765	92.62
405.988	114.62
406.212	162.62
406.436	216.62
406.66	142.62
406.883	106.62
407.107	97.62
407.331	88.62
407.555	102.62
407.778	82.62
408.002	90.62
408.226	76.62
408.449	96.62
408.673	80.62
408.896	91.62
409.12	95.62
409.344	96.62
409.567	90.62
409.791	96.62
410.014	90.62
410.238	93.62
410.461	78.62
410.685	104.62
410.908	104.62
411.132	106.62
411.355	96.62
411.578	86.62
411.802	92.62
412.025	80.62
412.249	94.62
412.472	106.62
412.695	106.62
412.919	100.62
413.142	100.62
413.365	85.62
413.589	88.62
413.812	88.62
414.035	95.62
414.258	88.62
414.482	106.62
414.705	90.62
414.928	97.62
415.151	90.62
415.374	100.62
415.597	102.62
415.821	89.62
416.044	80.62
416.267	85.62
416.49	78.62
416.713	92.62
416.936	81.62
417.159	99.62
417.382	77.62
417.605	85.62
417.828	91.62
418.051	96.62
418.274	89.62
418.497	94.62
418.72	94.62
418.943	89.62
419.166	89.62
419.389	93.62
419.611	92.62
419.834	90.62
420.057	94.62
420.28	103.62
420.503	85.62
420.726	76.62
420.948	73.62
421.171	89.62
421.394	87.62
421.617	90.62
421.839	90.62
422.062	87.62
422.285	90.62
422.507	98.62
422.73	104.62
422.953	86.62
423.175	88.62
423.398	95.62
423.621	95.62
423.843	69.62
424.066	78.62
424.288	93.62
424.511	91.62
424.733	102.62
424.956	101.62
425.178	101.62
425.401	114.62
425.623	98.62
425.846	88.62
426.068	95.62
426.291	96.62
426.513	85.62
426.735	93.62
426.958	108.62
427.18	119.62
427.402	147.62
427.625	166.62
427.847	155.62
428.069	148.62
428.292	113.62
428.514	79.62
428.736	78.62
428.958	94.62
429.181	83.62
429.403	82.62
429.625	88.62
429.847	89.62
430.069	94.62
430.292	85.62
430.514	86.62
430.736	98.62
430.958	80.62
431.18	88.62
431.402	87.62
431.624	86.62
431.846	86.62
432.068	88.62
432.29	81.62
432.512	98.62
432.734	85.62
432.956	95.62
433.178	93.62
433.4	94.62
433.622	85.62
433.844	84.62
434.066	102.62
434.287	102.62
434.509	90.62
434.731	81.62
434.953	83.62
435.175	103.62
435.397	78.62
435.618	91.62
435.84	104.62
436.062	117.62
436.284	108.62
436.505	96.62
436.727	96.62
436.949	80.62
437.17	73.62
437.392	94.62
437.614	106.62
437.835	108.62
438.057	114.62
438.278	83.62
438.5	95.62
438.721	145.62
438.943	98.62
439.165	89.62
439.386	86.62
439.608	102.62
439.829	91.62
440.05	110.62
440.272	120.62
440.493	85.62
440.715	80.62
440.936	91.62
441.158	84.62
441.379	74.62
441.6	96.62
441.822	95.62
442.043	91.62
442.264	101.62
442.486	96.62
442.707	83.62
442.928	87.62
443.149	129.62
443.371	142.62
443.592	116.62
443.813	113.62
444.034	104.62
444.255	91.62
444.476	89.62
444.698	76.62
444.919	85.62
445.14	125.62
445.361	114.62
445.582	128.62
445.803	146.62
446.024	152.62
446.245	139.62
446.466	106.62
446.687	94.62
446.908	87.62
447.129	97.62
447.35	85.62
447.571	102.62
447.792	81.62
448.013	84.62
448.234	89.62
448.455	89.62
448.675	100.62
448.896	104.62
449.117	109.62
449.338	105.62
449.559	114.62
449.779	112.62
450	86.62
450.221	79.62
450.442	89.62
450.662	102.62
450.883	109.62
451.104	105.62
451.324	100.62
451.545	71.62
451.766	109.62
451.986	74.62
452.207	93.62
452.428	85.62
452.648	92.62
452.869	117.62
453.089	125.62
453.31	103.62
453.53	83.62
453.751	101.62
453.971	100.62
454.192	97.62
454.412	79.62
454.633	77.62
454.853	92.62
455.073	105.62
455.294	96.62
455.514	85.62
455.734	80.62
455.955	85.62
456.175	87.62
456.395	80.62
456.616	93.62
456.836	86.62
457.056	81.62
457.276	84.62
457.497	73.62
457.717	82.62
457.937	82.62
458.157	85.62
458.377	70.62
458.598	106.62
458.818	146.62
459.038	150.62
459.258	119.62
459.478	98.62
459.698	79.62
459.918	85.62
460.138	90.62
460.358	81.62
460.578	89.62
460.798	90.62
461.018	88.62
461.238	82.62
461.458	72.62
461.678	70.62
461.898	90.62
462.118	86.62
462.338	93.62
462.558	82.62
462.777	89.62
462.997	101.62
463.217	99.62
463.437	76.62
463.657	78.62
463.876	90.62
464.096	99.62
464.316	81.62
464.536	95.62
464.755	84.62
464.975	112.62
465.195	153.62
465.414	167.62
465.634	89.62
465.854	88.62
466.073	95.62
466.293	82.62
466.512	95.62
466.732	80.62
466.951	73.62
467.171	84.62
467.391	91.62
467.61	110.62
467.829	120.62
468.049	217.62
468.268	263.62
468.488	121.62
468.707	90.62
468.927	97.62
469.146	85.62
469.365	82.62
469.585	89.62
469.804	96.62
470.023	84.62
470.243	81.62
470.462	95.62
470.681	107.62
470.901	89.62
471.12	87.62
471.339	108.62
471.558	96.62
471.777	99.62
471.997	171.62
472.216	376.62
472.435	730.62
472.654	230.62
472.873	107.62
473.092	94.62
473.311	84.62
473.53	88.62
473.749	93.62
473.968	100.62
474.187	103.62
474.406	94.62
474.625	98.62
474.844	72.62
475.063	64.62
475.282	80.62
475.501	85.62
475.72	87.62
475.939	78.62
476.158	99.62
476.377	87.62
476.596	82.62
476.814	85.62
477.033	96.62
477.252	110.62
477.471	96.62
477.69	81.62
477.908	87.62
478.127	85.62
478.346	81.62
478.564	90.62
478.783	103.62
479.002	100.62
479.22	106.62
479.439	111.62
479.658	98.62
479.876	104.62
480.095	86.62
480.313	89.62
480.532	101.62
480.751	154.62
480.969	358.62
481.188	1228.62
481.406	747.62
481.624	168.62
481.843	105.62
482.061	96.62
482.28	94.62
482.498	93.62
482.717	87.62
482.935	84.62
483.153	81.62
483.372	97.62
483.59	87.62
483.808	99.62
484.027	97.62
484.245	94.62
484.463	88.62
484.681	107.62
484.9	89.62
485.118	88.62
485.336	80.62
485.554	93.62
485.772	100.62
485.99	111.62
486.209	99.62
486.427	109.62
486.645	96.62
486.863	110.62
487.081	99.62
487.299	119.62
487.517	95.62
487.735	82.62
487.953	95.62
488.171	79.62
488.389	103.62
488.607	101.62
488.825	96.62
489.043	79.62
489.261	96.62
489.479	88.62
489.696	85.62
489.914	88.62
490.132	80.62
490.35	100.62
490.568	88.62
490.786	96.62
491.003	94.62
491.221	89.62
491.439	90.62
491.657	93.62
491.874	96.62
492.092	92.62
492.31	97.62
492.527	93.62
492.745	93.62
492.963	87.62
493.18	93.62
493.398	97.62
493.615	103.62
493.833	84.62
494.05	87.62
494.268	91.62
494.485	96.62
494.703	92.62
494.92	82.62
495.138	77.62
495.355	87.62
495.573	95.62
495.79	76.62
496.008	96.62
496.225	84.62
496.442	84.62
496.66	83.62
496.877	93.62
497.094	96.62
497.312	80.62
497.529	89.62
497.746	91.62
497.963	92.62
498.181	86.62
498.398	101.62
498.615	113.62
498.832	88.62
499.049	98.62
499.267	97.62
499.484	95.62
499.701	86.62
499.918	90.62
500.135	90.62
500.352	88.62
500.569	95.62
500.786	88.62
501.003	76.62
501.22	93.62
501.437	87.62
501.654	94.62
501.871	102.62
502.088	95.62
502.305	86.62
502.522	82.62
502.739	98.62
502.956	90.62
503.172	85.62
503.389	102.62
503.606	105.62
503.823	92.62
504.04	100.62
504.256	82.62
504.473	84.62
504.69	86.62
504.907	81.62
505.123	82.62
505.34	79.62
505.557	82.62
505.773	104.62
505.99	85.62
506.207	88.62
506.423	93.62
506.64	86.62
506.856	87.62
507.073	79.62
507.289	101.62
507.506	103.62
507.722	107.62
507.939	111.62
508.155	108.62
508.372	90.62
508.588	100.62
508.805	90.62
509.021	95.62
509.238	87.62
509.454	87.62
509.67	98.62
509.887	109.62
510.103	118.62
510.319	185.62
510.536	708.62
510.752	2201.62
510.968	598.62
511.184	162.62
511.401	116.62
511.617	97.62
511.833	101.62
512.049	84.62
512.265	104.62
512.481	88.62
512.698	105.62
512.914	99.62
513.13	100.62
513.346	96.62
513.562	93.62
513.778	108.62
513.994	100.62
514.21	97.62
514.426	117.62
514.642	116.62
514.858	124.62
515.074	160.62
515.29	450.62
515.506	1452.62
