Data from Circ_2004_H10_HRD10591_00025.txt Node
Date: Wed Jan 03 10:33:19 EST 2024
User: Yrep
Spectrometer: HR+D1059
Trigger mode: 1
Integration Time (sec): 1.000000E-1
Scans to average: 1
Electric dark correction enabled: true
Nonlinearity correction enabled: false
Boxcar width: 0
XAxis mode: Wavelengths
Number of Pixels in Spectrum: 2048
>>>>>Begin Spectral Data<<<<<
223.165	-20.31
223.4	-20.31
223.635	-20.31
223.869	-21.31
224.104	-29.31
224.338	-25.31
224.573	-1.31
224.808	-19.31
225.042	5.69
225.277	6.69
225.511	-13.31
225.746	10.69
225.98	6.69
226.215	17.69
226.449	4.69
226.683	11.69
226.918	17.69
227.152	48.69
227.387	36.69
227.621	30.69
227.856	33.69
228.09	39.69
228.324	52.69
228.559	65.69
228.793	62.69
229.027	59.69
229.262	57.69
229.496	76.69
229.73	79.69
229.964	85.69
230.199	86.69
230.433	74.69
230.667	66.69
230.901	86.69
231.136	78.69
231.37	83.69
231.604	69.69
231.838	83.69
232.072	76.69
232.306	81.69
232.541	87.69
232.775	80.69
233.009	77.69
233.243	79.69
233.477	86.69
233.711	88.69
233.945	74.69
234.179	73.69
234.413	80.69
234.647	87.69
234.881	73.69
235.115	76.69
235.349	71.69
235.583	78.69
235.817	77.69
236.051	70.69
236.285	76.69
236.519	70.69
236.753	76.69
236.987	88.69
237.221	74.69
237.455	89.69
237.689	71.69
237.922	75.69
238.156	76.69
238.39	82.69
238.624	83.69
238.858	91.69
239.091	84.69
239.325	76.69
239.559	71.69
239.793	81.69
240.027	81.69
240.26	85.69
240.494	73.69
240.728	76.69
240.961	70.69
241.195	77.69
241.429	70.69
241.662	75.69
241.896	71.69
242.13	62.69
242.363	70.69
242.597	73.69
242.83	71.69
243.064	64.69
243.298	75.69
243.531	69.69
243.765	88.69
243.998	77.69
244.232	72.69
244.465	79.69
244.699	77.69
244.932	91.69
245.166	81.69
245.399	87.69
245.633	79.69
245.866	77.69
246.099	69.69
246.333	74.69
246.566	80.69
246.8	78.69
247.033	78.69
247.266	77.69
247.5	79.69
247.733	45.69
247.966	61.69
248.2	73.69
248.433	74.69
248.666	79.69
248.899	77.69
249.133	85.69
249.366	86.69
249.599	93.69
249.832	80.69
250.066	79.69
250.299	85.69
250.532	84.69
250.765	86.69
250.998	82.69
251.231	79.69
251.465	77.69
251.698	74.69
251.931	68.69
252.164	79.69
252.397	67.69
252.63	63.69
252.863	87.69
253.096	78.69
253.329	77.69
253.562	82.69
253.795	72.69
254.028	81.69
254.261	72.69
254.494	79.69
254.727	73.69
254.96	79.69
255.193	68.69
255.426	85.69
255.659	82.69
255.892	75.69
256.124	71.69
256.357	78.69
256.59	87.69
256.823	60.69
257.056	77.69
257.289	77.69
257.521	80.69
257.754	79.69
257.987	89.69
258.22	93.69
258.452	75.69
258.685	82.69
258.918	79.69
259.151	69.69
259.383	60.69
259.616	70.69
259.849	82.69
260.081	62.69
260.314	84.69
260.547	86.69
260.779	74.69
261.012	82.69
261.244	97.69
261.477	89.69
261.71	83.69
261.942	101.69
262.175	114.69
262.407	104.69
262.64	95.69
262.872	85.69
263.105	81.69
263.337	74.69
263.57	74.69
263.802	66.69
264.035	78.69
264.267	87.69
264.499	81.69
264.732	79.69
264.964	83.69
265.197	80.69
265.429	74.69
265.661	85.69
265.894	85.69
266.126	70.69
266.358	76.69
266.591	74.69
266.823	82.69
267.055	94.69
267.287	80.69
267.52	79.69
267.752	82.69
267.984	85.69
268.216	62.69
268.448	83.69
268.681	87.69
268.913	74.69
269.145	97.69
269.377	91.69
269.609	78.69
269.841	95.69
270.073	85.69
270.306	68.69
270.538	63.69
270.77	84.69
271.002	74.69
271.234	84.69
271.466	73.69
271.698	76.69
271.93	71.69
272.162	80.69
272.394	83.69
272.626	88.69
272.858	86.69
273.09	76.69
273.322	73.69
273.553	94.69
273.785	78.69
274.017	66.69
274.249	94.69
274.481	97.69
274.713	95.69
274.945	92.69
275.176	90.69
275.408	82.69
275.64	83.69
275.872	74.69
276.104	93.69
276.335	91.69
276.567	95.69
276.799	87.69
277.031	89.69
277.262	86.69
277.494	82.69
277.726	106.69
277.957	83.69
278.189	85.69
278.421	84.69
278.652	100.69
278.884	84.69
279.115	82.69
279.347	96.69
279.579	90.69
279.81	86.69
280.042	81.69
280.273	91.69
280.505	85.69
280.736	84.69
280.968	76.69
281.199	83.69
281.431	90.69
281.662	75.69
281.894	84.69
282.125	83.69
282.356	96.69
282.588	108.69
282.819	112.69
283.051	85.69
283.282	84.69
283.513	83.69
283.745	73.69
283.976	85.69
284.207	81.69
284.439	70.69
284.67	91.69
284.901	75.69
285.132	70.69
285.364	81.69
285.595	75.69
285.826	81.69
286.057	76.69
286.288	80.69
286.52	81.69
286.751	87.69
286.982	83.69
287.213	73.69
287.444	91.69
287.675	98.69
287.906	84.69
288.138	87.69
288.369	86.69
288.6	85.69
288.831	84.69
289.062	90.69
289.293	69.69
289.524	81.69
289.755	85.69
289.986	79.69
290.217	75.69
290.448	74.69
290.679	77.69
290.91	84.69
291.141	84.69
291.371	74.69
291.602	86.69
291.833	87.69
292.064	79.69
292.295	77.69
292.526	89.69
292.757	74.69
292.987	96.69
293.218	84.69
293.449	76.69
293.68	84.69
293.91	95.69
294.141	73.69
294.372	87.69
294.603	87.69
294.833	73.69
295.064	90.69
295.295	85.69
295.525	84.69
295.756	94.69
295.987	97.69
296.217	97.69
296.448	115.69
296.679	79.69
296.909	82.69
297.14	88.69
297.37	88.69
297.601	96.69
297.831	82.69
298.062	67.69
298.292	87.69
298.523	72.69
298.753	84.69
298.984	80.69
299.214	88.69
299.445	67.69
299.675	87.69
299.905	95.69
300.136	72.69
300.366	95.69
300.597	106.69
300.827	94.69
301.057	105.69
301.288	106.69
301.518	80.69
301.748	84.69
301.979	97.69
302.209	85.69
302.439	88.69
302.669	72.69
302.9	78.69
303.13	98.69
303.36	96.69
303.59	97.69
303.82	102.69
304.051	86.69
304.281	90.69
304.511	89.69
304.741	92.69
304.971	80.69
305.201	96.69
305.431	102.69
305.661	84.69
305.891	81.69
306.121	92.69
306.352	90.69
306.582	88.69
306.812	88.69
307.042	83.69
307.272	95.69
307.502	90.69
307.731	115.69
307.961	94.69
308.191	97.69
308.421	90.69
308.651	93.69
308.881	86.69
309.111	100.69
309.341	90.69
309.571	82.69
309.8	80.69
310.03	82.69
310.26	86.69
310.49	86.69
310.72	83.69
310.949	101.69
311.179	82.69
311.409	77.69
311.639	101.69
311.868	86.69
312.098	87.69
312.328	105.69
312.557	94.69
312.787	95.69
313.017	102.69
313.246	94.69
313.476	90.69
313.706	95.69
313.935	92.69
314.165	91.69
314.394	95.69
314.624	76.69
314.853	98.69
315.083	83.69
315.312	77.69
315.542	95.69
315.771	102.69
316.001	85.69
316.23	85.69
316.46	78.69
316.689	96.69
316.919	97.69
317.148	95.69
317.377	87.69
317.607	81.69
317.836	76.69
318.065	81.69
318.295	78.69
318.524	88.69
318.753	91.69
318.983	87.69
319.212	97.69
319.441	88.69
319.67	98.69
319.9	92.69
320.129	77.69
320.358	94.69
320.587	78.69
320.816	99.69
321.046	94.69
321.275	98.69
321.504	100.69
321.733	93.69
321.962	81.69
322.191	86.69
322.42	105.69
322.649	99.69
322.878	93.69
323.108	104.69
323.337	118.69
323.566	121.69
323.795	121.69
324.024	175.69
324.253	318.69
324.482	631.69
324.71	1241.69
324.939	1617.69
325.168	609.69
325.397	196.69
325.626	129.69
325.855	118.69
326.084	121.69
326.313	118.69
326.542	121.69
326.77	189.69
326.999	364.69
327.228	700.69
327.457	1258.69
327.686	997.69
327.914	301.69
328.143	169.69
328.372	174.69
328.6	131.69
328.829	121.69
329.058	108.69
329.287	111.69
329.515	93.69
329.744	127.69
329.972	134.69
330.201	190.69
330.43	228.69
330.658	148.69
330.887	118.69
331.115	119.69
331.344	116.69
331.572	99.69
331.801	92.69
332.03	94.69
332.258	93.69
332.486	105.69
332.715	95.69
332.943	87.69
333.172	101.69
333.4	99.69
333.629	105.69
333.857	119.69
334.085	132.69
334.314	198.69
334.542	285.69
334.771	256.69
334.999	141.69
335.227	98.69
335.455	117.69
335.684	83.69
335.912	89.69
336.14	99.69
336.369	97.69
336.597	99.69
336.825	101.69
337.053	90.69
337.281	84.69
337.51	92.69
337.738	84.69
337.966	87.69
338.194	92.69
338.422	91.69
338.65	87.69
338.878	96.69
339.106	99.69
339.334	85.69
339.562	84.69
339.79	81.69
340.018	100.69
340.246	97.69
340.474	85.69
340.702	92.69
340.93	91.69
341.158	87.69
341.386	93.69
341.614	92.69
341.842	94.69
342.07	87.69
342.298	82.69
342.526	83.69
342.754	81.69
342.981	82.69
343.209	91.69
343.437	80.69
343.665	77.69
343.893	86.69
344.12	81.69
344.348	80.69
344.576	91.69
344.804	90.69
345.031	91.69
345.259	98.69
345.487	84.69
345.714	81.69
345.942	94.69
346.17	94.69
346.397	83.69
346.625	88.69
346.853	93.69
347.08	78.69
347.308	98.69
347.535	77.69
347.763	87.69
347.99	70.69
348.218	96.69
348.445	99.69
348.673	101.69
348.9	92.69
349.128	94.69
349.355	89.69
349.583	90.69
349.81	95.69
350.037	80.69
350.265	90.69
350.492	91.69
350.72	96.69
350.947	89.69
351.174	92.69
351.402	95.69
351.629	87.69
351.856	103.69
352.083	107.69
352.311	93.69
352.538	102.69
352.765	113.69
352.992	105.69
353.22	107.69
353.447	97.69
353.674	105.69
353.901	88.69
354.128	87.69
354.355	103.69
354.583	77.69
354.81	85.69
355.037	81.69
355.264	85.69
355.491	87.69
355.718	98.69
355.945	100.69
356.172	90.69
356.399	84.69
356.626	89.69
356.853	89.69
357.08	87.69
357.307	103.69
357.534	74.69
357.761	95.69
357.988	101.69
358.215	96.69
358.441	95.69
358.668	109.69
358.895	95.69
359.122	95.69
359.349	92.69
359.576	98.69
359.802	97.69
360.029	90.69
360.256	106.69
360.483	91.69
360.709	89.69
360.936	90.69
361.163	78.69
361.39	99.69
361.616	84.69
361.843	81.69
362.07	103.69
362.296	92.69
362.523	102.69
362.749	88.69
362.976	87.69
363.203	94.69
363.429	86.69
363.656	86.69
363.882	58.69
364.109	96.69
364.335	79.69
364.562	83.69
364.788	85.69
365.015	96.69
365.241	98.69
365.468	102.69
365.694	92.69
365.92	90.69
366.147	74.69
366.373	92.69
366.599	82.69
366.826	85.69
367.052	76.69
367.278	101.69
367.505	93.69
367.731	95.69
367.957	80.69
368.184	79.69
368.41	92.69
368.636	101.69
368.862	107.69
369.089	79.69
369.315	93.69
369.541	97.69
369.767	90.69
369.993	92.69
370.219	88.69
370.445	91.69
370.672	86.69
370.898	76.69
371.124	85.69
371.35	86.69
371.576	93.69
371.802	80.69
372.028	84.69
372.254	90.69
372.48	74.69
372.706	83.69
372.932	83.69
373.158	92.69
373.384	90.69
373.61	91.69
373.835	93.69
374.061	81.69
374.287	89.69
374.513	87.69
374.739	86.69
374.965	82.69
375.191	91.69
375.416	87.69
375.642	93.69
375.868	82.69
376.094	94.69
376.319	89.69
376.545	83.69
376.771	96.69
376.997	82.69
377.222	95.69
377.448	85.69
377.674	73.69
377.899	80.69
378.125	77.69
378.35	95.69
378.576	88.69
378.802	93.69
379.027	94.69
379.253	99.69
379.478	96.69
379.704	103.69
379.929	101.69
380.155	90.69
380.38	95.69
380.606	93.69
380.831	83.69
381.057	91.69
381.282	99.69
381.507	87.69
381.733	97.69
381.958	95.69
382.184	110.69
382.409	99.69
382.634	94.69
382.86	96.69
383.085	101.69
383.31	106.69
383.535	103.69
383.761	92.69
383.986	94.69
384.211	97.69
384.436	98.69
384.662	97.69
384.887	97.69
385.112	98.69
385.337	89.69
385.562	87.69
385.787	106.69
386.013	103.69
386.238	113.69
386.463	109.69
386.688	101.69
386.913	103.69
387.138	107.69
387.363	81.69
387.588	95.69
387.813	96.69
388.038	94.69
388.263	115.69
388.488	123.69
388.713	95.69
388.938	100.69
389.163	100.69
389.387	85.69
389.612	88.69
389.837	90.69
390.062	104.69
390.287	88.69
390.512	81.69
390.736	92.69
390.961	89.69
391.186	84.69
391.411	81.69
391.636	95.69
391.86	87.69
392.085	79.69
392.31	85.69
392.534	81.69
392.759	55.69
392.984	82.69
393.208	91.69
393.433	103.69
393.658	103.69
393.882	88.69
394.107	77.69
394.331	77.69
394.556	85.69
394.78	82.69
395.005	89.69
395.229	85.69
395.454	80.69
395.678	81.69
395.903	87.69
396.127	71.69
396.352	91.69
396.576	87.69
396.801	83.69
397.025	101.69
397.249	82.69
397.474	96.69
397.698	89.69
397.922	82.69
398.147	85.69
398.371	98.69
398.595	95.69
398.82	92.69
399.044	89.69
399.268	88.69
399.492	94.69
399.717	97.69
399.941	91.69
400.165	80.69
400.389	79.69
400.613	83.69
400.837	82.69
401.062	80.69
401.286	81.69
401.51	97.69
401.734	83.69
401.958	103.69
402.182	122.69
402.406	138.69
402.63	103.69
402.854	108.69
403.078	77.69
403.302	91.69
403.526	94.69
403.75	89.69
403.974	86.69
404.198	80.69
404.422	72.69
404.645	80.69
404.869	93.69
405.093	102.69
405.317	93.69
405.541	91.69
405.765	83.69
405.988	102.69
406.212	142.69
406.436	180.69
406.66	129.69
406.883	96.69
407.107	90.69
407.331	90.69
407.555	92.69
407.778	87.69
408.002	92.69
408.226	87.69
408.449	95.69
408.673	94.69
408.896	93.69
409.12	100.69
409.344	96.69
409.567	92.69
409.791	99.69
410.014	86.69
410.238	100.69
410.461	87.69
410.685	90.69
410.908	82.69
411.132	112.69
411.355	85.69
411.578	97.69
411.802	68.69
412.025	86.69
412.249	92.69
412.472	97.69
412.695	80.69
412.919	74.69
413.142	86.69
413.365	96.69
413.589	95.69
413.812	97.69
414.035	88.69
414.258	94.69
414.482	85.69
414.705	78.69
414.928	91.69
415.151	71.69
415.374	79.69
415.597	72.69
415.821	91.69
416.044	77.69
416.267	82.69
416.49	96.69
416.713	83.69
416.936	92.69
417.159	84.69
417.382	94.69
417.605	93.69
417.828	74.69
418.051	73.69
418.274	69.69
418.497	75.69
418.72	97.69
418.943	92.69
419.166	92.69
419.389	86.69
419.611	100.69
419.834	95.69
420.057	85.69
420.28	84.69
420.503	90.69
420.726	81.69
420.948	84.69
421.171	94.69
421.394	102.69
421.617	102.69
421.839	87.69
422.062	84.69
422.285	80.69
422.507	102.69
422.73	99.69
422.953	104.69
423.175	69.69
423.398	83.69
423.621	100.69
423.843	82.69
424.066	83.69
424.288	82.69
424.511	82.69
424.733	78.69
424.956	93.69
425.178	85.69
425.401	84.69
425.623	87.69
425.846	74.69
426.068	86.69
426.291	93.69
426.513	94.69
426.735	93.69
426.958	73.69
427.18	86.69
427.402	125.69
427.625	129.69
427.847	129.69
428.069	113.69
428.292	97.69
428.514	80.69
428.736	87.69
428.958	81.69
429.181	84.69
429.403	97.69
429.625	71.69
429.847	81.69
430.069	103.69
430.292	81.69
430.514	82.69
430.736	95.69
430.958	84.69
431.18	84.69
431.402	81.69
431.624	82.69
431.846	80.69
432.068	74.69
432.29	82.69
432.512	87.69
432.734	78.69
432.956	83.69
433.178	90.69
433.4	91.69
433.622	79.69
433.844	85.69
434.066	93.69
434.287	85.69
434.509	80.69
434.731	81.69
434.953	66.69
435.175	75.69
435.397	73.69
435.618	94.69
435.84	93.69
436.062	89.69
436.284	101.69
436.505	106.69
436.727	95.69
436.949	86.69
437.17	81.69
437.392	90.69
437.614	80.69
437.835	100.69
438.057	102.69
438.278	93.69
438.5	98.69
438.721	96.69
438.943	90.69
439.165	93.69
439.386	105.69
439.608	90.69
439.829	81.69
440.05	97.69
440.272	119.69
440.493	91.69
440.715	98.69
440.936	87.69
441.158	76.69
441.379	84.69
441.6	85.69
441.822	102.69
442.043	85.69
442.264	82.69
442.486	96.69
442.707	88.69
442.928	108.69
443.149	97.69
443.371	131.69
443.592	91.69
443.813	87.69
444.034	86.69
444.255	99.69
444.476	90.69
444.698	85.69
444.919	95.69
445.14	119.69
445.361	100.69
445.582	91.69
445.803	113.69
446.024	121.69
446.245	110.69
446.466	101.69
446.687	73.69
446.908	84.69
447.129	79.69
447.35	87.69
447.571	92.69
447.792	84.69
448.013	98.69
448.234	102.69
448.455	113.69
448.675	103.69
448.896	106.69
449.117	80.69
449.338	80.69
449.559	101.69
449.779	114.69
450	94.69
450.221	83.69
450.442	82.69
450.662	94.69
450.883	86.69
451.104	107.69
451.324	91.69
451.545	87.69
451.766	91.69
451.986	90.69
452.207	86.69
452.428	84.69
452.648	97.69
452.869	95.69
453.089	105.69
453.31	95.69
453.53	82.69
453.751	92.69
453.971	91.69
454.192	94.69
454.412	93.69
454.633	93.69
454.853	91.69
455.073	94.69
455.294	94.69
455.514	91.69
455.734	92.69
455.955	82.69
456.175	65.69
456.395	84.69
456.616	83.69
456.836	80.69
457.056	85.69
457.276	90.69
457.497	75.69
457.717	102.69
457.937	79.69
458.157	77.69
458.377	94.69
458.598	98.69
458.818	123.69
459.038	126.69
459.258	98.69
459.478	83.69
459.698	73.69
459.918	79.69
460.138	86.69
460.358	84.69
460.578	86.69
460.798	81.69
461.018	84.69
461.238	98.69
461.458	87.69
461.678	78.69
461.898	84.69
462.118	82.69
462.338	94.69
462.558	86.69
462.777	83.69
462.997	86.69
463.217	89.69
463.437	96.69
463.657	87.69
463.876	94.69
464.096	91.69
464.316	98.69
464.536	91.69
464.755	83.69
464.975	102.69
465.195	143.69
465.414	135.69
465.634	99.69
465.854	70.69
466.073	92.69
466.293	74.69
466.512	97.69
466.732	82.69
466.951	77.69
467.171	94.69
467.391	94.69
467.61	102.69
467.829	103.69
468.049	136.69
468.268	176.69
468.488	91.69
468.707	94.69
468.927	79.69
469.146	78.69
469.365	80.69
469.585	98.69
469.804	98.69
470.023	77.69
470.243	86.69
470.462	117.69
470.681	109.69
470.901	90.69
471.12	105.69
471.339	95.69
471.558	91.69
471.777	86.69
471.997	104.69
472.216	215.69
472.435	355.69
472.654	144.69
472.873	114.69
473.092	102.69
473.311	107.69
473.53	86.69
473.749	97.69
473.968	84.69
474.187	91.69
474.406	102.69
474.625	90.69
474.844	82.69
475.063	76.69
475.282	86.69
475.501	85.69
475.72	93.69
475.939	83.69
476.158	75.69
476.377	70.69
476.596	87.69
476.814	77.69
477.033	100.69
477.252	77.69
477.471	94.69
477.69	77.69
477.908	83.69
478.127	93.69
478.346	79.69
478.564	85.69
478.783	91.69
479.002	86.69
479.22	96.69
479.439	97.69
479.658	102.69
479.876	75.69
480.095	93.69
480.313	85.69
480.532	78.69
480.751	103.69
480.969	222.69
481.188	586.69
481.406	397.69
481.624	119.69
481.843	90.69
482.061	89.69
482.28	85.69
482.498	79.69
482.717	84.69
482.935	84.69
483.153	88.69
483.372	89.69
483.59	81.69
483.808	80.69
484.027	92.69
484.245	84.69
484.463	94.69
484.681	108.69
484.9	86.69
485.118	88.69
485.336	95.69
485.554	91.69
485.772	92.69
485.99	113.69
486.209	97.69
486.427	95.69
486.645	106.69
486.863	104.69
487.081	86.69
487.299	100.69
487.517	90.69
487.735	75.69
487.953	90.69
488.171	94.69
488.389	85.69
488.607	91.69
488.825	87.69
489.043	78.69
489.261	85.69
489.479	69.69
489.696	82.69
489.914	89.69
490.132	78.69
490.35	95.69
490.568	88.69
490.786	82.69
491.003	77.69
491.221	101.69
491.439	87.69
491.657	83.69
491.874	94.69
492.092	91.69
492.31	72.69
492.527	95.69
492.745	87.69
492.963	89.69
493.18	91.69
493.398	91.69
493.615	94.69
493.833	102.69
494.05	91.69
494.268	95.69
494.485	81.69
494.703	91.69
494.92	83.69
495.138	77.69
495.355	91.69
495.573	93.69
495.79	75.69
496.008	84.69
496.225	95.69
496.442	83.69
496.66	100.69
496.877	92.69
497.094	93.69
497.312	73.69
497.529	79.69
497.746	87.69
497.963	86.69
498.181	83.69
498.398	81.69
498.615	98.69
498.832	89.69
499.049	70.69
499.267	97.69
499.484	83.69
499.701	89.69
499.918	81.69
500.135	95.69
500.352	85.69
500.569	82.69
500.786	94.69
501.003	94.69
501.22	83.69
501.437	77.69
501.654	70.69
501.871	104.69
502.088	80.69
502.305	85.69
502.522	76.69
502.739	90.69
502.956	85.69
503.172	85.69
503.389	89.69
503.606	98.69
503.823	81.69
504.04	90.69
504.256	94.69
504.473	100.69
504.69	77.69
504.907	70.69
505.123	89.69
505.34	91.69
505.557	87.69
505.773	85.69
505.99	80.69
506.207	91.69
506.423	78.69
506.64	90.69
506.856	92.69
507.073	90.69
507.289	100.69
507.506	84.69
507.722	102.69
507.939	101.69
508.155	95.69
508.372	96.69
508.588	97.69
508.805	101.69
509.021	102.69
509.238	79.69
509.454	90.69
509.67	90.69
509.887	103.69
510.103	121.69
510.319	177.69
510.536	565.69
510.752	1708.69
510.968	525.69
511.184	129.69
511.401	104.69
511.617	81.69
511.833	84.69
512.049	106.69
512.265	99.69
512.481	98.69
512.698	85.69
512.914	88.69
513.13	87.69
513.346	86.69
513.562	77.69
513.778	103.69
513.994	87.69
514.21	95.69
514.426	114.69
514.642	114.69
514.858	109.69
515.074	132.69
515.29	334.69
515.506	1057.69
515.721	398.69
515.937	130.69
516.153	87.69
516.369	93.69
516.585	91.69
516.801	86.69
517.016	84.69
