Data from Circ_2004_H10_HRD10591_00065.txt Node
Date: Wed Jan 03 10:33:27 EST 2024
User: Yrep
Spectrometer: HR+D1059
Trigger mode: 1
Integration Time (sec): 1.000000E-1
Scans to average: 1
Electric dark correction enabled: true
Nonlinearity correction enabled: false
Boxcar width: 0
XAxis mode: Wavelengths
Number of Pixels in Spectrum: 2048
>>>>>Begin Spectral Data<<<<<
223.165	-32.94
223.4	-32.94
223.635	-32.94
223.869	-21.94
224.104	-17.94
224.338	-12.94
224.573	-8.94
224.808	-6.94
225.042	-0.94
225.277	-10.94
225.511	4.06
225.746	-7.94
225.98	8.06
226.215	13.06
226.449	19.06
226.683	24.06
226.918	20.06
227.152	33.06
227.387	30.06
227.621	41.06
227.856	40.06
228.09	52.06
228.324	56.06
228.559	53.06
228.793	76.06
229.027	74.06
229.262	46.06
229.496	74.06
229.73	92.06
229.964	80.06
230.199	73.06
230.433	77.06
230.667	88.06
230.901	83.06
231.136	85.06
231.37	88.06
231.604	78.06
231.838	93.06
232.072	68.06
232.306	79.06
232.541	81.06
232.775	93.06
233.009	83.06
233.243	84.06
233.477	84.06
233.711	82.06
233.945	67.06
234.179	97.06
234.413	91.06
234.647	89.06
234.881	83.06
235.115	81.06
235.349	91.06
235.583	91.06
235.817	69.06
236.051	99.06
236.285	72.06
236.519	76.06
236.753	82.06
236.987	89.06
237.221	92.06
237.455	85.06
237.689	86.06
237.922	80.06
238.156	88.06
238.39	84.06
238.624	80.06
238.858	77.06
239.091	74.06
239.325	84.06
239.559	75.06
239.793	83.06
240.027	89.06
240.26	80.06
240.494	85.06
240.728	85.06
240.961	86.06
241.195	74.06
241.429	87.06
241.662	75.06
241.896	80.06
242.13	71.06
242.363	75.06
242.597	77.06
242.83	86.06
243.064	75.06
243.298	89.06
243.531	84.06
243.765	77.06
243.998	77.06
244.232	91.06
244.465	79.06
244.699	87.06
244.932	91.06
245.166	80.06
245.399	81.06
245.633	88.06
245.866	85.06
246.099	76.06
246.333	66.06
246.566	73.06
246.8	81.06
247.033	80.06
247.266	81.06
247.5	89.06
247.733	85.06
247.966	87.06
248.2	93.06
248.433	81.06
248.666	86.06
248.899	74.06
249.133	86.06
249.366	103.06
249.599	101.06
249.832	104.06
250.066	78.06
250.299	90.06
250.532	88.06
250.765	96.06
250.998	68.06
251.231	83.06
251.465	93.06
251.698	80.06
251.931	89.06
252.164	89.06
252.397	84.06
252.63	88.06
252.863	86.06
253.096	96.06
253.329	88.06
253.562	96.06
253.795	82.06
254.028	92.06
254.261	71.06
254.494	80.06
254.727	84.06
254.96	88.06
255.193	94.06
255.426	69.06
255.659	85.06
255.892	82.06
256.124	90.06
256.357	70.06
256.59	88.06
256.823	90.06
257.056	91.06
257.289	82.06
257.521	98.06
257.754	86.06
257.987	83.06
258.22	77.06
258.452	87.06
258.685	88.06
258.918	80.06
259.151	85.06
259.383	91.06
259.616	75.06
259.849	75.06
260.081	97.06
260.314	84.06
260.547	78.06
260.779	82.06
261.012	103.06
261.244	102.06
261.477	96.06
261.71	117.06
261.942	117.06
262.175	104.06
262.407	91.06
262.64	71.06
262.872	73.06
263.105	77.06
263.337	80.06
263.57	77.06
263.802	90.06
264.035	86.06
264.267	91.06
264.499	93.06
264.732	90.06
264.964	77.06
265.197	95.06
265.429	86.06
265.661	85.06
265.894	91.06
266.126	93.06
266.358	93.06
266.591	81.06
266.823	81.06
267.055	93.06
267.287	93.06
267.52	85.06
267.752	92.06
267.984	83.06
268.216	91.06
268.448	92.06
268.681	99.06
268.913	84.06
269.145	79.06
269.377	84.06
269.609	91.06
269.841	73.06
270.073	90.06
270.306	103.06
270.538	88.06
270.77	85.06
271.002	104.06
271.234	79.06
271.466	88.06
271.698	106.06
271.93	90.06
272.162	89.06
272.394	117.06
272.626	106.06
272.858	92.06
273.09	94.06
273.322	90.06
273.553	85.06
273.785	80.06
274.017	96.06
274.249	98.06
274.481	94.06
274.713	83.06
274.945	96.06
275.176	97.06
275.408	102.06
275.64	101.06
275.872	108.06
276.104	93.06
276.335	98.06
276.567	108.06
276.799	110.06
277.031	116.06
277.262	125.06
277.494	100.06
277.726	99.06
277.957	91.06
278.189	83.06
278.421	85.06
278.652	78.06
278.884	97.06
279.115	100.06
279.347	96.06
279.579	96.06
279.81	110.06
280.042	115.06
280.273	135.06
280.505	107.06
280.736	87.06
280.968	106.06
281.199	96.06
281.431	99.06
281.662	103.06
281.894	83.06
282.125	114.06
282.356	123.06
282.588	138.06
282.819	122.06
283.051	80.06
283.282	90.06
283.513	102.06
283.745	73.06
283.976	79.06
284.207	101.06
284.439	100.06
284.67	89.06
284.901	90.06
285.132	92.06
285.364	85.06
285.595	94.06
285.826	82.06
286.057	107.06
286.288	91.06
286.52	83.06
286.751	78.06
286.982	99.06
287.213	96.06
287.444	89.06
287.675	89.06
287.906	94.06
288.138	97.06
288.369	99.06
288.6	88.06
288.831	91.06
289.062	80.06
289.293	94.06
289.524	94.06
289.755	100.06
289.986	95.06
290.217	94.06
290.448	84.06
290.679	85.06
290.91	91.06
291.141	91.06
291.371	114.06
291.602	91.06
291.833	75.06
292.064	89.06
292.295	89.06
292.526	97.06
292.757	96.06
292.987	95.06
293.218	98.06
293.449	91.06
293.68	95.06
293.91	95.06
294.141	103.06
294.372	88.06
294.603	99.06
294.833	83.06
295.064	96.06
295.295	95.06
295.525	107.06
295.756	94.06
295.987	109.06
296.217	151.06
296.448	116.06
296.679	112.06
296.909	87.06
297.14	92.06
297.37	81.06
297.601	91.06
297.831	90.06
298.062	75.06
298.292	97.06
298.523	95.06
298.753	91.06
298.984	98.06
299.214	84.06
299.445	91.06
299.675	98.06
299.905	110.06
300.136	101.06
300.366	77.06
300.597	86.06
300.827	99.06
301.057	112.06
301.288	114.06
301.518	106.06
301.748	100.06
301.979	100.06
302.209	123.06
302.439	89.06
302.669	93.06
302.9	72.06
303.13	98.06
303.36	98.06
303.59	120.06
303.82	125.06
304.051	93.06
304.281	106.06
304.511	91.06
304.741	91.06
304.971	83.06
305.201	106.06
305.431	96.06
305.661	102.06
305.891	99.06
306.121	103.06
306.352	101.06
306.582	106.06
306.812	107.06
307.042	101.06
307.272	109.06
307.502	131.06
307.731	122.06
307.961	123.06
308.191	78.06
308.421	101.06
308.651	96.06
308.881	96.06
309.111	99.06
309.341	102.06
309.571	112.06
309.8	117.06
310.03	95.06
310.26	101.06
310.49	113.06
310.72	100.06
310.949	121.06
311.179	106.06
311.409	96.06
311.639	104.06
311.868	112.06
312.098	104.06
312.328	100.06
312.557	101.06
312.787	122.06
313.017	104.06
313.246	101.06
313.476	100.06
313.706	97.06
313.935	95.06
314.165	101.06
314.394	102.06
314.624	118.06
314.853	99.06
315.083	88.06
315.312	116.06
315.542	97.06
315.771	88.06
316.001	91.06
316.23	93.06
316.46	104.06
316.689	95.06
316.919	88.06
317.148	88.06
317.377	98.06
317.607	92.06
317.836	87.06
318.065	90.06
318.295	102.06
318.524	97.06
318.753	95.06
318.983	105.06
319.212	94.06
319.441	106.06
319.67	105.06
319.9	95.06
320.129	84.06
320.358	97.06
320.587	92.06
320.816	109.06
321.046	117.06
321.275	100.06
321.504	95.06
321.733	102.06
321.962	103.06
322.191	100.06
322.42	103.06
322.649	113.06
322.878	117.06
323.108	126.06
323.337	129.06
323.566	139.06
323.795	163.06
324.024	237.06
324.253	429.06
324.482	879.06
324.71	1786.06
324.939	2400.06
325.168	866.06
325.397	244.06
325.626	157.06
325.855	135.06
326.084	144.06
326.313	137.06
326.542	162.06
326.77	229.06
326.999	494.06
327.228	1001.06
327.457	1843.06
327.686	1450.06
327.914	434.06
328.143	306.06
328.372	317.06
328.6	195.06
328.829	154.06
329.058	147.06
329.287	156.06
329.515	148.06
329.744	158.06
329.972	233.06
330.201	390.06
330.43	574.06
330.658	304.06
330.887	163.06
331.115	139.06
331.344	112.06
331.572	96.06
331.801	119.06
332.03	113.06
332.258	101.06
332.486	116.06
332.715	109.06
332.943	113.06
333.172	96.06
333.4	119.06
333.629	135.06
333.857	173.06
334.085	214.06
334.314	383.06
334.542	674.06
334.771	665.06
334.999	237.06
335.227	146.06
335.455	117.06
335.684	96.06
335.912	117.06
336.14	111.06
336.369	98.06
336.597	106.06
336.825	113.06
337.053	110.06
337.281	104.06
337.51	90.06
337.738	91.06
337.966	98.06
338.194	101.06
338.422	98.06
338.65	99.06
338.878	94.06
339.106	102.06
339.334	88.06
339.562	101.06
339.79	109.06
340.018	104.06
340.246	112.06
340.474	106.06
340.702	99.06
340.93	99.06
341.158	89.06
341.386	105.06
341.614	109.06
341.842	98.06
342.07	107.06
342.298	92.06
342.526	102.06
342.754	85.06
342.981	110.06
343.209	98.06
343.437	103.06
343.665	84.06
343.893	88.06
344.12	110.06
344.348	106.06
344.576	101.06
344.804	80.06
345.031	112.06
345.259	100.06
345.487	93.06
345.714	115.06
345.942	105.06
346.17	97.06
346.397	100.06
346.625	95.06
346.853	112.06
347.08	98.06
347.308	106.06
347.535	108.06
347.763	99.06
347.99	90.06
348.218	104.06
348.445	102.06
348.673	92.06
348.9	90.06
349.128	99.06
349.355	89.06
349.583	86.06
349.81	104.06
350.037	111.06
350.265	108.06
350.492	98.06
350.72	89.06
350.947	110.06
351.174	117.06
351.402	124.06
351.629	100.06
351.856	108.06
352.083	102.06
352.311	117.06
352.538	117.06
352.765	113.06
352.992	112.06
353.22	118.06
353.447	101.06
353.674	105.06
353.901	114.06
354.128	96.06
354.355	87.06
354.583	98.06
354.81	107.06
355.037	88.06
355.264	104.06
355.491	102.06
355.718	90.06
355.945	90.06
356.172	97.06
356.399	99.06
356.626	88.06
356.853	86.06
357.08	95.06
357.307	101.06
357.534	94.06
357.761	91.06
357.988	99.06
358.215	99.06
358.441	90.06
358.668	98.06
358.895	101.06
359.122	92.06
359.349	89.06
359.576	87.06
359.802	102.06
360.029	122.06
360.256	125.06
360.483	98.06
360.709	106.06
360.936	100.06
361.163	108.06
361.39	108.06
361.616	105.06
361.843	85.06
362.07	90.06
362.296	103.06
362.523	112.06
362.749	104.06
362.976	119.06
363.203	77.06
363.429	95.06
363.656	97.06
363.882	87.06
364.109	93.06
364.335	93.06
364.562	106.06
364.788	99.06
365.015	93.06
365.241	102.06
365.468	111.06
365.694	102.06
365.92	96.06
366.147	100.06
366.373	98.06
366.599	104.06
366.826	101.06
367.052	90.06
367.278	94.06
367.505	93.06
367.731	87.06
367.957	105.06
368.184	93.06
368.41	104.06
368.636	121.06
368.862	121.06
369.089	108.06
369.315	99.06
369.541	82.06
369.767	91.06
369.993	96.06
370.219	100.06
370.445	100.06
370.672	81.06
370.898	104.06
371.124	99.06
371.35	105.06
371.576	83.06
371.802	91.06
372.028	82.06
372.254	96.06
372.48	101.06
372.706	93.06
372.932	84.06
373.158	86.06
373.384	108.06
373.61	90.06
373.835	89.06
374.061	101.06
374.287	91.06
374.513	97.06
374.739	94.06
374.965	103.06
375.191	80.06
375.416	99.06
375.642	82.06
375.868	100.06
376.094	94.06
376.319	86.06
376.545	93.06
376.771	82.06
376.997	91.06
377.222	85.06
377.448	102.06
377.674	98.06
377.899	78.06
378.125	84.06
378.35	95.06
378.576	87.06
378.802	79.06
379.027	94.06
379.253	102.06
379.478	89.06
379.704	83.06
379.929	94.06
380.155	101.06
380.38	99.06
380.606	87.06
380.831	89.06
381.057	90.06
381.282	87.06
381.507	111.06
381.733	109.06
381.958	94.06
382.184	89.06
382.409	105.06
382.634	100.06
382.86	99.06
383.085	112.06
383.31	96.06
383.535	105.06
383.761	105.06
383.986	97.06
384.211	107.06
384.436	91.06
384.662	105.06
384.887	109.06
385.112	107.06
385.337	88.06
385.562	91.06
385.787	91.06
386.013	108.06
386.238	113.06
386.463	116.06
386.688	104.06
386.913	86.06
387.138	112.06
387.363	106.06
387.588	107.06
387.813	105.06
388.038	102.06
388.263	109.06
388.488	125.06
388.713	86.06
388.938	94.06
389.163	87.06
389.387	107.06
389.612	102.06
389.837	91.06
390.062	98.06
390.287	104.06
390.512	99.06
390.736	92.06
390.961	95.06
391.186	84.06
391.411	82.06
391.636	89.06
391.86	81.06
392.085	86.06
392.31	91.06
392.534	91.06
392.759	84.06
392.984	93.06
393.208	85.06
393.433	106.06
393.658	88.06
393.882	76.06
394.107	100.06
394.331	92.06
394.556	106.06
394.78	86.06
395.005	78.06
395.229	88.06
395.454	93.06
395.678	103.06
395.903	81.06
396.127	115.06
396.352	86.06
396.576	89.06
396.801	98.06
397.025	105.06
397.249	94.06
397.474	88.06
397.698	82.06
397.922	89.06
398.147	89.06
398.371	91.06
398.595	96.06
398.82	86.06
399.044	94.06
399.268	101.06
399.492	93.06
399.717	96.06
399.941	91.06
400.165	96.06
400.389	102.06
400.613	97.06
400.837	99.06
401.062	82.06
401.286	103.06
401.51	94.06
401.734	97.06
401.958	94.06
402.182	134.06
402.406	164.06
402.63	114.06
402.854	97.06
403.078	94.06
403.302	96.06
403.526	100.06
403.75	87.06
403.974	97.06
404.198	100.06
404.422	98.06
404.645	107.06
404.869	110.06
405.093	106.06
405.317	109.06
405.541	103.06
405.765	107.06
405.988	124.06
406.212	172.06
406.436	246.06
406.66	158.06
406.883	88.06
407.107	107.06
407.331	98.06
407.555	101.06
407.778	97.06
408.002	97.06
408.226	91.06
408.449	95.06
408.673	78.06
408.896	93.06
409.12	96.06
409.344	100.06
409.567	94.06
409.791	87.06
410.014	91.06
410.238	84.06
410.461	93.06
410.685	92.06
410.908	89.06
411.132	110.06
411.355	95.06
411.578	112.06
411.802	87.06
412.025	84.06
412.249	99.06
412.472	106.06
412.695	132.06
412.919	101.06
413.142	113.06
413.365	101.06
413.589	97.06
413.812	93.06
414.035	86.06
414.258	98.06
414.482	97.06
414.705	106.06
414.928	91.06
415.151	98.06
415.374	86.06
415.597	86.06
415.821	86.06
416.044	85.06
416.267	88.06
416.49	94.06
416.713	99.06
416.936	99.06
417.159	97.06
417.382	92.06
417.605	106.06
417.828	98.06
418.051	82.06
418.274	102.06
418.497	101.06
418.72	104.06
418.943	93.06
419.166	96.06
419.389	103.06
419.611	93.06
419.834	94.06
420.057	100.06
420.28	86.06
420.503	82.06
420.726	101.06
420.948	100.06
421.171	113.06
421.394	112.06
421.617	89.06
421.839	99.06
422.062	98.06
422.285	98.06
422.507	86.06
422.73	109.06
422.953	100.06
423.175	90.06
423.398	93.06
423.621	83.06
423.843	87.06
424.066	81.06
424.288	90.06
424.511	88.06
424.733	108.06
424.956	107.06
425.178	110.06
425.401	109.06
425.623	106.06
425.846	106.06
426.068	98.06
426.291	92.06
426.513	95.06
426.735	97.06
426.958	93.06
427.18	109.06
427.402	158.06
427.625	196.06
427.847	150.06
428.069	159.06
428.292	124.06
428.514	88.06
428.736	96.06
428.958	97.06
429.181	91.06
429.403	92.06
429.625	95.06
429.847	89.06
430.069	108.06
430.292	106.06
430.514	91.06
430.736	91.06
430.958	101.06
431.18	101.06
431.402	92.06
431.624	95.06
431.846	82.06
432.068	79.06
432.29	71.06
432.512	102.06
432.734	91.06
432.956	92.06
433.178	93.06
433.4	99.06
433.622	93.06
433.844	92.06
434.066	94.06
434.287	98.06
434.509	91.06
434.731	88.06
434.953	88.06
435.175	84.06
435.397	94.06
435.618	101.06
435.84	118.06
436.062	125.06
436.284	109.06
436.505	116.06
436.727	107.06
436.949	94.06
437.17	91.06
437.392	74.06
437.614	101.06
437.835	106.06
438.057	128.06
438.278	103.06
438.5	117.06
438.721	126.06
438.943	88.06
439.165	91.06
439.386	85.06
439.608	86.06
439.829	104.06
440.05	133.06
440.272	145.06
440.493	110.06
440.715	93.06
440.936	102.06
441.158	94.06
441.379	85.06
441.6	97.06
441.822	102.06
442.043	108.06
442.264	120.06
442.486	119.06
442.707	108.06
442.928	107.06
443.149	131.06
443.371	131.06
443.592	120.06
443.813	97.06
444.034	112.06
444.255	103.06
444.476	95.06
444.698	92.06
444.919	83.06
445.14	133.06
445.361	139.06
445.582	129.06
445.803	150.06
446.024	152.06
446.245	155.06
446.466	117.06
446.687	87.06
446.908	87.06
447.129	92.06
447.35	95.06
447.571	87.06
447.792	98.06
448.013	103.06
448.234	113.06
448.455	93.06
448.675	106.06
448.896	115.06
449.117	113.06
449.338	107.06
449.559	115.06
449.779	142.06
450	102.06
450.221	99.06
450.442	96.06
450.662	104.06
450.883	99.06
451.104	119.06
451.324	100.06
451.545	95.06
451.766	98.06
451.986	90.06
452.207	100.06
452.428	83.06
452.648	107.06
452.869	117.06
453.089	115.06
453.31	123.06
453.53	99.06
453.751	101.06
453.971	114.06
454.192	109.06
454.412	85.06
454.633	96.06
454.853	79.06
455.073	89.06
455.294	84.06
455.514	94.06
455.734	106.06
455.955	108.06
456.175	80.06
456.395	94.06
456.616	70.06
456.836	101.06
457.056	74.06
457.276	99.06
457.497	80.06
457.717	87.06
457.937	93.06
458.157	100.06
458.377	102.06
458.598	114.06
458.818	154.06
459.038	182.06
459.258	129.06
459.478	92.06
459.698	102.06
459.918	86.06
460.138	92.06
460.358	84.06
460.578	89.06
460.798	93.06
461.018	95.06
461.238	91.06
461.458	99.06
461.678	79.06
461.898	97.06
462.118	86.06
462.338	100.06
462.558	83.06
462.777	85.06
462.997	104.06
463.217	98.06
463.437	102.06
463.657	88.06
463.876	95.06
464.096	89.06
464.316	91.06
464.536	97.06
464.755	92.06
464.975	117.06
465.195	178.06
465.414	169.06
465.634	88.06
465.854	92.06
466.073	81.06
466.293	88.06
466.512	93.06
466.732	100.06
466.951	106.06
467.171	97.06
467.391	96.06
467.61	105.06
467.829	134.06
468.049	259.06
468.268	361.06
468.488	128.06
468.707	83.06
468.927	82.06
469.146	92.06
469.365	97.06
469.585	93.06
469.804	86.06
470.023	109.06
470.243	107.06
470.462	115.06
470.681	110.06
470.901	97.06
471.12	98.06
471.339	99.06
471.558	103.06
471.777	131.06
471.997	171.06
472.216	459.06
472.435	952.06
472.654	270.06
472.873	108.06
473.092	96.06
473.311	88.06
473.53	92.06
473.749	93.06
473.968	101.06
474.187	104.06
474.406	105.06
474.625	84.06
474.844	101.06
475.063	93.06
475.282	94.06
475.501	82.06
475.72	92.06
475.939	95.06
476.158	84.06
476.377	90.06
476.596	97.06
476.814	99.06
477.033	121.06
477.252	101.06
477.471	92.06
477.69	93.06
477.908	96.06
478.127	110.06
478.346	83.06
478.564	104.06
478.783	111.06
479.002	101.06
479.22	103.06
479.439	93.06
479.658	117.06
479.876	105.06
480.095	109.06
480.313	120.06
480.532	122.06
480.751	161.06
480.969	450.06
481.188	1646.06
481.406	993.06
481.624	202.06
481.843	125.06
482.061	99.06
482.28	96.06
482.498	90.06
482.717	109.06
482.935	80.06
483.153	94.06
483.372	98.06
483.59	93.06
483.808	96.06
484.027	88.06
484.245	86.06
484.463	94.06
484.681	113.06
484.9	91.06
485.118	94.06
485.336	100.06
485.554	101.06
485.772	103.06
485.99	99.06
486.209	98.06
486.427	116.06
486.645	122.06
486.863	106.06
487.081	107.06
487.299	94.06
487.517	109.06
487.735	100.06
487.953	112.06
488.171	102.06
488.389	87.06
488.607	97.06
488.825	91.06
489.043	99.06
489.261	90.06
489.479	89.06
489.696	93.06
489.914	100.06
490.132	97.06
490.35	84.06
490.568	82.06
490.786	83.06
491.003	107.06
491.221	91.06
491.439	97.06
491.657	98.06
491.874	101.06
492.092	93.06
492.31	86.06
492.527	92.06
492.745	92.06
492.963	83.06
493.18	96.06
493.398	98.06
493.615	99.06
493.833	94.06
494.05	100.06
494.268	85.06
494.485	88.06
494.703	98.06
494.92	99.06
495.138	104.06
495.355	101.06
495.573	105.06
495.79	88.06
496.008	87.06
496.225	82.06
496.442	82.06
496.66	92.06
496.877	102.06
497.094	97.06
497.312	97.06
497.529	94.06
497.746	94.06
497.963	111.06
498.181	87.06
498.398	94.06
498.615	121.06
498.832	102.06
499.049	92.06
499.267	95.06
499.484	100.06
499.701	93.06
499.918	98.06
500.135	88.06
500.352	101.06
500.569	92.06
500.786	80.06
501.003	87.06
501.22	109.06
501.437	101.06
501.654	92.06
501.871	100.06
502.088	91.06
502.305	96.06
502.522	89.06
502.739	94.06
502.956	92.06
503.172	98.06
503.389	99.06
503.606	100.06
503.823	96.06
504.04	89.06
504.256	86.06
504.473	96.06
504.69	95.06
504.907	91.06
505.123	104.06
505.34	85.06
505.557	102.06
505.773	90.06
505.99	94.06
506.207	110.06
506.423	100.06
506.64	89.06
506.856	84.06
507.073	88.06
507.289	108.06
507.506	120.06
507.722	110.06
507.939	102.06
508.155	104.06
508.372	94.06
508.588	91.06
508.805	101.06
509.021	109.06
509.238	108.06
509.454	112.06
509.67	104.06
509.887	110.06
510.103	139.06
510.319	219.06
510.536	732.06
510.752	2356.06
510.968	678.06
511.184	172.06
511.401	107.06
511.617	107.06
511.833	94.06
512.049	102.06
512.265	98.06
512.481	110.06
512.698	100.06
512.914	88.06
