Data from Circ_2004_H10_HRD10591_00043.txt Node
Date: Wed Jan 03 10:33:22 EST 2024
User: Yrep
Spectrometer: HR+D1059
Trigger mode: 1
Integration Time (sec): 1.000000E-1
Scans to average: 1
Electric dark correction enabled: true
Nonlinearity correction enabled: false
Boxcar width: 0
XAxis mode: Wavelengths
Number of Pixels in Spectrum: 2048
>>>>>Begin Spectral Data<<<<<
223.165	-30.56
223.4	-30.56
223.635	-30.56
223.869	-14.56
224.104	-8.56
224.338	-4.56
224.573	-13.56
224.808	0.44
225.042	-2.56
225.277	-3.56
225.511	2.44
225.746	-14.56
225.98	-5.56
226.215	21.44
226.449	7.44
226.683	22.44
226.918	16.44
227.152	27.44
227.387	49.44
227.621	42.44
227.856	48.44
228.09	64.44
228.324	64.44
228.559	61.44
228.793	52.44
229.027	55.44
229.262	84.44
229.496	88.44
229.73	81.44
229.964	91.44
230.199	82.44
230.433	75.44
230.667	91.44
230.901	84.44
231.136	90.44
231.37	87.44
231.604	82.44
231.838	82.44
232.072	84.44
232.306	86.44
232.541	81.44
232.775	84.44
233.009	76.44
233.243	96.44
233.477	77.44
233.711	77.44
233.945	89.44
234.179	86.44
234.413	91.44
234.647	86.44
234.881	85.44
235.115	90.44
235.349	74.44
235.583	74.44
235.817	83.44
236.051	85.44
236.285	76.44
236.519	84.44
236.753	67.44
236.987	76.44
237.221	90.44
237.455	93.44
237.689	76.44
237.922	80.44
238.156	88.44
238.39	90.44
238.624	73.44
238.858	97.44
239.091	82.44
239.325	94.44
239.559	75.44
239.793	66.44
240.027	88.44
240.26	76.44
240.494	88.44
240.728	83.44
240.961	79.44
241.195	83.44
241.429	91.44
241.662	79.44
241.896	76.44
242.13	74.44
242.363	83.44
242.597	88.44
242.83	86.44
243.064	77.44
243.298	79.44
243.531	80.44
243.765	94.44
243.998	87.44
244.232	81.44
244.465	78.44
244.699	80.44
244.932	84.44
245.166	82.44
245.399	81.44
245.633	93.44
245.866	84.44
246.099	82.44
246.333	80.44
246.566	80.44
246.8	85.44
247.033	83.44
247.266	87.44
247.5	92.44
247.733	82.44
247.966	87.44
248.2	84.44
248.433	81.44
248.666	89.44
248.899	77.44
249.133	100.44
249.366	97.44
249.599	95.44
249.832	77.44
250.066	93.44
250.299	78.44
250.532	80.44
250.765	88.44
250.998	84.44
251.231	91.44
251.465	88.44
251.698	91.44
251.931	81.44
252.164	84.44
252.397	93.44
252.63	83.44
252.863	98.44
253.096	85.44
253.329	99.44
253.562	81.44
253.795	90.44
254.028	89.44
254.261	88.44
254.494	77.44
254.727	83.44
254.96	98.44
255.193	93.44
255.426	76.44
255.659	91.44
255.892	93.44
256.124	83.44
256.357	95.44
256.59	88.44
256.823	87.44
257.056	83.44
257.289	97.44
257.521	97.44
257.754	88.44
257.987	95.44
258.22	99.44
258.452	96.44
258.685	86.44
258.918	88.44
259.151	76.44
259.383	104.44
259.616	73.44
259.849	86.44
260.081	74.44
260.314	82.44
260.547	90.44
260.779	94.44
261.012	100.44
261.244	100.44
261.477	98.44
261.71	90.44
261.942	115.44
262.175	117.44
262.407	99.44
262.64	84.44
262.872	93.44
263.105	100.44
263.337	98.44
263.57	81.44
263.802	85.44
264.035	86.44
264.267	91.44
264.499	98.44
264.732	98.44
264.964	95.44
265.197	83.44
265.429	82.44
265.661	92.44
265.894	88.44
266.126	108.44
266.358	84.44
266.591	101.44
266.823	88.44
267.055	83.44
267.287	91.44
267.52	82.44
267.752	91.44
267.984	82.44
268.216	88.44
268.448	88.44
268.681	90.44
268.913	90.44
269.145	98.44
269.377	92.44
269.609	91.44
269.841	87.44
270.073	84.44
270.306	80.44
270.538	87.44
270.77	81.44
271.002	90.44
271.234	81.44
271.466	93.44
271.698	80.44
271.93	86.44
272.162	91.44
272.394	91.44
272.626	93.44
272.858	98.44
273.09	94.44
273.322	77.44
273.553	95.44
273.785	78.44
274.017	79.44
274.249	88.44
274.481	102.44
274.713	87.44
274.945	93.44
275.176	92.44
275.408	90.44
275.64	74.44
275.872	105.44
276.104	98.44
276.335	101.44
276.567	104.44
276.799	115.44
277.031	115.44
277.262	118.44
277.494	108.44
277.726	94.44
277.957	89.44
278.189	84.44
278.421	86.44
278.652	99.44
278.884	103.44
279.115	100.44
279.347	100.44
279.579	100.44
279.81	101.44
280.042	114.44
280.273	121.44
280.505	106.44
280.736	87.44
280.968	91.44
281.199	75.44
281.431	86.44
281.662	91.44
281.894	104.44
282.125	117.44
282.356	118.44
282.588	147.44
282.819	128.44
283.051	117.44
283.282	94.44
283.513	93.44
283.745	85.44
283.976	97.44
284.207	108.44
284.439	86.44
284.67	91.44
284.901	82.44
285.132	84.44
285.364	89.44
285.595	78.44
285.826	100.44
286.057	91.44
286.288	96.44
286.52	100.44
286.751	93.44
286.982	91.44
287.213	98.44
287.444	89.44
287.675	97.44
287.906	95.44
288.138	100.44
288.369	107.44
288.6	98.44
288.831	92.44
289.062	98.44
289.293	94.44
289.524	80.44
289.755	80.44
289.986	88.44
290.217	85.44
290.448	96.44
290.679	80.44
290.91	88.44
291.141	113.44
291.371	92.44
291.602	112.44
291.833	99.44
292.064	106.44
292.295	96.44
292.526	83.44
292.757	102.44
292.987	93.44
293.218	88.44
293.449	91.44
293.68	93.44
293.91	82.44
294.141	91.44
294.372	92.44
294.603	93.44
294.833	93.44
295.064	96.44
295.295	90.44
295.525	103.44
295.756	107.44
295.987	121.44
296.217	133.44
296.448	135.44
296.679	97.44
296.909	98.44
297.14	90.44
297.37	100.44
297.601	92.44
297.831	92.44
298.062	91.44
298.292	81.44
298.523	83.44
298.753	99.44
298.984	94.44
299.214	102.44
299.445	90.44
299.675	96.44
299.905	96.44
300.136	91.44
300.366	93.44
300.597	94.44
300.827	99.44
301.057	102.44
301.288	111.44
301.518	98.44
301.748	85.44
301.979	101.44
302.209	105.44
302.439	92.44
302.669	102.44
302.9	98.44
303.13	97.44
303.36	104.44
303.59	103.44
303.82	98.44
304.051	91.44
304.281	89.44
304.511	98.44
304.741	93.44
304.971	93.44
305.201	87.44
305.431	107.44
305.661	98.44
305.891	90.44
306.121	108.44
306.352	101.44
306.582	112.44
306.812	100.44
307.042	108.44
307.272	135.44
307.502	119.44
307.731	117.44
307.961	117.44
308.191	77.44
308.421	80.44
308.651	78.44
308.881	91.44
309.111	103.44
309.341	100.44
309.571	110.44
309.8	104.44
310.03	90.44
310.26	102.44
310.49	94.44
310.72	97.44
310.949	116.44
311.179	114.44
311.409	88.44
311.639	101.44
311.868	98.44
312.098	107.44
312.328	104.44
312.557	102.44
312.787	120.44
313.017	95.44
313.246	93.44
313.476	83.44
313.706	92.44
313.935	91.44
314.165	94.44
314.394	104.44
314.624	99.44
314.853	100.44
315.083	109.44
315.312	94.44
315.542	89.44
315.771	95.44
316.001	98.44
316.23	104.44
316.46	93.44
316.689	86.44
316.919	87.44
317.148	99.44
317.377	89.44
317.607	91.44
317.836	91.44
318.065	90.44
318.295	95.44
318.524	98.44
318.753	89.44
318.983	90.44
319.212	105.44
319.441	119.44
319.67	117.44
319.9	94.44
320.129	104.44
320.358	103.44
320.587	94.44
320.816	102.44
321.046	109.44
321.275	105.44
321.504	97.44
321.733	109.44
321.962	99.44
322.191	101.44
322.42	105.44
322.649	121.44
322.878	114.44
323.108	106.44
323.337	118.44
323.566	145.44
323.795	172.44
324.024	223.44
324.253	411.44
324.482	869.44
324.71	1757.44
324.939	2256.44
325.168	845.44
325.397	247.44
325.626	161.44
325.855	125.44
326.084	129.44
326.313	144.44
326.542	162.44
326.77	247.44
326.999	490.44
327.228	973.44
327.457	1734.44
327.686	1366.44
327.914	418.44
328.143	281.44
328.372	277.44
328.6	187.44
328.829	144.44
329.058	134.44
329.287	144.44
329.515	137.44
329.744	148.44
329.972	209.44
330.201	362.44
330.43	487.44
330.658	277.44
330.887	184.44
331.115	132.44
331.344	115.44
331.572	100.44
331.801	111.44
332.03	109.44
332.258	113.44
332.486	115.44
332.715	102.44
332.943	90.44
333.172	103.44
333.4	116.44
333.629	127.44
333.857	153.44
334.085	216.44
334.314	347.44
334.542	600.44
334.771	553.44
334.999	192.44
335.227	130.44
335.455	110.44
335.684	105.44
335.912	107.44
336.14	104.44
336.369	109.44
336.597	97.44
336.825	100.44
337.053	116.44
337.281	93.44
337.51	87.44
337.738	99.44
337.966	86.44
338.194	89.44
338.422	106.44
338.65	99.44
338.878	104.44
339.106	92.44
339.334	92.44
339.562	90.44
339.79	84.44
340.018	92.44
340.246	82.44
340.474	90.44
340.702	94.44
340.93	90.44
341.158	97.44
341.386	106.44
341.614	98.44
341.842	105.44
342.07	90.44
342.298	96.44
342.526	92.44
342.754	97.44
342.981	91.44
343.209	91.44
343.437	96.44
343.665	89.44
343.893	97.44
344.12	102.44
344.348	92.44
344.576	83.44
344.804	98.44
345.031	105.44
345.259	109.44
345.487	89.44
345.714	95.44
345.942	101.44
346.17	104.44
346.397	99.44
346.625	93.44
346.853	85.44
347.08	99.44
347.308	94.44
347.535	94.44
347.763	110.44
347.99	99.44
348.218	112.44
348.445	114.44
348.673	96.44
348.9	97.44
349.128	101.44
349.355	93.44
349.583	100.44
349.81	101.44
350.037	88.44
350.265	91.44
350.492	89.44
350.72	94.44
350.947	90.44
351.174	100.44
351.402	100.44
351.629	92.44
351.856	112.44
352.083	112.44
352.311	106.44
352.538	106.44
352.765	112.44
352.992	120.44
353.22	123.44
353.447	104.44
353.674	109.44
353.901	101.44
354.128	107.44
354.355	98.44
354.583	94.44
354.81	104.44
355.037	112.44
355.264	105.44
355.491	109.44
355.718	90.44
355.945	96.44
356.172	85.44
356.399	109.44
356.626	93.44
356.853	99.44
357.08	82.44
357.307	96.44
357.534	92.44
357.761	106.44
357.988	93.44
358.215	95.44
358.441	94.44
358.668	96.44
358.895	104.44
359.122	94.44
359.349	97.44
359.576	97.44
359.802	108.44
360.029	107.44
360.256	122.44
360.483	111.44
360.709	87.44
360.936	90.44
361.163	78.44
361.39	97.44
361.616	103.44
361.843	93.44
362.07	104.44
362.296	112.44
362.523	99.44
362.749	107.44
362.976	99.44
363.203	100.44
363.429	90.44
363.656	84.44
363.882	90.44
364.109	88.44
364.335	101.44
364.562	99.44
364.788	97.44
365.015	101.44
365.241	90.44
365.468	98.44
365.694	107.44
365.92	104.44
366.147	89.44
366.373	105.44
366.599	96.44
366.826	101.44
367.052	74.44
367.278	98.44
367.505	92.44
367.731	98.44
367.957	100.44
368.184	105.44
368.41	118.44
368.636	117.44
368.862	107.44
369.089	106.44
369.315	105.44
369.541	98.44
369.767	84.44
369.993	101.44
370.219	99.44
370.445	98.44
370.672	94.44
370.898	92.44
371.124	97.44
371.35	102.44
371.576	102.44
371.802	89.44
372.028	94.44
372.254	79.44
372.48	93.44
372.706	85.44
372.932	86.44
373.158	108.44
373.384	98.44
373.61	94.44
373.835	115.44
374.061	103.44
374.287	93.44
374.513	97.44
374.739	93.44
374.965	93.44
375.191	97.44
375.416	97.44
375.642	86.44
375.868	96.44
376.094	88.44
376.319	93.44
376.545	86.44
376.771	86.44
376.997	102.44
377.222	93.44
377.448	90.44
377.674	83.44
377.899	77.44
378.125	97.44
378.35	99.44
378.576	93.44
378.802	97.44
379.027	101.44
379.253	92.44
379.478	89.44
379.704	98.44
379.929	91.44
380.155	113.44
380.38	104.44
380.606	101.44
380.831	104.44
381.057	91.44
381.282	92.44
381.507	101.44
381.733	88.44
381.958	81.44
382.184	100.44
382.409	108.44
382.634	102.44
382.86	87.44
383.085	100.44
383.31	99.44
383.535	102.44
383.761	107.44
383.986	104.44
384.211	106.44
384.436	98.44
384.662	81.44
384.887	103.44
385.112	100.44
385.337	104.44
385.562	119.44
385.787	103.44
386.013	97.44
386.238	108.44
386.463	105.44
386.688	110.44
386.913	116.44
387.138	103.44
387.363	95.44
387.588	111.44
387.813	102.44
388.038	104.44
388.263	119.44
388.488	98.44
388.713	86.44
388.938	92.44
389.163	98.44
389.387	101.44
389.612	113.44
389.837	75.44
390.062	91.44
390.287	92.44
390.512	106.44
390.736	92.44
390.961	94.44
391.186	87.44
391.411	93.44
391.636	86.44
391.86	92.44
392.085	84.44
392.31	90.44
392.534	96.44
392.759	74.44
392.984	86.44
393.208	82.44
393.433	88.44
393.658	89.44
393.882	80.44
394.107	89.44
394.331	92.44
394.556	94.44
394.78	107.44
395.005	88.44
395.229	94.44
395.454	85.44
395.678	85.44
395.903	90.44
396.127	87.44
396.352	90.44
396.576	96.44
396.801	93.44
397.025	93.44
397.249	104.44
397.474	101.44
397.698	85.44
397.922	85.44
398.147	106.44
398.371	70.44
398.595	93.44
398.82	78.44
399.044	84.44
399.268	86.44
399.492	94.44
399.717	99.44
399.941	88.44
400.165	108.44
400.389	110.44
400.613	88.44
400.837	90.44
401.062	88.44
401.286	88.44
401.51	116.44
401.734	102.44
401.958	95.44
402.182	144.44
402.406	142.44
402.63	132.44
402.854	93.44
403.078	91.44
403.302	75.44
403.526	90.44
403.75	96.44
403.974	105.44
404.198	90.44
404.422	89.44
404.645	99.44
404.869	101.44
405.093	112.44
405.317	109.44
405.541	118.44
405.765	115.44
405.988	120.44
406.212	184.44
406.436	231.44
406.66	160.44
406.883	90.44
407.107	95.44
407.331	110.44
407.555	106.44
407.778	91.44
408.002	64.44
408.226	106.44
408.449	85.44
408.673	94.44
408.896	89.44
409.12	106.44
409.344	91.44
409.567	106.44
409.791	96.44
410.014	88.44
410.238	95.44
410.461	96.44
410.685	100.44
410.908	101.44
411.132	107.44
411.355	96.44
411.578	94.44
411.802	82.44
412.025	88.44
412.249	98.44
412.472	115.44
412.695	103.44
412.919	100.44
413.142	99.44
413.365	75.44
413.589	91.44
413.812	91.44
414.035	85.44
414.258	97.44
414.482	83.44
414.705	88.44
414.928	92.44
415.151	96.44
415.374	93.44
415.597	94.44
415.821	99.44
416.044	104.44
416.267	92.44
416.49	93.44
416.713	99.44
416.936	94.44
417.159	91.44
417.382	80.44
417.605	93.44
417.828	112.44
418.051	109.44
418.274	112.44
418.497	78.44
418.72	89.44
418.943	89.44
419.166	84.44
419.389	88.44
419.611	103.44
419.834	98.44
420.057	104.44
420.28	88.44
420.503	103.44
420.726	102.44
420.948	99.44
421.171	105.44
421.394	93.44
421.617	87.44
421.839	92.44
422.062	88.44
422.285	102.44
422.507	111.44
422.73	104.44
422.953	104.44
423.175	76.44
423.398	90.44
423.621	89.44
423.843	84.44
424.066	84.44
424.288	104.44
424.511	95.44
424.733	103.44
424.956	94.44
425.178	110.44
425.401	109.44
425.623	78.44
425.846	90.44
426.068	99.44
426.291	104.44
426.513	101.44
426.735	85.44
426.958	92.44
427.18	113.44
427.402	114.44
427.625	180.44
427.847	166.44
428.069	156.44
428.292	101.44
428.514	89.44
428.736	107.44
428.958	86.44
429.181	88.44
429.403	96.44
429.625	77.44
429.847	96.44
430.069	110.44
430.292	98.44
430.514	82.44
430.736	95.44
430.958	81.44
431.18	75.44
431.402	90.44
431.624	95.44
431.846	88.44
432.068	104.44
432.29	97.44
432.512	94.44
432.734	86.44
432.956	94.44
433.178	105.44
433.4	105.44
433.622	111.44
433.844	93.44
434.066	98.44
434.287	105.44
434.509	107.44
434.731	101.44
434.953	92.44
435.175	86.44
435.397	101.44
435.618	92.44
435.84	114.44
436.062	133.44
436.284	131.44
436.505	110.44
436.727	110.44
436.949	97.44
437.17	77.44
437.392	90.44
437.614	95.44
437.835	105.44
438.057	129.44
438.278	128.44
438.5	114.44
438.721	115.44
438.943	109.44
439.165	84.44
439.386	82.44
439.608	90.44
439.829	107.44
440.05	132.44
440.272	147.44
440.493	102.44
440.715	89.44
440.936	98.44
441.158	81.44
441.379	92.44
441.6	84.44
441.822	108.44
442.043	106.44
442.264	107.44
442.486	118.44
442.707	96.44
442.928	87.44
443.149	132.44
443.371	150.44
443.592	120.44
443.813	112.44
444.034	99.44
444.255	87.44
444.476	84.44
444.698	71.44
444.919	87.44
445.14	118.44
445.361	124.44
445.582	130.44
445.803	137.44
446.024	131.44
446.245	141.44
446.466	114.44
446.687	93.44
446.908	103.44
447.129	95.44
447.35	89.44
447.571	106.44
447.792	88.44
448.013	103.44
448.234	108.44
448.455	115.44
448.675	104.44
448.896	121.44
449.117	100.44
449.338	112.44
449.559	121.44
449.779	145.44
450	93.44
450.221	85.44
450.442	93.44
450.662	110.44
450.883	111.44
451.104	108.44
451.324	101.44
451.545	89.44
451.766	101.44
451.986	80.44
452.207	100.44
452.428	88.44
452.648	107.44
452.869	124.44
453.089	133.44
453.31	138.44
453.53	94.44
453.751	92.44
453.971	105.44
454.192	112.44
454.412	101.44
454.633	97.44
454.853	73.44
455.073	90.44
455.294	100.44
455.514	94.44
455.734	98.44
455.955	98.44
456.175	77.44
456.395	86.44
456.616	82.44
456.836	87.44
457.056	80.44
457.276	80.44
457.497	102.44
457.717	91.44
457.937	90.44
458.157	81.44
458.377	99.44
458.598	116.44
458.818	154.44
459.038	175.44
459.258	131.44
459.478	90.44
459.698	80.44
459.918	94.44
460.138	89.44
460.358	85.44
460.578	87.44
460.798	103.44
461.018	88.44
461.238	84.44
461.458	97.44
461.678	89.44
461.898	98.44
462.118	84.44
462.338	89.44
462.558	100.44
462.777	93.44
462.997	107.44
463.217	112.44
463.437	89.44
463.657	89.44
463.876	88.44
464.096	110.44
464.316	103.44
464.536	111.44
464.755	100.44
464.975	112.44
465.195	166.44
465.414	177.44
465.634	100.44
465.854	97.44
466.073	99.44
466.293	91.44
466.512	91.44
466.732	93.44
466.951	101.44
467.171	91.44
467.391	99.44
467.61	116.44
467.829	122.44
468.049	246.44
468.268	311.44
468.488	130.44
468.707	96.44
468.927	93.44
469.146	98.44
469.365	96.44
469.585	100.44
469.804	104.44
470.023	85.44
470.243	99.44
470.462	117.44
470.681	112.44
470.901	102.44
471.12	85.44
471.339	97.44
471.558	106.44
471.777	112.44
471.997	148.44
472.216	395.44
472.435	836.44
472.654	254.44
472.873	121.44
473.092	98.44
473.311	98.44
473.53	92.44
473.749	100.44
473.968	111.44
474.187	112.44
474.406	93.44
474.625	97.44
474.844	97.44
475.063	80.44
475.282	89.44
475.501	77.44
475.72	93.44
475.939	85.44
476.158	89.44
476.377	81.44
476.596	104.44
476.814	102.44
477.033	104.44
477.252	82.44
477.471	95.44
477.69	87.44
477.908	93.44
478.127	100.44
478.346	96.44
478.564	95.44
478.783	92.44
479.002	100.44
479.22	96.44
479.439	111.44
479.658	116.44
479.876	101.44
480.095	94.44
480.313	108.44
480.532	104.44
480.751	159.44
480.969	393.44
481.188	1412.44
481.406	880.44
481.624	182.44
481.843	120.44
482.061	107.44
482.28	98.44
482.498	94.44
482.717	92.44
482.935	91.44
483.153	113.44
483.372	105.44
483.59	100.44
483.808	101.44
484.027	105.44
484.245	113.44
484.463	105.44
484.681	100.44
484.9	80.44
485.118	91.44
485.336	90.44
485.554	87.44
485.772	108.44
485.99	113.44
486.209	103.44
486.427	100.44
486.645	102.44
486.863	120.44
487.081	94.44
487.299	98.44
487.517	88.44
487.735	92.44
487.953	90.44
488.171	97.44
488.389	95.44
488.607	125.44
488.825	91.44
489.043	81.44
489.261	83.44
489.479	107.44
489.696	90.44
489.914	104.44
490.132	98.44
490.35	93.44
490.568	91.44
490.786	98.44
491.003	94.44
491.221	75.44
491.439	102.44
491.657	110.44
491.874	98.44
492.092	104.44
492.31	94.44
492.527	98.44
492.745	96.44
492.963	99.44
493.18	98.44
493.398	108.44
493.615	107.44
493.833	99.44
494.05	86.44
494.268	97.44
494.485	101.44
494.703	91.44
494.92	106.44
495.138	86.44
495.355	93.44
495.573	79.44
495.79	85.44
496.008	98.44
496.225	95.44
496.442	98.44
496.66	101.44
496.877	80.44
497.094	91.44
497.312	100.44
497.529	100.44
497.746	81.44
497.963	102.44
498.181	86.44
498.398	113.44
498.615	117.44
498.832	102.44
499.049	94.44
499.267	98.44
499.484	103.44
499.701	105.44
499.918	91.44
500.135	92.44
500.352	92.44
500.569	92.44
500.786	89.44
501.003	96.44
501.22	102.44
501.437	104.44
501.654	115.44
501.871	125.44
502.088	104.44
502.305	96.44
502.522	96.44
502.739	100.44
502.956	101.44
503.172	81.44
503.389	104.44
503.606	120.44
503.823	94.44
504.04	90.44
504.256	104.44
504.473	89.44
504.69	101.44
504.907	93.44
505.123	100.44
505.34	94.44
505.557	90.44
505.773	99.44
505.99	104.44
506.207	106.44
506.423	87.44
506.64	95.44
506.856	101.44
507.073	114.44
507.289	98.44
507.506	108.44
507.722	118.44
507.939	111.44
508.155	123.44
508.372	94.44
508.588	96.44
508.805	99.44
509.021	111.44
509.238	97.44
509.454	89.44
509.67	98.44
509.887	114.44
510.103	129.44
510.319	218.44
510.536	777.44
510.752	2416.44
510.968	702.44
511.184	164.44
511.401	114.44
511.617	109.44
511.833	90.44
512.049	99.44
512.265	92.44
512.481	99.44
512.698	94.44
512.914	85.44
513.13	102.44
