Data from Circ_2004_H10_HRD10591_00071.txt Node
Date: Wed Jan 03 10:33:28 EST 2024
User: Yrep
Spectrometer: HR+D1059
Trigger mode: 1
Integration Time (sec): 1.000000E-1
Scans to average: 1
Electric dark correction enabled: true
Nonlinearity correction enabled: false
Boxcar width: 0
XAxis mode: Wavelengths
Number of Pixels in Spectrum: 2048
>>>>>Begin Spectral Data<<<<<
223.165	-22.38
223.4	-22.38
223.635	-22.38
223.869	-7.38
224.104	-17.38
224.338	-4.38
224.573	-23.38
224.808	-16.38
225.042	-16.38
225.277	-4.38
225.511	7.62
225.746	13.62
225.98	9.62
226.215	14.62
226.449	8.62
226.683	12.62
226.918	15.62
227.152	29.62
227.387	32.62
227.621	33.62
227.856	39.62
228.09	53.62
228.324	60.62
228.559	76.62
228.793	56.62
229.027	66.62
229.262	69.62
229.496	73.62
229.73	92.62
229.964	73.62
230.199	81.62
230.433	75.62
230.667	79.62
230.901	76.62
231.136	65.62
231.37	77.62
231.604	65.62
231.838	66.62
232.072	76.62
232.306	73.62
232.541	94.62
232.775	85.62
233.009	90.62
233.243	83.62
233.477	84.62
233.711	91.62
233.945	83.62
234.179	81.62
234.413	71.62
234.647	76.62
234.881	79.62
235.115	77.62
235.349	88.62
235.583	69.62
235.817	76.62
236.051	64.62
236.285	88.62
236.519	78.62
236.753	83.62
236.987	78.62
237.221	76.62
237.455	83.62
237.689	83.62
237.922	84.62
238.156	80.62
238.39	78.62
238.624	78.62
238.858	71.62
239.091	82.62
239.325	78.62
239.559	89.62
239.793	71.62
240.027	83.62
240.26	79.62
240.494	93.62
240.728	86.62
240.961	84.62
241.195	85.62
241.429	60.62
241.662	67.62
241.896	71.62
242.13	80.62
242.363	70.62
242.597	83.62
242.83	72.62
243.064	78.62
243.298	73.62
243.531	79.62
243.765	68.62
243.998	84.62
244.232	73.62
244.465	91.62
244.699	81.62
244.932	80.62
245.166	74.62
245.399	77.62
245.633	85.62
245.866	81.62
246.099	86.62
246.333	72.62
246.566	81.62
246.8	81.62
247.033	67.62
247.266	80.62
247.5	69.62
247.733	66.62
247.966	95.62
248.2	81.62
248.433	73.62
248.666	89.62
248.899	96.62
249.133	92.62
249.366	99.62
249.599	87.62
249.832	93.62
250.066	90.62
250.299	71.62
250.532	74.62
250.765	92.62
250.998	83.62
251.231	77.62
251.465	78.62
251.698	81.62
251.931	72.62
252.164	91.62
252.397	87.62
252.63	72.62
252.863	82.62
253.096	76.62
253.329	74.62
253.562	80.62
253.795	80.62
254.028	72.62
254.261	72.62
254.494	84.62
254.727	95.62
254.96	76.62
255.193	86.62
255.426	84.62
255.659	74.62
255.892	82.62
256.124	91.62
256.357	82.62
256.59	76.62
256.823	77.62
257.056	82.62
257.289	73.62
257.521	82.62
257.754	73.62
257.987	71.62
258.22	88.62
258.452	92.62
258.685	77.62
258.918	75.62
259.151	84.62
259.383	86.62
259.616	81.62
259.849	71.62
260.081	81.62
260.314	92.62
260.547	89.62
260.779	81.62
261.012	91.62
261.244	88.62
261.477	88.62
261.71	88.62
261.942	105.62
262.175	118.62
262.407	90.62
262.64	75.62
262.872	87.62
263.105	82.62
263.337	99.62
263.57	93.62
263.802	96.62
264.035	81.62
264.267	94.62
264.499	84.62
264.732	85.62
264.964	82.62
265.197	104.62
265.429	88.62
265.661	73.62
265.894	83.62
266.126	74.62
266.358	95.62
266.591	72.62
266.823	96.62
267.055	84.62
267.287	90.62
267.52	88.62
267.752	88.62
267.984	92.62
268.216	85.62
268.448	98.62
268.681	90.62
268.913	100.62
269.145	98.62
269.377	92.62
269.609	84.62
269.841	59.62
270.073	74.62
270.306	98.62
270.538	83.62
270.77	80.62
271.002	87.62
271.234	102.62
271.466	81.62
271.698	79.62
271.93	79.62
272.162	89.62
272.394	82.62
272.626	71.62
272.858	73.62
273.09	85.62
273.322	92.62
273.553	75.62
273.785	85.62
274.017	82.62
274.249	81.62
274.481	94.62
274.713	83.62
274.945	81.62
275.176	91.62
275.408	77.62
275.64	75.62
275.872	86.62
276.104	89.62
276.335	90.62
276.567	101.62
276.799	124.62
277.031	119.62
277.262	122.62
277.494	105.62
277.726	99.62
277.957	89.62
278.189	102.62
278.421	84.62
278.652	102.62
278.884	99.62
279.115	86.62
279.347	84.62
279.579	89.62
279.81	78.62
280.042	106.62
280.273	153.62
280.505	117.62
280.736	86.62
280.968	86.62
281.199	88.62
281.431	86.62
281.662	76.62
281.894	97.62
282.125	89.62
282.356	111.62
282.588	130.62
282.819	95.62
283.051	110.62
283.282	94.62
283.513	84.62
283.745	80.62
283.976	89.62
284.207	86.62
284.439	80.62
284.67	89.62
284.901	84.62
285.132	93.62
285.364	73.62
285.595	84.62
285.826	94.62
286.057	76.62
286.288	88.62
286.52	77.62
286.751	80.62
286.982	83.62
287.213	85.62
287.444	91.62
287.675	69.62
287.906	84.62
288.138	84.62
288.369	107.62
288.6	103.62
288.831	77.62
289.062	84.62
289.293	96.62
289.524	94.62
289.755	81.62
289.986	95.62
290.217	89.62
290.448	92.62
290.679	85.62
290.91	91.62
291.141	83.62
291.371	92.62
291.602	86.62
291.833	89.62
292.064	86.62
292.295	79.62
292.526	92.62
292.757	86.62
292.987	100.62
293.218	90.62
293.449	93.62
293.68	88.62
293.91	97.62
294.141	96.62
294.372	83.62
294.603	85.62
294.833	92.62
295.064	90.62
295.295	94.62
295.525	100.62
295.756	110.62
295.987	105.62
296.217	146.62
296.448	133.62
296.679	88.62
296.909	72.62
297.14	88.62
297.37	85.62
297.601	80.62
297.831	91.62
298.062	91.62
298.292	93.62
298.523	95.62
298.753	81.62
298.984	78.62
299.214	82.62
299.445	88.62
299.675	83.62
299.905	84.62
300.136	84.62
300.366	101.62
300.597	88.62
300.827	89.62
301.057	99.62
301.288	103.62
301.518	99.62
301.748	76.62
301.979	101.62
302.209	93.62
302.439	85.62
302.669	103.62
302.9	99.62
303.13	99.62
303.36	86.62
303.59	101.62
303.82	99.62
304.051	99.62
304.281	78.62
304.511	86.62
304.741	80.62
304.971	97.62
305.201	88.62
305.431	103.62
305.661	92.62
305.891	95.62
306.121	96.62
306.352	92.62
306.582	108.62
306.812	85.62
307.042	95.62
307.272	116.62
307.502	125.62
307.731	117.62
307.961	103.62
308.191	98.62
308.421	99.62
308.651	71.62
308.881	96.62
309.111	99.62
309.341	87.62
309.571	77.62
309.8	87.62
310.03	98.62
310.26	89.62
310.49	105.62
310.72	94.62
310.949	88.62
311.179	88.62
311.409	104.62
311.639	102.62
311.868	94.62
312.098	73.62
312.328	87.62
312.557	104.62
312.787	113.62
313.017	92.62
313.246	88.62
313.476	89.62
313.706	82.62
313.935	84.62
314.165	99.62
314.394	95.62
314.624	108.62
314.853	108.62
315.083	92.62
315.312	80.62
315.542	92.62
315.771	76.62
316.001	97.62
316.23	78.62
316.46	93.62
316.689	84.62
316.919	93.62
317.148	97.62
317.377	98.62
317.607	102.62
317.836	76.62
318.065	89.62
318.295	87.62
318.524	99.62
318.753	80.62
318.983	84.62
319.212	94.62
319.441	99.62
319.67	105.62
319.9	82.62
320.129	87.62
320.358	87.62
320.587	89.62
320.816	94.62
321.046	92.62
321.275	94.62
321.504	95.62
321.733	86.62
321.962	93.62
322.191	99.62
322.42	100.62
322.649	110.62
322.878	117.62
323.108	116.62
323.337	118.62
323.566	125.62
323.795	162.62
324.024	207.62
324.253	418.62
324.482	852.62
324.71	1764.62
324.939	2348.62
325.168	857.62
325.397	244.62
325.626	141.62
325.855	123.62
326.084	117.62
326.313	131.62
326.542	171.62
326.77	242.62
326.999	469.62
327.228	974.62
327.457	1757.62
327.686	1387.62
327.914	425.62
328.143	306.62
328.372	333.62
328.6	211.62
328.829	133.62
329.058	124.62
329.287	142.62
329.515	129.62
329.744	155.62
329.972	250.62
330.201	423.62
330.43	648.62
330.658	312.62
330.887	191.62
331.115	144.62
331.344	92.62
331.572	101.62
331.801	109.62
332.03	105.62
332.258	93.62
332.486	107.62
332.715	101.62
332.943	86.62
333.172	111.62
333.4	113.62
333.629	119.62
333.857	144.62
334.085	249.62
334.314	420.62
334.542	768.62
334.771	732.62
334.999	221.62
335.227	109.62
335.455	103.62
335.684	108.62
335.912	107.62
336.14	100.62
336.369	95.62
336.597	101.62
336.825	101.62
337.053	94.62
337.281	93.62
337.51	92.62
337.738	86.62
337.966	85.62
338.194	91.62
338.422	100.62
338.65	100.62
338.878	93.62
339.106	100.62
339.334	86.62
339.562	78.62
339.79	98.62
340.018	81.62
340.246	82.62
340.474	97.62
340.702	99.62
340.93	84.62
341.158	85.62
341.386	88.62
341.614	89.62
341.842	80.62
342.07	93.62
342.298	101.62
342.526	111.62
342.754	89.62
342.981	83.62
343.209	88.62
343.437	100.62
343.665	89.62
343.893	85.62
344.12	94.62
344.348	77.62
344.576	90.62
344.804	89.62
345.031	83.62
345.259	95.62
345.487	93.62
345.714	88.62
345.942	86.62
346.17	98.62
346.397	92.62
346.625	78.62
346.853	84.62
347.08	95.62
347.308	71.62
347.535	80.62
347.763	86.62
347.99	92.62
348.218	105.62
348.445	97.62
348.673	107.62
348.9	102.62
349.128	84.62
349.355	85.62
349.583	106.62
349.81	102.62
350.037	94.62
350.265	81.62
350.492	109.62
350.72	107.62
350.947	109.62
351.174	119.62
351.402	107.62
351.629	89.62
351.856	115.62
352.083	101.62
352.311	101.62
352.538	110.62
352.765	101.62
352.992	110.62
353.22	105.62
353.447	79.62
353.674	101.62
353.901	78.62
354.128	88.62
354.355	87.62
354.583	79.62
354.81	95.62
355.037	100.62
355.264	93.62
355.491	89.62
355.718	92.62
355.945	93.62
356.172	99.62
356.399	88.62
356.626	94.62
356.853	89.62
357.08	87.62
357.307	80.62
357.534	94.62
357.761	86.62
357.988	84.62
358.215	88.62
358.441	92.62
358.668	83.62
358.895	81.62
359.122	96.62
359.349	77.62
359.576	96.62
359.802	94.62
360.029	102.62
360.256	112.62
360.483	100.62
360.709	84.62
360.936	90.62
361.163	99.62
361.39	88.62
361.616	89.62
361.843	84.62
362.07	102.62
362.296	91.62
362.523	84.62
362.749	98.62
362.976	96.62
363.203	89.62
363.429	98.62
363.656	91.62
363.882	79.62
364.109	82.62
364.335	95.62
364.562	75.62
364.788	90.62
365.015	99.62
365.241	99.62
365.468	100.62
365.694	85.62
365.92	78.62
366.147	100.62
366.373	88.62
366.599	92.62
366.826	83.62
367.052	105.62
367.278	84.62
367.505	85.62
367.731	93.62
367.957	103.62
368.184	113.62
368.41	105.62
368.636	111.62
368.862	111.62
369.089	109.62
369.315	80.62
369.541	82.62
369.767	102.62
369.993	88.62
370.219	93.62
370.445	90.62
370.672	85.62
370.898	77.62
371.124	75.62
371.35	104.62
371.576	68.62
371.802	79.62
372.028	79.62
372.254	78.62
372.48	79.62
372.706	79.62
372.932	77.62
373.158	84.62
373.384	88.62
373.61	93.62
373.835	89.62
374.061	87.62
374.287	94.62
374.513	94.62
374.739	89.62
374.965	89.62
375.191	90.62
375.416	77.62
375.642	87.62
375.868	79.62
376.094	95.62
376.319	85.62
376.545	85.62
376.771	104.62
376.997	86.62
377.222	86.62
377.448	87.62
377.674	89.62
377.899	93.62
378.125	94.62
378.35	83.62
378.576	66.62
378.802	85.62
379.027	87.62
379.253	90.62
379.478	88.62
379.704	89.62
379.929	101.62
380.155	89.62
380.38	90.62
380.606	83.62
380.831	86.62
381.057	101.62
381.282	97.62
381.507	92.62
381.733	97.62
381.958	82.62
382.184	81.62
382.409	107.62
382.634	106.62
382.86	113.62
383.085	93.62
383.31	102.62
383.535	100.62
383.761	105.62
383.986	82.62
384.211	87.62
384.436	85.62
384.662	84.62
384.887	100.62
385.112	88.62
385.337	103.62
385.562	102.62
385.787	107.62
386.013	107.62
386.238	105.62
386.463	114.62
386.688	103.62
386.913	97.62
387.138	88.62
387.363	96.62
387.588	98.62
387.813	92.62
388.038	96.62
388.263	100.62
388.488	103.62
388.713	89.62
388.938	92.62
389.163	86.62
389.387	96.62
389.612	82.62
389.837	103.62
390.062	93.62
390.287	102.62
390.512	84.62
390.736	79.62
390.961	97.62
391.186	92.62
391.411	98.62
391.636	79.62
391.86	79.62
392.085	85.62
392.31	80.62
392.534	95.62
392.759	84.62
392.984	86.62
393.208	83.62
393.433	105.62
393.658	80.62
393.882	94.62
394.107	88.62
394.331	60.62
394.556	99.62
394.78	93.62
395.005	105.62
395.229	83.62
395.454	93.62
395.678	96.62
395.903	94.62
396.127	96.62
396.352	83.62
396.576	92.62
396.801	92.62
397.025	79.62
397.249	101.62
397.474	87.62
397.698	89.62
397.922	94.62
398.147	99.62
398.371	89.62
398.595	80.62
398.82	81.62
399.044	86.62
399.268	96.62
399.492	100.62
399.717	89.62
399.941	75.62
400.165	96.62
400.389	96.62
400.613	72.62
400.837	85.62
401.062	95.62
401.286	84.62
401.51	89.62
401.734	77.62
401.958	112.62
402.182	120.62
402.406	165.62
402.63	123.62
402.854	82.62
403.078	89.62
403.302	89.62
403.526	94.62
403.75	88.62
403.974	82.62
404.198	94.62
404.422	90.62
404.645	89.62
404.869	89.62
405.093	93.62
405.317	106.62
405.541	116.62
405.765	103.62
405.988	114.62
406.212	169.62
406.436	225.62
406.66	164.62
406.883	101.62
407.107	90.62
407.331	79.62
407.555	94.62
407.778	99.62
408.002	76.62
408.226	89.62
408.449	83.62
408.673	92.62
408.896	86.62
409.12	82.62
409.344	96.62
409.567	97.62
409.791	69.62
410.014	97.62
410.238	91.62
410.461	86.62
410.685	101.62
410.908	79.62
411.132	85.62
411.355	98.62
411.578	83.62
411.802	83.62
412.025	82.62
412.249	94.62
412.472	99.62
412.695	111.62
412.919	99.62
413.142	100.62
413.365	86.62
413.589	75.62
413.812	80.62
414.035	88.62
414.258	89.62
414.482	85.62
414.705	78.62
414.928	92.62
415.151	96.62
415.374	89.62
415.597	95.62
415.821	88.62
416.044	101.62
416.267	88.62
416.49	87.62
416.713	95.62
416.936	94.62
417.159	82.62
417.382	83.62
417.605	100.62
417.828	110.62
418.051	93.62
418.274	101.62
418.497	86.62
418.72	91.62
418.943	88.62
419.166	92.62
419.389	101.62
419.611	72.62
419.834	83.62
420.057	96.62
420.28	88.62
420.503	94.62
420.726	98.62
420.948	78.62
421.171	102.62
421.394	89.62
421.617	83.62
421.839	84.62
422.062	87.62
422.285	88.62
422.507	98.62
422.73	110.62
422.953	88.62
423.175	75.62
423.398	70.62
423.621	73.62
423.843	86.62
424.066	92.62
424.288	79.62
424.511	82.62
424.733	93.62
424.956	111.62
425.178	97.62
425.401	96.62
425.623	95.62
425.846	92.62
426.068	91.62
426.291	97.62
426.513	96.62
426.735	93.62
426.958	97.62
427.18	105.62
427.402	141.62
427.625	168.62
427.847	174.62
428.069	168.62
428.292	105.62
428.514	81.62
428.736	94.62
428.958	96.62
429.181	86.62
429.403	86.62
429.625	79.62
429.847	88.62
430.069	107.62
430.292	94.62
430.514	102.62
430.736	99.62
430.958	93.62
431.18	77.62
431.402	81.62
431.624	73.62
431.846	79.62
432.068	96.62
432.29	87.62
432.512	88.62
432.734	77.62
432.956	91.62
433.178	87.62
433.4	88.62
433.622	99.62
433.844	95.62
434.066	81.62
434.287	92.62
434.509	109.62
434.731	110.62
434.953	79.62
435.175	87.62
435.397	81.62
435.618	93.62
435.84	98.62
436.062	111.62
436.284	117.62
436.505	92.62
436.727	113.62
436.949	110.62
437.17	76.62
437.392	97.62
437.614	90.62
437.835	114.62
438.057	119.62
438.278	123.62
438.5	104.62
438.721	121.62
438.943	106.62
439.165	83.62
439.386	87.62
439.608	107.62
439.829	107.62
440.05	117.62
440.272	157.62
440.493	98.62
440.715	88.62
440.936	89.62
441.158	93.62
441.379	93.62
441.6	87.62
441.822	97.62
442.043	97.62
442.264	109.62
442.486	101.62
442.707	88.62
442.928	93.62
443.149	143.62
443.371	142.62
443.592	116.62
443.813	109.62
444.034	127.62
444.255	100.62
444.476	93.62
444.698	75.62
444.919	90.62
445.14	125.62
445.361	117.62
445.582	117.62
445.803	149.62
446.024	141.62
446.245	144.62
446.466	98.62
446.687	73.62
446.908	92.62
447.129	81.62
447.35	92.62
447.571	86.62
447.792	90.62
448.013	114.62
448.234	103.62
448.455	113.62
448.675	125.62
448.896	113.62
449.117	92.62
449.338	99.62
449.559	131.62
449.779	142.62
450	91.62
450.221	81.62
450.442	87.62
450.662	97.62
450.883	124.62
451.104	119.62
451.324	95.62
451.545	102.62
451.766	99.62
451.986	91.62
452.207	84.62
452.428	85.62
452.648	77.62
452.869	104.62
453.089	114.62
453.31	112.62
453.53	89.62
453.751	104.62
453.971	103.62
454.192	110.62
454.412	89.62
454.633	87.62
454.853	88.62
455.073	79.62
455.294	90.62
455.514	89.62
455.734	104.62
455.955	92.62
456.175	87.62
456.395	93.62
456.616	67.62
456.836	84.62
457.056	95.62
457.276	83.62
457.497	82.62
457.717	86.62
457.937	84.62
458.157	77.62
458.377	91.62
458.598	101.62
458.818	162.62
459.038	183.62
459.258	107.62
459.478	66.62
459.698	93.62
459.918	79.62
460.138	82.62
460.358	87.62
460.578	80.62
460.798	95.62
461.018	85.62
461.238	83.62
461.458	78.62
461.678	87.62
461.898	93.62
462.118	84.62
462.338	96.62
462.558	101.62
462.777	71.62
462.997	97.62
463.217	98.62
463.437	82.62
463.657	70.62
463.876	84.62
464.096	93.62
464.316	93.62
464.536	107.62
464.755	90.62
464.975	126.62
465.195	166.62
465.414	172.62
465.634	104.62
465.854	86.62
466.073	80.62
466.293	89.62
466.512	96.62
466.732	77.62
466.951	88.62
467.171	90.62
467.391	100.62
467.61	112.62
467.829	138.62
468.049	262.62
468.268	389.62
468.488	143.62
468.707	97.62
468.927	90.62
469.146	82.62
469.365	88.62
469.585	96.62
469.804	104.62
470.023	105.62
470.243	87.62
470.462	88.62
470.681	123.62
470.901	98.62
471.12	85.62
471.339	103.62
471.558	112.62
471.777	125.62
471.997	183.62
472.216	497.62
472.435	1064.62
472.654	313.62
472.873	128.62
473.092	96.62
473.311	101.62
473.53	84.62
473.749	89.62
473.968	97.62
474.187	105.62
474.406	99.62
474.625	103.62
474.844	100.62
475.063	75.62
475.282	90.62
475.501	92.62
475.72	89.62
475.939	91.62
476.158	76.62
476.377	84.62
476.596	75.62
476.814	83.62
477.033	80.62
477.252	86.62
477.471	86.62
477.69	92.62
477.908	81.62
478.127	96.62
478.346	95.62
478.564	84.62
478.783	97.62
479.002	85.62
479.22	85.62
479.439	107.62
479.658	118.62
479.876	100.62
480.095	99.62
480.313	99.62
480.532	111.62
480.751	174.62
480.969	488.62
481.188	1815.62
481.406	1092.62
481.624	206.62
481.843	108.62
482.061	104.62
482.28	92.62
482.498	86.62
482.717	85.62
482.935	81.62
483.153	79.62
483.372	75.62
483.59	92.62
483.808	78.62
484.027	97.62
484.245	98.62
484.463	101.62
484.681	100.62
484.9	77.62
485.118	94.62
485.336	114.62
485.554	97.62
485.772	102.62
485.99	92.62
486.209	94.62
486.427	87.62
486.645	111.62
486.863	104.62
487.081	110.62
487.299	105.62
487.517	86.62
487.735	95.62
487.953	93.62
488.171	86.62
488.389	93.62
488.607	96.62
488.825	85.62
489.043	91.62
489.261	89.62
489.479	88.62
489.696	93.62
489.914	89.62
490.132	94.62
490.35	97.62
490.568	94.62
490.786	97.62
491.003	96.62
491.221	91.62
491.439	98.62
491.657	93.62
491.874	87.62
492.092	95.62
492.31	89.62
492.527	86.62
492.745	92.62
492.963	91.62
493.18	78.62
493.398	85.62
493.615	97.62
493.833	94.62
494.05	79.62
494.268	91.62
494.485	95.62
494.703	90.62
494.92	89.62
495.138	104.62
495.355	84.62
495.573	99.62
495.79	94.62
496.008	79.62
496.225	97.62
496.442	97.62
496.66	99.62
496.877	85.62
497.094	94.62
497.312	78.62
497.529	88.62
497.746	88.62
497.963	81.62
498.181	81.62
498.398	97.62
498.615	101.62
498.832	98.62
499.049	85.62
499.267	87.62
499.484	81.62
499.701	76.62
499.918	80.62
500.135	90.62
500.352	80.62
500.569	77.62
500.786	100.62
501.003	93.62
501.22	92.62
501.437	89.62
501.654	88.62
501.871	103.62
502.088	90.62
502.305	96.62
502.522	93.62
502.739	89.62
502.956	80.62
503.172	92.62
503.389	108.62
503.606	102.62
503.823	107.62
504.04	102.62
504.256	89.62
504.473	81.62
504.69	89.62
504.907	90.62
505.123	96.62
505.34	104.62
505.557	94.62
505.773	101.62
505.99	84.62
506.207	80.62
506.423	93.62
506.64	95.62
506.856	89.62
507.073	88.62
507.289	96.62
507.506	113.62
507.722	113.62
507.939	115.62
508.155	106.62
508.372	102.62
508.588	97.62
508.805	97.62
509.021	89.62
509.238	83.62
509.454	94.62
509.67	88.62
509.887	112.62
510.103	144.62
510.319	214.62
510.536	735.62
510.752	2287.62
510.968	630.62
511.184	148.62
511.401	110.62
511.617	107.62
511.833	100.62
512.049	95.62
512.265	92.62
512.481	96.62
512.698	91.62
512.914	89.62
513.13	102.62
513.346	95.62
513.562	96.62
513.778	108.62
513.994	101.62
514.21	111.62
514.426	105.62
514.642	145.62
514.858	122.62
515.074	170.62
515.29	474.62
