Data from Circ_2004_H10_HRD10591_00061.txt Node
Date: Wed Jan 03 10:33:26 EST 2024
User: Yrep
Spectrometer: HR+D1059
Trigger mode: 1
Integration Time (sec): 1.000000E-1
Scans to average: 1
Electric dark correction enabled: true
Nonlinearity correction enabled: false
Boxcar width: 0
XAxis mode: Wavelengths
Number of Pixels in Spectrum: 2048
>>>>>Begin Spectral Data<<<<<
223.165	-30.88
223.4	-30.88
223.635	-30.88
223.869	-12.88
224.104	-12.88
224.338	-2.88
224.573	-21.88
224.808	-10.88
225.042	-16.88
225.277	-12.88
225.511	3.12
225.746	4.12
225.98	-7.88
226.215	23.12
226.449	19.12
226.683	30.12
226.918	35.12
227.152	15.12
227.387	26.12
227.621	32.12
227.856	47.12
228.09	45.12
228.324	41.12
228.559	63.12
228.793	65.12
229.027	54.12
229.262	70.12
229.496	71.12
229.73	90.12
229.964	77.12
230.199	77.12
230.433	84.12
230.667	93.12
230.901	77.12
231.136	90.12
231.37	78.12
231.604	86.12
231.838	82.12
232.072	80.12
232.306	88.12
232.541	91.12
232.775	85.12
233.009	85.12
233.243	78.12
233.477	87.12
233.711	76.12
233.945	90.12
234.179	90.12
234.413	104.12
234.647	84.12
234.881	90.12
235.115	81.12
235.349	79.12
235.583	87.12
235.817	86.12
236.051	82.12
236.285	82.12
236.519	83.12
236.753	69.12
236.987	87.12
237.221	84.12
237.455	86.12
237.689	74.12
237.922	88.12
238.156	82.12
238.39	85.12
238.624	88.12
238.858	72.12
239.091	68.12
239.325	77.12
239.559	64.12
239.793	70.12
240.027	88.12
240.26	82.12
240.494	58.12
240.728	67.12
240.961	77.12
241.195	77.12
241.429	74.12
241.662	81.12
241.896	61.12
242.13	75.12
242.363	75.12
242.597	78.12
242.83	78.12
243.064	72.12
243.298	74.12
243.531	65.12
243.765	74.12
243.998	91.12
244.232	82.12
244.465	80.12
244.699	77.12
244.932	80.12
245.166	90.12
245.399	71.12
245.633	83.12
245.866	79.12
246.099	83.12
246.333	78.12
246.566	75.12
246.8	74.12
247.033	78.12
247.266	72.12
247.5	73.12
247.733	78.12
247.966	72.12
248.2	82.12
248.433	83.12
248.666	79.12
248.899	75.12
249.133	83.12
249.366	90.12
249.599	103.12
249.832	82.12
250.066	93.12
250.299	72.12
250.532	84.12
250.765	98.12
250.998	89.12
251.231	82.12
251.465	86.12
251.698	70.12
251.931	87.12
252.164	90.12
252.397	92.12
252.63	83.12
252.863	81.12
253.096	71.12
253.329	91.12
253.562	85.12
253.795	77.12
254.028	80.12
254.261	80.12
254.494	84.12
254.727	75.12
254.96	78.12
255.193	82.12
255.426	90.12
255.659	73.12
255.892	85.12
256.124	81.12
256.357	74.12
256.59	80.12
256.823	90.12
257.056	74.12
257.289	84.12
257.521	78.12
257.754	74.12
257.987	78.12
258.22	79.12
258.452	94.12
258.685	88.12
258.918	84.12
259.151	93.12
259.383	75.12
259.616	78.12
259.849	77.12
260.081	76.12
260.314	85.12
260.547	86.12
260.779	80.12
261.012	80.12
261.244	88.12
261.477	95.12
261.71	82.12
261.942	114.12
262.175	123.12
262.407	94.12
262.64	80.12
262.872	85.12
263.105	92.12
263.337	72.12
263.57	90.12
263.802	82.12
264.035	74.12
264.267	66.12
264.499	70.12
264.732	83.12
264.964	91.12
265.197	89.12
265.429	77.12
265.661	76.12
265.894	97.12
266.126	80.12
266.358	94.12
266.591	89.12
266.823	93.12
267.055	88.12
267.287	102.12
267.52	73.12
267.752	83.12
267.984	84.12
268.216	77.12
268.448	85.12
268.681	80.12
268.913	85.12
269.145	87.12
269.377	90.12
269.609	86.12
269.841	93.12
270.073	74.12
270.306	88.12
270.538	80.12
270.77	70.12
271.002	84.12
271.234	94.12
271.466	95.12
271.698	83.12
271.93	88.12
272.162	83.12
272.394	94.12
272.626	98.12
272.858	81.12
273.09	80.12
273.322	94.12
273.553	85.12
273.785	98.12
274.017	90.12
274.249	83.12
274.481	89.12
274.713	95.12
274.945	93.12
275.176	92.12
275.408	92.12
275.64	97.12
275.872	94.12
276.104	88.12
276.335	99.12
276.567	106.12
276.799	113.12
277.031	119.12
277.262	118.12
277.494	116.12
277.726	81.12
277.957	88.12
278.189	92.12
278.421	98.12
278.652	81.12
278.884	77.12
279.115	86.12
279.347	89.12
279.579	78.12
279.81	104.12
280.042	118.12
280.273	137.12
280.505	125.12
280.736	93.12
280.968	85.12
281.199	96.12
281.431	86.12
281.662	79.12
281.894	101.12
282.125	93.12
282.356	130.12
282.588	141.12
282.819	118.12
283.051	89.12
283.282	87.12
283.513	98.12
283.745	102.12
283.976	90.12
284.207	90.12
284.439	93.12
284.67	97.12
284.901	85.12
285.132	89.12
285.364	79.12
285.595	85.12
285.826	97.12
286.057	87.12
286.288	97.12
286.52	87.12
286.751	84.12
286.982	95.12
287.213	80.12
287.444	89.12
287.675	92.12
287.906	96.12
288.138	82.12
288.369	82.12
288.6	95.12
288.831	91.12
289.062	90.12
289.293	86.12
289.524	92.12
289.755	80.12
289.986	81.12
290.217	96.12
290.448	98.12
290.679	89.12
290.91	74.12
291.141	83.12
291.371	79.12
291.602	74.12
291.833	87.12
292.064	97.12
292.295	85.12
292.526	84.12
292.757	90.12
292.987	77.12
293.218	78.12
293.449	85.12
293.68	93.12
293.91	97.12
294.141	87.12
294.372	105.12
294.603	96.12
294.833	104.12
295.064	90.12
295.295	84.12
295.525	102.12
295.756	105.12
295.987	109.12
296.217	129.12
296.448	112.12
296.679	90.12
296.909	93.12
297.14	88.12
297.37	91.12
297.601	79.12
297.831	77.12
298.062	93.12
298.292	90.12
298.523	87.12
298.753	87.12
298.984	112.12
299.214	107.12
299.445	83.12
299.675	98.12
299.905	89.12
300.136	81.12
300.366	90.12
300.597	87.12
300.827	92.12
301.057	90.12
301.288	101.12
301.518	106.12
301.748	107.12
301.979	112.12
302.209	98.12
302.439	85.12
302.669	86.12
302.9	88.12
303.13	95.12
303.36	110.12
303.59	104.12
303.82	129.12
304.051	99.12
304.281	94.12
304.511	71.12
304.741	89.12
304.971	102.12
305.201	94.12
305.431	89.12
305.661	73.12
305.891	91.12
306.121	92.12
306.352	97.12
306.582	120.12
306.812	106.12
307.042	96.12
307.272	132.12
307.502	125.12
307.731	136.12
307.961	98.12
308.191	95.12
308.421	91.12
308.651	106.12
308.881	91.12
309.111	90.12
309.341	100.12
309.571	112.12
309.8	89.12
310.03	87.12
310.26	97.12
310.49	94.12
310.72	101.12
310.949	98.12
311.179	108.12
311.409	81.12
311.639	99.12
311.868	89.12
312.098	93.12
312.328	93.12
312.557	102.12
312.787	103.12
313.017	95.12
313.246	100.12
313.476	88.12
313.706	85.12
313.935	92.12
314.165	97.12
314.394	102.12
314.624	90.12
314.853	95.12
315.083	110.12
315.312	93.12
315.542	82.12
315.771	97.12
316.001	85.12
316.23	95.12
316.46	81.12
316.689	87.12
316.919	98.12
317.148	100.12
317.377	96.12
317.607	88.12
317.836	85.12
318.065	93.12
318.295	91.12
318.524	90.12
318.753	99.12
318.983	98.12
319.212	101.12
319.441	129.12
319.67	103.12
319.9	99.12
320.129	93.12
320.358	105.12
320.587	97.12
320.816	99.12
321.046	106.12
321.275	107.12
321.504	103.12
321.733	103.12
321.962	95.12
322.191	86.12
322.42	108.12
322.649	121.12
322.878	114.12
323.108	122.12
323.337	126.12
323.566	155.12
323.795	160.12
324.024	218.12
324.253	427.12
324.482	861.12
324.71	1746.12
324.939	2357.12
325.168	853.12
325.397	262.12
325.626	155.12
325.855	149.12
326.084	127.12
326.313	160.12
326.542	166.12
326.77	227.12
326.999	470.12
327.228	974.12
327.457	1745.12
327.686	1427.12
327.914	440.12
328.143	312.12
328.372	335.12
328.6	207.12
328.829	136.12
329.058	145.12
329.287	156.12
329.515	116.12
329.744	165.12
329.972	250.12
330.201	434.12
330.43	612.12
330.658	297.12
330.887	181.12
331.115	146.12
331.344	92.12
331.572	99.12
331.801	113.12
332.03	125.12
332.258	101.12
332.486	100.12
332.715	102.12
332.943	99.12
333.172	107.12
333.4	113.12
333.629	129.12
333.857	155.12
334.085	237.12
334.314	431.12
334.542	734.12
334.771	728.12
334.999	240.12
335.227	132.12
335.455	102.12
335.684	102.12
335.912	92.12
336.14	98.12
336.369	98.12
336.597	102.12
336.825	105.12
337.053	93.12
337.281	87.12
337.51	84.12
337.738	114.12
337.966	84.12
338.194	97.12
338.422	100.12
338.65	95.12
338.878	90.12
339.106	92.12
339.334	90.12
339.562	84.12
339.79	96.12
340.018	97.12
340.246	99.12
340.474	103.12
340.702	94.12
340.93	95.12
341.158	102.12
341.386	101.12
341.614	104.12
341.842	102.12
342.07	99.12
342.298	94.12
342.526	91.12
342.754	91.12
342.981	90.12
343.209	91.12
343.437	103.12
343.665	97.12
343.893	92.12
344.12	97.12
344.348	96.12
344.576	92.12
344.804	94.12
345.031	91.12
345.259	99.12
345.487	99.12
345.714	103.12
345.942	95.12
346.17	97.12
346.397	105.12
346.625	103.12
346.853	86.12
347.08	80.12
347.308	96.12
347.535	98.12
347.763	98.12
347.99	112.12
348.218	92.12
348.445	99.12
348.673	105.12
348.9	99.12
349.128	91.12
349.355	101.12
349.583	90.12
349.81	85.12
350.037	86.12
350.265	85.12
350.492	102.12
350.72	91.12
350.947	114.12
351.174	110.12
351.402	108.12
351.629	90.12
351.856	92.12
352.083	90.12
352.311	112.12
352.538	113.12
352.765	113.12
352.992	109.12
353.22	99.12
353.447	110.12
353.674	97.12
353.901	96.12
354.128	97.12
354.355	104.12
354.583	91.12
354.81	94.12
355.037	99.12
355.264	86.12
355.491	96.12
355.718	87.12
355.945	90.12
356.172	95.12
356.399	93.12
356.626	86.12
356.853	85.12
357.08	93.12
357.307	101.12
357.534	90.12
357.761	94.12
357.988	100.12
358.215	82.12
358.441	101.12
358.668	97.12
358.895	86.12
359.122	106.12
359.349	84.12
359.576	95.12
359.802	111.12
360.029	118.12
360.256	115.12
360.483	104.12
360.709	79.12
360.936	96.12
361.163	83.12
361.39	91.12
361.616	90.12
361.843	104.12
362.07	109.12
362.296	100.12
362.523	96.12
362.749	101.12
362.976	87.12
363.203	91.12
363.429	99.12
363.656	98.12
363.882	77.12
364.109	97.12
364.335	89.12
364.562	95.12
364.788	86.12
365.015	99.12
365.241	110.12
365.468	105.12
365.694	101.12
365.92	119.12
366.147	90.12
366.373	105.12
366.599	87.12
366.826	81.12
367.052	88.12
367.278	83.12
367.505	93.12
367.731	86.12
367.957	83.12
368.184	103.12
368.41	100.12
368.636	115.12
368.862	128.12
369.089	115.12
369.315	97.12
369.541	85.12
369.767	86.12
369.993	100.12
370.219	103.12
370.445	89.12
370.672	93.12
370.898	89.12
371.124	95.12
371.35	83.12
371.576	97.12
371.802	98.12
372.028	96.12
372.254	86.12
372.48	88.12
372.706	101.12
372.932	97.12
373.158	82.12
373.384	85.12
373.61	86.12
373.835	92.12
374.061	81.12
374.287	93.12
374.513	84.12
374.739	102.12
374.965	95.12
375.191	97.12
375.416	100.12
375.642	94.12
375.868	78.12
376.094	98.12
376.319	81.12
376.545	93.12
376.771	83.12
376.997	83.12
377.222	96.12
377.448	88.12
377.674	84.12
377.899	98.12
378.125	91.12
378.35	90.12
378.576	91.12
378.802	72.12
379.027	94.12
379.253	81.12
379.478	95.12
379.704	94.12
379.929	90.12
380.155	105.12
380.38	89.12
380.606	96.12
380.831	79.12
381.057	83.12
381.282	97.12
381.507	92.12
381.733	82.12
381.958	92.12
382.184	97.12
382.409	90.12
382.634	94.12
382.86	85.12
383.085	89.12
383.31	103.12
383.535	96.12
383.761	96.12
383.986	110.12
384.211	95.12
384.436	91.12
384.662	102.12
384.887	102.12
385.112	105.12
385.337	106.12
385.562	110.12
385.787	102.12
386.013	102.12
386.238	110.12
386.463	98.12
386.688	99.12
386.913	95.12
387.138	92.12
387.363	107.12
387.588	98.12
387.813	98.12
388.038	97.12
388.263	116.12
388.488	109.12
388.713	90.12
388.938	95.12
389.163	77.12
389.387	93.12
389.612	89.12
389.837	90.12
390.062	93.12
390.287	87.12
390.512	98.12
390.736	97.12
390.961	93.12
391.186	98.12
391.411	107.12
391.636	98.12
391.86	85.12
392.085	85.12
392.31	92.12
392.534	106.12
392.759	85.12
392.984	96.12
393.208	93.12
393.433	83.12
393.658	101.12
393.882	93.12
394.107	77.12
394.331	98.12
394.556	90.12
394.78	84.12
395.005	99.12
395.229	89.12
395.454	92.12
395.678	96.12
395.903	87.12
396.127	90.12
396.352	81.12
396.576	96.12
396.801	102.12
397.025	83.12
397.249	81.12
397.474	92.12
397.698	82.12
397.922	83.12
398.147	85.12
398.371	91.12
398.595	85.12
398.82	81.12
399.044	87.12
399.268	95.12
399.492	87.12
399.717	84.12
399.941	92.12
400.165	94.12
400.389	93.12
400.613	79.12
400.837	101.12
401.062	98.12
401.286	90.12
401.51	92.12
401.734	94.12
401.958	109.12
402.182	118.12
402.406	166.12
402.63	118.12
402.854	96.12
403.078	99.12
403.302	95.12
403.526	93.12
403.75	82.12
403.974	87.12
404.198	99.12
404.422	93.12
404.645	76.12
404.869	93.12
405.093	94.12
405.317	115.12
405.541	102.12
405.765	115.12
405.988	133.12
406.212	180.12
406.436	243.12
406.66	168.12
406.883	106.12
407.107	108.12
407.331	103.12
407.555	111.12
407.778	105.12
408.002	93.12
408.226	84.12
408.449	93.12
408.673	80.12
408.896	101.12
409.12	93.12
409.344	97.12
409.567	101.12
409.791	88.12
410.014	93.12
410.238	90.12
410.461	98.12
410.685	87.12
410.908	106.12
411.132	92.12
411.355	90.12
411.578	101.12
411.802	76.12
412.025	97.12
412.249	98.12
412.472	95.12
412.695	113.12
412.919	106.12
413.142	82.12
413.365	79.12
413.589	92.12
413.812	97.12
414.035	85.12
414.258	88.12
414.482	94.12
414.705	100.12
414.928	75.12
415.151	97.12
415.374	101.12
415.597	100.12
415.821	88.12
416.044	90.12
416.267	89.12
416.49	90.12
416.713	94.12
416.936	86.12
417.159	87.12
417.382	102.12
417.605	94.12
417.828	107.12
418.051	90.12
418.274	84.12
418.497	89.12
418.72	94.12
418.943	94.12
419.166	98.12
419.389	84.12
419.611	79.12
419.834	83.12
420.057	97.12
420.28	93.12
420.503	82.12
420.726	83.12
420.948	84.12
421.171	98.12
421.394	79.12
421.617	95.12
421.839	88.12
422.062	85.12
422.285	78.12
422.507	106.12
422.73	91.12
422.953	91.12
423.175	96.12
423.398	72.12
423.621	89.12
423.843	90.12
424.066	87.12
424.288	88.12
424.511	87.12
424.733	105.12
424.956	101.12
425.178	96.12
425.401	101.12
425.623	103.12
425.846	90.12
426.068	91.12
426.291	107.12
426.513	93.12
426.735	97.12
426.958	104.12
427.18	101.12
427.402	146.12
427.625	182.12
427.847	183.12
428.069	166.12
428.292	98.12
428.514	99.12
428.736	102.12
428.958	97.12
429.181	69.12
429.403	87.12
429.625	97.12
429.847	90.12
430.069	101.12
430.292	83.12
430.514	82.12
430.736	83.12
430.958	73.12
431.18	85.12
431.402	83.12
431.624	82.12
431.846	98.12
432.068	88.12
432.29	88.12
432.512	83.12
432.734	97.12
432.956	84.12
433.178	96.12
433.4	91.12
433.622	90.12
433.844	97.12
434.066	90.12
434.287	102.12
434.509	103.12
434.731	91.12
434.953	101.12
435.175	96.12
435.397	84.12
435.618	91.12
435.84	105.12
436.062	115.12
436.284	123.12
436.505	91.12
436.727	107.12
436.949	87.12
437.17	88.12
437.392	104.12
437.614	100.12
437.835	118.12
438.057	123.12
438.278	115.12
438.5	92.12
438.721	114.12
438.943	103.12
439.165	86.12
439.386	102.12
439.608	99.12
439.829	94.12
440.05	120.12
440.272	150.12
440.493	90.12
440.715	94.12
440.936	101.12
441.158	78.12
441.379	88.12
441.6	90.12
441.822	87.12
442.043	97.12
442.264	106.12
442.486	89.12
442.707	77.12
442.928	92.12
443.149	133.12
443.371	135.12
443.592	109.12
443.813	111.12
444.034	106.12
444.255	95.12
444.476	92.12
444.698	86.12
444.919	86.12
445.14	132.12
445.361	121.12
445.582	115.12
445.803	142.12
446.024	136.12
446.245	134.12
446.466	117.12
446.687	105.12
446.908	98.12
447.129	104.12
447.35	99.12
447.571	90.12
447.792	97.12
448.013	101.12
448.234	105.12
448.455	109.12
448.675	117.12
448.896	113.12
449.117	90.12
449.338	98.12
449.559	129.12
449.779	148.12
450	87.12
450.221	85.12
450.442	85.12
450.662	94.12
450.883	101.12
451.104	121.12
451.324	94.12
451.545	86.12
451.766	78.12
451.986	77.12
452.207	100.12
452.428	98.12
452.648	114.12
452.869	119.12
453.089	111.12
453.31	118.12
453.53	105.12
453.751	99.12
453.971	110.12
454.192	100.12
454.412	108.12
454.633	86.12
454.853	92.12
455.073	99.12
455.294	98.12
455.514	89.12
455.734	88.12
455.955	67.12
456.175	84.12
456.395	90.12
456.616	89.12
456.836	74.12
457.056	95.12
457.276	92.12
457.497	88.12
457.717	81.12
457.937	89.12
458.157	83.12
458.377	94.12
458.598	110.12
458.818	146.12
459.038	169.12
459.258	125.12
459.478	89.12
459.698	82.12
459.918	73.12
460.138	82.12
460.358	90.12
460.578	98.12
460.798	95.12
461.018	93.12
461.238	97.12
461.458	80.12
461.678	66.12
461.898	84.12
462.118	85.12
462.338	84.12
462.558	78.12
462.777	99.12
462.997	92.12
463.217	90.12
463.437	77.12
463.657	85.12
463.876	85.12
464.096	81.12
464.316	96.12
464.536	81.12
464.755	86.12
464.975	111.12
465.195	189.12
465.414	161.12
465.634	89.12
465.854	86.12
466.073	93.12
466.293	99.12
466.512	99.12
466.732	82.12
466.951	94.12
467.171	86.12
467.391	94.12
467.61	110.12
467.829	143.12
468.049	281.12
468.268	372.12
468.488	136.12
468.707	95.12
468.927	88.12
469.146	95.12
469.365	84.12
469.585	86.12
469.804	104.12
470.023	107.12
470.243	92.12
470.462	109.12
470.681	109.12
470.901	96.12
471.12	83.12
471.339	102.12
471.558	104.12
471.777	111.12
471.997	165.12
472.216	517.12
472.435	1087.12
472.654	293.12
472.873	121.12
473.092	109.12
473.311	88.12
473.53	85.12
473.749	92.12
473.968	111.12
474.187	105.12
474.406	101.12
474.625	71.12
474.844	93.12
475.063	101.12
475.282	86.12
475.501	90.12
475.72	104.12
475.939	77.12
476.158	89.12
476.377	88.12
476.596	90.12
476.814	94.12
477.033	96.12
477.252	83.12
477.471	87.12
477.69	91.12
477.908	99.12
478.127	98.12
478.346	83.12
478.564	107.12
478.783	81.12
479.002	96.12
479.22	104.12
479.439	111.12
479.658	108.12
479.876	118.12
480.095	92.12
480.313	112.12
480.532	120.12
480.751	175.12
480.969	469.12
481.188	1764.12
481.406	1125.12
481.624	210.12
481.843	110.12
482.061	101.12
482.28	95.12
482.498	88.12
482.717	87.12
482.935	80.12
483.153	87.12
483.372	86.12
483.59	110.12
483.808	88.12
484.027	86.12
484.245	97.12
484.463	89.12
484.681	89.12
484.9	95.12
485.118	96.12
485.336	91.12
485.554	84.12
485.772	89.12
485.99	104.12
486.209	99.12
486.427	107.12
486.645	106.12
486.863	110.12
487.081	105.12
487.299	103.12
487.517	86.12
487.735	88.12
487.953	85.12
488.171	93.12
488.389	96.12
488.607	97.12
488.825	90.12
489.043	81.12
489.261	84.12
489.479	87.12
489.696	96.12
489.914	88.12
490.132	90.12
490.35	89.12
490.568	101.12
490.786	99.12
491.003	103.12
491.221	95.12
491.439	80.12
491.657	85.12
491.874	96.12
492.092	99.12
492.31	94.12
492.527	92.12
492.745	100.12
492.963	98.12
493.18	97.12
493.398	73.12
493.615	90.12
493.833	103.12
494.05	85.12
494.268	86.12
494.485	93.12
494.703	86.12
494.92	98.12
495.138	97.12
495.355	93.12
495.573	86.12
495.79	88.12
496.008	82.12
496.225	90.12
496.442	82.12
496.66	106.12
496.877	86.12
497.094	91.12
497.312	82.12
497.529	90.12
497.746	90.12
497.963	99.12
498.181	75.12
498.398	115.12
498.615	126.12
498.832	112.12
499.049	81.12
499.267	86.12
499.484	94.12
499.701	100.12
499.918	95.12
500.135	95.12
500.352	96.12
500.569	101.12
500.786	85.12
501.003	92.12
501.22	88.12
501.437	68.12
501.654	105.12
501.871	114.12
502.088	92.12
502.305	82.12
502.522	94.12
502.739	94.12
502.956	98.12
503.172	103.12
503.389	102.12
503.606	106.12
503.823	102.12
504.04	92.12
504.256	94.12
504.473	96.12
504.69	83.12
504.907	95.12
505.123	100.12
505.34	82.12
505.557	91.12
505.773	97.12
505.99	88.12
506.207	85.12
506.423	99.12
506.64	89.12
506.856	92.12
507.073	91.12
507.289	93.12
507.506	100.12
507.722	116.12
507.939	120.12
508.155	106.12
508.372	97.12
508.588	102.12
508.805	73.12
509.021	93.12
509.238	103.12
509.454	92.12
509.67	99.12
509.887	111.12
510.103	149.12
510.319	208.12
510.536	748.12
510.752	2342.12
510.968	673.12
511.184	158.12
511.401	106.12
511.617	85.12
511.833	87.12
512.049	87.12
512.265	104.12
512.481	81.12
512.698	91.12
512.914	96.12
513.13	101.12
513.346	96.12
513.562	108.12
513.778	89.12
513.994	97.12
514.21	118.12
514.426	130.12
514.642	147.12
514.858	141.12
