Data from Circ_2004_H10_HRD10591_00064.txt Node
Date: Wed Jan 03 10:33:26 EST 2024
User: Yrep
Spectrometer: HR+D1059
Trigger mode: 1
Integration Time (sec): 1.000000E-1
Scans to average: 1
Electric dark correction enabled: true
Nonlinearity correction enabled: false
Boxcar width: 0
XAxis mode: Wavelengths
Number of Pixels in Spectrum: 2048
>>>>>Begin Spectral Data<<<<<
223.165	-10.69
223.4	-10.69
223.635	-10.69
223.869	-21.69
224.104	-10.69
224.338	-16.69
224.573	-11.69
224.808	-7.69
225.042	-1.69
225.277	-7.69
225.511	1.31
225.746	7.31
225.98	3.31
226.215	7.31
226.449	7.31
226.683	15.31
226.918	29.31
227.152	17.31
227.387	34.31
227.621	35.31
227.856	48.31
228.09	39.31
228.324	50.31
228.559	62.31
228.793	153.31
229.027	445.31
229.262	477.31
229.496	553.31
229.73	783.31
229.964	785.31
230.199	534.31
230.433	472.31
230.667	452.31
230.901	454.31
231.136	425.31
231.37	439.31
231.604	433.31
231.838	446.31
232.072	445.31
232.306	438.31
232.541	450.31
232.775	468.31
233.009	473.31
233.243	465.31
233.477	473.31
233.711	498.31
233.945	496.31
234.179	500.31
234.413	488.31
234.647	481.31
234.881	516.31
235.115	525.31
235.349	537.31
235.583	551.31
235.817	585.31
236.051	629.31
236.285	582.31
236.519	596.31
236.753	669.31
236.987	879.31
237.221	1350.31
237.455	1484.31
237.689	873.31
237.922	715.31
238.156	691.31
238.39	664.31
238.624	622.31
238.858	640.31
239.091	636.31
239.325	671.31
239.559	652.31
239.793	705.31
240.027	751.31
240.26	898.31
240.494	955.31
240.728	932.31
240.961	868.31
241.195	820.31
241.429	775.31
241.662	780.31
241.896	768.31
242.13	773.31
242.363	792.31
242.597	829.31
242.83	837.31
243.064	831.31
243.298	836.31
243.531	848.31
243.765	848.31
243.998	855.31
244.232	855.31
244.465	915.31
244.699	915.31
244.932	905.31
245.166	884.31
245.399	925.31
245.633	905.31
245.866	921.31
246.099	931.31
246.333	941.31
246.566	978.31
246.8	978.31
247.033	1009.31
247.266	1029.31
247.5	1129.31
247.733	1142.31
247.966	1172.31
248.2	1153.31
248.433	1143.31
248.666	1192.31
248.899	1363.31
249.133	1461.31
249.366	1518.31
249.599	1401.31
249.832	1358.31
250.066	1549.31
250.299	1979.31
250.532	2570.31
250.765	2509.31
250.998	2161.31
251.231	1911.31
251.465	1622.31
251.698	1507.31
251.931	1443.31
252.164	1437.31
252.397	1432.31
252.63	1456.31
252.863	1589.31
253.096	1678.31
253.329	1734.31
253.562	1619.31
253.795	1577.31
254.028	1554.31
254.261	1627.31
254.494	1857.31
254.727	2164.31
254.96	2232.31
255.193	2052.31
255.426	2007.31
255.659	2385.31
255.892	3402.31
256.124	4420.31
256.357	3764.31
256.59	2683.31
256.823	2209.31
257.056	1983.31
257.289	1863.31
257.521	1792.31
257.754	1765.31
257.987	1679.31
258.22	1637.31
258.452	1671.31
258.685	1656.31
258.918	1652.31
259.151	1693.31
259.383	1700.31
259.616	1711.31
259.849	1754.31
260.081	1910.31
260.314	2084.31
260.547	1952.31
260.779	1800.31
261.012	1767.31
261.244	1735.31
261.477	1691.31
261.71	1717.31
261.942	1777.31
262.175	1784.31
262.407	1747.31
262.64	1664.31
262.872	1657.31
263.105	1653.31
263.337	1658.31
263.57	1689.31
263.802	1621.31
264.035	1688.31
264.267	1678.31
264.499	1629.31
264.732	1709.31
264.964	1725.31
265.197	1681.31
265.429	1721.31
265.661	1716.31
265.894	1743.31
266.126	1769.31
266.358	1759.31
266.591	1791.31
266.823	1870.31
267.055	1873.31
267.287	1874.31
267.52	1822.31
267.752	1828.31
267.984	1852.31
268.216	1908.31
268.448	1917.31
268.681	1972.31
268.913	2104.31
269.145	2287.31
269.377	2268.31
269.609	2237.31
269.841	2196.31
270.073	2287.31
270.306	2555.31
270.538	2677.31
270.77	2531.31
271.002	2405.31
271.234	2349.31
271.466	2540.31
271.698	2603.31
271.93	2608.31
272.162	2709.31
272.394	2565.31
272.626	2415.31
272.858	2303.31
273.09	2221.31
273.322	2217.31
273.553	2253.31
273.785	2255.31
274.017	2241.31
274.249	2248.31
274.481	2269.31
274.713	2309.31
274.945	2343.31
275.176	2339.31
275.408	2367.31
275.64	2358.31
275.872	2418.31
276.104	2412.31
276.335	2454.31
276.567	2588.31
276.799	2763.31
277.031	3049.31
277.262	3201.31
277.494	3019.31
277.726	2783.31
277.957	2646.31
278.189	2604.31
278.421	2517.31
278.652	2493.31
278.884	2477.31
279.115	2508.31
279.347	2513.31
279.579	2556.31
279.81	2603.31
280.042	2745.31
280.273	3001.31
280.505	2832.31
280.736	2719.31
280.968	2637.31
281.199	2550.31
281.431	2623.31
281.662	2591.31
281.894	2588.31
282.125	2659.31
282.356	2811.31
282.588	2908.31
282.819	2734.31
283.051	2584.31
283.282	2552.31
283.513	2617.31
283.745	2650.31
283.976	2688.31
284.207	2655.31
284.439	2642.31
284.67	2617.31
284.901	2654.31
285.132	2665.31
285.364	2637.31
285.595	2686.31
285.826	2677.31
286.057	2721.31
286.288	2700.31
286.52	2703.31
286.751	2719.31
286.982	2733.31
287.213	2802.31
287.444	2825.31
287.675	2827.31
287.906	2872.31
288.138	2936.31
288.369	2928.31
288.6	2914.31
288.831	2877.31
289.062	2833.31
289.293	2841.31
289.524	2835.31
289.755	2791.31
289.986	2848.31
290.217	2844.31
290.448	2818.31
290.679	2867.31
290.91	2798.31
291.141	2792.31
291.371	2836.31
291.602	2784.31
291.833	2806.31
292.064	2792.31
292.295	2808.31
292.526	2834.31
292.757	2807.31
292.987	2805.31
293.218	2790.31
293.449	2809.31
293.68	2769.31
293.91	2808.31
294.141	2816.31
294.372	2787.31
294.603	2871.31
294.833	2842.31
295.064	2910.31
295.295	2910.31
295.525	2836.31
295.756	2891.31
295.987	2979.31
296.217	3225.31
296.448	3115.31
296.679	3011.31
296.909	2939.31
297.14	2953.31
297.37	2999.31
297.601	3043.31
297.831	3008.31
298.062	3036.31
298.292	3005.31
298.523	3112.31
298.753	3087.31
298.984	3092.31
299.214	3102.31
299.445	3039.31
299.675	3081.31
299.905	3135.31
300.136	3052.31
300.366	3153.31
300.597	3166.31
300.827	3294.31
301.057	3341.31
301.288	3343.31
301.518	3265.31
301.748	3334.31
301.979	3453.31
302.209	3419.31
302.439	3386.31
302.669	3365.31
302.9	3341.31
303.13	3268.31
303.36	3299.31
303.59	3384.31
303.82	3487.31
304.051	3455.31
304.281	3347.31
304.511	3291.31
304.741	3295.31
304.971	3286.31
305.201	3338.31
305.431	3232.31
305.661	3258.31
305.891	3280.31
306.121	3273.31
306.352	3294.31
306.582	3328.31
306.812	3267.31
307.042	3350.31
307.272	3470.31
307.502	3482.31
307.731	3500.31
307.961	3379.31
308.191	3301.31
308.421	3268.31
308.651	3347.31
308.881	3259.31
309.111	3340.31
309.341	3391.31
309.571	3492.31
309.8	3549.31
310.03	3583.31
310.26	3606.31
310.49	3554.31
310.72	3716.31
310.949	3856.31
311.179	3755.31
311.409	3622.31
311.639	3702.31
311.868	3647.31
312.098	3668.31
312.328	3796.31
312.557	3949.31
312.787	3989.31
313.017	3907.31
313.246	3838.31
313.476	3689.31
313.706	3762.31
313.935	3864.31
314.165	3964.31
314.394	3984.31
314.624	3881.31
314.853	3786.31
315.083	3768.31
315.312	3750.31
315.542	3744.31
315.771	3697.31
316.001	3653.31
316.23	3659.31
316.46	3683.31
316.689	3708.31
316.919	3765.31
317.148	3822.31
317.377	3795.31
317.607	3771.31
317.836	3779.31
318.065	3695.31
318.295	3703.31
318.524	3687.31
318.753	3726.31
318.983	3695.31
319.212	3709.31
319.441	3792.31
319.67	3790.31
319.9	3762.31
320.129	3715.31
320.358	3730.31
320.587	3826.31
320.816	3884.31
321.046	3883.31
321.275	3840.31
321.504	3853.31
321.733	3933.31
321.962	3997.31
322.191	4087.31
322.42	4205.31
322.649	4294.31
322.878	4348.31
323.108	4504.31
323.337	4651.31
323.566	4905.31
323.795	5128.31
324.024	5756.31
324.253	7622.31
324.482	11571.31
324.71	15609.31
324.939	15609.31
325.168	13531.31
325.397	6695.31
325.626	5431.31
325.855	5096.31
326.084	5067.31
326.313	5078.31
326.542	5290.31
326.77	6001.31
326.999	7619.31
327.228	11141.31
327.457	15080.31
327.686	14607.31
327.914	8846.31
328.143	8273.31
328.372	8572.31
328.6	7260.31
328.829	6363.31
329.058	6485.31
329.287	6637.31
329.515	6618.31
329.744	7124.31
329.972	8766.31
330.201	11301.31
330.43	12788.31
330.658	9560.31
330.887	7726.31
331.115	6757.31
331.344	5992.31
331.572	5734.31
331.801	5775.31
332.03	5729.31
332.258	5655.31
332.486	5745.31
332.715	5869.31
332.943	6079.31
333.172	6441.31
333.4	6725.31
333.629	7313.31
333.857	8331.31
334.085	10059.31
334.314	12776.31
334.542	15013.31
334.771	14422.31
334.999	9277.31
335.227	7274.31
335.455	6458.31
335.684	6013.31
335.912	5790.31
336.14	5571.31
336.369	5443.31
336.597	5431.31
336.825	5306.31
337.053	5187.31
337.281	5016.31
337.51	4957.31
337.738	4980.31
337.966	4928.31
338.194	4862.31
338.422	4729.31
338.65	4696.31
338.878	4598.31
339.106	4662.31
339.334	4650.31
339.562	4545.31
339.79	4459.31
340.018	4444.31
340.246	4465.31
340.474	4463.31
340.702	4470.31
340.93	4445.31
341.158	4402.31
341.386	4448.31
341.614	4436.31
341.842	4357.31
342.07	4363.31
342.298	4294.31
342.526	4277.31
342.754	4289.31
342.981	4353.31
343.209	4419.31
343.437	4606.31
343.665	4828.31
343.893	5108.31
344.12	5163.31
344.348	4872.31
344.576	4711.31
344.804	4656.31
345.031	4579.31
345.259	4581.31
345.487	4458.31
345.714	4319.31
345.942	4227.31
346.17	4212.31
346.397	4208.31
346.625	4186.31
346.853	4166.31
347.08	4143.31
347.308	4292.31
347.535	4326.31
347.763	4348.31
347.99	4334.31
348.218	4253.31
348.445	4373.31
348.673	4268.31
348.9	4171.31
349.128	4158.31
349.355	3981.31
349.583	4043.31
349.81	4068.31
350.037	3999.31
350.265	3982.31
350.492	4060.31
350.72	4117.31
350.947	4115.31
351.174	4177.31
351.402	4266.31
351.629	4163.31
351.856	4193.31
352.083	4235.31
352.311	4235.31
352.538	4248.31
352.765	4223.31
352.992	4204.31
353.22	4051.31
353.447	4075.31
353.674	4064.31
353.901	3982.31
354.128	3943.31
354.355	3919.31
354.583	3967.31
354.81	3945.31
355.037	3903.31
355.264	3884.31
355.491	3895.31
355.718	3983.31
355.945	3920.31
356.172	3930.31
356.399	3922.31
356.626	3916.31
356.853	3963.31
357.08	3893.31
357.307	3940.31
357.534	3891.31
357.761	3980.31
357.988	3984.31
358.215	3934.31
358.441	3919.31
358.668	3953.31
358.895	4062.31
359.122	3981.31
359.349	4115.31
359.576	4202.31
359.802	4465.31
360.029	4645.31
360.256	4598.31
360.483	4388.31
360.709	4167.31
360.936	4175.31
361.163	4143.31
361.39	4228.31
361.616	4247.31
361.843	4171.31
362.07	4131.31
362.296	4231.31
362.523	4151.31
362.749	4152.31
362.976	4100.31
363.203	4102.31
363.429	3997.31
363.656	4020.31
363.882	4054.31
364.109	4020.31
364.335	4022.31
364.562	3991.31
364.788	3955.31
365.015	4003.31
365.241	4035.31
365.468	4072.31
365.694	4081.31
365.92	4104.31
366.147	4086.31
366.373	4101.31
366.599	3953.31
366.826	3987.31
367.052	3934.31
367.278	4096.31
367.505	3974.31
367.731	4049.31
367.957	4082.31
368.184	4048.31
368.41	4168.31
368.636	4223.31
368.862	4301.31
369.089	4133.31
369.315	4111.31
369.541	4080.31
369.767	4091.31
369.993	4126.31
370.219	4219.31
370.445	4117.31
370.672	4153.31
370.898	4128.31
371.124	4196.31
371.35	4249.31
371.576	4216.31
371.802	4221.31
372.028	4194.31
372.254	4297.31
372.48	4312.31
372.706	4384.31
372.932	4433.31
373.158	4329.31
373.384	4328.31
373.61	4261.31
373.835	4254.31
374.061	4271.31
374.287	4413.31
374.513	4449.31
374.739	4616.31
374.965	4645.31
375.191	4669.31
375.416	4543.31
375.642	4488.31
375.868	4450.31
376.094	4396.31
376.319	4337.31
376.545	4313.31
376.771	4305.31
376.997	4200.31
377.222	4249.31
377.448	4194.31
377.674	4227.31
377.899	4220.31
378.125	4183.31
378.35	4127.31
378.576	4179.31
378.802	4147.31
379.027	4231.31
379.253	4182.31
379.478	4141.31
379.704	4249.31
379.929	4230.31
380.155	4228.31
380.38	4322.31
380.606	4255.31
380.831	4240.31
381.057	4304.31
381.282	4267.31
381.507	4289.31
381.733	4339.31
381.958	4402.31
382.184	4356.31
382.409	4445.31
382.634	4502.31
382.86	4490.31
383.085	4467.31
383.31	4623.31
383.535	4683.31
383.761	4747.31
383.986	4777.31
384.211	4873.31
384.436	4911.31
384.662	4944.31
384.887	5011.31
385.112	5064.31
385.337	5127.31
385.562	5131.31
385.787	5108.31
386.013	5191.31
386.238	5210.31
386.463	5175.31
386.688	5172.31
386.913	5047.31
387.138	5037.31
387.363	5078.31
387.588	5017.31
387.813	5070.31
388.038	5077.31
388.263	5120.31
388.488	5056.31
388.713	5080.31
388.938	5053.31
389.163	4982.31
389.387	4991.31
389.612	4894.31
389.837	5034.31
390.062	4981.31
390.287	5023.31
390.512	4930.31
390.736	5040.31
390.961	5152.31
391.186	5127.31
391.411	5411.31
391.636	5492.31
391.86	5676.31
392.085	5616.31
392.31	5524.31
392.534	5478.31
392.759	5426.31
392.984	5264.31
393.208	5277.31
393.433	5228.31
393.658	5220.31
393.882	5232.31
394.107	5329.31
394.331	5271.31
394.556	5302.31
394.78	5365.31
395.005	5464.31
395.229	5431.31
395.454	5542.31
395.678	5711.31
395.903	5699.31
396.127	5743.31
396.352	5535.31
396.576	5361.31
396.801	5357.31
397.025	5500.31
397.249	5561.31
397.474	5737.31
397.698	5737.31
397.922	5844.31
398.147	5978.31
398.371	6006.31
398.595	6211.31
398.82	6529.31
399.044	7001.31
399.268	7697.31
399.492	8758.31
399.717	9294.31
399.941	9163.31
400.165	8529.31
400.389	7904.31
400.613	7179.31
400.837	6644.31
401.062	6572.31
401.286	6457.31
401.51	6425.31
401.734	6346.31
401.958	6545.31
402.182	6548.31
402.406	6758.31
402.63	6806.31
402.854	6948.31
403.078	6955.31
403.302	7121.31
403.526	7198.31
403.75	7268.31
403.974	7308.31
404.198	7466.31
404.422	7559.31
404.645	7685.31
404.869	7922.31
405.093	8485.31
405.317	9002.31
405.541	8891.31
405.765	7912.31
405.988	7629.31
406.212	7629.31
406.436	7715.31
406.66	7735.31
406.883	7725.31
407.107	8229.31
407.331	8707.31
407.555	9305.31
407.778	8797.31
408.002	8113.31
408.226	7709.31
408.449	7677.31
408.673	7551.31
408.896	7713.31
409.12	7875.31
409.344	7408.31
409.567	7058.31
409.791	7045.31
410.014	6993.31
410.238	6812.31
410.461	6933.31
410.685	7022.31
410.908	7091.31
411.132	7248.31
411.355	7392.31
411.578	7073.31
411.802	6902.31
412.025	7053.31
412.249	7563.31
412.472	8223.31
412.695	8741.31
412.919	8030.31
413.142	7580.31
413.365	7193.31
413.589	6945.31
413.812	6713.31
414.035	6533.31
414.258	6604.31
414.482	6604.31
414.705	6552.31
414.928	6480.31
415.151	6368.31
415.374	6411.31
415.597	6392.31
415.821	6304.31
416.044	6414.31
416.267	6355.31
416.49	6201.31
416.713	6155.31
416.936	6267.31
417.159	6248.31
417.382	6528.31
417.605	6622.31
417.828	6810.31
418.051	6729.31
418.274	6439.31
418.497	6317.31
418.72	6479.31
418.943	6516.31
419.166	6912.31
419.389	7341.31
419.611	7255.31
419.834	7219.31
420.057	7392.31
420.28	7749.31
420.503	7547.31
420.726	7216.31
420.948	7205.31
421.171	7334.31
421.394	7182.31
421.617	6589.31
421.839	6563.31
422.062	6604.31
422.285	6749.31
422.507	7393.31
422.73	7929.31
422.953	7209.31
423.175	6915.31
423.398	6968.31
423.621	6936.31
423.843	7116.31
424.066	6972.31
424.288	6972.31
424.511	7167.31
424.733	7645.31
424.956	8093.31
425.178	7641.31
425.401	7779.31
425.623	7668.31
425.846	6698.31
426.068	6527.31
426.291	6476.31
426.513	6435.31
426.735	6610.31
426.958	7005.31
427.18	8003.31
427.402	9095.31
427.625	9554.31
427.847	8801.31
428.069	8613.31
428.292	7174.31
428.514	6349.31
428.736	6101.31
428.958	6023.31
429.181	5745.31
429.403	5727.31
429.625	5984.31
429.847	6230.31
430.069	6766.31
430.292	6297.31
430.514	5796.31
430.736	5713.31
430.958	5627.31
431.18	5531.31
431.402	5562.31
431.624	5528.31
431.846	5575.31
432.068	5581.31
432.29	5786.31
432.512	5599.31
432.734	5719.31
432.956	5666.31
433.178	5750.31
433.4	5764.31
433.622	5623.31
433.844	5648.31
434.066	5642.31
434.287	5763.31
434.509	6040.31
434.731	6161.31
434.953	6358.31
435.175	6446.31
435.397	6478.31
435.618	6517.31
435.84	6839.31
436.062	7788.31
436.284	7661.31
436.505	6397.31
436.727	6175.31
436.949	5801.31
437.17	5689.31
437.392	5714.31
437.614	5879.31
437.835	6236.31
438.057	7310.31
438.278	7819.31
438.5	7793.31
438.721	8639.31
438.943	7469.31
439.165	6310.31
439.386	6185.31
439.608	6120.31
439.829	6198.31
440.05	6680.31
440.272	7063.31
440.493	6412.31
440.715	6135.31
440.936	6019.31
441.158	5983.31
441.379	6143.31
441.6	6423.31
441.822	6663.31
442.043	7173.31
442.264	7941.31
442.486	7692.31
442.707	6808.31
442.928	6663.31
443.149	6852.31
443.371	7073.31
443.592	7539.31
443.813	8515.31
444.034	8544.31
444.255	7315.31
444.476	7214.31
444.698	7344.31
444.919	7413.31
445.14	7280.31
445.361	7151.31
445.582	7378.31
445.803	8140.31
446.024	8829.31
446.245	8429.31
446.466	7404.31
446.687	6326.31
446.908	5894.31
447.129	5686.31
447.35	5571.31
447.571	5517.31
447.792	5464.31
448.013	5485.31
448.234	5758.31
448.455	6407.31
448.675	7636.31
448.896	8121.31
449.117	6636.31
449.338	6858.31
449.559	8214.31
449.779	8438.31
450	6316.31
450.221	5641.31
450.442	5480.31
450.662	5392.31
450.883	5505.31
451.104	5574.31
451.324	5432.31
451.545	5243.31
451.766	5064.31
451.986	5043.31
452.207	4953.31
452.428	4970.31
452.648	5014.31
452.869	4943.31
453.089	5077.31
453.31	5193.31
453.53	4983.31
453.751	4975.31
453.971	5008.31
454.192	5114.31
454.412	4957.31
454.633	4883.31
454.853	4888.31
455.073	4894.31
455.294	5229.31
455.514	5809.31
455.734	5306.31
455.955	4724.31
456.175	4624.31
456.395	4575.31
456.616	4562.31
456.836	4660.31
457.056	4565.31
457.276	4580.31
457.497	4730.31
457.717	4719.31
457.937	4743.31
458.157	4853.31
458.377	4952.31
458.598	5299.31
458.818	5993.31
459.038	6832.31
459.258	6629.31
459.478	5849.31
459.698	5718.31
459.918	5757.31
460.138	5907.31
460.358	6175.31
460.578	6227.31
460.798	6244.31
461.018	6260.31
461.238	6111.31
461.458	6117.31
461.678	6041.31
461.898	6268.31
462.118	6244.31
462.338	6627.31
462.558	6727.31
462.777	7016.31
462.997	7571.31
463.217	7897.31
463.437	7775.31
463.657	7207.31
463.876	7040.31
464.096	7095.31
464.316	7105.31
464.536	7164.31
464.755	6906.31
464.975	6818.31
465.195	7104.31
465.414	7099.31
465.634	6174.31
465.854	5872.31
466.073	5613.31
466.293	5407.31
466.512	5272.31
466.732	5240.31
466.951	5296.31
467.171	5240.31
467.391	5350.31
467.61	5407.31
467.829	5612.31
468.049	6370.31
468.268	7263.31
468.488	5975.31
468.707	5438.31
468.927	5329.31
469.146	5179.31
469.365	5200.31
469.585	5217.31
469.804	5390.31
470.023	5551.31
470.243	5501.31
470.462	5577.31
470.681	5739.31
470.901	5631.31
471.12	5500.31
471.339	5492.31
471.558	5496.31
471.777	5633.31
471.997	5928.31
472.216	7936.31
472.435	11828.31
472.654	8867.31
472.873	6740.31
473.092	6087.31
473.311	5748.31
473.53	5539.31
473.749	5630.31
473.968	6031.31
474.187	7039.31
474.406	6532.31
474.625	5552.31
474.844	5302.31
475.063	5128.31
475.282	5142.31
475.501	5254.31
475.72	5292.31
475.939	5270.31
476.158	5288.31
476.377	5359.31
476.596	5256.31
476.814	5464.31
477.033	5479.31
477.252	5619.31
477.471	5652.31
477.69	5715.31
477.908	5934.31
478.127	6021.31
478.346	6113.31
478.564	6157.31
478.783	6313.31
479.002	6473.31
479.22	6486.31
479.439	6583.31
479.658	6725.31
479.876	6819.31
480.095	7055.31
480.313	7488.31
480.532	7516.31
480.751	7942.31
480.969	9904.31
481.188	15196.31
481.406	15315.31
481.624	10745.31
481.843	8737.31
482.061	7721.31
482.28	7301.31
482.498	6944.31
482.717	6706.31
482.935	6628.31
483.153	6432.31
483.372	6377.31
483.59	6342.31
483.808	6252.31
484.027	6185.31
484.245	6322.31
484.463	6313.31
484.681	6395.31
484.9	6381.31
485.118	6418.31
485.336	6411.31
485.554	6482.31
485.772	6562.31
485.99	6548.31
486.209	6559.31
486.427	6646.31
486.645	6680.31
486.863	6813.31
487.081	6675.31
487.299	6661.31
487.517	6700.31
487.735	6621.31
