Data from Circ_2004_H10_HRD10591_00006.txt Node
Date: Wed Jan 03 10:33:15 EST 2024
User: Yrep
Spectrometer: HR+D1059
Trigger mode: 1
Integration Time (sec): 1.000000E-1
Scans to average: 1
Electric dark correction enabled: true
Nonlinearity correction enabled: false
Boxcar width: 0
XAxis mode: Wavelengths
Number of Pixels in Spectrum: 2048
>>>>>Begin Spectral Data<<<<<
223.165	-6
223.4	-6
223.635	-6
223.869	-13
224.104	-19
224.338	-17
224.573	-19
224.808	-25
225.042	-2
225.277	-8
225.511	0
225.746	1
225.98	12
226.215	7
226.449	13
226.683	8
226.918	33
227.152	35
227.387	43
227.621	41
227.856	46
228.09	49
228.324	51
228.559	65
228.793	47
229.027	73
229.262	71
229.496	67
229.73	71
229.964	86
230.199	62
230.433	92
230.667	83
230.901	85
231.136	80
231.37	85
231.604	78
231.838	76
232.072	71
232.306	83
232.541	81
232.775	92
233.009	84
233.243	103
233.477	77
233.711	76
233.945	100
234.179	83
234.413	86
234.647	84
234.881	87
235.115	88
235.349	82
235.583	88
235.817	86
236.051	72
236.285	91
236.519	85
236.753	73
236.987	74
237.221	92
237.455	85
237.689	82
237.922	77
238.156	81
238.39	75
238.624	88
238.858	71
239.091	76
239.325	86
239.559	90
239.793	71
240.027	82
240.26	93
240.494	83
240.728	79
240.961	83
241.195	68
241.429	68
241.662	75
241.896	95
242.13	74
242.363	69
242.597	65
242.83	80
243.064	87
243.298	92
243.531	90
243.765	72
243.998	85
244.232	81
244.465	91
244.699	63
244.932	75
245.166	87
245.399	75
245.633	89
245.866	79
246.099	81
246.333	86
246.566	81
246.8	77
247.033	83
247.266	82
247.5	102
247.733	93
247.966	87
248.2	96
248.433	78
248.666	96
248.899	80
249.133	71
249.366	105
249.599	98
249.832	89
250.066	87
250.299	74
250.532	78
250.765	87
250.998	75
251.231	76
251.465	82
251.698	70
251.931	84
252.164	86
252.397	96
252.63	89
252.863	92
253.096	94
253.329	89
253.562	87
253.795	87
254.028	77
254.261	83
254.494	91
254.727	83
254.96	85
255.193	83
255.426	81
255.659	92
255.892	85
256.124	88
256.357	83
256.59	80
256.823	71
257.056	73
257.289	76
257.521	75
257.754	88
257.987	99
258.22	89
258.452	80
258.685	92
258.918	81
259.151	75
259.383	86
259.616	82
259.849	87
260.081	88
260.314	86
260.547	77
260.779	77
261.012	71
261.244	91
261.477	81
261.71	97
261.942	114
262.175	109
262.407	88
262.64	83
262.872	78
263.105	83
263.337	91
263.57	68
263.802	79
264.035	94
264.267	73
264.499	98
264.732	100
264.964	97
265.197	103
265.429	80
265.661	87
265.894	87
266.126	86
266.358	93
266.591	82
266.823	76
267.055	89
267.287	92
267.52	81
267.752	97
267.984	97
268.216	84
268.448	82
268.681	92
268.913	84
269.145	70
269.377	103
269.609	89
269.841	90
270.073	82
270.306	95
270.538	81
270.77	94
271.002	96
271.234	101
271.466	91
271.698	100
271.93	89
272.162	89
272.394	92
272.626	90
272.858	92
273.09	88
273.322	92
273.553	84
273.785	92
274.017	90
274.249	85
274.481	81
274.713	96
274.945	78
275.176	98
275.408	71
275.64	91
275.872	81
276.104	88
276.335	89
276.567	93
276.799	100
277.031	115
277.262	95
277.494	97
277.726	82
277.957	97
278.189	100
278.421	79
278.652	89
278.884	95
279.115	95
279.347	86
279.579	93
279.81	86
280.042	99
280.273	100
280.505	82
280.736	97
280.968	92
281.199	87
281.431	92
281.662	93
281.894	112
282.125	99
282.356	118
282.588	123
282.819	93
283.051	74
283.282	77
283.513	89
283.745	90
283.976	98
284.207	90
284.439	89
284.67	89
284.901	88
285.132	80
285.364	88
285.595	101
285.826	95
286.057	90
286.288	93
286.52	88
286.751	103
286.982	94
287.213	89
287.444	89
287.675	84
287.906	82
288.138	96
288.369	102
288.6	106
288.831	83
289.062	87
289.293	88
289.524	68
289.755	101
289.986	82
290.217	86
290.448	91
290.679	82
290.91	89
291.141	93
291.371	97
291.602	84
291.833	92
292.064	93
292.295	94
292.526	87
292.757	88
292.987	87
293.218	91
293.449	106
293.68	83
293.91	79
294.141	82
294.372	97
294.603	100
294.833	88
295.064	80
295.295	87
295.525	89
295.756	99
295.987	118
296.217	139
296.448	101
296.679	82
296.909	84
297.14	84
297.37	72
297.601	82
297.831	100
298.062	92
298.292	96
298.523	81
298.753	94
298.984	82
299.214	91
299.445	96
299.675	79
299.905	100
300.136	91
300.366	100
300.597	93
300.827	99
301.057	95
301.288	111
301.518	89
301.748	92
301.979	105
302.209	105
302.439	101
302.669	85
302.9	91
303.13	97
303.36	105
303.59	103
303.82	108
304.051	102
304.281	99
304.511	99
304.741	91
304.971	96
305.201	96
305.431	92
305.661	110
305.891	86
306.121	103
306.352	98
306.582	109
306.812	99
307.042	102
307.272	88
307.502	88
307.731	105
307.961	91
308.191	88
308.421	87
308.651	84
308.881	95
309.111	99
309.341	91
309.571	88
309.8	80
310.03	96
310.26	106
310.49	106
310.72	108
310.949	98
311.179	103
311.409	77
311.639	92
311.868	82
312.098	94
312.328	96
312.557	98
312.787	101
313.017	101
313.246	98
313.476	102
313.706	86
313.935	89
314.165	97
314.394	86
314.624	96
314.853	91
315.083	90
315.312	93
315.542	95
315.771	83
316.001	88
316.23	98
316.46	100
316.689	91
316.919	106
317.148	87
317.377	94
317.607	113
317.836	95
318.065	88
318.295	88
318.524	93
318.753	118
318.983	93
319.212	88
319.441	116
319.67	112
319.9	98
320.129	103
320.358	100
320.587	103
320.816	96
321.046	92
321.275	94
321.504	91
321.733	104
321.962	93
322.191	91
322.42	101
322.649	110
322.878	114
323.108	117
323.337	103
323.566	131
323.795	142
324.024	176
324.253	323
324.482	708
324.71	1368
324.939	1806
325.168	689
325.397	209
325.626	142
325.855	116
326.084	117
326.313	122
326.542	125
326.77	221
326.999	387
327.228	767
327.457	1417
327.686	1107
327.914	332
328.143	210
328.372	193
328.6	130
328.829	110
329.058	113
329.287	131
329.515	111
329.744	129
329.972	136
330.201	193
330.43	234
330.658	163
330.887	129
331.115	123
331.344	99
331.572	101
331.801	115
332.03	106
332.258	103
332.486	95
332.715	96
332.943	108
333.172	100
333.4	108
333.629	110
333.857	108
334.085	137
334.314	186
334.542	265
334.771	241
334.999	125
335.227	92
335.455	93
335.684	95
335.912	105
336.14	88
336.369	100
336.597	94
336.825	78
337.053	101
337.281	110
337.51	105
337.738	117
337.966	83
338.194	94
338.422	107
338.65	97
338.878	82
339.106	108
339.334	89
339.562	95
339.79	81
340.018	90
340.246	88
340.474	105
340.702	96
340.93	92
341.158	90
341.386	97
341.614	98
341.842	104
342.07	97
342.298	95
342.526	102
342.754	78
342.981	82
343.209	89
343.437	113
343.665	89
343.893	96
344.12	109
344.348	93
344.576	101
344.804	92
345.031	91
345.259	83
345.487	100
345.714	92
345.942	99
346.17	103
346.397	93
346.625	89
346.853	109
347.08	95
347.308	98
347.535	100
347.763	89
347.99	97
348.218	90
348.445	108
348.673	88
348.9	89
349.128	99
349.355	93
349.583	92
349.81	101
350.037	97
350.265	89
350.492	98
350.72	107
350.947	96
351.174	93
351.402	95
351.629	115
351.856	93
352.083	109
352.311	104
352.538	100
352.765	107
352.992	104
353.22	111
353.447	100
353.674	118
353.901	116
354.128	108
354.355	110
354.583	90
354.81	98
355.037	106
355.264	93
355.491	92
355.718	93
355.945	98
356.172	86
356.399	91
356.626	104
356.853	89
357.08	112
357.307	101
357.534	97
357.761	99
357.988	100
358.215	103
358.441	92
358.668	102
358.895	94
359.122	92
359.349	84
359.576	90
359.802	115
360.029	113
360.256	109
360.483	98
360.709	94
360.936	105
361.163	95
361.39	101
361.616	112
361.843	91
362.07	97
362.296	107
362.523	97
362.749	101
362.976	100
363.203	95
363.429	89
363.656	84
363.882	84
364.109	93
364.335	85
364.562	87
364.788	87
365.015	96
365.241	111
365.468	107
365.694	101
365.92	87
366.147	94
366.373	99
366.599	98
366.826	96
367.052	83
367.278	100
367.505	101
367.731	92
367.957	89
368.184	95
368.41	90
368.636	102
368.862	110
369.089	85
369.315	95
369.541	86
369.767	87
369.993	91
370.219	93
370.445	88
370.672	90
370.898	86
371.124	96
371.35	84
371.576	89
371.802	94
372.028	96
372.254	88
372.48	73
372.706	98
372.932	92
373.158	89
373.384	98
373.61	94
373.835	80
374.061	95
374.287	79
374.513	79
374.739	84
374.965	99
375.191	86
375.416	89
375.642	93
375.868	88
376.094	102
376.319	88
376.545	107
376.771	91
376.997	98
377.222	82
377.448	103
377.674	82
377.899	95
378.125	81
378.35	89
378.576	87
378.802	93
379.027	89
379.253	99
379.478	96
379.704	101
379.929	87
380.155	95
380.38	73
380.606	108
380.831	94
381.057	108
381.282	90
381.507	98
381.733	104
381.958	100
382.184	118
382.409	81
382.634	114
382.86	99
383.085	104
383.31	97
383.535	95
383.761	97
383.986	98
384.211	104
384.436	90
384.662	100
384.887	108
385.112	107
385.337	102
385.562	109
385.787	111
386.013	128
386.238	135
386.463	104
386.688	102
386.913	115
387.138	125
387.363	109
387.588	115
387.813	100
388.038	105
388.263	120
388.488	122
388.713	104
388.938	86
389.163	101
389.387	101
389.612	103
389.837	94
390.062	85
390.287	98
390.512	90
390.736	101
390.961	100
391.186	104
391.411	84
391.636	96
391.86	92
392.085	72
392.31	87
392.534	93
392.759	106
392.984	78
393.208	99
393.433	94
393.658	103
393.882	75
394.107	90
394.331	82
394.556	81
394.78	85
395.005	91
395.229	84
395.454	80
395.678	80
395.903	79
396.127	85
396.352	88
396.576	81
396.801	102
397.025	104
397.249	96
397.474	90
397.698	107
397.922	97
398.147	78
398.371	96
398.595	96
398.82	78
399.044	84
399.268	88
399.492	100
399.717	78
399.941	85
400.165	96
400.389	98
400.613	87
400.837	91
401.062	99
401.286	87
401.51	100
401.734	91
401.958	92
402.182	139
402.406	160
402.63	111
402.854	84
403.078	84
403.302	83
403.526	97
403.75	91
403.974	99
404.198	88
404.422	85
404.645	74
404.869	94
405.093	93
405.317	106
405.541	88
405.765	92
405.988	100
406.212	156
406.436	197
406.66	112
406.883	101
407.107	91
407.331	80
407.555	105
407.778	87
408.002	98
408.226	98
408.449	83
408.673	100
408.896	89
409.12	96
409.344	89
409.567	87
409.791	104
410.014	82
410.238	86
410.461	81
410.685	85
410.908	105
411.132	101
411.355	109
411.578	103
411.802	87
412.025	80
412.249	88
412.472	93
412.695	93
412.919	84
413.142	90
413.365	89
413.589	97
413.812	85
414.035	86
414.258	111
414.482	101
414.705	92
414.928	99
415.151	87
415.374	81
415.597	86
415.821	82
416.044	94
416.267	92
416.49	92
416.713	79
416.936	91
417.159	96
417.382	94
417.605	99
417.828	89
418.051	90
418.274	97
418.497	91
418.72	85
418.943	80
419.166	79
419.389	89
419.611	82
419.834	89
420.057	84
420.28	81
420.503	98
420.726	95
420.948	103
421.171	101
421.394	90
421.617	72
421.839	88
422.062	93
422.285	100
422.507	95
422.73	105
422.953	79
423.175	90
423.398	85
423.621	78
423.843	98
424.066	85
424.288	104
424.511	93
424.733	101
424.956	93
425.178	98
425.401	102
425.623	108
425.846	93
426.068	97
426.291	102
426.513	83
426.735	107
426.958	80
427.18	105
427.402	122
427.625	160
427.847	145
428.069	120
428.292	106
428.514	93
428.736	93
428.958	84
429.181	92
429.403	83
429.625	86
429.847	92
430.069	106
430.292	88
430.514	88
430.736	92
430.958	95
431.18	87
431.402	86
431.624	89
431.846	96
432.068	89
432.29	89
432.512	89
432.734	104
432.956	84
433.178	98
433.4	96
433.622	94
433.844	99
434.066	99
434.287	84
434.509	99
434.731	94
434.953	86
435.175	85
435.397	83
435.618	87
435.84	105
436.062	124
436.284	109
436.505	91
436.727	88
436.949	82
437.17	100
437.392	79
437.614	101
437.835	101
438.057	104
438.278	89
438.5	96
438.721	119
438.943	88
439.165	88
439.386	91
439.608	90
439.829	83
440.05	117
440.272	124
440.493	102
440.715	93
440.936	103
441.158	99
441.379	94
441.6	103
441.822	99
442.043	101
442.264	102
442.486	110
442.707	96
442.928	105
443.149	118
443.371	120
443.592	99
443.813	101
444.034	111
444.255	86
444.476	95
444.698	87
444.919	97
445.14	131
445.361	115
445.582	102
445.803	121
446.024	122
446.245	131
446.466	109
446.687	88
446.908	108
447.129	87
447.35	97
447.571	89
447.792	91
448.013	91
448.234	102
448.455	82
448.675	107
448.896	107
449.117	88
449.338	86
449.559	126
449.779	135
450	96
450.221	99
450.442	91
450.662	89
450.883	102
451.104	114
451.324	97
451.545	83
451.766	86
451.986	74
452.207	65
452.428	85
452.648	104
452.869	104
453.089	120
453.31	106
453.53	81
453.751	85
453.971	103
454.192	97
454.412	75
454.633	88
454.853	92
455.073	100
455.294	85
455.514	93
455.734	88
455.955	83
456.175	93
456.395	91
456.616	86
456.836	85
457.056	89
457.276	75
457.497	87
457.717	104
457.937	93
458.157	91
458.377	100
458.598	105
458.818	125
459.038	124
459.258	103
459.478	86
459.698	80
459.918	80
460.138	87
460.358	83
460.578	97
460.798	83
461.018	92
461.238	89
461.458	81
461.678	83
461.898	91
462.118	79
462.338	103
462.558	83
462.777	93
462.997	81
463.217	80
463.437	85
463.657	91
463.876	75
464.096	100
464.316	91
464.536	92
464.755	97
464.975	108
465.195	139
465.414	135
465.634	84
465.854	94
466.073	90
466.293	104
466.512	88
466.732	74
466.951	83
467.171	88
467.391	99
467.61	104
467.829	105
468.049	136
468.268	175
468.488	120
468.707	104
468.927	86
469.146	102
469.365	88
469.585	77
469.804	107
470.023	103
470.243	87
470.462	107
470.681	114
470.901	88
471.12	93
471.339	80
471.558	92
471.777	101
471.997	121
472.216	211
472.435	331
472.654	151
472.873	87
473.092	79
473.311	93
473.53	103
473.749	90
473.968	101
474.187	113
474.406	96
474.625	95
474.844	85
475.063	91
475.282	101
475.501	85
475.72	77
475.939	100
476.158	77
476.377	91
476.596	106
476.814	114
477.033	85
477.252	89
477.471	92
477.69	77
477.908	92
478.127	84
478.346	74
478.564	93
478.783	94
479.002	86
479.22	113
479.439	104
479.658	112
479.876	106
480.095	108
480.313	103
480.532	125
480.751	120
480.969	203
481.188	551
481.406	360
481.624	108
481.843	79
482.061	76
482.28	90
482.498	104
482.717	100
482.935	98
483.153	94
483.372	97
483.59	91
483.808	87
484.027	107
484.245	94
484.463	82
484.681	86
484.9	87
485.118	100
485.336	97
485.554	93
485.772	91
485.99	105
486.209	93
486.427	93
486.645	112
486.863	106
487.081	100
487.299	104
487.517	102
487.735	90
487.953	88
488.171	99
488.389	89
488.607	105
488.825	99
489.043	90
489.261	108
489.479	89
489.696	78
489.914	91
490.132	85
490.35	106
490.568	90
490.786	99
491.003	74
491.221	89
491.439	90
491.657	85
491.874	93
492.092	105
492.31	97
492.527	97
492.745	92
492.963	95
493.18	93
493.398	111
493.615	83
493.833	88
494.05	78
494.268	93
494.485	101
494.703	83
494.92	85
495.138	99
495.355	96
495.573	96
495.79	98
496.008	98
496.225	87
496.442	101
496.66	85
496.877	83
497.094	108
497.312	89
497.529	88
497.746	100
497.963	81
498.181	93
498.398	101
498.615	98
498.832	90
499.049	97
499.267	88
499.484	92
499.701	90
499.918	80
500.135	102
500.352	86
500.569	80
500.786	82
501.003	96
501.22	101
501.437	87
501.654	89
501.871	98
502.088	87
502.305	89
502.522	93
502.739	99
502.956	82
503.172	96
503.389	96
503.606	110
503.823	111
504.04	86
504.256	97
504.473	77
504.69	98
504.907	87
505.123	90
505.34	89
505.557	87
505.773	80
505.99	88
506.207	81
506.423	90
506.64	88
506.856	67
507.073	91
507.289	93
507.506	100
507.722	124
507.939	115
508.155	99
508.372	97
508.588	104
508.805	106
509.021	90
509.238	100
509.454	106
509.67	86
509.887	93
510.103	123
510.319	184
510.536	628
510.752	1883
510.968	553
511.184	143
511.401	111
511.617	110
511.833	100
512.049	94
512.265	92
512.481	85
512.698	79
512.914	92
513.13	93
513.346	93
513.562	83
513.778	104
513.994	88
514.21	96
514.426	116
514.642	131
514.858	113
515.074	161
515.29	388
515.506	1187
515.721	453
515.937	139
516.153	102
516.369	105
516.585	111
516.801	86
517.016	89
517.232	102
517.448	86
517.664	115
517.879	92
518.095	90
518.311	94
518.527	92
518.742	102
518.958	96
519.173	97
519.389	86
519.605	95
519.82	96
520.036	93
520.251	109
520.467	105
520.682	106
520.898	109
521.113	113
521.329	116
521.544	180
521.76	481
521.975	1941
522.19	1151
522.406	274
522.621	131
522.836	96
523.052	107
523.267	91
523.482	100
523.698	113
523.913	111
524.128	103
524.343	107
524.559	101
524.774	83
524.989	107
525.204	114
525.419	85
525.634	100
525.849	97
526.064	106
526.28	95
526.495	89
526.71	89
526.925	75
527.14	88
527.355	83
527.57	84
527.785	96
527.999	89
528.214	99
528.429	89
528.644	90
528.859	96
529.074	92
529.289	108
529.503	165
529.718	102
529.933	100
530.148	98
530.363	103
530.577	96
530.792	96
531.007	98
531.221	82
531.436	94
531.651	93
531.865	82
532.08	93
532.295	107
532.509	91
532.724	93
532.938	92
533.153	92
533.367	87
533.582	95
533.796	93
534.011	98
534.225	90
534.44	99
534.654	100
534.868	107
535.083	84
535.297	88
535.511	96
535.726	117
535.94	102
536.154	107
536.369	89
536.583	97
536.797	95
537.011	111
537.225	95
537.44	84
537.654	99
537.868	83
538.082	86
538.296	95
538.51	89
538.724	96
538.938	96
539.153	93
539.367	99
539.581	82
539.795	89
540.009	95
540.222	100
540.436	96
540.65	107
540.864	91
541.078	101
541.292	94
541.506	101
541.72	83
541.934	98
542.147	83
542.361	88
542.575	85
542.789	92
543.002	84
543.216	93
543.43	101
543.644	83
543.857	97
544.071	83
544.285	94
544.498	84
544.712	80
544.925	97
545.139	85
545.352	94
545.566	81
545.779	84
545.993	93
546.206	96
546.42	89
546.633	95
546.847	86
547.06	87
547.274	92
547.487	82
547.7	82
547.914	87
548.127	89
548.34	86
548.554	89
548.767	101
548.98	99
549.193	82
549.407	92
549.62	100
549.833	90
550.046	76
550.259	95
550.473	81
550.686	91
550.899	93
551.112	84
551.325	86
551.538	88
551.751	79
551.964	82
552.177	98
552.39	93
552.603	84
552.816	97
553.029	95
553.242	95
553.455	97
553.667	104
553.88	86
554.093	88
554.306	97
554.519	90
554.732	90
554.944	103
555.157	97
555.37	99
555.583	88
555.795	101
556.008	88
556.221	97
556.433	102
556.646	99
556.859	106
557.071	89
557.284	89
557.496	88
557.709	91
557.921	99
558.134	94
558.346	95
558.559	81
558.771	88
558.984	85
559.196	90
559.409	93
559.621	101
559.833	95
560.046	106
560.258	93
560.47	86
560.683	92
560.895	85
561.107	96
561.32	84
561.532	85
561.744	89
561.956	99
562.168	84
562.381	92
562.593	92
562.805	106
563.017	96
563.229	98
563.441	96
563.653	92
563.865	89
564.077	92
564.289	83
564.501	82
564.713	100
564.925	98
565.137	119
565.349	92
565.561	92
565.773	79
565.985	80
566.197	86
566.408	81
566.62	91
566.832	74
567.044	92
567.255	86
567.467	86
567.679	86
567.891	79
568.102	87
568.314	92
568.526	80
568.737	93
568.949	100
569.161	92
569.372	80
569.584	92
569.795	96
570.007	116
570.218	213
570.43	131
570.641	94
570.853	100
571.064	91
571.276	75
571.487	97
571.698	89
571.91	85
572.121	93
572.333	90
572.544	91
572.755	82
572.966	87
573.178	85
573.389	84
573.6	103
573.811	97
574.023	94
574.234	80
574.445	85
574.656	100
574.867	88
575.078	89
575.289	86
575.501	90
575.712	92
575.923	93
576.134	90
576.345	81
576.556	92
576.767	101
576.978	97
577.188	105
577.399	109
577.61	85
577.821	92
578.032	119
578.243	232
578.454	636
578.665	201
578.875	110
579.086	95
579.297	97
579.508	84
579.718	91
579.929	77
580.14	87
580.35	91
580.561	86
580.772	91
580.982	80
581.193	93
581.403	98
581.614	69
581.825	75
582.035	100
582.246	86
582.456	93
582.667	91
