Data from Circ_2004_H10_HRD10591_00020.txt Node
Date: Wed Jan 03 10:33:18 EST 2024
User: Yrep
Spectrometer: HR+D1059
Trigger mode: 1
Integration Time (sec): 1.000000E-1
Scans to average: 1
Electric dark correction enabled: true
Nonlinearity correction enabled: false
Boxcar width: 0
XAxis mode: Wavelengths
Number of Pixels in Spectrum: 2048
>>>>>Begin Spectral Data<<<<<
223.165	-29.25
223.4	-29.25
223.635	-29.25
223.869	-6.25
224.104	-7.25
224.338	-26.25
224.573	-11.25
224.808	-22.25
225.042	-4.25
225.277	1.75
225.511	-7.25
225.746	5.75
225.98	11.75
226.215	3.75
226.449	28.75
226.683	15.75
226.918	27.75
227.152	18.75
227.387	25.75
227.621	43.75
227.856	51.75
228.09	41.75
228.324	51.75
228.559	45.75
228.793	70.75
229.027	52.75
229.262	65.75
229.496	66.75
229.73	75.75
229.964	80.75
230.199	63.75
230.433	84.75
230.667	68.75
230.901	75.75
231.136	75.75
231.37	80.75
231.604	86.75
231.838	78.75
232.072	83.75
232.306	86.75
232.541	95.75
232.775	78.75
233.009	79.75
233.243	80.75
233.477	79.75
233.711	97.75
233.945	88.75
234.179	75.75
234.413	85.75
234.647	63.75
234.881	71.75
235.115	70.75
235.349	62.75
235.583	91.75
235.817	80.75
236.051	82.75
236.285	81.75
236.519	76.75
236.753	79.75
236.987	90.75
237.221	81.75
237.455	76.75
237.689	73.75
237.922	72.75
238.156	80.75
238.39	85.75
238.624	65.75
238.858	67.75
239.091	72.75
239.325	78.75
239.559	88.75
239.793	67.75
240.027	81.75
240.26	91.75
240.494	80.75
240.728	83.75
240.961	72.75
241.195	66.75
241.429	67.75
241.662	77.75
241.896	72.75
242.13	79.75
242.363	82.75
242.597	69.75
242.83	70.75
243.064	76.75
243.298	75.75
243.531	66.75
243.765	61.75
243.998	72.75
244.232	92.75
244.465	86.75
244.699	85.75
244.932	69.75
245.166	77.75
245.399	76.75
245.633	70.75
245.866	69.75
246.099	80.75
246.333	75.75
246.566	80.75
246.8	75.75
247.033	75.75
247.266	68.75
247.5	84.75
247.733	77.75
247.966	85.75
248.2	67.75
248.433	71.75
248.666	82.75
248.899	93.75
249.133	82.75
249.366	95.75
249.599	89.75
249.832	81.75
250.066	69.75
250.299	82.75
250.532	78.75
250.765	76.75
250.998	65.75
251.231	67.75
251.465	67.75
251.698	79.75
251.931	72.75
252.164	75.75
252.397	87.75
252.63	81.75
252.863	79.75
253.096	88.75
253.329	80.75
253.562	84.75
253.795	77.75
254.028	79.75
254.261	82.75
254.494	86.75
254.727	67.75
254.96	69.75
255.193	73.75
255.426	76.75
255.659	94.75
255.892	91.75
256.124	83.75
256.357	81.75
256.59	80.75
256.823	89.75
257.056	75.75
257.289	81.75
257.521	87.75
257.754	77.75
257.987	79.75
258.22	74.75
258.452	86.75
258.685	81.75
258.918	81.75
259.151	75.75
259.383	74.75
259.616	71.75
259.849	86.75
260.081	85.75
260.314	92.75
260.547	70.75
260.779	81.75
261.012	86.75
261.244	84.75
261.477	73.75
261.71	93.75
261.942	113.75
262.175	107.75
262.407	93.75
262.64	81.75
262.872	83.75
263.105	91.75
263.337	61.75
263.57	84.75
263.802	88.75
264.035	77.75
264.267	77.75
264.499	84.75
264.732	84.75
264.964	78.75
265.197	80.75
265.429	101.75
265.661	71.75
265.894	63.75
266.126	88.75
266.358	81.75
266.591	86.75
266.823	73.75
267.055	82.75
267.287	82.75
267.52	88.75
267.752	70.75
267.984	81.75
268.216	91.75
268.448	86.75
268.681	70.75
268.913	77.75
269.145	86.75
269.377	72.75
269.609	81.75
269.841	75.75
270.073	94.75
270.306	81.75
270.538	65.75
270.77	88.75
271.002	86.75
271.234	89.75
271.466	88.75
271.698	86.75
271.93	96.75
272.162	88.75
272.394	90.75
272.626	79.75
272.858	71.75
273.09	92.75
273.322	71.75
273.553	79.75
273.785	81.75
274.017	72.75
274.249	82.75
274.481	93.75
274.713	88.75
274.945	85.75
275.176	69.75
275.408	89.75
275.64	81.75
275.872	85.75
276.104	78.75
276.335	99.75
276.567	83.75
276.799	136.75
277.031	97.75
277.262	96.75
277.494	89.75
277.726	89.75
277.957	82.75
278.189	95.75
278.421	90.75
278.652	96.75
278.884	82.75
279.115	80.75
279.347	82.75
279.579	80.75
279.81	87.75
280.042	102.75
280.273	108.75
280.505	100.75
280.736	88.75
280.968	77.75
281.199	75.75
281.431	78.75
281.662	72.75
281.894	84.75
282.125	93.75
282.356	116.75
282.588	119.75
282.819	109.75
283.051	96.75
283.282	87.75
283.513	83.75
283.745	80.75
283.976	86.75
284.207	93.75
284.439	93.75
284.67	94.75
284.901	91.75
285.132	76.75
285.364	81.75
285.595	87.75
285.826	86.75
286.057	82.75
286.288	87.75
286.52	79.75
286.751	100.75
286.982	101.75
287.213	85.75
287.444	81.75
287.675	94.75
287.906	89.75
288.138	92.75
288.369	76.75
288.6	93.75
288.831	78.75
289.062	79.75
289.293	89.75
289.524	95.75
289.755	89.75
289.986	89.75
290.217	93.75
290.448	98.75
290.679	96.75
290.91	77.75
291.141	87.75
291.371	89.75
291.602	91.75
291.833	86.75
292.064	96.75
292.295	82.75
292.526	86.75
292.757	77.75
292.987	85.75
293.218	73.75
293.449	91.75
293.68	84.75
293.91	96.75
294.141	86.75
294.372	99.75
294.603	89.75
294.833	83.75
295.064	95.75
295.295	75.75
295.525	79.75
295.756	97.75
295.987	79.75
296.217	135.75
296.448	103.75
296.679	85.75
296.909	101.75
297.14	88.75
297.37	80.75
297.601	96.75
297.831	84.75
298.062	76.75
298.292	101.75
298.523	93.75
298.753	92.75
298.984	98.75
299.214	93.75
299.445	89.75
299.675	89.75
299.905	84.75
300.136	86.75
300.366	89.75
300.597	97.75
300.827	81.75
301.057	95.75
301.288	101.75
301.518	99.75
301.748	94.75
301.979	92.75
302.209	86.75
302.439	90.75
302.669	88.75
302.9	102.75
303.13	79.75
303.36	88.75
303.59	92.75
303.82	103.75
304.051	97.75
304.281	87.75
304.511	90.75
304.741	81.75
304.971	86.75
305.201	92.75
305.431	79.75
305.661	76.75
305.891	103.75
306.121	96.75
306.352	104.75
306.582	96.75
306.812	99.75
307.042	97.75
307.272	102.75
307.502	126.75
307.731	93.75
307.961	93.75
308.191	87.75
308.421	73.75
308.651	81.75
308.881	88.75
309.111	105.75
309.341	86.75
309.571	95.75
309.8	91.75
310.03	93.75
310.26	97.75
310.49	95.75
310.72	103.75
310.949	87.75
311.179	88.75
311.409	80.75
311.639	79.75
311.868	79.75
312.098	90.75
312.328	95.75
312.557	94.75
312.787	91.75
313.017	104.75
313.246	91.75
313.476	93.75
313.706	98.75
313.935	97.75
314.165	101.75
314.394	100.75
314.624	96.75
314.853	108.75
315.083	101.75
315.312	90.75
315.542	83.75
315.771	81.75
316.001	96.75
316.23	91.75
316.46	96.75
316.689	78.75
316.919	89.75
317.148	94.75
317.377	89.75
317.607	87.75
317.836	89.75
318.065	90.75
318.295	89.75
318.524	86.75
318.753	95.75
318.983	93.75
319.212	88.75
319.441	85.75
319.67	105.75
319.9	91.75
320.129	85.75
320.358	88.75
320.587	95.75
320.816	90.75
321.046	98.75
321.275	84.75
321.504	95.75
321.733	104.75
321.962	105.75
322.191	96.75
322.42	115.75
322.649	117.75
322.878	105.75
323.108	104.75
323.337	112.75
323.566	120.75
323.795	155.75
324.024	190.75
324.253	349.75
324.482	744.75
324.71	1502.75
324.939	1989.75
325.168	748.75
325.397	213.75
325.626	151.75
325.855	116.75
326.084	122.75
326.313	125.75
326.542	157.75
326.77	242.75
326.999	425.75
327.228	864.75
327.457	1560.75
327.686	1241.75
327.914	379.75
328.143	209.75
328.372	214.75
328.6	138.75
328.829	112.75
329.058	116.75
329.287	126.75
329.515	113.75
329.744	120.75
329.972	150.75
330.201	201.75
330.43	272.75
330.658	171.75
330.887	139.75
331.115	115.75
331.344	102.75
331.572	96.75
331.801	128.75
332.03	98.75
332.258	93.75
332.486	93.75
332.715	100.75
332.943	96.75
333.172	102.75
333.4	106.75
333.629	105.75
333.857	127.75
334.085	149.75
334.314	193.75
334.542	316.75
334.771	308.75
334.999	152.75
335.227	91.75
335.455	96.75
335.684	110.75
335.912	94.75
336.14	99.75
336.369	103.75
336.597	91.75
336.825	82.75
337.053	105.75
337.281	95.75
337.51	108.75
337.738	100.75
337.966	86.75
338.194	87.75
338.422	95.75
338.65	98.75
338.878	100.75
339.106	93.75
339.334	93.75
339.562	83.75
339.79	89.75
340.018	77.75
340.246	83.75
340.474	96.75
340.702	98.75
340.93	79.75
341.158	98.75
341.386	92.75
341.614	86.75
341.842	104.75
342.07	97.75
342.298	90.75
342.526	86.75
342.754	77.75
342.981	79.75
343.209	89.75
343.437	104.75
343.665	103.75
343.893	84.75
344.12	92.75
344.348	94.75
344.576	89.75
344.804	74.75
345.031	93.75
345.259	97.75
345.487	97.75
345.714	88.75
345.942	73.75
346.17	94.75
346.397	93.75
346.625	102.75
346.853	87.75
347.08	90.75
347.308	99.75
347.535	92.75
347.763	86.75
347.99	97.75
348.218	95.75
348.445	100.75
348.673	95.75
348.9	98.75
349.128	98.75
349.355	94.75
349.583	94.75
349.81	88.75
350.037	92.75
350.265	91.75
350.492	89.75
350.72	95.75
350.947	110.75
351.174	96.75
351.402	114.75
351.629	98.75
351.856	93.75
352.083	94.75
352.311	97.75
352.538	107.75
352.765	96.75
352.992	113.75
353.22	99.75
353.447	103.75
353.674	94.75
353.901	100.75
354.128	108.75
354.355	87.75
354.583	91.75
354.81	74.75
355.037	106.75
355.264	95.75
355.491	85.75
355.718	89.75
355.945	97.75
356.172	79.75
356.399	93.75
356.626	101.75
356.853	97.75
357.08	89.75
357.307	96.75
357.534	85.75
357.761	102.75
357.988	102.75
358.215	89.75
358.441	96.75
358.668	85.75
358.895	81.75
359.122	97.75
359.349	93.75
359.576	81.75
359.802	96.75
360.029	113.75
360.256	115.75
360.483	94.75
360.709	85.75
360.936	79.75
361.163	85.75
361.39	88.75
361.616	96.75
361.843	91.75
362.07	89.75
362.296	99.75
362.523	91.75
362.749	92.75
362.976	90.75
363.203	95.75
363.429	81.75
363.656	99.75
363.882	98.75
364.109	106.75
364.335	93.75
364.562	79.75
364.788	84.75
365.015	76.75
365.241	88.75
365.468	111.75
365.694	100.75
365.92	80.75
366.147	88.75
366.373	86.75
366.599	92.75
366.826	85.75
367.052	79.75
367.278	79.75
367.505	96.75
367.731	91.75
367.957	80.75
368.184	81.75
368.41	89.75
368.636	97.75
368.862	104.75
369.089	111.75
369.315	88.75
369.541	86.75
369.767	100.75
369.993	92.75
370.219	95.75
370.445	85.75
370.672	88.75
370.898	86.75
371.124	87.75
371.35	90.75
371.576	89.75
371.802	88.75
372.028	75.75
372.254	85.75
372.48	109.75
372.706	87.75
372.932	80.75
373.158	87.75
373.384	97.75
373.61	93.75
373.835	88.75
374.061	81.75
374.287	80.75
374.513	84.75
374.739	94.75
374.965	75.75
375.191	94.75
375.416	76.75
375.642	83.75
375.868	90.75
376.094	88.75
376.319	94.75
376.545	81.75
376.771	106.75
376.997	88.75
377.222	81.75
377.448	91.75
377.674	88.75
377.899	87.75
378.125	99.75
378.35	89.75
378.576	73.75
378.802	93.75
379.027	84.75
379.253	87.75
379.478	103.75
379.704	90.75
379.929	102.75
380.155	101.75
380.38	85.75
380.606	99.75
380.831	94.75
381.057	96.75
381.282	95.75
381.507	99.75
381.733	94.75
381.958	94.75
382.184	97.75
382.409	84.75
382.634	102.75
382.86	96.75
383.085	108.75
383.31	86.75
383.535	103.75
383.761	100.75
383.986	96.75
384.211	83.75
384.436	91.75
384.662	95.75
384.887	89.75
385.112	117.75
385.337	103.75
385.562	91.75
385.787	97.75
386.013	119.75
386.238	112.75
386.463	101.75
386.688	120.75
386.913	112.75
387.138	112.75
387.363	106.75
387.588	105.75
387.813	101.75
388.038	80.75
388.263	125.75
388.488	94.75
388.713	89.75
388.938	108.75
389.163	99.75
389.387	81.75
389.612	98.75
389.837	79.75
390.062	84.75
390.287	91.75
390.512	87.75
390.736	77.75
390.961	105.75
391.186	85.75
391.411	87.75
391.636	103.75
391.86	87.75
392.085	82.75
392.31	81.75
392.534	97.75
392.759	88.75
392.984	81.75
393.208	89.75
393.433	111.75
393.658	87.75
393.882	88.75
394.107	82.75
394.331	80.75
394.556	97.75
394.78	85.75
395.005	100.75
395.229	93.75
395.454	96.75
395.678	95.75
395.903	95.75
396.127	89.75
396.352	81.75
396.576	90.75
396.801	107.75
397.025	94.75
397.249	93.75
397.474	84.75
397.698	81.75
397.922	82.75
398.147	95.75
398.371	76.75
398.595	86.75
398.82	80.75
399.044	86.75
399.268	81.75
399.492	88.75
399.717	91.75
399.941	96.75
400.165	96.75
400.389	87.75
400.613	80.75
400.837	103.75
401.062	81.75
401.286	89.75
401.51	100.75
401.734	89.75
401.958	95.75
402.182	118.75
402.406	139.75
402.63	123.75
402.854	92.75
403.078	74.75
403.302	85.75
403.526	68.75
403.75	92.75
403.974	80.75
404.198	93.75
404.422	84.75
404.645	91.75
404.869	89.75
405.093	92.75
405.317	109.75
405.541	103.75
405.765	95.75
405.988	120.75
406.212	157.75
406.436	197.75
406.66	123.75
406.883	97.75
407.107	82.75
407.331	89.75
407.555	93.75
407.778	102.75
408.002	108.75
408.226	93.75
408.449	88.75
408.673	93.75
408.896	83.75
409.12	85.75
409.344	84.75
409.567	71.75
409.791	75.75
410.014	77.75
410.238	92.75
410.461	96.75
410.685	95.75
410.908	96.75
411.132	97.75
411.355	84.75
411.578	73.75
411.802	88.75
412.025	94.75
412.249	86.75
412.472	107.75
412.695	115.75
412.919	88.75
413.142	93.75
413.365	95.75
413.589	81.75
413.812	95.75
414.035	82.75
414.258	103.75
414.482	85.75
414.705	78.75
414.928	102.75
415.151	111.75
415.374	87.75
415.597	93.75
415.821	95.75
416.044	86.75
416.267	89.75
416.49	77.75
416.713	81.75
416.936	110.75
417.159	83.75
417.382	79.75
417.605	85.75
417.828	79.75
418.051	82.75
418.274	80.75
418.497	83.75
418.72	88.75
418.943	93.75
419.166	103.75
419.389	97.75
419.611	87.75
419.834	113.75
420.057	80.75
420.28	87.75
420.503	93.75
420.726	98.75
420.948	81.75
421.171	91.75
421.394	83.75
421.617	94.75
421.839	89.75
422.062	92.75
422.285	80.75
422.507	88.75
422.73	97.75
422.953	96.75
423.175	95.75
423.398	95.75
423.621	85.75
423.843	98.75
424.066	77.75
424.288	89.75
424.511	82.75
424.733	95.75
424.956	112.75
425.178	99.75
425.401	97.75
425.623	100.75
425.846	98.75
426.068	97.75
426.291	78.75
426.513	85.75
426.735	95.75
426.958	80.75
427.18	108.75
427.402	124.75
427.625	157.75
427.847	147.75
428.069	135.75
428.292	96.75
428.514	91.75
428.736	79.75
428.958	99.75
429.181	92.75
429.403	82.75
429.625	83.75
429.847	89.75
430.069	111.75
430.292	91.75
430.514	88.75
430.736	85.75
430.958	85.75
431.18	75.75
431.402	95.75
431.624	87.75
431.846	77.75
432.068	89.75
432.29	85.75
432.512	85.75
432.734	84.75
432.956	76.75
433.178	81.75
433.4	87.75
433.622	107.75
433.844	76.75
434.066	82.75
434.287	75.75
434.509	77.75
434.731	81.75
434.953	67.75
435.175	89.75
435.397	100.75
435.618	80.75
435.84	91.75
436.062	114.75
436.284	114.75
436.505	81.75
436.727	101.75
436.949	99.75
437.17	91.75
437.392	100.75
437.614	95.75
437.835	98.75
438.057	107.75
438.278	112.75
438.5	97.75
438.721	99.75
438.943	95.75
439.165	75.75
439.386	80.75
439.608	91.75
439.829	99.75
440.05	119.75
440.272	122.75
440.493	99.75
440.715	83.75
440.936	72.75
441.158	92.75
441.379	77.75
441.6	98.75
441.822	89.75
442.043	103.75
442.264	102.75
442.486	81.75
442.707	81.75
442.928	95.75
443.149	111.75
443.371	118.75
443.592	102.75
443.813	87.75
444.034	97.75
444.255	84.75
444.476	86.75
444.698	92.75
444.919	87.75
445.14	131.75
445.361	110.75
445.582	102.75
445.803	118.75
446.024	131.75
446.245	125.75
446.466	110.75
446.687	91.75
446.908	78.75
447.129	94.75
447.35	97.75
447.571	92.75
447.792	93.75
448.013	88.75
448.234	95.75
448.455	96.75
448.675	108.75
448.896	125.75
449.117	111.75
449.338	88.75
449.559	112.75
449.779	115.75
450	85.75
450.221	98.75
450.442	84.75
450.662	86.75
450.883	98.75
451.104	101.75
451.324	99.75
451.545	72.75
451.766	82.75
451.986	78.75
452.207	92.75
452.428	85.75
452.648	96.75
452.869	101.75
453.089	124.75
453.31	113.75
453.53	92.75
453.751	91.75
453.971	96.75
454.192	108.75
454.412	91.75
454.633	81.75
454.853	75.75
455.073	92.75
455.294	79.75
455.514	87.75
455.734	89.75
455.955	67.75
456.175	80.75
456.395	92.75
456.616	89.75
456.836	88.75
457.056	78.75
457.276	91.75
457.497	83.75
457.717	84.75
457.937	86.75
458.157	78.75
458.377	92.75
458.598	100.75
458.818	127.75
459.038	139.75
459.258	109.75
459.478	82.75
459.698	88.75
459.918	81.75
460.138	80.75
460.358	78.75
460.578	98.75
460.798	89.75
461.018	81.75
461.238	91.75
461.458	92.75
461.678	81.75
461.898	85.75
462.118	83.75
462.338	95.75
462.558	91.75
462.777	87.75
462.997	81.75
463.217	92.75
463.437	90.75
463.657	81.75
463.876	88.75
464.096	89.75
464.316	87.75
464.536	100.75
464.755	96.75
464.975	99.75
465.195	145.75
465.414	142.75
465.634	94.75
465.854	78.75
466.073	85.75
466.293	91.75
466.512	78.75
466.732	91.75
466.951	74.75
467.171	80.75
467.391	96.75
467.61	121.75
467.829	112.75
468.049	163.75
468.268	184.75
468.488	104.75
468.707	86.75
468.927	89.75
469.146	71.75
469.365	65.75
469.585	84.75
469.804	93.75
470.023	95.75
470.243	93.75
470.462	92.75
470.681	103.75
470.901	89.75
471.12	83.75
471.339	92.75
471.558	93.75
471.777	90.75
471.997	130.75
472.216	223.75
472.435	435.75
472.654	150.75
472.873	86.75
473.092	98.75
473.311	94.75
473.53	80.75
473.749	93.75
473.968	81.75
474.187	98.75
474.406	94.75
474.625	89.75
474.844	91.75
475.063	77.75
475.282	95.75
475.501	81.75
475.72	83.75
475.939	95.75
476.158	89.75
476.377	81.75
476.596	99.75
476.814	103.75
477.033	88.75
477.252	93.75
477.471	81.75
477.69	89.75
477.908	84.75
478.127	91.75
478.346	94.75
478.564	97.75
478.783	81.75
479.002	94.75
479.22	98.75
479.439	95.75
479.658	91.75
479.876	82.75
480.095	77.75
480.313	84.75
480.532	110.75
480.751	110.75
480.969	241.75
481.188	702.75
481.406	447.75
481.624	128.75
481.843	84.75
482.061	91.75
482.28	96.75
482.498	91.75
482.717	88.75
482.935	84.75
483.153	95.75
483.372	103.75
483.59	83.75
483.808	97.75
484.027	93.75
484.245	88.75
484.463	88.75
484.681	91.75
484.9	91.75
485.118	85.75
485.336	84.75
485.554	88.75
485.772	97.75
485.99	115.75
486.209	109.75
486.427	107.75
486.645	112.75
486.863	94.75
487.081	87.75
487.299	100.75
487.517	99.75
487.735	89.75
487.953	82.75
488.171	89.75
488.389	98.75
488.607	103.75
488.825	89.75
489.043	102.75
489.261	98.75
489.479	91.75
489.696	95.75
489.914	85.75
490.132	85.75
490.35	81.75
490.568	81.75
490.786	83.75
491.003	89.75
491.221	85.75
491.439	89.75
491.657	105.75
491.874	80.75
492.092	96.75
492.31	91.75
492.527	84.75
492.745	77.75
492.963	99.75
493.18	96.75
493.398	85.75
493.615	101.75
493.833	102.75
494.05	88.75
494.268	86.75
494.485	91.75
494.703	95.75
494.92	82.75
495.138	84.75
495.355	80.75
495.573	90.75
495.79	80.75
496.008	94.75
496.225	92.75
496.442	85.75
496.66	102.75
496.877	89.75
497.094	98.75
497.312	101.75
497.529	80.75
497.746	83.75
497.963	84.75
498.181	86.75
498.398	94.75
498.615	97.75
498.832	101.75
499.049	95.75
499.267	80.75
499.484	74.75
499.701	92.75
499.918	96.75
500.135	97.75
500.352	84.75
500.569	83.75
500.786	88.75
501.003	84.75
501.22	82.75
501.437	100.75
501.654	91.75
501.871	106.75
502.088	85.75
502.305	99.75
502.522	91.75
502.739	96.75
502.956	92.75
503.172	94.75
503.389	85.75
503.606	100.75
503.823	100.75
504.04	92.75
504.256	94.75
504.473	86.75
504.69	86.75
504.907	68.75
505.123	88.75
505.34	97.75
505.557	93.75
505.773	82.75
505.99	84.75
506.207	86.75
506.423	85.75
506.64	87.75
506.856	93.75
507.073	87.75
507.289	83.75
507.506	93.75
507.722	107.75
507.939	100.75
508.155	90.75
508.372	84.75
508.588	78.75
508.805	80.75
509.021	83.75
509.238	91.75
509.454	87.75
509.67	102.75
509.887	101.75
510.103	108.75
510.319	199.75
510.536	661.75
510.752	1976.75
510.968	579.75
511.184	150.75
511.401	89.75
511.617	91.75
511.833	100.75
512.049	82.75
512.265	78.75
512.481	97.75
512.698	92.75
512.914	93.75
513.13	87.75
513.346	95.75
513.562	93.75
513.778	95.75
513.994	104.75
514.21	94.75
514.426	113.75
514.642	125.75
514.858	116.75
515.074	157.75
515.29	405.75
515.506	1287.75
515.721	495.75
515.937	153.75
516.153	104.75
516.369	92.75
