Data from Circ_2004_H10_HRD10591_00038.txt Node
Date: Wed Jan 03 10:33:21 EST 2024
User: Yrep
Spectrometer: HR+D1059
Trigger mode: 1
Integration Time (sec): 1.000000E-1
Scans to average: 1
Electric dark correction enabled: true
Nonlinearity correction enabled: false
Boxcar width: 0
XAxis mode: Wavelengths
Number of Pixels in Spectrum: 2048
>>>>>Begin Spectral Data<<<<<
223.165	-25.62
223.4	-25.62
223.635	-25.62
223.869	-19.62
224.104	-30.62
224.338	-9.62
224.573	-6.62
224.808	-3.62
225.042	-17.62
225.277	-12.62
225.511	5.38
225.746	-10.62
225.98	16.38
226.215	12.38
226.449	20.38
226.683	29.38
226.918	18.38
227.152	34.38
227.387	33.38
227.621	34.38
227.856	31.38
228.09	33.38
228.324	48.38
228.559	49.38
228.793	49.38
229.027	67.38
229.262	71.38
229.496	74.38
229.73	81.38
229.964	91.38
230.199	77.38
230.433	74.38
230.667	68.38
230.901	70.38
231.136	81.38
231.37	94.38
231.604	80.38
231.838	78.38
232.072	95.38
232.306	86.38
232.541	84.38
232.775	87.38
233.009	102.38
233.243	77.38
233.477	96.38
233.711	72.38
233.945	83.38
234.179	68.38
234.413	79.38
234.647	79.38
234.881	69.38
235.115	80.38
235.349	75.38
235.583	81.38
235.817	90.38
236.051	88.38
236.285	85.38
236.519	83.38
236.753	73.38
236.987	64.38
237.221	89.38
237.455	82.38
237.689	93.38
237.922	71.38
238.156	90.38
238.39	67.38
238.624	68.38
238.858	76.38
239.091	87.38
239.325	80.38
239.559	86.38
239.793	82.38
240.027	71.38
240.26	64.38
240.494	87.38
240.728	60.38
240.961	77.38
241.195	80.38
241.429	80.38
241.662	72.38
241.896	73.38
242.13	85.38
242.363	94.38
242.597	78.38
242.83	61.38
243.064	77.38
243.298	88.38
243.531	72.38
243.765	78.38
243.998	92.38
244.232	73.38
244.465	76.38
244.699	83.38
244.932	79.38
245.166	99.38
245.399	95.38
245.633	92.38
245.866	75.38
246.099	77.38
246.333	79.38
246.566	84.38
246.8	71.38
247.033	72.38
247.266	83.38
247.5	82.38
247.733	92.38
247.966	81.38
248.2	73.38
248.433	68.38
248.666	87.38
248.899	81.38
249.133	94.38
249.366	91.38
249.599	93.38
249.832	71.38
250.066	68.38
250.299	78.38
250.532	81.38
250.765	74.38
250.998	78.38
251.231	90.38
251.465	72.38
251.698	79.38
251.931	76.38
252.164	66.38
252.397	88.38
252.63	84.38
252.863	79.38
253.096	78.38
253.329	79.38
253.562	65.38
253.795	75.38
254.028	71.38
254.261	70.38
254.494	81.38
254.727	64.38
254.96	84.38
255.193	75.38
255.426	92.38
255.659	101.38
255.892	104.38
256.124	85.38
256.357	88.38
256.59	85.38
256.823	89.38
257.056	58.38
257.289	81.38
257.521	67.38
257.754	92.38
257.987	85.38
258.22	86.38
258.452	70.38
258.685	87.38
258.918	94.38
259.151	76.38
259.383	82.38
259.616	77.38
259.849	85.38
260.081	80.38
260.314	78.38
260.547	82.38
260.779	89.38
261.012	72.38
261.244	79.38
261.477	85.38
261.71	83.38
261.942	92.38
262.175	106.38
262.407	90.38
262.64	86.38
262.872	80.38
263.105	97.38
263.337	77.38
263.57	98.38
263.802	85.38
264.035	81.38
264.267	97.38
264.499	86.38
264.732	84.38
264.964	83.38
265.197	86.38
265.429	91.38
265.661	65.38
265.894	87.38
266.126	80.38
266.358	95.38
266.591	90.38
266.823	84.38
267.055	79.38
267.287	84.38
267.52	68.38
267.752	93.38
267.984	72.38
268.216	85.38
268.448	72.38
268.681	90.38
268.913	85.38
269.145	74.38
269.377	94.38
269.609	70.38
269.841	85.38
270.073	76.38
270.306	96.38
270.538	93.38
270.77	90.38
271.002	80.38
271.234	72.38
271.466	93.38
271.698	90.38
271.93	85.38
272.162	84.38
272.394	84.38
272.626	95.38
272.858	75.38
273.09	80.38
273.322	60.38
273.553	81.38
273.785	79.38
274.017	73.38
274.249	80.38
274.481	99.38
274.713	88.38
274.945	74.38
275.176	92.38
275.408	84.38
275.64	96.38
275.872	85.38
276.104	78.38
276.335	86.38
276.567	100.38
276.799	101.38
277.031	104.38
277.262	100.38
277.494	79.38
277.726	91.38
277.957	77.38
278.189	96.38
278.421	87.38
278.652	81.38
278.884	90.38
279.115	80.38
279.347	95.38
279.579	86.38
279.81	82.38
280.042	105.38
280.273	108.38
280.505	94.38
280.736	77.38
280.968	80.38
281.199	84.38
281.431	90.38
281.662	86.38
281.894	101.38
282.125	103.38
282.356	113.38
282.588	112.38
282.819	112.38
283.051	93.38
283.282	93.38
283.513	82.38
283.745	81.38
283.976	92.38
284.207	88.38
284.439	91.38
284.67	72.38
284.901	63.38
285.132	93.38
285.364	92.38
285.595	80.38
285.826	93.38
286.057	85.38
286.288	94.38
286.52	94.38
286.751	89.38
286.982	81.38
287.213	84.38
287.444	66.38
287.675	81.38
287.906	95.38
288.138	88.38
288.369	85.38
288.6	82.38
288.831	95.38
289.062	93.38
289.293	89.38
289.524	89.38
289.755	79.38
289.986	86.38
290.217	78.38
290.448	74.38
290.679	94.38
290.91	90.38
291.141	92.38
291.371	80.38
291.602	86.38
291.833	83.38
292.064	100.38
292.295	92.38
292.526	98.38
292.757	89.38
292.987	76.38
293.218	81.38
293.449	91.38
293.68	87.38
293.91	93.38
294.141	92.38
294.372	82.38
294.603	89.38
294.833	78.38
295.064	89.38
295.295	65.38
295.525	88.38
295.756	91.38
295.987	125.38
296.217	123.38
296.448	122.38
296.679	89.38
296.909	93.38
297.14	78.38
297.37	90.38
297.601	84.38
297.831	93.38
298.062	95.38
298.292	65.38
298.523	82.38
298.753	75.38
298.984	90.38
299.214	93.38
299.445	86.38
299.675	81.38
299.905	95.38
300.136	100.38
300.366	93.38
300.597	96.38
300.827	76.38
301.057	103.38
301.288	102.38
301.518	101.38
301.748	70.38
301.979	100.38
302.209	112.38
302.439	102.38
302.669	93.38
302.9	90.38
303.13	77.38
303.36	101.38
303.59	115.38
303.82	105.38
304.051	105.38
304.281	86.38
304.511	90.38
304.741	82.38
304.971	85.38
305.201	79.38
305.431	85.38
305.661	92.38
305.891	82.38
306.121	101.38
306.352	94.38
306.582	103.38
306.812	88.38
307.042	97.38
307.272	95.38
307.502	100.38
307.731	95.38
307.961	88.38
308.191	85.38
308.421	95.38
308.651	91.38
308.881	75.38
309.111	100.38
309.341	81.38
309.571	81.38
309.8	99.38
310.03	95.38
310.26	88.38
310.49	100.38
310.72	92.38
310.949	90.38
311.179	85.38
311.409	88.38
311.639	93.38
311.868	82.38
312.098	85.38
312.328	96.38
312.557	101.38
312.787	94.38
313.017	102.38
313.246	102.38
313.476	81.38
313.706	84.38
313.935	95.38
314.165	104.38
314.394	90.38
314.624	101.38
314.853	94.38
315.083	88.38
315.312	92.38
315.542	87.38
315.771	88.38
316.001	98.38
316.23	95.38
316.46	89.38
316.689	83.38
316.919	90.38
317.148	68.38
317.377	82.38
317.607	85.38
317.836	88.38
318.065	96.38
318.295	85.38
318.524	89.38
318.753	87.38
318.983	101.38
319.212	94.38
319.441	108.38
319.67	103.38
319.9	96.38
320.129	100.38
320.358	96.38
320.587	84.38
320.816	82.38
321.046	94.38
321.275	100.38
321.504	86.38
321.733	103.38
321.962	102.38
322.191	80.38
322.42	98.38
322.649	93.38
322.878	107.38
323.108	113.38
323.337	108.38
323.566	127.38
323.795	138.38
324.024	198.38
324.253	361.38
324.482	725.38
324.71	1479.38
324.939	2004.38
325.168	744.38
325.397	220.38
325.626	140.38
325.855	126.38
326.084	134.38
326.313	118.38
326.542	163.38
326.77	216.38
326.999	408.38
327.228	869.38
327.457	1529.38
327.686	1221.38
327.914	356.38
328.143	210.38
328.372	208.38
328.6	152.38
328.829	114.38
329.058	132.38
329.287	113.38
329.515	112.38
329.744	119.38
329.972	160.38
330.201	229.38
330.43	300.38
330.658	188.38
330.887	141.38
331.115	111.38
331.344	98.38
331.572	95.38
331.801	94.38
332.03	109.38
332.258	84.38
332.486	85.38
332.715	94.38
332.943	95.38
333.172	90.38
333.4	99.38
333.629	110.38
333.857	116.38
334.085	164.38
334.314	242.38
334.542	374.38
334.771	381.38
334.999	144.38
335.227	110.38
335.455	92.38
335.684	78.38
335.912	92.38
336.14	87.38
336.369	89.38
336.597	104.38
336.825	87.38
337.053	99.38
337.281	100.38
337.51	89.38
337.738	100.38
337.966	95.38
338.194	84.38
338.422	82.38
338.65	93.38
338.878	102.38
339.106	98.38
339.334	94.38
339.562	100.38
339.79	103.38
340.018	82.38
340.246	89.38
340.474	86.38
340.702	93.38
340.93	89.38
341.158	99.38
341.386	85.38
341.614	93.38
341.842	88.38
342.07	77.38
342.298	97.38
342.526	98.38
342.754	90.38
342.981	74.38
343.209	83.38
343.437	103.38
343.665	101.38
343.893	79.38
344.12	97.38
344.348	88.38
344.576	105.38
344.804	103.38
345.031	101.38
345.259	93.38
345.487	97.38
345.714	95.38
345.942	88.38
346.17	93.38
346.397	97.38
346.625	95.38
346.853	92.38
347.08	90.38
347.308	85.38
347.535	85.38
347.763	99.38
347.99	96.38
348.218	101.38
348.445	87.38
348.673	93.38
348.9	91.38
349.128	92.38
349.355	94.38
349.583	95.38
349.81	90.38
350.037	93.38
350.265	94.38
350.492	84.38
350.72	86.38
350.947	86.38
351.174	102.38
351.402	117.38
351.629	94.38
351.856	98.38
352.083	87.38
352.311	107.38
352.538	100.38
352.765	87.38
352.992	124.38
353.22	91.38
353.447	93.38
353.674	88.38
353.901	89.38
354.128	102.38
354.355	87.38
354.583	87.38
354.81	99.38
355.037	90.38
355.264	98.38
355.491	95.38
355.718	84.38
355.945	76.38
356.172	86.38
356.399	103.38
356.626	82.38
356.853	73.38
357.08	77.38
357.307	107.38
357.534	74.38
357.761	87.38
357.988	87.38
358.215	92.38
358.441	88.38
358.668	86.38
358.895	94.38
359.122	82.38
359.349	78.38
359.576	92.38
359.802	107.38
360.029	117.38
360.256	101.38
360.483	105.38
360.709	90.38
360.936	99.38
361.163	98.38
361.39	101.38
361.616	88.38
361.843	86.38
362.07	93.38
362.296	94.38
362.523	99.38
362.749	95.38
362.976	72.38
363.203	99.38
363.429	90.38
363.656	89.38
363.882	102.38
364.109	86.38
364.335	93.38
364.562	80.38
364.788	89.38
365.015	88.38
365.241	88.38
365.468	102.38
365.694	105.38
365.92	81.38
366.147	85.38
366.373	79.38
366.599	86.38
366.826	98.38
367.052	78.38
367.278	84.38
367.505	79.38
367.731	101.38
367.957	81.38
368.184	90.38
368.41	98.38
368.636	100.38
368.862	98.38
369.089	106.38
369.315	93.38
369.541	80.38
369.767	97.38
369.993	97.38
370.219	98.38
370.445	90.38
370.672	94.38
370.898	73.38
371.124	91.38
371.35	96.38
371.576	89.38
371.802	102.38
372.028	92.38
372.254	95.38
372.48	93.38
372.706	79.38
372.932	100.38
373.158	70.38
373.384	88.38
373.61	90.38
373.835	88.38
374.061	87.38
374.287	85.38
374.513	88.38
374.739	80.38
374.965	78.38
375.191	103.38
375.416	99.38
375.642	80.38
375.868	78.38
376.094	85.38
376.319	75.38
376.545	80.38
376.771	85.38
376.997	90.38
377.222	84.38
377.448	96.38
377.674	85.38
377.899	90.38
378.125	85.38
378.35	93.38
378.576	97.38
378.802	83.38
379.027	82.38
379.253	98.38
379.478	92.38
379.704	96.38
379.929	105.38
380.155	102.38
380.38	92.38
380.606	88.38
380.831	99.38
381.057	115.38
381.282	94.38
381.507	93.38
381.733	93.38
381.958	101.38
382.184	103.38
382.409	104.38
382.634	107.38
382.86	98.38
383.085	93.38
383.31	89.38
383.535	102.38
383.761	105.38
383.986	88.38
384.211	101.38
384.436	101.38
384.662	95.38
384.887	96.38
385.112	110.38
385.337	99.38
385.562	92.38
385.787	97.38
386.013	101.38
386.238	113.38
386.463	116.38
386.688	109.38
386.913	98.38
387.138	103.38
387.363	101.38
387.588	105.38
387.813	99.38
388.038	96.38
388.263	108.38
388.488	102.38
388.713	109.38
388.938	97.38
389.163	98.38
389.387	95.38
389.612	106.38
389.837	104.38
390.062	79.38
390.287	100.38
390.512	85.38
390.736	95.38
390.961	102.38
391.186	78.38
391.411	97.38
391.636	77.38
391.86	81.38
392.085	77.38
392.31	73.38
392.534	83.38
392.759	79.38
392.984	87.38
393.208	91.38
393.433	104.38
393.658	89.38
393.882	100.38
394.107	82.38
394.331	86.38
394.556	86.38
394.78	97.38
395.005	100.38
395.229	92.38
395.454	96.38
395.678	79.38
395.903	81.38
396.127	80.38
396.352	87.38
396.576	98.38
396.801	84.38
397.025	83.38
397.249	94.38
397.474	91.38
397.698	86.38
397.922	108.38
398.147	91.38
398.371	83.38
398.595	85.38
398.82	88.38
399.044	80.38
399.268	94.38
399.492	86.38
399.717	84.38
399.941	89.38
400.165	94.38
400.389	92.38
400.613	81.38
400.837	87.38
401.062	85.38
401.286	72.38
401.51	89.38
401.734	100.38
401.958	103.38
402.182	119.38
402.406	138.38
402.63	113.38
402.854	85.38
403.078	85.38
403.302	85.38
403.526	85.38
403.75	86.38
403.974	81.38
404.198	80.38
404.422	93.38
404.645	87.38
404.869	83.38
405.093	88.38
405.317	108.38
405.541	111.38
405.765	96.38
405.988	112.38
406.212	162.38
406.436	196.38
406.66	142.38
406.883	97.38
407.107	99.38
407.331	97.38
407.555	94.38
407.778	100.38
408.002	87.38
408.226	92.38
408.449	89.38
408.673	96.38
408.896	99.38
409.12	106.38
409.344	85.38
409.567	90.38
409.791	98.38
410.014	97.38
410.238	95.38
410.461	95.38
410.685	85.38
410.908	92.38
411.132	114.38
411.355	94.38
411.578	91.38
411.802	81.38
412.025	86.38
412.249	94.38
412.472	109.38
412.695	108.38
412.919	102.38
413.142	86.38
413.365	91.38
413.589	89.38
413.812	86.38
414.035	82.38
414.258	93.38
414.482	83.38
414.705	82.38
414.928	86.38
415.151	95.38
415.374	96.38
415.597	91.38
415.821	81.38
416.044	85.38
416.267	90.38
416.49	75.38
416.713	89.38
416.936	86.38
417.159	84.38
417.382	90.38
417.605	98.38
417.828	79.38
418.051	84.38
418.274	84.38
418.497	97.38
418.72	84.38
418.943	92.38
419.166	89.38
419.389	95.38
419.611	86.38
419.834	96.38
420.057	101.38
420.28	95.38
420.503	76.38
420.726	85.38
420.948	93.38
421.171	96.38
421.394	89.38
421.617	80.38
421.839	99.38
422.062	85.38
422.285	93.38
422.507	102.38
422.73	77.38
422.953	89.38
423.175	87.38
423.398	101.38
423.621	89.38
423.843	81.38
424.066	91.38
424.288	82.38
424.511	107.38
424.733	89.38
424.956	98.38
425.178	105.38
425.401	101.38
425.623	101.38
425.846	95.38
426.068	87.38
426.291	101.38
426.513	99.38
426.735	92.38
426.958	85.38
427.18	101.38
427.402	135.38
427.625	159.38
427.847	153.38
428.069	138.38
428.292	94.38
428.514	93.38
428.736	73.38
428.958	82.38
429.181	80.38
429.403	92.38
429.625	79.38
429.847	91.38
430.069	96.38
430.292	87.38
430.514	73.38
430.736	97.38
430.958	84.38
431.18	86.38
431.402	100.38
431.624	90.38
431.846	95.38
432.068	105.38
432.29	85.38
432.512	101.38
432.734	88.38
432.956	73.38
433.178	98.38
433.4	94.38
433.622	93.38
433.844	79.38
434.066	108.38
434.287	87.38
434.509	81.38
434.731	89.38
434.953	89.38
435.175	77.38
435.397	92.38
435.618	99.38
435.84	84.38
436.062	112.38
436.284	110.38
436.505	99.38
436.727	91.38
436.949	91.38
437.17	95.38
437.392	81.38
437.614	83.38
437.835	108.38
438.057	102.38
438.278	93.38
438.5	100.38
438.721	109.38
438.943	101.38
439.165	85.38
439.386	85.38
439.608	108.38
439.829	106.38
440.05	109.38
440.272	141.38
440.493	99.38
440.715	95.38
440.936	94.38
441.158	88.38
441.379	100.38
441.6	99.38
441.822	93.38
442.043	88.38
442.264	97.38
442.486	104.38
442.707	90.38
442.928	94.38
443.149	109.38
443.371	114.38
443.592	110.38
443.813	103.38
444.034	102.38
444.255	96.38
444.476	88.38
444.698	99.38
444.919	92.38
445.14	122.38
445.361	133.38
445.582	102.38
445.803	126.38
446.024	119.38
446.245	143.38
446.466	93.38
446.687	87.38
446.908	82.38
447.129	86.38
447.35	86.38
447.571	84.38
447.792	88.38
448.013	83.38
448.234	106.38
448.455	100.38
448.675	96.38
448.896	105.38
449.117	92.38
449.338	97.38
449.559	114.38
449.779	112.38
450	93.38
450.221	98.38
450.442	84.38
450.662	96.38
450.883	103.38
451.104	108.38
451.324	99.38
451.545	84.38
451.766	77.38
451.986	85.38
452.207	88.38
452.428	93.38
452.648	96.38
452.869	105.38
453.089	108.38
453.31	124.38
453.53	110.38
453.751	84.38
453.971	94.38
454.192	103.38
454.412	94.38
454.633	86.38
454.853	100.38
455.073	75.38
455.294	81.38
455.514	93.38
455.734	83.38
455.955	68.38
456.175	78.38
456.395	100.38
456.616	94.38
456.836	101.38
457.056	76.38
457.276	75.38
457.497	82.38
457.717	89.38
457.937	87.38
458.157	81.38
458.377	87.38
458.598	84.38
458.818	136.38
459.038	144.38
459.258	99.38
459.478	92.38
459.698	86.38
459.918	97.38
460.138	78.38
460.358	89.38
460.578	86.38
460.798	79.38
461.018	74.38
461.238	68.38
461.458	91.38
461.678	88.38
461.898	98.38
462.118	92.38
462.338	95.38
462.558	81.38
462.777	91.38
462.997	92.38
463.217	79.38
463.437	84.38
463.657	97.38
463.876	97.38
464.096	88.38
464.316	96.38
464.536	96.38
464.755	93.38
464.975	96.38
465.195	157.38
465.414	142.38
465.634	84.38
465.854	87.38
466.073	98.38
466.293	81.38
466.512	86.38
466.732	94.38
466.951	94.38
467.171	100.38
467.391	89.38
467.61	100.38
467.829	115.38
468.049	168.38
468.268	229.38
468.488	102.38
468.707	86.38
468.927	81.38
469.146	84.38
469.365	86.38
469.585	100.38
469.804	108.38
470.023	88.38
470.243	94.38
470.462	99.38
470.681	92.38
470.901	90.38
471.12	97.38
471.339	79.38
471.558	95.38
471.777	105.38
471.997	126.38
472.216	275.38
472.435	514.38
472.654	165.38
472.873	85.38
473.092	95.38
473.311	87.38
473.53	78.38
473.749	93.38
473.968	93.38
474.187	106.38
474.406	97.38
474.625	89.38
474.844	85.38
475.063	96.38
475.282	92.38
475.501	84.38
475.72	88.38
475.939	88.38
476.158	98.38
476.377	92.38
476.596	92.38
476.814	94.38
477.033	98.38
477.252	107.38
477.471	96.38
477.69	81.38
477.908	86.38
478.127	102.38
478.346	81.38
478.564	84.38
478.783	94.38
479.002	92.38
479.22	88.38
479.439	118.38
479.658	95.38
479.876	94.38
480.095	91.38
480.313	105.38
480.532	117.38
480.751	128.38
480.969	281.38
481.188	875.38
481.406	533.38
481.624	149.38
481.843	100.38
482.061	89.38
482.28	88.38
482.498	87.38
482.717	87.38
482.935	92.38
483.153	99.38
483.372	76.38
483.59	97.38
483.808	94.38
484.027	97.38
484.245	83.38
484.463	90.38
484.681	94.38
484.9	91.38
485.118	87.38
485.336	95.38
485.554	92.38
485.772	85.38
485.99	98.38
486.209	105.38
486.427	97.38
486.645	113.38
486.863	106.38
487.081	96.38
487.299	98.38
487.517	97.38
487.735	97.38
487.953	103.38
488.171	97.38
488.389	90.38
488.607	82.38
488.825	91.38
489.043	88.38
489.261	80.38
489.479	85.38
489.696	86.38
489.914	80.38
490.132	73.38
490.35	94.38
490.568	87.38
490.786	91.38
491.003	94.38
491.221	94.38
491.439	79.38
491.657	87.38
491.874	100.38
492.092	101.38
492.31	73.38
492.527	79.38
492.745	90.38
492.963	85.38
493.18	98.38
493.398	96.38
493.615	81.38
493.833	80.38
494.05	95.38
494.268	94.38
494.485	76.38
494.703	92.38
494.92	88.38
495.138	83.38
495.355	81.38
495.573	88.38
495.79	87.38
496.008	84.38
496.225	90.38
496.442	90.38
496.66	95.38
496.877	88.38
497.094	93.38
497.312	93.38
497.529	98.38
497.746	91.38
497.963	84.38
498.181	84.38
498.398	95.38
498.615	102.38
498.832	110.38
499.049	98.38
499.267	95.38
499.484	96.38
499.701	80.38
499.918	85.38
500.135	90.38
500.352	87.38
500.569	92.38
500.786	93.38
501.003	90.38
501.22	88.38
501.437	98.38
501.654	94.38
501.871	98.38
502.088	90.38
502.305	93.38
502.522	81.38
502.739	78.38
502.956	80.38
503.172	95.38
503.389	96.38
503.606	95.38
503.823	90.38
504.04	100.38
504.256	95.38
504.473	98.38
504.69	100.38
504.907	82.38
505.123	99.38
505.34	96.38
505.557	99.38
505.773	100.38
505.99	90.38
506.207	92.38
506.423	87.38
506.64	94.38
506.856	78.38
507.073	87.38
507.289	86.38
507.506	95.38
507.722	97.38
507.939	93.38
508.155	90.38
508.372	101.38
508.588	94.38
508.805	87.38
509.021	81.38
509.238	107.38
509.454	87.38
509.67	98.38
509.887	117.38
510.103	136.38
510.319	205.38
510.536	642.38
510.752	1941.38
510.968	565.38
511.184	130.38
511.401	87.38
511.617	94.38
511.833	92.38
512.049	114.38
512.265	94.38
512.481	97.38
512.698	88.38
512.914	86.38
513.13	95.38
513.346	89.38
513.562	105.38
513.778	101.38
513.994	80.38
514.21	88.38
514.426	110.38
514.642	120.38
514.858	117.38
515.074	149.38
515.29	389.38
515.506	1208.38
515.721	471.38
515.937	124.38
